FZ,C3,CZ,C4,PZ,PO7,OZ,PO8
-3.39601896895502,-23.86565932768088,-17.595731504870457,-1.5581115581150806,-7.344843963561751,-3.8211109180953633,-2.6317213161967037,0.4786520878620154
11.007187518437357,32.28013429088525,27.286668104504685,7.921566076429994,13.25007614016084,7.861536850905555,14.065581804608813,7.5949290713929525
21.956457267891818,74.55704337158525,60.436025677277385,14.460953874869396,28.83935598829058,17.679693553572967,27.50474614576436,13.026092369642004
27.324161265630458,94.65755783811156,74.89446137740646,16.31607843471916,36.3585690162324,24.06971201984426,35.481280432452216,15.720854782616701
26.946133936520898,92.70319676853939,70.82747555907996,13.504567779349937,35.67480329184391,26.06876301797609,37.436761825323885,15.568509448319398
22.336737944184904,76.10720349022033,54.452130142209946,7.539989295022873,29.229340068715235,23.577883266937018,34.403446684383105,13.276756568278163
15.79779574727863,55.26977897617734,34.506573236646794,0.6558700663916365,20.681844983654504,17.504915489550907,28.450915809507265,9.977481275378208
9.489174053404168,38.74394070322595,18.45765578562018,-5.00379359424874,13.402035914402688,9.689787862188277,21.974764023559185,6.8231811003519915
4.86525464215527,30.509697863266542,10.31332457579931,-7.943304982911652,9.533370998821114,2.5281927746389825,17.095550098639,4.74088467809398
2.5351714227747726,30.13711513485444,10.44278219199076,-7.587897408876704,9.775589099969796,-1.7145493945179107,15.233502756119684,4.337208845626205
2.3890083069721206,34.59304940122336,16.566284554605662,-4.310831594032027,13.565783517731989,-1.729998594124785,16.823022925971486,5.856155799245633
3.8410900261787795,40.02281544477217,24.989141089387747,0.7838090703721866,19.371088430022386,2.2409330185045424,21.208099113511977,9.129239684938815
6.125528833404633,42.940144904977736,31.824447539020742,6.291956240488958,25.127567184250225,8.445213317930005,26.846936590794055,13.545697868199294
8.58284777258612,41.21679142403297,34.28828555553448,10.995771296885858,28.943750350851822,14.375572617178486,31.85217474685584,18.108926082618392
10.828404124835854,34.97412934031908,31.771783968798417,14.181588195184311,29.87622152771614,17.871150056523867,34.651066312955344,21.6181443174583
12.727104714359179,26.6937088671061,26.009164359424613,15.680825622595401,28.297449391332023,17.943564585917812,34.4379393745457,22.97110777312397
14.236269019939503,19.98670338963795,20.033104985519515,15.72118198850307,25.55570895228178,14.933610489028084,31.26116157085121,21.542057357150505
15.278209158582447,17.569839485406902,16.486312313698434,14.753195834909453,23.14761422008941,10.081919448922413,25.85565194133488,17.518580343601425
15.747584493830582,19.75470969327305,16.298850825691236,13.328078058856843,21.942968152293236,4.895672189494293,19.405155362170078,12.004283283378165
15.613688009462336,24.269549447942918,18.338628087515765,11.99654457799895,21.844437555641836,0.6267470729571666,13.27571428232551,6.72798402654322
15.009503950335233,27.20310255864016,19.976701592939538,11.206219502707187,21.916367255059363,-2.0379806396182043,8.668459601501315,3.4086672028983336
14.25256551793098,24.51622876741576,18.26458059138887,11.234723884901543,20.866625242343236,-3.0588360036786026,6.258672703321887,3.0717577731289554
13.804008139785523,13.926056529618947,11.479568155495219,12.170563558015386,17.784319534043824,-2.855633484072946,6.042621377018662,5.668668356059321
14.156458550591486,-3.0615074736151446,0.5843508291500711,13.867274117537583,12.925170633987976,-1.8784534378742155,7.537563950812468,10.161751240177821
15.620240481168944,-20.03114876771007,-10.30732290413692,15.8142426695278,8.080227994527396,-0.1718063401104574,10.194109645671743,14.974716140485906
18.057931114839494,-27.01173820613647,-15.286993017388733,17.03658872669866,6.053158911001232,2.724291006601831,13.68499847669834,18.569163233044453
20.75028295555103,-14.73208982182875,-9.582034482180005,16.26004801522786,9.277153522289815,7.389491883591376,17.852603559389614,19.92595667158282
22.583966514901338,20.110666879233182,7.543294889347776,12.442183516945912,18.311228220459707,13.898061486440096,22.420193870639768,18.800636767140258
22.553466708418014,71.88383969772363,31.857392705571517,5.439699492739121,31.214482738884303,21.433459910402934,26.78684914510704,15.711670238753989
20.310793560178062,127.64120062312863,55.97651290438009,-3.63952908986326,44.29662327971718,28.475936020086603,30.140938411132527,11.69307409344115
16.41077529293901,172.7445850391609,72.89808758536726,-12.724039319159669,53.84365554473367,33.48049146777118,31.83786960627272,7.903536340024035
12.075298339338632,197.3240259429023,79.15671149107513,-19.624339250474595,57.79859772770853,35.61182481293902,31.756634968345995,5.226877958330058
8.606558739891753,199.9767002817505,75.87431007728286,-22.977048122927748,56.45857649676467,35.07709777808536,30.3628669132126,4.006569304391444
6.793699855445774,186.99712067452683,67.40543319085391,-22.759938649382462,51.92580803670919,32.89439608636946,28.437162338348454,4.012534838191954
6.637596199623462,168.24962455332863,58.73608923539571,-20.13400414730199,46.824389373712414,30.31771476613697,26.67905779553268,4.641870508832343
7.495117109156066,152.54352821714554,53.306821578615505,-16.786769362192594,43.132538465461884,28.318059028364466,25.46235490994157,5.2444111115523215
8.488036123831396,144.91808803519424,52.250910602935015,-14.19588794037966,41.68953181510302,27.377605489063754,24.852572883989264,5.406996413986355
8.914417234406368,146.276689029538,54.85275735954567,-13.155893958176671,42.33397099638435,27.55157728997791,24.76684269694582,5.071450107516295
8.485885116645099,154.2289944371588,59.37049672725604,-13.647274283358746,44.26092256352973,28.58206995860045,25.07812217585251,4.4707261152147995
7.370161607954753,164.04750800601562,63.63316909417849,-14.94383318968661,46.29856097083546,29.937827931335104,25.588162924128827,3.9594890237592186
6.093483505422535,169.71676728775114,65.46208382958302,-15.871975995522972,47.13474567461963,30.84942367823126,25.958666894266837,3.831715186850625
5.333113377038079,165.58566528907062,63.18499138563079,-15.221353670520832,45.64320377975927,30.470123059296107,25.724535662733636,4.183175970614859
5.615018136080766,148.48667395603096,56.183260343559766,-12.268003600856657,41.27478111580956,28.167423005675676,24.41754905870416,4.853556490111538
7.002159682089526,119.25850330180197,45.09491359854264,-7.210100809090397,34.28100523721495,23.80183603318872,21.73736348849819,5.485253665140228
8.947243590812764,82.5955810739484,31.447751223924037,-1.232061497769154,25.591919738972678,17.83444140978191,17.699403051330595,5.712792002917282
10.457459722567961,45.1504375892217,16.94367178178342,3.936860536448424,16.4151202936903,11.208239611149335,12.716151985366842,5.412307099039273
10.545501843980363,12.91653131404396,2.8685099113205754,6.7903375446388115,7.801933291936087,5.056533395847349,7.5639274805923895,4.846886496109364
8.739886960840144,-10.741323520012052,-10.054651352842138,6.724054482125788,0.399884493390443,0.3432416285365049,3.1806988732163504,4.5496940559420604
5.358705606676135,-25.610086826033715,-21.43667656944202,4.244919178768798,-5.559902658853639,-2.4511294109577433,0.3036242854914453,4.945050523837669
1.3802341916627692,-33.8926473101129,-30.97669700358648,0.6246764714439866,-10.155416082093732,-3.496024087737184,-0.9150455702864712,5.932747477678028
-2.005819279103516,-39.01142489519875,-38.49353708930972,-2.738197758269741,-13.68031139424342,-3.55111459068387,-1.07260426268076,6.768788433891612
-3.8866474682270167,-44.47820064959312,-44.111936753530344,-4.845409282334648,-16.54806354796481,-3.640750507322471,-1.2590213395387908,6.4285123700577484
-3.888007029500364,-52.655130328785454,-48.14189097297394,-5.288223277185653,-19.045793731487418,-4.51967866143212,-2.407218807168608,4.288561670689817
-2.1564684718957516,-63.20813610297804,-50.44732461440248,-4.187897497472746,-20.923429293287718,-6.161693849529751,-4.603812410611914,0.6661279981698711
0.7784316241073083,-72.02017327062022,-49.83673155624009,-2.116260733673246,-21.142078022725816,-7.632595080662751,-6.873394906012431,-3.2195903415629363
4.0987764181333874,-72.05991186720108,-44.36172100836641,-0.06909750125689483,-18.220584126782246,-7.577225473191242,-7.713305401167409,-5.910374467406137
6.769935582219425,-56.78110434840265,-32.74210162046739,0.6740319511680604,-11.208244626674032,-5.125764656161101,-6.1084104669695325,-6.574440724950048
7.744511398697068,-24.424293587121753,-15.949608587340093,-1.0239166243511972,-0.6655645403408553,-0.6206402861845566,-2.325510715522653,-5.485177944503037
6.357058874555472,19.803060395688558,2.4918447167872912,-5.5516861496504974,11.184068941493038,4.412483087538861,2.1215506487795905,-3.798912296767072
2.7257802738038808,65.64614389971659,18.072219219164165,-12.15555491581922,21.44163795990189,8.116928789924893,5.361412895255543,-2.810055425852208
-2.149951288815428,102.91308059034004,27.795562636624837,-19.122706464996167,28.086106749135844,9.436944214408324,6.313857280971657,-3.19305917330258
-6.764390637888015,126.42831794839704,31.807126843659695,-24.544390472023597,31.014432810621035,8.753358027724857,5.314695117562632,-4.695865371209272
-9.803934528457237,137.445886609224,32.84972474521869,-27.238198567285533,31.780596037280564,7.562137356151649,3.793583632534453,-6.413208855740769
-10.774050890690516,140.63683379278166,33.812528414794144,-27.262726020268694,32.156842300596054,7.37521056848671,3.21914518726355,-7.403727110230834
-10.169961554517572,139.04913135054238,35.13211780654063,-25.711538291486207,32.53553206903934,8.56839817533072,4.018994027340487,-7.250256449745082
-9.07765613024762,131.04235748445257,34.08411172162643,-23.946143733656577,31.398480979748037,9.987215781953237,5.213673772690122,-6.254864438964405
-8.446868884456576,111.72734167295359,26.710596120949482,-22.77433690334267,26.368653918700762,9.652329176142745,5.042384750855745,-5.202714086438553
-8.48067685388861,77.86340176483375,11.122572198697757,-22.062429297844734,16.182143929682333,6.1576581722914305,2.1954514312978017,-4.860858657241139
-8.509571802960547,32.28465082460655,-10.271132049956643,-20.941792019546355,2.150430747418021,-0.1704655270255406,-3.1594260278062642,-5.49458135993461
-7.422276627433385,-15.882299526457727,-31.43219144228968,-18.40286263670948,-12.053563536979254,-7.195941981232786,-9.270652723495989,-6.663115053885889
-4.39379371494058,-55.74337776423947,-46.01306195422666,-13.899936707817119,-22.29001153407464,-12.128535147295453,-13.744128753526713,-7.418145519366531
0.5327078911463452,-80.68523246551906,-51.05866689027986,-7.6616689652958865,-26.2851178416966,-13.199991945788469,-14.94724619573279,-6.816278332895284
6.378475065890825,-91.37665644526169,-48.39086045455157,-0.6123068310061507,-24.761952808820585,-10.718534284668284,-12.933804567329023,-4.467383004850433
11.727680982332194,-93.40059103010168,-42.61357726647965,5.9809438647193165,-20.551308369394732,-6.738387690849293,-9.251731349607537,-0.8022341481769543
15.470785352836334,-91.42472231367135,-37.246855684916646,10.919886697540402,-16.356971894009142,-3.5645028214540093,-5.793223665421411,3.095867195652998
17.31349448160308,-84.65242249712439,-31.973975554706215,13.381512648460589,-12.858796476463404,-2.1741147310670668,-3.5418407346862595,5.99166028749398
17.759141372365985,-67.3028843718302,-23.104052069884457,13.078234827906453,-8.533669350693103,-1.6835722172382879,-2.1043709420808674,7.0468781337054365
17.654159962340984,-33.80168507044097,-6.81286060694495,10.307696030966635,-1.2104931603154627,-0.17694903694256847,-0.2731464962180846,6.138738004197712
17.657839510032037,15.392809552298411,17.376834099461945,5.9057849143476,9.920208890502048,3.7947021842945072,2.9067415525489486,3.8268870801697195
17.973185258838637,71.83467151146604,45.45325188068321,1.0682520918830196,23.348084231638406,10.149721015051673,7.384817451179049,1.0396081182825865
18.426505227595264,122.51561091837081,70.82703349729599,-2.974676797120621,35.94304481140723,17.323702072640625,12.14420393203323,-1.3341775194648295
18.734379371024453,156.29763612493542,87.82990141596713,-5.350642018804551,44.697163820435954,23.25382665713652,15.880975255250577,-2.7599189359118586
18.726881859317988,169.10526860682754,94.43060186322177,-5.830094493129102,48.26392332148611,26.53097839697157,17.765267951980732,-3.1723118356536304
18.412361782498323,164.85847121441398,92.63725180225123,-4.8335916442758995,47.37402019862751,26.991593373837407,17.791900343201767,-2.8829538355022075
17.927982653291973,152.24263135726372,86.7957330472614,-3.133118881526653,44.1031515611667,25.5406011582818,16.618629983590303,-2.354578859669177
17.47197663306201,139.9665497017328,81.24189051137421,-1.4226788665021806,40.68936945735742,23.516649596076988,15.137787500811134,-1.9621580687192333
17.247798997671584,133.40649422651586,78.71022584969934,-0.031713817067476065,38.654044986981646,22.062166055714457,14.086738297318671,-1.8571038542914806
17.387311187075294,133.78558142783484,79.92605433251254,1.060674566568105,38.51102150346235,21.76238977921165,13.836018767946948,-1.985064354207568
17.852064660406818,139.16762995669623,83.97167613919731,1.9941050576929624,39.89752634585409,22.56467296859645,14.336738054867185,-2.210154384432816
18.388759885859976,146.03571889894113,88.93379756864938,2.809205569012633,41.882767790343884,23.90292600292633,15.189680060666367,-2.438610802936981
18.618817494998854,150.84048622989178,92.68059499078318,3.4090943832207548,43.36828682984035,24.983935605340605,15.835678421980962,-2.6596859238736914
18.245844302579144,151.39716287618896,93.73096618463957,3.685393202045111,43.551433034954805,25.176199117611546,15.833273640539431,-2.9020359089050887
17.266021646651378,147.82519455272552,91.95311476141292,3.6842853780631923,42.306323925627545,24.350473549297163,15.102072438881285,-3.164268705562556
16.05817867008146,142.49431629880888,88.70876351505007,3.70326754418073,40.272740178386734,22.987946519999046,13.99296122219414,-3.3774210157301843
15.293672790175396,138.85100874323123,86.32127304978178,4.257320383353163,38.586882382164106,21.98147675213761,13.143960515462384,-3.421385179301894
15.665362481884108,139.72426946059022,87.10812945597782,5.869860677072112,38.3913011456486,22.215884959905612,13.193306902904174,-3.1909742985936895
17.4799695787106,145.90286072165677,92.29308318774878,8.693185658568167,40.3037192149843,24.08647175429064,14.449697561474782,-2.6937945182813996
20.244527017069604,155.32202382272922,100.9977602540082,12.113207214689997,43.942145683482785,27.102884364652972,16.600609585715173,-2.136853178372306
22.495306589830715,162.8736092182278,109.61134422107362,14.646499549267343,47.62360255565352,29.735230718419942,18.570926865316427,-1.9290543946209024
22.128695508938172,161.13759976182604,112.14780282495954,14.384082888544727,48.51098263995732,29.696328852354807,18.702563033173593,-2.5429814028326994
17.269184532103704,142.5862705880724,102.13533312945874,9.905609106760416,43.48693067570427,24.763032747709563,15.357276577156687,-4.269410841721037
7.326594502675802,103.11621322525285,75.71767216902266,1.1933299574512028,30.637976938345123,13.923625064077253,7.777904331166646,-7.005930963590455
-6.361984136159693,45.3501086954747,34.46980077174287,-10.04661933417203,10.645723573273575,-1.7211970822315592,-3.2468422502057157,-10.240928541602429
-20.78324868992669,-20.578416614209015,-13.962551043251787,-20.94755578726789,-12.846508057737086,-18.92722234787503,-15.389636027346537,-13.275693530627057
-32.378810569461585,-80.03977031965036,-58.29739683785258,-28.67973339119554,-34.36398427209363,-33.35177938286263,-25.587374325377855,-15.543399475514999
-38.50239276315097,-119.74356349924314,-88.18793421049902,-31.624297962025103,-48.80235955060106,-41.23636399562849,-31.262413477865227,-16.787731499750933
-38.43575161449605,-133.4565546040481,-98.57422057325778,-29.888532387164,-53.56516440997049,-40.876541359321166,-31.309638707289498,-16.96392481597448
-33.467454854942616,-124.42363452664895,-91.46575565753312,-24.96691037425632,-49.48920970735865,-33.15305714153904,-26.358145741770905,-15.969188851707095
-26.1029139099379,-103.12267459774414,-74.30494739710403,-18.879226164177062,-40.12875461621748,-20.965746924420188,-18.28949233969928,-13.492952683164086
-18.929116860333473,-81.7839599321026,-56.07257308338705,-13.340090370436124,-29.933028081504535,-8.008189791858491,-9.414998492323399,-9.209047138268375
-13.715416516954445,-68.93590022106099,-43.426730088876624,-9.324700975929725,-22.388114494737156,2.46127821946362,-1.7806940597662797,-3.23524490943838
-11.048439059621538,-66.75725478364016,-38.714510871452546,-7.047629122365621,-18.98342653338273,8.4206801867588,3.1961076120791803,3.49037446907185
-10.472081582761149,-71.82547420342642,-40.25972215673771,-6.184252997127909,-19.208894191522145,9.385323029250161,4.84361609057397,9.273238315644786
-10.948173579888671,-77.94583026423511,-44.159727330289506,-6.190491308473462,-21.27863598972709,6.297237791804159,3.2433577946613346,12.244550474558254
-11.433248609708073,-79.41554557828988,-46.55148481529716,-6.62524564220521,-23.17178232767379,1.0441652810862536,-0.870270483090285,11.192607566527347
-11.349845635347522,-73.72710494454643,-45.529897090720205,-7.334820249334236,-23.65128070879216,-4.343385125032182,-6.387033470888133,6.202826557820671
-10.723343141062198,-63.03281612359848,-42.03101888651165,-8.34277600048954,-22.889969403965964,-8.55485159639001,-12.210967038239923,-1.2354268332173084
-9.887756828006083,-53.53383976662173,-39.13317475276203,-9.464396785788434,-22.312059968369436,-11.449901044420445,-17.530112896034098,-8.717559626849933
-8.953565403244182,-52.40706954083137,-39.89020413809933,-9.949653910921501,-23.572130654981244,-13.763380344269889,-21.78324934843314,-13.786168047400315
-7.460201442727393,-63.4520414701614,-44.88943817910535,-8.552486250868851,-27.217435505865524,-16.244981924548625,-24.42577251605607,-14.80022938093081
-4.547412563721969,-84.11345039755358,-51.261907688229186,-4.144780784601373,-31.977858161587328,-18.878056510851827,-24.823001753005894,-11.474741738764743
0.41988160322094975,-106.17164566979801,-54.071705133199,3.4751961557969007,-35.3024628339008,-20.78052837131967,-22.493058921358756,-4.905319719303497
7.229360512036078,-120.03113625411257,-49.30659187115577,13.17633868735268,-34.866646708954875,-20.84584866085744,-17.558721795775096,2.911106162981875
14.696631192238252,-119.98164798985896,-36.46233037341539,22.862778814725228,-30.03544947297255,-18.604193918460794,-11.005369582556614,9.860071554730142
21.176934761937254,-107.10092865218412,-18.97244816989645,30.449138323744698,-22.290638380455828,-14.647415392546579,-4.440557540368713,14.47385288287264
25.38854656029352,-88.09929511276151,-2.2486210799706776,34.839237981454104,-14.367904039638196,-10.33008291613009,0.5741313760680141,16.35694613284685
27.01020080525654,-71.11285947673241,9.297788805928644,36.30492749804724,-8.725653714950722,-7.0010844914151855,3.2134753156164746,16.113164495556457
26.695249218646307,-61.32369884026583,14.313222448872201,36.08726405202041,-6.356340806338439,-5.321483658360828,3.664557204681379,14.862956265440069
25.55991087284845,-59.069994467711474,14.496536407210437,35.55940520722186,-6.618180873377544,-5.093337492643888,2.8417167801883587,13.63804417437266
24.533541834574205,-61.09029851867773,12.895501682388671,35.51788137584401,-8.001515285958694,-5.606606542882296,1.778656535291493,12.969828711893683
23.97998978908229,-63.3923248092149,11.918528931596429,35.98463922869613,-9.153694980355326,-6.161056102366086,1.1177830149589303,12.836556440709662
23.74653735795218,-63.60596110950119,12.338202116651964,36.515435575937126,-9.488796641042804,-6.396587152644369,0.9730482390867097,12.911094741719111
23.505483749395513,-61.70583847806233,13.574055720175583,36.73019965280248,-9.176421207608383,-6.311240611286485,1.1320044946893413,12.902663512051836
23.125462318810367,-59.33773958445712,14.677291375385181,36.7353146826725,-8.74209204708673,-6.08415721134754,1.3619537449593473,12.783396777799222
22.8570530165478,-58.47494327950406,15.284014028575092,37.20687116510347,-8.60179301855071,-5.867907882040139,1.6116979056220058,12.793538556823293
23.22999613919195,-59.93481290232267,16.09434097193692,39.039954763319315,-8.723384441018892,-5.640673543822727,2.0374385426631054,13.241209278919998
24.674674113460437,-62.27427663990813,18.656675273533214,42.65042290634342,-8.537798746526741,-5.171421930941888,2.869693601371242,14.205176973509182
27.020013899608127,-61.871235399108556,24.36802941383544,47.260840530025526,-7.225511548858299,-4.15861210972035,4.169237621531157,15.306001985746306
29.16549899586277,-54.75153954660416,32.993160059645845,50.67441725680726,-4.357927722715645,-2.5318543401886364,5.582712381050078,15.715125696358307
29.24430307869065,-39.49158355722282,41.62117986655695,49.90901758865655,-0.5390715211028212,-0.7340256497511157,6.292966485394604,14.480394131614837
25.365676516337434,-19.24109178672769,45.15533606141317,42.57397078790961,2.506204747149412,0.29373246532873043,5.3218959490375655,11.05774821352935
16.6281126820625,-1.0247928495016456,38.62476375314416,28.30762945093405,2.680939073421186,-0.45638681258903874,2.1070800187062924,5.752198217136283
3.817987143846261,7.726492206078855,20.212267245919172,9.391954382958799,-1.244361726800822,-3.42614614716877,-3.0051998151431896,-0.25539530280843414
-10.689344785499792,3.3634101444237476,-6.9453450224028135,-9.951893669474666,-8.713636266582169,-8.090003654743803,-8.751558786999654,-5.407385239248666
-23.84672801294158,-11.80413227443718,-35.58004341596079,-25.309102106955013,-17.469812239138978,-13.098811341440838,-13.53091090382104,-8.560094964442518
-33.182736245093224,-30.752787006062167,-57.48437409592689,-33.93338036122016,-24.655807760258103,-16.90364792519173,-16.238830202496054,-9.594389807138162
-37.70349381443116,-45.50552720948935,-67.24712546560013,-35.736332290460254,-28.239770043716664,-18.456644465357154,-16.800220820527585,-9.443871216555182
-38.03212018283463,-50.90343438709623,-64.37514610806276,-32.97391512117707,-27.866282770426466,-17.556064096713698,-16.03682742746026,-9.500003476905583
-35.86158097417915,-46.23201990896724,-52.80515947240922,-28.96600265330252,-24.698042681330563,-14.707787354227795,-14.998734466704912,-10.764983566225416
-33.14562822046316,-34.450594966600065,-38.56065157523189,-26.619065566361886,-20.57084440570266,-10.758072024450167,-14.299004607009547,-13.28768637044784
-31.436603898760726,-20.453699263962523,-27.25423423707908,-27.407859788350386,-17.184880647402466,-6.661927661629843,-13.954959521945874,-16.20939907168056
-31.511083533349503,-9.731827141400828,-22.621763999500505,-31.049209944328407,-15.766124454143238,-3.4765963907506587,-13.758710643225786,-18.318871756602007
-33.21562507880137,-7.401581324978342,-26.038514143833353,-35.76993838620949,-17.01886086194877,-2.308122378595263,-13.709034265898046,-18.69816019814705
-35.49452895805974,-16.737342624712724,-36.35849487803842,-38.99618839370914,-20.952490707066016,-3.92560909979614,-14.02146014575494,-17.06442531927291
-36.69583392697683,-37.17874355633535,-49.91449904982281,-38.31427794404971,-26.54560309713089,-8.164551049801325,-14.713752037788046,-13.713285419100522
-35.2205972297052,-63.268178088323054,-61.24857289983426,-32.46819818595778,-31.707629717614388,-13.63678780424881,-15.241640177593021,-9.256604417304986
-30.31983763943219,-86.12763307253992,-64.99964186758669,-22.001849669049143,-33.96126255967182,-18.172455266902205,-14.640854564668183,-4.39433346615592
-22.600653132196104,-97.37989906879834,-58.347840290616666,-9.164610902716651,-31.660269687990468,-19.861828056928353,-12.148250875580741,0.19837066363164196
-13.870876627212862,-93.35927451779912,-42.578034244855274,2.9821750227366968,-24.98338828721476,-18.05237796311033,-7.8176985850237,3.940357973571232
-6.341912494574827,-76.9306076050739,-22.608911347373272,11.853828840111365,-15.976864117831413,-13.647923162063956,-2.6319238440734662,6.446100131786128
-1.629606204005342,-55.72045732001149,-4.600019928703844,16.35372592644699,-7.5443675141369155,-8.538780153125726,1.9900234831344386,7.63538201425075
-0.11952532692006744,-37.92042228462934,6.979343810608478,17.091165407826395,-2.0001073914318903,-4.565141362758607,4.942272612309126,7.7581118800930495
-1.009902018187263,-28.336988289572396,11.10597046158117,15.778103602921314,-0.0741953836219564,-2.6686901817704825,5.9381750559092294,7.2802718861590545
-2.9102522506181074,-26.963998658658948,9.917223074101239,14.251794574700222,-0.9032702226026164,-2.6802517784765385,5.493323970616716,6.681100318635501
-4.570680811613669,-30.39935712997982,6.902201869426841,13.701928923585411,-2.83879791770754,-3.7186772930796104,4.4950056289025015,6.278591321200351
-5.336336660857648,-34.52478998234383,4.946451925105366,14.423941343869833,-4.413432680100034,-4.809872406752217,3.7100679931157403,6.170415067069695
-5.19060752521925,-36.5189812350602,5.341245177806536,16.034550201182647,-4.881463335958069,-5.323802694709338,3.5190739215465414,6.286398390659476
-4.519408254052522,-35.443474940192615,7.894794452035443,17.877470753435706,-4.223955596213719,-5.091270900819715,3.918233575465746,6.484763311945883
-3.810002887922736,-31.895991608107494,11.574047266991135,19.390506292158108,-2.88259359017891,-4.305707784581934,4.6585788899493075,6.632648371881313
-3.417471805694777,-27.415893942908955,15.151477495242396,20.336762756171243,-1.4749740141955625,-3.3514067963063208,5.406247771145118,6.655622890732045
-3.4408083747586344,-23.776281301816685,17.728114674570453,20.864707569969717,-0.5388516223648352,-2.6126298264284165,5.89467291407897,6.56099797625761
-3.7255318109115936,-22.09632235111556,19.124511840638068,21.374756598523483,-0.29298396831738494,-2.2898806259955133,6.0505600139525635,6.4281814385634615
-3.994884717233758,-22.146375160640407,19.949765902501653,22.238308649428653,-0.5206607259763019,-2.3044768439374033,6.025734321429821,6.357857707160705
-4.046775525410205,-22.48116350562588,21.16432603939445,23.529677769752166,-0.7146973557936529,-2.374225345497516,6.083453783879588,6.401926311615089
-3.8883659711928025,-21.47457618225694,23.350050564220908,24.958254965113966,-0.4294216754866168,-2.222579200543258,6.40274707426693,6.523788609656524
-3.7113467897988515,-18.477330299525338,26.252733244406738,26.056075577363625,0.42443238285933915,-1.7619628216349534,6.950928083623361,6.621419503800319
-3.7352716714257914,-14.213983318173785,28.974162562783768,26.493522991072744,1.5565111251096209,-1.1218215764360522,7.516886461125705,6.595144446415676
-4.043860949243549,-10.301706237586421,30.618588130987995,26.328670213609236,2.499800824253239,-0.5430532162612064,7.855380920819971,6.411719164058902
-4.5184662231450945,-8.446413285211442,30.876158160922408,26.068196172671783,2.839681484052473,-0.2525383411527597,7.826030495190928,6.132220324449571
-4.881726405360077,-9.726749829083367,30.24117560132369,26.510951330739218,2.373849319898201,-0.3751087423390186,7.470429016750819,5.9013615674757816
-4.815090794978396,-13.894569911717998,29.917029280259346,28.383728212485686,1.2607258673371131,-0.8519864116005843,7.040818625804155,5.900495221682692
-4.1285112260884995,-18.731798619750744,31.47513525406829,31.83234690665879,0.1520863561653258,-1.3637304793879765,6.968215210490362,6.257146207639363
-2.9544760026351775,-20.149602584732413,36.149637724810475,35.975909677536784,0.11200288767663329,-1.3618445277797644,7.700777790690515,6.9240073053560796
-1.8651163925308907,-13.791060681275226,43.79686897839311,38.867026350515324,2.140194225196147,-0.3104019717246186,9.39973663961648,7.592783098662461
-1.7608168132851352,2.2307269733605275,52.10594675612826,38.105935963446804,6.46330980033205,1.9422911840855033,11.652837587795064,7.73273126530236
-3.4769063060122662,25.238532811289947,56.9528435241339,31.966407054225776,12.103951509725036,4.928060973801399,13.466100350130214,6.78544256136299
-7.278429127378501,48.42030312455139,54.21447563907957,20.453032732879205,17.16314797177614,7.689608756962829,13.659171740858572,4.434280832279812
-12.569415233180104,64.01816529495248,42.18256930903616,5.603193233378622,19.746428344779677,9.243378300724402,11.488952039520075,0.7944802310417701
-18.059318989720854,67.4199567222589,22.980890759344707,-9.263979165154476,18.95799188752412,9.07636565070063,7.114441847057301,-3.593298970717023
-22.336523271352764,59.50342850418406,1.8589998888717199,-20.992244779709836,15.314733106213282,7.3435515958450885,1.5818151490770094,-7.9620348550712094
-24.514753278009266,45.74214683711449,-15.354096852505727,-27.90541291553707,10.343294606240887,4.6511446292685745,-3.6850474623222547,-11.591227549245387
-24.561480605456403,32.82450211331187,-25.059172076480266,-30.25882102238155,5.695591830626372,1.6153393379197047,-7.571952261130883,-14.00389182240099
-23.13563428510167,25.190454629344767,-27.195917709053465,-29.668888084429522,2.4198404822847253,-1.447875696762558,-9.702625305210404,-15.006024031532439
-21.09745686344828,23.685378728200245,-24.387255201246305,-28.0166292751346,0.8205993288958211,-4.459184476122863,-10.364619065763405,-14.605911001569517
-19.055103917292804,26.662228927782667,-19.811173356614066,-26.563731621081,0.8042859295162051,-7.226048028314262,-10.069685791466442,-12.935845838262733
-17.229140559030043,31.992728828473,-15.462952645327965,-25.719581240467107,2.2249974136569697,-9.171241811893873,-9.14612741841133,-10.277564613285994
-15.630816189867831,38.21183862379598,-11.857779094156037,-25.362710958742696,4.87611941620073,-9.460314825641941,-7.674231682195631,-7.168711889673842
-14.315951566299937,44.36499618238988,-8.880388668167576,-25.294704359812112,8.244259347194971,-7.4994274023624845,-5.731548227399822,-4.441331111606575
-13.479840314152963,49.4458754588263,-6.681397606265072,-25.470924755423493,11.425616545855146,-3.442899785329921,-3.6449367009993656,-3.038000208486737
-13.34789155889511,52.32992010041351,-5.8358387842483825,-25.936783019594678,13.418950353134134,1.6697805280176512,-1.9827387771604896,-3.599799712276533
-13.985326041969916,52.23128408009744,-6.831818463473476,-26.623052661873768,13.617707393119964,6.26333868762007,-1.2757612655518997,-6.026823078839081
-15.170877924603383,49.20687367234098,-9.42645168952995,-27.206126604671283,12.165530980941329,8.888565134024809,-1.6726676481852794,-9.32117154716274
-16.410638256334686,44.4870314822208,-12.292866887805094,-27.177445196506348,9.992801439199807,8.881078532087558,-2.773263249476861,-11.928865396926193
-17.115777150758216,40.63105572190523,-13.175576465869087,-26.15378526378791,8.531198254722023,6.6951976624079155,-3.7852338752211687,-12.517842422104042
-16.930048020118686,41.13019638558265,-9.750813194382689,-24.30099972939939,9.12734025226855,3.688036283817641,-3.993567860471181,-10.812982098749558
-16.098377778361133,48.80080372274623,-1.2069989200508269,-22.586715283185978,12.213947927895807,1.3659193278463233,-3.345915603372666,-7.972338923384694
-15.640320994175273,63.12073347189685,10.09907854534762,-22.570008740447644,16.54650750528784,0.44540017356682554,-2.803379475491796,-6.17827824833
-17.08181819909868,78.21480138054514,18.230924133038098,-25.680150320527574,19.097994510645798,0.30370235100794263,-4.1249117963270905,-7.568950867020176
-21.71136478066038,83.78906657668318,15.592962229169935,-32.31161366068471,16.088603100464532,-0.7455411148951306,-9.031211558601555,-13.06719698356204
-29.66642848042549,69.77174257434277,-3.1466156976457293,-41.279585419932864,4.960199743724523,-4.408305910612066,-18.10782355790599,-21.766341259014357
-39.37686349948292,32.61384297299149,-37.13389685557624,-50.04140100659582,-13.689977327289242,-11.185454381544623,-30.070285498155013,-31.221748441488604
-47.79984233622833,-20.607612473934235,-77.95647520865215,-55.66640911609759,-35.46276441336035,-19.737014190543036,-41.90566610199386,-38.4866628098814
-51.48626012625232,-73.38040174185849,-112.18765377196047,-56.09901895447983,-53.46878411282064,-27.28820455635999,-49.95260566789456,-41.34824903395573
-48.03642686981966,-106.37675490158736,-126.98760284459343,-51.07152110610558,-61.169238355720964,-30.904176083532015,-51.44267614929327,-39.161727329683785
-37.22440329428338,-106.34529962764803,-116.01877357655857,-42.19319038962528,-55.366759921024745,-28.91915300338789,-45.71757562476432,-32.92570207576497
-21.188605622898066,-72.54376237401628,-82.55799616138547,-32.1766488896643,-37.760965934792566,-21.69350242249952,-34.45935134628141,-24.629681975848186
-3.5644914516895723,-17.140757285850963,-38.08680620017096,-23.617986375825446,-14.187285892924553,-11.273040090621844,-20.79071293696269,-16.248298043608415
11.994098275044763,40.69397568936703,2.9508625027922957,-17.968055779610847,8.095469769600422,-0.19881442309900485,-7.743755353614936,-8.909982300419257
23.139465247433918,83.77924568695741,29.48514804363086,-15.198224821385942,23.62608368851294,9.76213300947272,3.0243664849557375,-2.6621021552263646
29.3684117122379,104.11131009010461,38.00360849100776,-14.251794998214054,30.76570615725025,18.166494907719276,11.531287768422617,3.0741144740939337
31.64103592876074,104.60028208473825,32.66893467523145,-13.919625233192379,31.558404291393234,25.43050069025179,18.666350706006092,8.666717704525437
31.477833615934568,95.0886193409107,21.83360996244501,-13.564736008161342,29.7658921664863,31.778892345555743,24.900073829673882,13.61451075024594
30.145213366081723,85.75154329163847,13.334365599822188,-13.287508990979227,28.45639855408395,36.469601348753415,29.472531257505434,16.550987769137464
28.326806011137982,82.05825464419281,11.209313861270251,-13.543253113398714,28.60786791943164,37.955264049786805,30.69953850038083,15.988202963913858
26.2603966525793,83.70462843288124,15.106079057757107,-14.579743938288726,29.307754334298583,34.923944838015814,27.218688176660166,11.371547790436582
24.041710742787636,86.99167693240156,21.868660155055206,-16.11134904841449,29.030614530595567,27.47859634514613,19.289373455959847,3.7549128420187
21.81780777505314,88.3469943157136,27.887399563580296,-17.416466112496593,26.96605669129928,17.597638481659704,9.200127823219546,-4.40267372710353
19.791143459396544,86.87798498536863,30.992161661563816,-17.757945911729397,23.637633402767502,8.51600645945466,0.445608555067767,-10.281825911231254
18.110505022587326,84.96671733149583,31.25307135458817,-16.861263436865737,20.636687138442728,3.353101650005781,-3.8681147048364344,-12.025835943016787
16.75374790687878,86.76612705020453,30.4617898850861,-15.166745312260515,19.707212337141645,3.7153306841212195,-2.495622261464604,-9.599034898979179
15.4795002187884,95.05530731716667,30.460431282917053,-13.66310404779936,21.600238985728208,8.95136147548828,3.365458183091246,-4.701374152069749
13.903855945805127,107.84761299969371,31.151975543075885,-13.30896987494272,25.239447652192517,16.384087935863406,10.640305097371778,0.20227776168230374
11.712792648785165,117.05546748264715,29.580171717809915,-14.325734253007676,27.763403898247272,22.410417582503136,15.782016407812714,3.1807729437634293
8.918803335633273,111.0637710349315,21.107227040270327,-15.830355405092424,25.685747257345565,24.000463976027532,16.33170973510373,3.7327052121344346
5.982265254747698,80.70072207641525,2.310330584650721,-16.153873168695537,16.73082155919406,19.945471564479426,11.903619661697883,2.8111127618361063
3.660673663085329,25.305162450509386,-26.228824023928645,-13.751516065360013,1.3121270747516534,11.292778298624855,4.168095097779827,2.0492531090200705
2.629234402510872,-45.19665223197136,-59.266487495924764,-8.158552220953707,-17.326966707586074,0.7744136062977521,-4.085245171716663,2.727282425554508
3.0964013630844187,-114.05962178500394,-89.0462322338582,-0.3602780347678087,-34.51834553220792,-8.474300273115894,-10.276977521229696,5.108218048680232
4.665838646052792,-165.4071558031378,-109.01745465279775,7.681021627982968,-46.34909313128408,-14.259729879795326,-13.087980159484614,8.459618250031516
6.543255392582448,-191.32414733530499,-116.82780398192345,14.041286189094794,-51.35174373140982,-16.083300413303142,-12.766892658921837,11.622253854940931
7.959396457184616,-194.29999871157636,-114.83785300687998,17.75277880911219,-50.77946892822032,-14.996613318668363,-10.658858611251437,13.696641573315397
8.538226993603338,-184.09317613136452,-108.11582897912037,19.089013443558745,-47.47199123920418,-12.763238277867272,-8.328830518145526,14.435925869686539
8.387778299735219,-171.5992475640167,-101.46825507948347,19.13062824602432,-44.176623760657506,-10.891674389772122,-6.814875096650629,14.189910984959969
7.898465426018227,-163.71396665663167,-97.40300072296485,18.992602356761765,-42.37414667151796,-10.078792823908893,-6.371569856266254,13.54352998404377
7.4353612544491305,-161.75456497171686,-95.92033973266567,19.24786316048531,-42.11920197601843,-10.24028277288143,-6.6917086165885475,12.942962953961187
7.1452595157656535,-163.2552514632888,-95.6774923481463,19.852490179704724,-42.661955923158565,-10.910183934097358,-7.312362015575242,12.536732707823653
6.963394357076556,-165.1225212589149,-95.43946214455435,20.492031719850644,-43.25377602284339,-11.654803447092132,-7.904478269723437,12.265938412560617
6.748254907249922,-166.12081356052732,-94.98570051635645,21.03010463212084,-43.66911368723166,-12.283528177891025,-8.340335273718967,12.073701933517732
6.427134332482736,-167.63263385686994,-95.17640747883218,21.756892449879047,-44.27605206148854,-12.8387395263084,-8.610908447039163,12.061469713940165
6.082676380529242,-172.49908214593722,-97.20992858678925,23.291949246562307,-45.67751744764287,-13.440449471271675,-8.70519587100947,12.480403955846109
5.951292687554425,-182.38780678023616,-101.34839419742671,26.15849207164018,-48.06812271777913,-14.075400950467982,-8.52683147672933,13.544769584484325
6.3082972462096905,-194.97463366762412,-105.79270222897836,30.20012944959271,-50.64459735548781,-14.45070534414705,-7.904123244923339,15.154141148023491
7.2498315624879535,-202.94882686441642,-106.66559707246225,34.16784345546835,-51.550547920548595,-14.053209901060416,-6.729113954983826,16.695251200192438
8.482732712400146,-196.37531681320377,-99.62811251863117,35.85692069058939,-48.63431304217004,-12.453496064586638,-5.16803176997154,17.113726134873872
9.308027562184359,-167.8642189425299,-82.49017662188723,32.95480831927314,-40.722706183895305,-9.673026331572329,-3.7597010580621935,15.334752147241502
8.904360918999169,-117.61499974105514,-57.15437069644209,24.290169778134306,-28.59314622040725,-6.295119079665266,-3.2198373546352905,10.879576163026146
6.794570361353829,-54.817579422186995,-29.362300084535157,10.762010219700244,-14.880361844574434,-3.141502693118887,-3.9825567400342066,4.3138106100817675
3.190353385953298,6.024680110811531,-6.103931296677739,-4.739860727918129,-2.8469831866848265,-0.6987337987559847,-5.79076232139798,-2.8328742298396308
-1.0578583319017494,51.8639409488573,7.785475235145434,-18.54284637267385,5.223284849140118,1.2434681426356677,-7.718700816077186,-8.745735098640028
-4.914119142484011,76.75932728028114,11.666106823640416,-27.889687516876638,8.94528926560532,3.371016549325363,-8.736940804987553,-12.2520903952439
-7.71193437805608,82.94623413681282,8.53133340419287,-32.09804101842707,9.495433467040884,6.120499371325417,-8.48126876598576,-13.405651982576911
-9.403928536988346,77.15575209624473,2.4879428350884285,-32.46592996646601,8.396809747143744,9.002308779600664,-7.631320698111367,-13.308177639505287
-10.314225907140393,65.39401429794442,-3.6924964715787376,-31.045904649220134,6.4557204467062075,10.59870175910254,-7.511405906825951,-13.26212204392795
-10.600707532549867,50.14969722538786,-9.198125418581618,-29.17625695739707,3.6708307479993856,9.396924891646801,-9.103365009676963,-13.835872700661747
-9.895187195286661,31.554065164594675,-13.929996560692302,-26.776423097311373,0.03295805843863446,4.932846389859308,-12.169374392368082,-14.49594936717926
-7.466359681130476,10.581171631572618,-16.940545727957005,-22.80201381041702,-3.657682929145431,-1.6074922435467156,-15.174501906399025,-14.045238118044782
-2.8207707505300523,-9.053495613947145,-16.19520691645662,-16.399546036797535,-5.800707473784194,-7.836097060231452,-16.13357276148452,-11.525278993558889
3.7187070641645867,-22.07324216426426,-9.910992316103032,-7.8542355564848565,-4.8972362290250055,-11.410089727260566,-13.824607297755465,-6.939439687065505
10.921370493852326,-24.835790448630835,1.7484012080382392,1.3282447648238775,-0.6225065544490433,-11.263724967931315,-8.553409871631285,-1.3307243954384704
17.148446460450998,-17.8688199936505,16.132409857130277,9.187293115311164,5.786906072847342,-8.059890468497128,-1.9940649709834608,3.777344010066285
21.124669771505147,-5.759050531855711,29.250608302034156,14.330650994164525,12.13763837224588,-3.660498758743048,3.733284989005077,7.164803134145083
22.493121920143867,5.462891987317946,37.81879877202599,16.54059124991881,16.447403191195857,-0.044028551920534335,7.127393441678424,8.437836243336275
21.845000642792705,11.499091515815607,40.79549958055722,16.668237675339167,17.886940575064894,1.6329433017787816,7.890497644024629,8.046631909460025
20.28067394474145,11.419241526117831,39.477987304946474,16.023196001554236,16.943938840391958,1.3451058966558793,6.795697895540705,6.89707194950918
18.831390040416633,7.0771283164428995,36.339644424568384,15.716890963235043,14.858314821722077,-0.13020203484648196,5.066472939912037,5.856657549919757
18.07731450316461,1.3029034551542342,33.60051641923478,16.303304720806878,12.845052027745593,-1.8151176052528681,3.724511104878712,5.425092312628908
18.08750899628807,-3.634235906015435,32.427079442705285,17.770535419629528,11.60959720221673,-3.0057166650527383,3.246041385738035,5.665443139093331
18.587343255519198,-6.60640442749759,32.926012904967465,19.741184051749322,11.287059041185046,-3.447460818843865,3.5757755064713326,6.331577097721994
19.187976195337278,-7.553557405999198,34.52763985078135,21.730402898426465,11.616770841667938,-3.274678944580477,4.341709971673726,7.0711400035850644
19.573688327856985,-7.2351007042955136,36.38359164987659,23.37658966221489,12.151187957192237,-2.842599327063427,5.1022334171446335,7.607212514826094
19.613740054086726,-6.853913019606224,37.71988421838679,24.583837980289356,12.453619889019032,-2.5293745361092537,5.54211277248738,7.84146719206867
19.382538835516396,-7.4416181596197735,38.17088017957211,25.51743024736346,12.29000362399269,-2.5586593094358427,5.581867817531467,7.853852970744247
19.080014459187737,-9.266382863798045,37.94067282542151,26.45428049004884,11.73229255729956,-2.9161107915751296,5.367165440997562,7.814238576521385
18.892751342537032,-11.77263756165659,37.60325424226766,27.592713793802105,11.06936044037146,-3.412932677917964,5.139846500673855,7.86686777528165
18.88725068549538,-14.148765450502834,37.6479180613316,28.956680190756053,10.57232930510208,-3.847460996054826,5.072913708289424,8.060690264511289
19.004773186393795,-15.969701551312177,38.15854404670667,30.436543198869657,10.315587889420108,-4.13184303810047,5.187441234602088,8.355965353514323
19.13780267781826,-17.31862981941827,38.88501280146057,31.889477228973824,10.19776177310591,-4.294844998934105,5.3954377400377656,8.676457345076729
19.206055090123822,-18.43847493935033,39.5468710153796,33.20720342384914,10.089806546031284,-4.402446264147444,5.598390437282409,8.956090229116633
19.180289949342054,-19.470541278954123,40.01492766847477,34.34208824689234,9.925912799512478,-4.503005365753654,5.743013915858557,9.159915861648713
19.07499958031,-20.571074498744114,40.262473474324935,35.33648283023294,9.674577725395059,-4.635936012974406,5.8146383520539935,9.29334231633212
18.949319705631694,-22.072820232619257,40.29916248394455,36.35174586293235,9.301555510701908,-4.845372061481129,5.823907486166783,9.408500587008765
18.90575541177038,-24.265561811514694,40.25654044789556,37.62542221949155,8.823785383675327,-5.1454478099111896,5.820416924805547,9.590404828197691
19.04342517226475,-26.94530723930494,40.47351140454386,39.31961891176137,8.382342879523335,-5.4751564432689435,5.893950037225622,9.907370128540814
19.368415544994594,-29.32451985857544,41.32167839168145,41.34695583583446,8.186612237858629,-5.721197169690513,6.116482627733831,10.349040345398231
19.73688288235385,-30.563375836569556,42.81720173633084,43.328878372280066,8.326425239037022,-5.81154777808038,6.457554461408863,10.804639350715679
19.90683180935544,-30.471846195311322,44.40582749760038,44.762352140089114,8.632960210755954,-5.78866015593335,6.765551611413801,11.11233379244271
19.687024628923936,-29.74180232080629,45.218363803254746,45.31870306620031,8.74787870090115,-5.785824951078811,6.858284169100005,11.156337166148408
19.087289140757704,-29.589739860620497,44.65126873818804,45.112896312631726,8.353846652911546,-5.935259198005345,6.658677612512256,10.955209199347989
18.374400867123875,-31.197760457827837,42.84174583920467,44.80158535125654,7.380945528512176,-6.295708253432119,6.270395103367916,10.694438483544815
17.999006728382184,-35.23370887458211,40.75213400149689,45.42287964099698,6.07495172255353,-6.834734612257274,5.949731336894693,10.681564007680793
18.407393172002937,-41.36083787281584,39.87743186429125,47.943109845061834,4.951634251864604,-7.42720386861452,6.004334963009174,11.217832482271268
19.773882874582707,-47.74840450656339,41.66864951823488,52.588860713414185,4.665860965703909,-7.849227855358438,6.655286412772532,12.403896576202376
21.737562874965242,-51.13064698696588,46.7012543870961,58.24921293077096,5.739596475713746,-7.823245044514949,7.876161539018411,13.952737732057173
23.306104038820585,-48.044509539944656,53.78317699483318,62.39119094664685,8.14278813030088,-7.167608939277719,9.258259547310898,15.140159119841208
23.098143767117218,-36.97933224503495,59.59821756579847,61.80540969789984,10.954531897483728,-5.981296526618901,10.02669635766245,15.003719735445854
19.933502738363803,-20.029525977642706,59.57025022332466,54.030822089859655,12.47855035356998,-4.689065138865723,9.316386402886728,12.767798928147151
13.50724065558988,-2.558813722998032,49.95873704421312,38.769384883568684,10.96415386690478,-3.8416678077763957,6.639946709529507,8.297748276501325
4.7207964513392415,9.269266973455048,30.11178579537626,18.423913794243628,5.585976177336823,-3.7802352422448755,2.265250220797596,2.309140958058001
-4.618966670691192,11.540802268528342,3.295867780888479,-2.6958838964285343,-2.9927316634483017,-4.428889495503413,-2.8093178273408324,-3.835017373167485
-12.624929288507191,4.117077016618138,-24.744017381849417,-20.157153759652005,-12.946199884433868,-5.406822342812723,-7.350497598008942,-8.666913673876223
-18.19007395941725,-10.3020754229271,-48.740468257037,-31.192138826679823,-22.328324661671186,-6.386728106877005,-10.566093607294338,-11.212509812505317
-21.334567043693482,-28.49146419870219,-66.36354859320501,-35.50611033835686,-30.059768016967517,-7.384425365374649,-12.481918801646868,-11.329299101006061
-22.837534746322422,-48.11453564082559,-78.35959521310313,-34.79318210147566,-36.063198178171106,-8.67092219437384,-13.71016379846244,-9.637730059180722
-23.46577724280598,-66.83203799036718,-86.25249737410095,-31.485256602826883,-40.41791144208365,-10.303529029112957,-14.750669894563398,-7.1511487292621325
-23.39338810684957,-80.1151051556172,-89.502440211722,-27.62154287258951,-42.288451197744045,-11.656376314768027,-15.366563583119095,-4.8566591637111145
-22.22334367521796,-80.53479203774098,-84.63680356627594,-24.402058064115344,-39.70218168174698,-11.435234121887158,-14.569976955590844,-3.4516063086537363
-19.528288272419033,-60.45539709595317,-67.39356582401872,-22.353162759944734,-30.624308471436,-8.326442076268178,-11.294422474155127,-3.2709447202064936
-15.434536317317349,-17.03963082510966,-36.4462009900392,-21.650243927640023,-14.667429341290651,-1.9010399076798525,-5.2775844491961985,-4.314498117212434
-10.782221438873108,44.04324820335921,4.13991020440687,-22.242578909212355,5.870827203088267,6.872145140481554,2.5052651599524216,-6.2921502820752115
-6.752901241899825,109.44570029346478,45.75099786536663,-23.780545793952033,26.55364699450435,15.918486266288982,10.190457810874594,-8.689500070016141
-4.2513398248036545,163.6633222216846,79.02862211619251,-25.581897519614643,42.72758618305121,23.01954614394121,15.935413050677763,-10.896821738602801
-3.47302176860682,196.06766280840748,98.22863274468581,-26.821029270963894,51.648924466568936,26.859604078484043,18.802227781413144,-12.399016572463125
-3.9179073875878014,205.2035001823217,103.44392850334634,-26.88985277106889,53.52214940281948,27.5304086393842,19.08544494813142,-12.952344485419035
-4.783083850615446,197.9902619036951,99.55423284895436,-25.69225048717471,50.918772765100734,26.243040142198687,17.94976505935331,-12.651844432429929
-5.430238885281013,184.83004611500516,92.93036906109928,-23.65822541616791,47.09901143079374,24.510312367884115,16.68390333056053,-11.847081277890501
-5.634345938594994,174.02140115660654,88.14784635670992,-21.471475606128152,44.359645234822246,23.35440490640992,16.062166691489193,-10.956201626257425
-5.527993163047971,168.7270429382368,86.53656640329127,-19.70418405066545,43.317140411664894,22.981835974106176,16.143734848038953,-10.287918290148973
-5.365267254370296,167.51610852850516,86.89469029600555,-18.573093193679785,43.28468025082119,22.99229338665024,16.506781915763547,-9.958817688382357
-5.28966078390044,167.17453564319814,87.38354805041345,-17.893209209966,43.243561317617505,22.86757280734577,16.679396286815777,-9.912552097868673
-5.222278916365332,165.6500885313814,87.27610421270782,-17.183275138457695,42.742057620672774,22.415857204590104,16.507195081488934,-9.986062907912146
-4.905203905328273,163.60944812605098,87.6542243751313,-15.874958056085887,42.27564177616997,21.958500132433365,16.296010805514562,-9.976094701554386
-4.090135041086537,164.03753053200833,90.73799823628138,-13.612448018128454,42.99298088741794,22.176793337056992,16.661638750177026,-9.705203180056204
-2.806101568733874,170.00611404019085,98.0655133415766,-10.570400364393546,45.816532479957544,23.64405100414473,18.107867594346956,-9.100891660613671
-1.5494866684067892,181.48988879690646,108.3652524549028,-7.596692886877284,50.35842572192267,26.223707914059975,20.50190331179278,-8.265678824224565
-1.204713257580946,193.0527640599009,116.52044909426778,-5.982027305931427,54.30693548652733,28.694237492886202,22.77277444357616,-7.482146769487625
-2.6326148817998147,194.51284707731142,114.86928783172289,-6.868098638240609,53.935966270660266,28.97660361558578,23.14546067779425,-7.118413384295348
-6.115687920865142,175.31664685140274,96.81388914362621,-10.590766804326515,45.807781842225324,25.038320879692655,19.939701927284705,-7.462860138088561
-11.024799007696718,130.71778680961546,60.95112573474468,-16.36382688541808,28.860697624583974,16.062062210671755,12.556894855836589,-8.563458601642607
-15.992024991180598,65.94846307935704,13.077216006139261,-22.532374301077827,5.5773789949974235,3.167549351438612,2.0618661598526433,-10.144493840082228
-19.561350940712526,-4.7610121756908015,-35.60979112918262,-27.284904629069775,-18.6815814115556,-10.848729736177713,-9.061688781828746,-11.642038213650123
-20.95725502569179,-64.33501748003852,-73.44343101198702,-29.440979078135683,-37.986446424277204,-22.70702755437177,-17.928795027133063,-12.36753021961938
-20.500288124469684,-100.75977881315914,-93.59286941797916,-28.8969097951293,-48.52176649437173,-30.11772953253656,-22.519257985651787,-11.773427023505059
-19.40132773247324,-112.08554057939124,-96.66701011348488,-26.53255603821441,-50.10772184340202,-32.686243435740316,-22.510780698545624,-9.741519613957527
-19.056821573115585,-105.78735654397757,-89.31631675586482,-23.704848215075273,-45.77355751213967,-31.77170033258862,-19.262539349772883,-6.757772374946028
-20.274073560086478,-93.46817545766525,-80.09117170417635,-21.645450178755258,-39.833053335962106,-29.50067264802566,-15.035069659115806,-3.827815010513578
-22.86143746297925,-84.647249033877,-75.28412047370789,-21.02759593497864,-35.7335276025509,-27.621342983133143,-11.921991558661963,-2.0762631591534566
-25.74836624194222,-83.22616799953593,-76.92021958124806,-21.788806061604518,-34.82158938749128,-26.836912543376823,-11.014726460648246,-2.158295637656642
-27.49285083841426,-87.70118494896445,-83.23702099258992,-23.191265994636474,-36.358418619082364,-26.806162395035976,-12.091127878053918,-3.7937025297463802
-26.900375008523525,-93.70192671642808,-90.55170758472616,-24.10620552306712,-38.37795779540489,-26.581278392064753,-13.853467652961589,-5.752737615559974
-23.5206426017485,-96.82271850921416,-95.24325722020555,-23.486014618738036,-38.791096731724096,-25.159691701848352,-14.580113943456007,-6.3983814292987935
-17.872350724093522,-94.62892263049334,-95.19515145589071,-20.862474089828424,-36.33448653013497,-21.95830513148469,-12.954235485287734,-4.535471158313449
-11.307425136524815,-87.58385675323896,-90.49108119892914,-16.607103414418614,-31.126408565769122,-17.110050777229933,-8.736663491649535,-0.08739763221085972
-5.5233552091575495,-78.74280996525674,-83.2013746463158,-11.780207652519158,-24.626112843562307,-11.470472823793994,-2.9427403713376905,5.800141488942985
-1.9009878803006204,-72.12748388063088,-76.25013222090733,-7.650799502009302,-18.940089389813032,-6.272193576228174,2.6131941883979906,11.289408334906451
-0.9791280328144504,-70.41913400025716,-71.87576755856715,-5.1685286268855,-15.781612205839167,-2.5668542232350133,6.1856113271431825,14.714354652459718
-2.327403861001424,-73.3892628248698,-70.59716833212214,-4.647013785654335,-15.673775121749548,-0.7763906961110422,6.9050008969602885,15.32338285567315
-4.84930849804109,-78.1877569032437,-71.2906660061544,-5.743526114546444,-17.84774498310585,-0.6165368927123223,5.106169688119548,13.554791354723218
-7.31986098518129,-81.23734574835342,-72.16645970430615,-7.677552260632436,-20.80891204105731,-1.3878683005844272,2.057546351407169,10.75297368941312
-8.89882619228104,-80.36818288161457,-71.9050798759358,-9.5894427813928,-23.163387216381313,-2.409731692506389,-0.7269632950088163,8.484384517030728
-9.436789634881583,-75.98390160158438,-70.37441564185866,-10.917272375459119,-24.28605983423431,-3.3630184864300463,-2.260118560441936,7.775923280487452
-9.478354079186294,-70.97110932309755,-68.76144361809389,-11.61667850048684,-24.600278125176978,-4.418021401239891,-2.581453930332629,8.638887209500586
-9.92966724426289,-69.5620867416187,-69.06714089807349,-12.066117907267861,-25.350877524874623,-6.096949425981676,-2.700410437797919,10.124326388319636
-11.478642920212431,-75.25181684520909,-72.87375920294916,-12.689493116627995,-27.82388292779497,-8.86708949956031,-3.9179217095916985,10.886138767912751
-14.046721883276298,-88.09264561883244,-79.66201195072541,-13.576553934668818,-32.23569227276505,-12.596457166098386,-6.835621545561345,9.932732319767434
-16.6429420019856,-102.67954185755775,-85.70063050647511,-14.423854794431522,-36.93248206210245,-16.20179610785342,-10.669790429444694,7.13358314664681
-17.806692551962314,-108.80236901253197,-84.77157462583884,-14.852800935076008,-38.64775527046157,-17.851077562625882,-13.41244548148152,3.2168232062588404
-16.42954412753139,-95.64750758368362,-71.01746055226515,-14.81583151570893,-34.00861419694156,-15.783495074220795,-12.861715383480844,-0.6762057707289519
-12.44555999436932,-57.83132837306489,-42.51826306410949,-14.715434043954627,-21.54686929408024,-9.33921054669112,-7.924381748391297,-3.5683241383318887
-6.937608820038965,0.42218076938783355,-3.2683096823294107,-15.117272736385425,-2.931407087351312,0.4588628496757099,0.6389452467640412,-5.030373932887219
-1.5920003658016468,66.01829926519204,37.99829887790948,-16.290616532404876,17.4800877558321,11.207434685827222,10.50723194929711,-5.221152574612017
2.1458853572040804,122.66800592781313,71.66843088518337,-17.946407051837642,34.60008857388695,20.188174425854545,18.940635133563116,-4.650959996871749
3.702279352729139,158.30313902897964,91.56661044450615,-19.37549502304901,44.93353641963002,25.583922021621657,24.064793987692124,-3.8641311158960097
3.4650934726653366,169.94990958706643,97.25295349175009,-19.877494137365336,47.92463189265447,27.153631555458407,25.567098850698688,-3.2206295580060726
2.3793188687693916,163.5530639101975,93.22174917083515,-19.162352169626846,45.681459248023685,26.047625698866177,24.511769755336562,-2.841747165259902
1.3797534077067446,149.53087652304558,85.90149742952345,-17.45365769283324,41.47934805297752,23.99518976122082,22.542606046299458,-2.6722427891403964
1.0070803067365406,137.26910791170752,80.50452883931686,-15.272874722008952,38.094731893368504,22.42895988977166,21.0371686019653,-2.5768240572132792
1.3386804093490627,131.70860129792416,79.38770908462655,-13.116843205170298,36.87356390043373,22.01626030940526,20.65132342513848,-2.422570297822832
2.137807532688636,133.07741903354562,82.22352483995732,-11.261883789115817,37.74679141509494,22.690924509434335,21.332208013225433,-2.1358048661395337
3.056557224791025,138.66719573389548,87.17538637550832,-9.757213579152408,39.80690550434733,23.966341798722635,22.602918353294672,-1.7260136668088657
3.7996499027439468,144.96200289157142,92.1396571118268,-8.509819111501226,41.95596071359525,25.27075636442882,23.890814556674695,-1.2652887659040215
4.229327949612704,149.20138958981536,95.62013391351952,-7.359731660384567,43.380276283472334,26.186929064030835,24.78116780032346,-0.832570701567948
4.39638867593512,150.2579725673507,97.17810536618704,-6.138812833144688,43.80797321666889,26.582414354398292,25.154837468636927,-0.4630623308048811
4.4765511965711795,148.80459913765796,97.41368869236261,-4.742503151162085,43.520024823638565,26.614288841781757,25.179348089312423,-0.1412067278815344
4.640761177341317,146.65051045438526,97.45448491132179,-3.1866114584072105,43.09597688229804,26.5930970437219,25.156814797080347,0.16663037691817764
4.9515862254365475,145.50808541195354,98.21367380220964,-1.5838131369784951,43.0239565069463,26.774075768705064,25.321401383710313,0.48007179461083627
5.362339599455415,146.008357864681,99.92583453530594,-0.04090245058151942,43.442158095865516,27.221470823748607,25.72696030326647,0.8024657433293523
5.797440095914708,147.6655069962171,102.25574631092769,1.427555491079073,44.18069940557278,27.836694789614047,26.2864180114206,1.1365791621764822
6.220014093175432,149.61510985275703,104.74283036572726,2.883430429535515,44.99459183674691,28.487120394680836,26.885827545448073,1.4886323909591521
6.629136819951541,151.27869030435383,107.09146734635452,4.376262586966341,45.73011140157577,29.093547535275956,27.451101258266895,1.8556071565783803
7.02197852125868,152.42061004855518,109.12841461706071,5.888995551804837,46.31363912788491,29.619609854270504,27.93688156655522,2.219362002266968
7.386347663596539,152.9072319866841,110.69825685096629,7.3709032930471095,46.690300486593244,30.03760450579599,28.309099452398698,2.5627223600650746
7.728010503521535,152.74639659153465,111.77637664868331,8.79990592611245,46.862493360640556,30.352509332360775,28.576619183861556,2.8898017013649073
8.07907321615923,152.39047346796283,112.67570127738868,10.194856700750773,46.98039858672345,30.652603448123983,28.828894329075734,3.2228367024704556
8.461964601555794,152.7213026970014,113.99058498703558,11.582481087976083,47.31069998251879,31.088045701531655,29.201510318127248,3.576727483071825
8.85539638201074,154.43495833600792,116.19673643711344,12.986064237053485,48.04221619657563,31.758097797763025,29.77425216782605,3.941966522873979
9.217190438861325,157.34004620533094,119.2522708033574,14.454302127984413,49.10457210370135,32.61027388477976,30.497043489710478,4.296505073744273
9.544857569795262,160.3094793014028,122.56603490536864,16.064161402938808,50.18607828568663,33.456308842241874,31.215913733030362,4.630486465514289
9.89721200098385,161.969450836892,125.3127896365157,17.84514718813756,50.92698862698503,34.08828054672143,31.766044497823305,4.9534013977817395
10.341384393537117,161.51378316996443,126.80413827028819,19.68409386101046,51.10996032910686,34.39138078339401,32.04944215140219,5.279020194970503
10.880213310749516,159.12004122794366,126.7703242647843,21.33416229018316,50.74869105821875,34.39542460792397,32.07162189508344,5.612671906472823
11.438786656984163,156.01430754219845,125.63963469575916,22.569631537159093,50.12935329996126,34.29312397843882,31.972234809996767,5.957872704418582
11.918382708957042,154.36289881265705,124.76714795619615,23.381809901948362,49.8349117695592,34.43949561006722,32.04627286575924,6.32700581280779
12.25676150298902,156.71078457086819,126.20654954341968,24.0625464688547,50.6163102296156,35.25847860713974,32.671051808663094,6.731194814549094
12.45074825694456,164.5406127296962,131.65837403980515,25.109282006373792,52.96570897695592,36.98680804014144,34.07748080863456,7.15402886842289
12.55981400679791,176.34577272171046,140.9058699150808,26.995090387977424,56.53139454008672,39.34924654676564,36.060780237639115,7.543047849554676
12.715363612443598,186.67855843481382,150.77457162051374,29.881101366258644,59.81877541457413,41.422039359221884,37.85623753301514,7.839221942930654
13.098208200258219,187.55554422291846,155.6100243589064,33.34857227130454,60.55966406688996,41.887506631489934,38.34236613358859,8.020894185732953
13.82100191493196,172.0357430194403,149.36048446079658,36.276311609205855,56.67819913705044,39.610799513237694,36.506572902931296,8.11823726264256
14.738494055981517,138.01206844719724,128.302291761873,37.040276348560006,47.327450633937424,34.21322327055163,31.91526760841512,8.182380441793091
15.331852255112286,89.85302955196282,93.02413655178788,34.116427337969405,33.398800652848635,26.29531764952202,24.923781447750965,8.236424580186675
14.824988066782115,36.818550296701304,48.65751655935284,26.891572879943205,17.230967579897396,17.1794904775113,16.52035171188942,8.24761793259261
12.54539534879375,-10.874189141297933,3.185668478027713,16.23298096545655,1.6958414746561938,8.32816112121464,7.902039941478322,8.138584135667836
8.352694645781893,-46.1432977765684,-35.42319244841104,4.400571832954077,-10.853580983750252,0.7736651676516414,0.022626387820985663,7.832004601029489
2.876005122955299,-67.15670501531929,-61.938648049351585,-5.756029326634732,-19.26186427381753,-5.1294128291011205,-6.639711963081526,7.312426840642508
-2.6145664318594974,-76.66486957976818,-75.24550583152855,-11.937520074715593,-23.62641646052592,-9.542675166573487,-11.998610226556618,6.679395866634453
-6.678089052358107,-79.42947335841534,-77.93321157251462,-13.291870391691349,-24.85288608585156,-12.756372303048279,-16.081775350221235,6.1554804815299144
-8.29357324792826,-79.44750857717064,-74.518666726307,-10.644163438494465,-24.045933306356208,-14.865443629668215,-18.792929633747452,6.019464056007832
-7.280865307027854,-78.25920349496228,-69.22138618231907,-6.023634872512804,-22.02610846197167,-15.687992878848464,-19.87773123010511,6.469325920538664
-4.3676161691923525,-74.78887995332582,-64.31978239836343,-1.8058261126871065,-19.136622001890522,-14.932982979982812,-19.109928199391252,7.466244447909142
-0.9142169343937018,-66.72291481598248,-59.9226464473751,0.11077205877191192,-15.43906063215624,-12.533447296972584,-16.60894641065826,8.641985143143662
1.5546463224865439,-53.137644314352016,-55.346175775046056,-1.169281050920517,-11.283096583301223,-9.016151328304607,-13.139105047724447,9.344861337706428
1.8471335211847308,-37.29875336926778,-51.228717307903615,-5.3545007445454065,-7.943630753448556,-5.698881545872071,-10.186784955729276,8.846665083605695
-0.49741428640978413,-27.63287527150272,-50.73347074571274,-11.081958918415689,-7.751474932742064,-4.470489146900589,-9.62844104528416,6.650884860921253
-5.0237579492005615,-35.18192547406078,-58.56880367836246,-16.323925434458012,-13.299685994422859,-7.078216530615391,-12.992900366769721,2.7694146343730712
-10.490769596187917,-67.99689001065344,-78.11548119169072,-19.065784410014086,-25.96016290449797,-14.202522180789952,-20.63317757581033,-2.1828576707731098
-15.322913855012853,-125.54543268263909,-108.53857124837404,-18.081471649284882,-44.613706470363866,-24.867458455820103,-31.30931653669334,-7.158402607902304
-18.220702349840874,-196.99218946103758,-144.03494214165872,-13.45770663639983,-65.56341925130904,-36.637657270349855,-42.529554760723215,-11.059845804392387
-18.646032347087445,-265.14397922990344,-176.02427083160617,-6.540344696244491,-83.91686976874195,-46.601217129573996,-51.55784855386036,-13.157136938703118
-16.942211147081935,-314.22758768208854,-197.11116192592664,0.73389760319245,-95.75471343014087,-52.63630519638261,-56.572406592816236,-13.33490720801017
-14.05137938851147,-337.04555933534897,-204.45105456776906,6.770983978391509,-99.8456577958997,-54.25930330931917,-57.35167863489208,-12.06522341745002
-11.026101756666856,-337.3249538802972,-200.5635619918173,10.968161053275377,-97.92231667890097,-52.59892479037115,-55.148582173708434,-10.158188174421609
-8.637341134866979,-326.1206231237099,-191.33318020645441,13.687973272886722,-93.43637762082088,-49.57987081138114,-51.90056673879361,-8.445878798184726
-7.272140035854714,-314.857300087364,-182.67701971394695,15.619124914379162,-89.63253751497632,-46.86700142100758,-49.28111281177331,-7.537805713530506
-7.06256687015805,-309.36197359233887,-177.89657162785767,17.02137550887772,-88.06917713522273,-45.18923855775113,-48.09077271756226,-7.686119775686209
-8.003983038586494,-307.95842694488323,-176.8459139595439,17.43175726814111,-88.23377540747202,-44.310601938051995,-48.16699230076868,-8.724469654796724
-9.883434742864576,-303.721928241914,-176.70638250259353,16.047471535032784,-88.14076142253185,-43.46186399461919,-48.660663198508196,-10.065946433901305
-12.098231097666922,-288.7652815125019,-173.49731802115198,12.474666648353617,-85.3758048402188,-41.8503905895726,-48.43658841561392,-10.81735786146164
-13.641113866229455,-258.18150559329104,-163.67146337154063,7.25834189789795,-78.11822601481167,-38.9950216118846,-46.47443763281295,-10.074090876907585
-13.44620062663877,-212.2875207239999,-145.5360330229691,1.782612627683573,-65.90326650172163,-34.85846599619263,-42.249717866599795,-7.347657213839043
-10.980428304310417,-156.80223908161793,-120.23138773116587,-2.409469740297787,-49.97112013330214,-29.846521746056204,-36.03047721201708,-2.925252549765627
-6.699065162529798,-101.12894882421986,-91.79404413499215,-4.427460958832288,-33.04483277693534,-24.70555580649762,-28.933320574511797,2.086095805655648
-1.9990580858960671,-55.30827195772477,-65.96690255818297,-4.453711382508874,-18.499344458411528,-20.306449627313377,-22.6113038349734,6.139167267125561
1.391116147941311,-26.614705852843215,-48.01896605044253,-3.5334020444476746,-9.157752068479898,-17.334162318356857,-18.629833163442807,7.901292553400645
2.268151217355703,-17.000766443451095,-40.506885141337,-2.9226815414445633,-6.199857088161882,-15.985601964519963,-17.798906899359732,6.840755787860678
0.5636374331204714,-22.464149394870624,-42.145961649027576,-3.436200518613527,-8.702261394013647,-15.837696996103666,-19.804538372697724,3.4287015035894837
-2.6342091895704955,-34.80133809734512,-48.488352382027685,-5.150347101648434,-14.071151016744526,-15.999867237571253,-23.33929449666601,-1.1162748702908765
-5.629343212459203,-45.13246285982445,-54.108962608246884,-7.527073621490663,-19.17388289806798,-15.501562005973366,-26.653828810877734,-5.345127689766447
-6.921918411833345,-47.55844802775503,-55.12197519163505,-9.793423729177897,-21.60517807726323,-13.709123932250172,-28.241427499379157,-8.074301859898894
-5.887229418358414,-41.20261539854021,-50.75520824788456,-11.364017284206655,-20.516081481128534,-10.569410810285078,-27.369881232055054,-8.694694962171296
-3.0701644551410197,-29.921045378560375,-43.40436300580002,-12.139586030629912,-16.762980945586357,-6.6304446670167,-24.32488773231895,-7.284721011161481
0.005891341167843733,-20.240903656577263,-37.39105140360404,-12.55426781538056,-12.466136114932029,-2.910084426559648,-20.3411509050834,-4.566843870221285
1.4795184322409811,-18.533969293242457,-36.96495037323983,-13.311849239531757,-10.150289443187605,-0.6492563006127656,-17.203700417768648,-1.7057388660813242
0.04166026428634328,-28.101408594698068,-44.0674093721346,-14.912034067962457,-11.604867039558446,-0.9029496596687167,-16.531077351339256,0.05944111410565074
-4.305601075745014,-46.73523163920003,-56.53443653450296,-17.245987513723477,-16.743390236829917,-3.9868307611881773,-18.929668585720695,-0.13118097906009907
-10.056670584220717,-65.87873359517951,-67.76939276889023,-19.552066619788377,-23.043181219639184,-9.017599523362499,-23.438273013311196,-2.4006116191827656
-14.788231030081597,-72.80625372171244,-68.77577670802876,-20.797643209224002,-26.190500209466503,-13.92646071155033,-27.701832844611346,-6.0572875864515305
-16.299096305123253,-56.081427078516995,-52.306112305285374,-20.25348863547999,-22.009899988941722,-16.161133890461798,-28.97948472518747,-9.8571762585175
-13.714977217690272,-12.188666266420661,-17.28901343255533,-17.899524220323922,-8.858741285911275,-13.867004311649117,-25.56951971195066,-12.497932586917338
-7.949340548987103,50.46267140344205,29.070298992925743,-14.434270617163154,10.884686890308622,-6.954934102210674,-17.888161731122466,-13.129581276381318
-1.2683398176965461,113.22504460598142,73.20333819240781,-10.925822606710751,31.28719458188857,2.5738809566794245,-8.545019981762072,-11.669147382650314
3.7890841222524925,154.56608420317494,100.59111832964462,-8.339233749923567,45.24952374614764,11.305153507977435,-1.2873245685557768,-8.804596935364767
5.545981980614668,159.58645420880057,102.05895827672381,-7.19708187052742,47.639791394380374,15.793140075135957,0.6755159258835357,-5.709024658064699
3.8002887521804696,126.68786851068121,77.70387525825868,-7.504747893003008,37.52799262727358,13.956173359738452,-3.90078624633567,-3.59586314293984
-0.3279278989809496,67.8975708094098,36.48473220114969,-8.903678049973422,18.396271873244196,5.81641156705315,-13.833192722964233,-3.289529907018934
-5.122613987787752,2.9430243151209874,-8.095156984569812,-10.905470789504225,-3.6417195450773905,-6.675932691387662,-26.168706383642267,-4.957254193063992
-9.102370665366005,-49.481239490300155,-43.76081148266532,-13.055131523226175,-22.525563139027952,-20.48321793189929,-37.502799401776215,-8.071927376626551
-11.514815978694614,-78.68514297294168,-63.762863662639624,-14.96210682648658,-34.42085252766821,-32.46411223607295,-45.218795451381375,-11.594779498089096
-12.333983399360084,-84.12601914873821,-67.94563951437573,-16.261607294666504,-38.46218671970369,-40.08549860822491,-48.09871128661161,-14.311786955245736
-11.926429009145243,-72.66473880295995,-60.80679030019198,-16.629278374429944,-36.080419280313976,-41.78455553025672,-46.23684771758986,-15.228716540744857
-10.703014876057445,-53.552295971165535,-48.315314722313985,-15.899433866039175,-29.69422605672491,-37.16823806158166,-40.59884607878785,-13.910947279679656
-8.966655659173538,-34.495112132461024,-35.4739429661053,-14.182115426413093,-21.684125136392826,-27.211437158044387,-32.6342052284794,-10.648629382892056
-6.925979126070402,-20.544654055604713,-25.509081047870726,-11.803093301942237,-14.049433857439073,-14.34191434171935,-24.078339339702875,-6.361009273071019
-4.702833919892445,-14.976451515750275,-20.136059224868387,-9.0199666927131,-8.451022100736571,-2.0759682702246987,-16.760943429495274,-2.2437805522821948
-2.242171900403302,-19.959445423138572,-19.789577530125726,-5.70649622567663,-6.085484668777763,6.0017203975115585,-12.194108149763402,0.7118093085867191
0.7734862416793543,-35.737862365565036,-23.360496198761606,-1.3058647385803905,-7.212619725869492,7.639588704845323,-10.994972776083854,2.1081426008046873
4.8251177892144765,-59.1557473312568,-27.999693291668354,4.815683044108303,-10.737563685407574,2.9752282036777404,-12.513433185910616,2.240008431284203
10.235391477032438,-83.51054276658958,-29.825537173646268,12.813967964729043,-14.417810901749533,-5.459880023243005,-15.038328056249153,1.8557314509386873
16.814754063846777,-100.84868544049993,-25.637224523458062,22.016436198791894,-15.838632897864805,-13.917505886381695,-16.592753953262324,1.729017269872189
23.756043264891435,-105.75700240350017,-14.727167904277316,31.072813215163816,-13.661563343868842,-19.183563928225553,-15.89475034838676,2.2923539844709073
29.909126771036355,-98.24639142289199,0.46054356133579116,38.54978784979697,-8.351753009183017,-19.933558308461016,-12.914385453056806,3.518281240960574
34.29173331037902,-83.67390610062778,15.42996779348818,43.58639588130791,-1.8842425263292537,-16.995661920919655,-8.719607716710817,5.057430431997289
36.51462821668213,-69.61411983076962,25.913428694924708,46.188083951831814,3.3908749736010892,-12.522032480074836,-4.769914418234339,6.488195656604516
36.868882041985586,-61.72394962736221,29.93307926597752,47.02536817174107,5.985715627227981,-8.694524721847142,-2.1398619446909395,7.509436009541448
36.08555559830596,-61.24619599467484,28.45591178910809,46.98019071292158,5.873040002355231,-6.731872534089479,-1.1083146165490143,8.007761939644041
35.00343672325468,-65.37307223204675,24.522870947849196,46.82009881830068,4.23848158313371,-6.603457480806199,-1.2168210026871702,8.045378474003254
34.36717406354901,-69.57856853251529,21.69455804474933,47.16560861677681,2.750737029179934,-7.3563609875025175,-1.5975592146365822,7.8382198191363415
34.76271797223417,-70.11953303435152,22.699465853153967,48.58108057542985,2.8344558223903076,-7.7204423853094974,-1.3366343387754618,7.729168443095193
36.52675635312922,-65.63135636289064,28.52754303078328,51.50517620676354,5.142603416874475,-6.726077484244233,0.2018062210264716,8.103498281530431
39.531758684502776,-57.76815120673762,37.835463533749014,55.937624111874904,9.203163947463901,-4.196840997335836,3.076078306044584,9.219187843906415
42.96859220974592,-50.909966695492706,46.85952520256929,61.08681009078206,13.334215434526225,-0.9712017270003993,6.573593932120495,11.008090815950993
45.3717183929406,-50.52325094899634,50.416070213509954,65.28303626104831,15.101440448417073,1.3307335861681993,9.31487833817863,12.959903693073588
45.01760175823171,-60.16688254816001,44.13970492373613,66.32798567916558,12.39421786727999,1.0279387714064547,9.74975913649072,14.182866469149237
40.58047879025211,-78.54854573929039,27.00064615507517,62.22905772070276,4.656922653817763,-2.7079092486702816,6.867262007054918,13.666349323352364
31.755068173263336,-98.90026713015642,2.4710711825312863,52.07999213173474,-6.523633931819304,-9.256489404752003,0.7472005272652593,10.689524576243564
19.551582690967113,-111.82842567896758,-22.67449887297946,36.7213083109786,-17.972757293084246,-16.646340621926846,-7.345738100044712,5.239881004012121
6.101102585597542,-110.2807685668232,-41.40898736549849,18.794735236773985,-26.368907384592106,-22.3149320478162,-15.358940140619731,-1.7564622318621284
-5.990033687940492,-93.50844628115391,-49.599007307439905,2.002899548183039,-29.722404776338944,-24.131868108053933,-21.13353885107089,-8.575697331809087
-14.499807784494251,-67.44511599791777,-47.471721600455204,-10.211572377360369,-28.061326061105643,-21.197079793371888,-23.089477430755093,-13.249864640701905
-18.322179276562387,-41.35134962858361,-38.77213279587958,-15.983626116011001,-23.06405175105279,-14.1177971716796,-20.703614221204194,-14.349801469194956
-17.782120148959496,-23.0114367890093,-28.42751215569474,-15.698609250242804,-17.045502519293745,-4.759499679686799,-14.685895315021847,-11.645274425966614
-14.423701109126348,-15.476479165696645,-20.26949716411721,-11.689849959987836,-11.991962531310422,4.34130276366964,-6.832343928651422,-6.303149344137966
-10.368215502111537,-16.94858478120051,-15.965744138627912,-7.121401295204883,-9.098007112403536,10.693863773743558,0.44196569994140195,-0.49085284554249536
-7.502069814768676,-23.11046759185833,-15.267915363426772,-4.619453201690622,-8.773334115178752,12.552636554856967,4.837702495068721,3.4591806866147907
-6.828189250467232,-29.844180632348984,-16.909702097949467,-5.320212803581532,-10.810396611913651,9.458242853136188,4.984414030917407,3.9538896734852407
-8.251997215224984,-34.71920144152536,-19.4663140784442,-8.740686385161142,-14.516991647958502,2.419873218656332,0.9879064903685795,0.7122998765892117
-10.863923749992011,-37.068626339941474,-21.90488523998369,-13.400066127249875,-18.876888496317985,-6.434182090653656,-5.616625251156443,-5.226970389299937
-13.52457249786269,-37.42005913729199,-23.836234609232275,-17.73287089548143,-22.855329423979498,-14.68225088546053,-12.54873818399625,-12.021071608600783
-15.423197630840574,-36.902862130514386,-25.469733312540107,-20.781941232128048,-25.772781756265672,-20.540656476538118,-17.754879680300387,-17.78330832535985
-16.35093143421413,-36.7003860381208,-27.268245444849406,-22.410681198458718,-27.50917268085118,-23.409282614578785,-20.138788003599362,-21.24036404428601
-16.629777318507603,-37.50987332041163,-29.485812699787115,-23.086516445269293,-28.395546410951688,-23.766778266534246,-19.71127895379267,-22.046647091110085
-16.81236232029861,-39.25657996760788,-31.92149671211661,-23.45527682869395,-28.896058983087773,-22.570101340710583,-17.216476256216435,-20.705917889470054
-17.332051167635086,-41.31230147133158,-34.05365313138374,-23.935273124159508,-29.309895245485826,-20.598185834029465,-13.5762021979374,-18.210455274084424
-18.26341169776708,-43.014551236104076,-35.36062870255944,-24.504715804880544,-29.64027312056094,-18.13788012166611,-9.502204539807723,-15.591939935482065
-19.297625593163843,-43.978034985506746,-35.51471727102551,-24.776885464876177,-29.641988923857394,-15.126969711472467,-5.433466043444328,-13.582416771702379
-19.948429265737882,-44.01338628909832,-34.395280578339154,-24.323548154718615,-29.009059012294504,-11.571964106762966,-1.7286876970178382,-12.502494817089914
-19.879064463050458,-43.00831877551188,-32.12947807076105,-23.04205111080851,-27.643904064455064,-7.909389191305027,1.1094363730405212,-12.348741598602626
-19.145362546393844,-41.11827201819724,-29.250374255482683,-21.297252664219005,-25.86520958524508,-5.01966278755335,2.4247673463691712,-12.935323776641445
-18.18509240906211,-39.0421337415543,-26.72645424652494,-19.713546417154973,-24.350637777614466,-3.812696834604722,1.713719725224214,-13.960157876450625
-17.558382062462123,-37.84148811282423,-25.584251236580975,-18.763528138322638,-23.7494830270616,-4.607698789221996,-0.9222976590124428,-15.00282965672336
-17.624937153338013,-38.229964655638206,-26.268463221013896,-18.465128001073456,-24.202624790045668,-6.746851115589348,-4.547861947983905,-15.574356872790155
-18.372353704321565,-39.96760303611114,-28.276101414290213,-18.404787605493027,-25.16726767567589,-8.803787888154995,-7.672777738588898,-15.294666064474244
-19.468707638317863,-41.99946763923818,-30.437252674276074,-18.04157302409216,-25.729748839333514,-9.346950680702927,-8.954946014027971,-14.112064931153144
-20.44513166000315,-43.206975200528035,-31.627287927314985,-17.053512918354368,-25.169195729258238,-7.773103910546126,-7.8808388141215175,-12.379056101720765
-20.868859223850713,-43.0334806946509,-31.338640101570117,-15.503009220004248,-23.333218097947395,-4.6280059427739895,-4.95866154705781,-10.67939936162231
-20.44659073741977,-41.528815887093444,-29.77929075151165,-13.7572628129816,-20.603620385660935,-1.2044898904953634,-1.3201587232637921,-9.493205875197111
-19.081333355064874,-39.09473620530594,-27.64396408576182,-12.250261915029673,-17.60716828488027,1.2499708322067915,1.944386485350385,-8.917250660011328
-16.90533990218845,-36.416702236028286,-25.848629230831214,-11.236839152182101,-14.962849342923427,2.134695626885731,4.254422326269292,-8.623974442628436
-14.265115722468531,-34.5361453741667,-25.27774483915461,-10.677174435750457,-13.176223316583522,1.5490229475833444,5.568659883518663,-8.084258845655187
-11.630461243326955,-34.58078899451288,-26.43004077506597,-10.319942674586484,-12.581216676065589,-0.10233646095949109,6.080164019450668,-6.916046246187476
-9.451081281759441,-37.0192569340159,-29.043051146773262,-9.931863902225968,-13.241504286246466,-2.550791515573705,5.875091129463251,-5.15418240149554
-8.021871740627578,-41.0248723252645,-32.0300836526968,-9.506135745859954,-14.8750025443409,-5.79346556557319,4.8101390164543085,-3.290528542741457
-7.399727548642696,-44.6562844271801,-33.93900796118028,-9.275412554607769,-16.910351712073112,-9.835862863275068,2.6815476171271384,-2.0602899565353634
-7.383531231079363,-45.873448656194746,-33.70491302415117,-9.49940757490409,-18.671594644455197,-14.27650600372222,-0.4375716460945555,-2.0794019547059865
-7.57234516202673,-43.7075605136021,-31.218252438490996,-10.187729761864798,-19.595416620908278,-18.10833825908975,-3.94431847743694,-3.512833868402237
-7.519820684740021,-38.916875101978356,-27.42685013747231,-10.978378375049559,-19.423338766274032,-20.00631461900131,-6.7808216867018345,-5.942414592103546
-6.94335235596315,-33.92886863358079,-24.02481575876265,-11.260592685405053,-18.35330159300795,-19.0324882721815,-7.8822084607638,-8.502457600207846
-5.8601300015604965,-32.07517908729642,-22.851370480955676,-10.443398491091987,-17.049140046655303,-15.311326244039709,-6.74290540524567,-10.209691557322786
-4.5324476859955265,-36.028716980002365,-25.019741187419033,-8.211994069813997,-16.323285706669672,-10.123708747785452,-3.687264325481894,-10.319534729619624
-3.2543780868943952,-45.63772966340227,-29.93809585735147,-4.69977984282775,-16.479556482682476,-5.216071237774289,0.39338494887893755,-8.55564223345265
-2.1650547241583924,-56.2516382309993,-34.80540379409614,-0.5779856405969328,-16.696352749832858,-1.7178611880341743,4.6620451632153515,-5.15710089470522
-1.253517848934057,-59.21757032043941,-35.30335626012446,2.9805052471585896,-15.03986724319141,0.5785542061587747,8.84299706537738,-0.7780206633078788
-0.5284155463227491,-45.34944061651024,-27.581207945131478,4.574924856581761,-9.372833720230858,3.034591794601372,13.235038387968283,3.702008172896251
-0.15782067861162147,-10.026515738274997,-10.57282237363224,3.117954962926053,1.2706128432879766,7.184947574355777,18.25856386573384,7.417793597878452
-0.411389488048795,43.13496971044135,12.865613836659607,-1.558242607420034,15.753499019635358,13.63981852483674,23.930899180463896,9.771355518016012
-1.426668206209766,102.7296905986261,36.94249769249323,-8.404383994972992,31.069493115968033,21.615378190626185,29.694332739831072,10.6254493021019
-2.9918865184814663,154.3753877738514,55.635763665192584,-15.440432328881696,43.70662299325634,29.373642534247157,34.71823697447303,10.342706064578515
-4.544356408675975,187.2775040775203,65.54539530059888,-20.55987724894712,51.33442328262439,35.22347116268689,38.42252160235681,9.620568457553023
-5.425937592880191,198.71653678357424,67.1917213371688,-22.438070712979417,53.782076232187826,38.3931728590644,40.81615273874211,9.180403609556254
-5.235517812226028,193.99136207687891,64.09220312119524,-21.035260332921947,52.768790285942906,39.25259621542468,42.418288291779106,9.466181266800948
-4.030738302782373,182.38518590464304,60.43937620848514,-17.428618155157086,50.70572786171068,38.87556661895414,43.87529185495341,10.511327181865381
-2.2404480849757844,172.16769561254299,59.023485612753,-13.131967044919687,49.45446224540091,38.370193252328235,45.60500165819,12.026529613515859
-0.3739648851863495,167.66206581276012,60.56432801729362,-9.357725535168514,49.77269266033564,38.43777766167758,47.71061836570743,13.6226843435289
1.2458543934080224,169.2545624710787,64.35092817362192,-6.625880831951776,51.51478851363266,39.307074537523484,50.128778218881614,15.019132797139575
2.5635917835688744,175.04430827506016,69.23205563969555,-4.808305878192451,54.129343942898466,40.88136351219148,52.798548919614525,16.136794660852168
3.705703607389439,182.42496960880402,74.19735845704855,-3.4144522839647906,57.018201714303366,42.892203564844955,55.70356221221455,17.074439947187905
4.851731351906121,188.97991392221175,78.52340480750196,-1.8901953764551165,59.68114057900791,45.00192212095676,58.813385828979385,18.021732759949607
6.139626859690743,193.008952753991,81.81367937829353,0.1587122631480032,61.784280008123844,46.89384216203139,62.02194355367929,19.15339614051367
7.599269493930821,193.90511049325673,84.03351059014827,2.8154278870119063,63.20599586076915,48.35007458720176,65.12452308828432,20.529108132718783
9.111853501039846,192.1638563605767,85.40903492095582,5.806761996074904,64.00294828294925,49.27505695835356,67.83236477360282,22.035694987226176
10.450158607387008,188.9768517735432,86.23675707757344,8.633816282313097,64.32470153724829,49.68484288814804,69.86379520481263,23.422775942942465
11.43687448538304,185.87663031878057,86.89419933427583,10.860611579296952,64.42896712812497,49.74937623941589,71.16127348581556,24.44662833112604
12.138935688503736,184.7743985031015,88.12295445046519,12.400941784205752,64.8331936536581,49.89616240326609,72.15302690459532,25.056094173868555
12.92809274665162,187.8929923043782,91.1328880228654,13.617534283425984,66.35373827054727,50.811706922929645,73.80586450274176,25.500380006023235
14.306545619298667,196.718058560166,96.99168208893107,15.174259900355237,69.72747679592516,53.14873667735722,77.23701735156052,26.266747687020192
16.572684702983864,210.03679847448046,105.4343145363566,17.72216300945227,74.87699453065753,56.97989673089763,82.94501937661774,27.845300917233434
19.52009010058442,222.57843963699293,114.00736040317184,21.534549186187583,80.34019531257644,61.340143580266556,90.06842827014604,30.405686104899
22.337005440212142,225.9883800500931,118.45581652482012,26.18738651753189,83.42886368173411,64.25855057988157,96.18399335398396,33.52259360151444
23.771294202702613,212.30409380887812,114.3878807999753,30.419630888885948,81.21071759598075,63.40781767816696,97.91732760013763,36.10483058985615
22.540456607091667,178.10488451087545,99.33152698359804,32.364249747914464,71.8402681873576,57.113200550394915,92.22157721582481,36.65112088430394
17.890109697476756,126.85255714517955,74.08245626957692,30.239779518340132,55.54660342156748,45.23787788544037,77.81310967906391,33.83314149886448
10.092825892435972,68.04167571219662,42.71634788057728,23.27978876965616,34.79076677429919,29.498467998313288,56.08895539062355,27.200668141980824
0.5951874122412577,13.618768186929795,11.295013067375129,12.378863497324636,13.507185624528962,13.002145948831092,30.97877488236338,17.635946838850632
-8.389275797989916,-26.523140654977617,-14.208123701247615,-0.032713502368023825,-4.269336191723341,-0.862909448116817,7.6320841278212,7.220801589255478
-14.748092850770114,-47.92670837980857,-29.97768844135501,-10.940215499898452,-15.837450904494396,-9.733602389390693,-9.549252407794912,-1.5304597139648979
-17.386418443334456,-52.58188730323518,-35.647637257350695,-18.03451022085371,-20.74686048383278,-13.190795106002897,-18.610718603356332,-6.731479196385643
-16.68247334183823,-47.53279789342214,-34.30794619788917,-20.61008016103552,-20.833742240040813,-12.851160689713392,-20.634638146833044,-7.916000935125846
-14.19235959867692,-41.839333153720915,-31.10363714932258,-19.58530863585852,-19.326172681336924,-11.543727680914147,-18.92247317760356,-6.123802274620006
-11.738497225908691,-42.796914444215595,-30.74602391372249,-16.727589898429954,-19.29011474419627,-11.88838832784143,-17.179578549860388,-3.254440985429617
-10.396870967524567,-52.410059273908644,-34.83219751509951,-13.652931797830751,-22.0026727687012,-14.91371574817097,-17.62407146249394,-1.0918717187783225
-9.984243818828133,-65.55962547863163,-40.37606385675842,-11.22520003078772,-26.061416289344013,-19.4338826712102,-19.99762253458856,-0.5550193331005078
-9.343364839335225,-71.40876304611207,-40.77307730029018,-9.591107252254623,-27.884741481112155,-22.604989161277746,-21.982542415276562,-1.52022394398816
-7.211356373712001,-58.34474525540311,-29.185874016234028,-8.599077132050759,-23.571165593089415,-21.45148566054725,-20.74377018214028,-3.1774429251155136
-3.090714273830128,-20.421274441975655,-2.6656350035339926,-8.155368090643528,-11.194629807326233,-14.54845257967984,-14.676894200175456,-4.603668673450075
2.422260200881562,38.36241017063705,35.487601397142555,-8.260147464177042,7.8149833169762335,-2.9000649208296556,-4.361524814330829,-5.208931152136829
8.008505744252357,104.86506538484734,76.75546170311284,-8.803584361334531,29.104655860840857,10.489978094416594,7.7634827611623285,-4.87689095138524
12.399602961819419,162.64963046043252,111.37240717073738,-9.395488787864135,47.44919027821027,22.089001470225607,18.716339151408587,-3.8331690076730824
15.035413688934163,199.63164869256326,132.9146316463852,-9.4393554890131,59.22006450317185,29.486143328907804,26.448591202279786,-2.4062847038398836
16.220596911029208,213.10232061709095,140.82263798229224,-8.43227900702213,63.83826617061647,32.308238227531355,30.638055984364023,-0.8487298751722979
16.764260247983792,209.4144248135889,139.58052011890686,-6.267419302678983,63.47419785383275,31.984604936023096,32.44886419216023,0.7114500821830309
17.41993211485247,199.09172431477643,135.45481100930326,-3.302565940685816,61.39801423106585,30.659694945168546,33.56693680921681,2.2273274423006475
18.50781575024237,190.8767426547724,133.08451065835044,-0.14828276422731893,60.15651565492574,30.00601730595487,35.20164788348623,3.676548633422985
19.89548211523332,188.31740493954447,133.8892516203413,2.6552281799011137,60.64179247827397,30.603209461014117,37.62919713109334,5.03587873663464
21.249038079485718,190.1473922255517,136.70611740710834,4.862300730173375,62.32875308866829,32.06387178503328,40.40270684088188,6.285847093453521
22.34862786527483,193.106389283935,139.65096502708653,6.574362625827907,64.20063804072089,33.62221919568403,42.94559328738958,7.434561098370114
23.300686815801235,194.92301744291626,141.85459088751003,8.177534313178246,65.66831242638719,34.75838495935415,45.11891360999957,8.554725374968063
24.551583790453204,195.93527420785327,144.21753034647173,10.207934795943498,67.02953845001284,35.55907815481961,47.45676542775019,9.808705668817485
26.65500843001557,198.87570090330155,148.90415145328575,13.115191967851567,69.30779451451717,36.684139712643415,50.92744936691459,11.408525700876158
29.834485813297977,206.90801453839126,157.69929815803698,16.935897349684065,73.49930685770941,38.92638858715248,56.25525393400534,13.479185006786466
33.5492061765077,220.55180255187813,169.8772794125472,21.044033558459848,79.5033943246438,42.51161687768784,63.07948392363205,15.878529796677043
36.39052406637628,235.120918810829,180.88566958228287,24.2156106020785,85.35614349288586,46.51283282356244,69.46389159782447,18.102621144966047
36.525378231608464,240.89261864967722,183.22272530181644,25.081501484031577,87.48994569201095,48.84979409543099,72.25629178072056,19.383976668273824
32.557721537767485,227.09417987756564,169.76538931690368,22.754618159815205,82.24536222082165,47.08925422133366,68.37231380937928,18.970084141163483
24.342704966266247,188.0877660700458,137.97734579468988,17.26669570287418,67.95376664728832,39.729847549843214,56.43395987037969,16.44607070849496
13.24528299412316,127.93862986655972,92.35752168995967,9.570505006339511,46.306810949853066,27.240185260217093,37.81075955473208,11.935604551621466
1.6495978824587552,60.002149148788234,43.27229826631803,1.1438055835862946,22.02133827784482,12.1772157865018,16.348371988351676,6.091495938904944
-8.01645191442144,1.2586342205944985,2.557426176726721,-6.548143344741668,0.862541406312884,-1.7663852453195148,-3.170635932352671,-0.09493772935177958
-14.198133238830698,-35.39474586004023,-21.638642399251808,-12.452003795937856,-12.861818042486593,-11.31133758841247,-17.01572991653833,-5.561823641235314
-16.617494107037302,-46.39879598517812,-27.88737499199153,-16.066022581195345,-17.934617961768843,-14.939116645531474,-23.87876855291473,-9.425012939999238
-16.076411021047342,-37.611388888579825,-21.004105355476185,-17.394732106429533,-16.224796525884503,-13.390284923961236,-24.986675174930234,-11.168478744027837
-13.921192956891216,-19.913249137107385,-8.900614541038443,-16.86177928577572,-11.32451975286256,-9.1573954387885,-23.09226116920565,-10.775338666670782
-11.512040712850814,-3.5794146956035084,1.0779114517500212,-15.221997434777245,-6.796201123682941,-5.322664935108476,-21.051931147648393,-8.77069582647614
-9.871467772948067,5.370874503176335,4.509029721431474,-13.388617441042166,-4.93047586330967,-4.325285651230842,-20.739900369827634,-6.105822218164276
-9.499022509293352,5.729974351365207,0.44966708852309895,-12.124783243542778,-6.342118807565272,-7.146340540417248,-22.66427052831145,-3.8512358593721565
-10.309786961338844,-0.41544772777113065,-9.244829223607953,-11.72522411608798,-10.223847381325422,-13.13308541756275,-26.211758256613663,-2.7969939073704966
-11.723631039101056,-9.629998986934718,-21.115453973411082,-11.918230539045828,-14.946318098511792,-20.4322870808047,-30.225635606578106,-3.166800741603833
-12.931777614910413,-18.544641316254285,-31.396912179914327,-12.094490975732494,-18.77225709544976,-26.813034445670038,-33.61116067097149,-4.611031262070901
-13.255042876104623,-24.562385243057175,-37.145970968226244,-11.722652116068145,-20.470536608374903,-30.520028025942352,-35.73470040018241,-6.465738998796039
-12.417691140618357,-25.941474568971717,-36.874988826476425,-10.684135154222254,-19.593517675718253,-30.782051937637675,-36.49346092636907,-8.100829434297133
-10.614316057377833,-21.503490807367864,-30.55054010743121,-9.349540105825106,-16.337906669821013,-27.809943205089954,-36.11103814823123,-9.161553679790314
-8.394132007624686,-10.608628269411668,-19.302117921357205,-8.39785629295542,-11.241210121170171,-22.469155889846384,-34.89662621751276,-9.62154301870155
-6.473215699091565,5.880012649080973,-5.407386623413045,-8.484462254609944,-5.124715381658217,-16.002823141651717,-33.219038275565296,-9.693729377663457
-5.544743462778587,23.842632376882758,7.373773112448451,-9.877979305542873,0.6032054449085924,-9.995176155341206,-31.71114551974674,-9.688753075656987
-6.080714403809411,34.97836672805289,13.848164509576137,-12.19321823956488,3.704639702659377,-6.368028630223036,-31.418853319336318,-9.874232791566186
-8.125831516776245,28.6499205637139,8.69809010526062,-14.368579807164705,1.5399824741646326,-7.028983873396733,-33.55784813347509,-10.35207487092523
-11.171423382845203,-3.281692077277732,-11.017833126238298,-14.989651364775895,-7.704351839871949,-13.080499763073673,-38.855557049288386,-10.983826104450271
-14.243275617263437,-61.07418316617156,-43.54775841088969,-12.890534942410873,-23.650051996542068,-24.009428895538832,-46.88164053914449,-11.417568017667106
-16.249168283964366,-134.87244688797531,-82.10358562617073,-7.756362687700436,-43.25240755840119,-37.50245295987846,-55.9081051955871,-11.23884207056869
-16.453599785202506,-207.79338490473825,-117.2372237018546,-0.37807246934622096,-61.78498829894828,-50.21041140109491,-63.529038751175925,-10.184578534965961
-14.820768535193768,-263.0837074380792,-140.86385397422242,7.63018816853261,-74.86551014747698,-59.13967831756406,-67.7383580457825,-8.296898418563163
-12.00953326049643,-291.31526111881317,-149.64298185432506,14.52940730726052,-80.34890425999986,-62.8864117574072,-67.8251318893614,-5.918437537454298
-9.010875174347131,-293.50741338194337,-145.7810706480566,19.190169834280795,-78.9791916906115,-62.01275654746124,-64.56105305486564,-3.532080554235139
-6.64916861833858,-278.815729506478,-135.0331234281044,21.467653300289335,-73.54243045750107,-58.43423713298433,-59.63371278357575,-1.5461743073105356
-5.242121223885166,-258.94724882812517,-123.46256228376541,22.073387365334987,-67.24082319617848,-54.31050976375732,-54.75237196858282,-0.14273483308970805
-4.5710143682408875,-243.07467549324613,-115.00724500267732,22.128396292390757,-62.356184492242484,-51.14244069892068,-50.96903795800011,0.7619814799273815
-4.090858684720638,-235.69124760280832,-110.86250893990162,22.716528751814717,-59.796703645400726,-49.47217189580403,-48.48555095534547,1.4704683249658208
-3.2103070760611394,-237.13285979345295,-110.2279748282673,24.607928317385106,-59.36009402206326,-49.091750293174655,-46.8538606564024,2.4065439017681243
-1.5381625684118194,-244.9506117153929,-111.36113064693996,28.091118734946594,-60.195983748064826,-49.41656658187941,-45.32966157251086,3.965961336371818
0.919294210681111,-254.9074172860555,-112.33228248644318,32.80976034735177,-61.16336840934377,-49.78013753976317,-43.2265814471982,6.311069140469327
3.6507032215857547,-261.7568753143172,-111.51083043847986,37.672454444498634,-61.11523154542417,-49.614002223639076,-40.22005110565067,9.174191785001842
5.737593125123551,-260.3810843500721,-107.89713576438163,41.04145124043275,-59.18499612425033,-48.545172921007776,-36.526465739078944,11.804435496490882
6.22906452633185,-247.1736161304188,-101.16323982307355,41.28875191572183,-54.97997531943319,-46.3979799928839,-32.83684465065892,13.163222932326647
4.662928404934983,-220.98924431598414,-91.31735981884616,37.51198939658243,-48.558658013359185,-43.10144807393537,-29.97906930515644,12.333249035805839
1.4227370533835706,-183.294594707663,-78.31495238777089,30.01231000965669,-40.264995680089115,-38.60698237343708,-28.486381342193372,8.953429394237997
-2.337583586356466,-137.76463799854326,-62.10929522319061,20.235993737479898,-30.634143157718174,-32.954783282205426,-28.352163148368508,3.4459098742251624
-5.20587577529772,-89.65581192274429,-43.21761031229626,10.192928226581602,-20.458538804445276,-26.48911301716129,-29.124782212195868,-3.1025274077276723
-6.1817694401723084,-44.947383207557564,-23.290143871413836,1.6622040469627544,-10.863005721610895,-20.03173472905232,-30.245947573455105,-9.359274635997048
-5.130633502572325,-9.121615601562228,-5.046448709943666,-4.406301430264427,-3.1676058641443214,-14.779481174531458,-31.369673739012786,-14.252863744095041
-2.7911918289390636,14.262832429762629,8.601956571861567,-8.031942944415569,1.5194249159489912,-11.855100764371976,-32.42946234217336,-17.304509449390107
-0.37467197382832984,24.691917260049305,15.800270989657813,-9.908479362499339,2.798967303962809,-11.699503401208185,-33.415692565515386,-18.625869459684004
0.9958619482048894,24.87531149952889,16.59927909010444,-10.922969142777934,1.255902707237488,-13.673897237534641,-34.05650854492473,-18.628985445486705
0.7276601362317979,19.623789440456633,12.837342694013017,-11.75780577234655,-1.7238945592398223,-16.194559323567333,-33.69956963038117,-17.66557229942276
-1.0665591088667776,13.783365834822835,7.1385137941830825,-12.703843732325904,-4.546975572586191,-17.425139568560517,-31.56500983840899,-15.839538471068693
-3.6547768600649704,10.343684909353787,1.7378998080977803,-13.670445473132515,-6.0660587274064,-16.17774766644906,-27.25446446880295,-13.106344286508225
-5.956691305151715,9.860043053263535,-2.1078688864122035,-14.328332977726788,-5.898374444223985,-12.50868761953392,-21.180374169209497,-9.56898992631308
-6.918950305835713,11.347496880689922,-3.963502544759914,-14.319743471832151,-4.295727929428092,-7.674602900765641,-14.60134493330158,-5.7285715174702085
-5.898235750422971,13.658001074386588,-3.7887914464669636,-13.453850911040789,-1.7980935163799552,-3.4966907851827984,-9.187764720836887,-2.4523995157860634
-2.9176956244850616,16.18402877276828,-1.7696568991106687,-11.796936051092754,1.0218979911394808,-1.4886499357029614,-6.318242296343426,-0.6047533265393054
1.325931407510872,18.651599612583567,1.557883995447335,-9.623039119920149,3.632338627108664,-2.17303958163228,-6.455414004393168,-0.5402804263649212
5.722164568063911,20.689165418028246,5.253733094730449,-7.285916823793081,5.562975334306841,-4.86839563359182,-8.9124973934734,-1.8031529900880168
9.157390911603905,21.822206800137565,8.234063337529545,-5.108430134844587,6.496473913492079,-7.99749739984065,-12.135871738299826,-3.277005382891446
10.902028213854589,21.810429560190112,9.701377405211224,-3.3245773604305096,6.394881728392899,-9.750110896956654,-14.380057996624037,-3.7428940925641894
10.84205010295891,20.832270940609007,9.44828745712785,-2.040697177404738,5.548537188974279,-8.800142087895095,-14.455295551750028,-2.5334628592363315
9.495645476801508,19.348039395707744,7.923598769985416,-1.2018413253266704,4.507232919388234,-4.7788108406382825,-12.19301870424642,0.08943929790409132
7.803666775550302,17.927422574270143,6.1233772290900195,-0.6197026683939258,3.9359448017117735,1.6522208443536786,-8.430848529393206,3.039706416236224
6.732129124565843,17.236108028379075,5.311274078473464,-0.11369125629119411,4.4221022018004605,9.083396316718096,-4.573901879820892,4.935366747507852
6.818729665351792,17.953262708510493,6.501427708331938,0.29783586707073534,6.231380289380632,15.82421359491447,-1.9815890532629201,4.778806340418586
7.886815270580076,20.36524799485329,9.834255850900398,0.31967148072522317,9.085500008393169,20.393606370767525,-1.4527448567610861,2.4486173686782737
9.123811798209685,23.88500355641123,14.277347475014563,-0.47197054578909803,12.14833648654042,21.948188023994156,-2.9715671401326076,-1.2404792234900317
9.530930871542646,27.075432780399513,18.028397662015923,-2.321355258812025,14.350130996975214,20.578608571907505,-5.754529259210377,-4.936581268744063
8.510271164739232,28.3562719551088,19.475548212585096,-5.032623162858245,14.916888006279283,17.347239682543826,-8.5681836872047,-7.399944052777898
6.252748151068602,26.880118906327056,18.07996206492454,-7.937236396691461,13.759124446345652,13.948372424164974,-10.22097732393936,-8.058675972163218
3.7081712753456513,22.94706831733211,14.621152974362486,-10.116158264486582,11.471127031225977,12.05417397479239,-10.032042130641345,-7.175968112229693
2.156114376943043,17.894722049964344,10.781480985473587,-10.76885854587793,9.011031634391832,12.651488258762157,-8.039551565608637,-5.56509512982042
2.5829056993425583,13.828053740482002,8.42996568553056,-9.585408415868613,7.320276925084123,15.721092722313532,-4.850408092436284,-4.072864202904021
5.1306268336655645,13.252943122213416,8.870817007176898,-6.992107865693913,7.024577754324281,20.373250422875,-1.2892053660205458,-3.1869742491915436
8.85556455590234,18.17985659611,12.095090262413413,-4.144489905757253,8.162174147810905,25.24797910707458,1.8634068555414014,-2.9920591578782485
11.951336509632695,28.53996654722474,16.193949270462333,-2.575488555065513,9.921541302332946,28.904661694385695,3.8981026205353815,-3.40537322795415
12.431385817014274,40.806244880832146,17.445928273685727,-3.551641349652197,10.607416144154366,30.098207626256475,4.10872123608454,-4.416727928742864
9.029290073701935,48.33808759969838,11.561418381775649,-7.408525024177593,8.132128707982357,28.02706845342698,1.8874575589182767,-6.106702339657133
1.8855459295789763,44.132651638697396,-4.14827026941056,-13.249362252322308,1.0190070766444919,22.620331850388748,-2.9372066882432337,-8.454235475100921
-7.3798141101916785,24.800294357704136,-28.809548924904295,-19.249492623876513,-10.57924036496378,14.748343891783053,-9.74327900426752,-11.14479129176716
-16.310261864401298,-6.734130657435005,-57.59332343018196,-23.464521258378014,-24.54406016630811,6.126139571867627,-17.086323486769064,-13.586598804903328
-22.666442009981253,-41.84355098776541,-83.45046960120293,-24.717608456420137,-37.50518757794089,-1.2056903982500211,-23.158410818691138,-15.158710176968814
-25.33639148112723,-70.11698481987105,-100.19212205948271,-23.070531016959496,-46.30961012806634,-5.653143245549218,-26.53701629183338,-15.51905424142016
-24.63386993274438,-84.35541601023863,-105.19159117161055,-19.631868253665306,-49.42188354899887,-6.695407905334665,-26.78508173350528,-14.754196052043687
-21.894467543084225,-83.6595122924902,-100.18139036139256,-15.869763040608431,-47.4515977436881,-5.003262028812332,-24.541268360129497,-13.281380700568459
-18.696792240964296,-72.98355837441342,-89.88216226766662,-12.882435691127945,-42.59390574533198,-1.9999626309277165,-21.088400257318874,-11.598024279445458
-16.19814605464305,-59.97030490381804,-79.57891970621961,-11.02752091640731,-37.47910814945341,0.8287422547256789,-17.727814431219162,-10.059458631767264
-14.883177367772124,-51.372486221800294,-73.1433281829975,-9.996836857778407,-34.17160365730809,2.470729125772218,-15.337345841589347,-8.800939045124784
-14.676450788840048,-50.81104791431152,-72.19404155185084,-9.143442637061302,-33.68798435367129,2.587980842555172,-14.24386696933984,-7.790871295661183
-15.172237333102418,-58.015225564391436,-76.05557250760756,-7.833981789514393,-35.88541902799307,1.4848962701262727,-14.276148727056977,-6.930236042276462
-15.804597280716727,-68.93077029642646,-81.98263625129746,-5.731020390735093,-39.46795140414825,0.000701786001711547,-14.838941709736963,-6.131560313431978
-15.959609958018621,-76.68113705622616,-85.71368957045954,-2.982068193455336,-42.17586373993235,-0.6852262001682872,-15.019923639063498,-5.357719047660357
-15.101118110269361,-73.938873697442,-82.78309479299273,-0.2382927876005051,-41.4322615903061,0.5534621944604344,-13.841464201292398,-4.618923966762443
-12.90979343572011,-56.47254552134911,-70.48855308203794,1.5946521196381842,-35.44004480705256,4.24149959075198,-10.652460374683837,-3.929637473386655
-9.364338476715925,-26.066644388361837,-49.51448442183689,1.823159631889174,-24.20532258372785,9.892732189371575,-5.46466839113489,-3.2547352659712936
-4.723869252260491,9.42799445422857,-24.030095981008863,0.3875832945376292,-9.79545893760849,16.071295540225908,0.9911983136338071,-2.508697465383369
0.5531499033792264,39.547585211200165,0.04034691945438293,-2.0585275966841947,4.441071356847412,20.98082495345849,7.539596251634853,-1.649291792357071
5.896605708691532,56.338142852840534,17.65773377949576,-4.489191887987049,15.298960725284921,23.278697514076516,13.008564817666239,-0.8128962167393753
10.702108155007327,58.04683239142434,26.71699145064047,-6.045006390527472,21.00054354541151,22.659265747681097,16.628991078155163,-0.35418448599002095
14.415931083348353,49.21951391554591,28.43225992781657,-6.420008335979749,21.691634647121482,19.905449957402944,18.243137024657994,-0.682759202438603
16.63933252940323,37.43989267286187,26.06623782129592,-5.8764010197918175,19.01748360175846,16.438552176765842,18.30650007299402,-1.9431791761366708
17.231491529916816,29.047236067855973,22.985749421639937,-4.940998627850284,15.172309896050407,13.664363967621119,17.731972935146107,-3.7505900936786043
16.357623097380156,26.501128559690958,21.23697329906795,-4.046512899343744,11.996300393137147,12.448449867260702,17.605878458325684,-5.2258676812730345
14.428891254118698,28.5164803964808,21.216363331870088,-3.372402299522674,10.469316049151868,12.879672278726547,18.781512694367564,-5.4100422219657816
11.941265706132478,32.058133056661326,22.18435422862909,-2.9318298121155397,10.608479070525416,14.296955624198745,21.432714172554164,-3.862347934807866
9.308762645255367,34.428021171168986,23.03314455239698,-2.7344916464803526,11.645295436527077,15.521153725672688,24.803743974756035,-1.0554429498844051
6.807562169968301,34.3708971394315,22.948384185150754,-2.8278355238538637,12.436555629221521,15.289687919725598,27.429580271149693,1.7510203338313395
4.651986701215695,32.24515320434774,21.878370104448102,-3.186860381559713,12.07220437691771,12.84440603744746,27.862233796067297,3.1548597485704084
3.0944976641399538,29.674284613189805,20.686293050589185,-3.5949247102232045,10.448768750225728,8.433751891214312,25.53855664793228,2.4077838414504384
2.4185157906821493,28.77920331288322,20.76349175991993,-3.66237674871928,8.41769398649408,3.372864304713053,21.213392139676063,-0.1327870816544506
2.803845385995762,31.00256035372988,23.136096936475212,-2.9928666037761014,7.301990332472277,-0.5166047466731748,16.606785021189577,-3.184896026238332
4.169758623976325,36.011383506652564,27.587610524728387,-1.3919020507281004,8.035358026648137,-1.8558989802529597,13.443223582222606,-5.245468935228825
6.116777342541753,41.506223682153916,32.47217448556965,0.9893674605319437,10.493499521208845,-0.5060920177626762,12.482904030841434,-5.392662094073078
8.006821696860388,44.28907233425966,35.43251443587919,3.6284383384521326,13.456559621961542,2.2735883693326584,13.144710957518473,-3.7297216062814362
9.146646059082222,42.0053393600457,34.586768486722285,5.7490455293067635,15.210914375908684,4.41839297456818,13.932743166672786,-1.2474952103783559
9.019943786942676,34.54325213263657,29.518973441532438,6.5823720082961845,14.447431209899019,4.099736245643796,13.395438812603985,0.7767612183620702
7.501670894350088,24.457999578119512,21.662752554610467,5.688802740255577,11.023065332270399,0.6916740924750138,11.052524042756385,1.4747249252161099
4.950090749850308,16.3279131768825,13.959994278462013,3.1619756877783325,6.219973582966441,-4.8360606358908615,7.743122885302978,0.7774757642550613
2.0715824736096167,15.068943060320557,9.756797985779283,-0.4312608073247472,2.265931009209164,-10.354652701499656,5.157124978526053,-0.6884698962662326
-0.4302893840239151,23.30660293255433,11.059227295040644,-4.327221160564796,1.1569831611089567,-13.692576337596416,4.780764418310697,-2.069418388372612
-2.2283425681826627,38.611054734487965,16.80184503087419,-7.827875203692506,3.2837876809016913,-13.863048783090818,6.875506194659984,-2.773877653139996
-3.5044420861424004,52.413026494768104,22.31238375336107,-10.358156195381463,6.720556987594618,-11.680286380361483,10.148338986201313,-2.681460570241127
-4.729256220552134,52.37391968004358,20.898028810572512,-11.367279795577724,7.8544966838443955,-9.348286862464729,12.373340281732503,-2.0141660979371676
-6.246361916806169,28.08303182424572,7.204217743313172,-10.308449395680457,3.238526699355902,-9.230528362165039,11.619927780638704,-1.0523936179278373
-7.972253083250635,-22.716599400296666,-19.45336512244584,-6.852787970910392,-8.347647309188376,-12.528016031440647,7.347087231584818,0.06404312830420801
-9.431329429304954,-91.34536345520547,-53.95704877281272,-1.2259917597531695,-24.928965281827306,-18.643657431454518,0.7097888288395958,1.3372533804595983
-10.089060189593221,-161.1531833866606,-87.42918133534064,5.630770042031795,-42.14237482500899,-25.571866540347788,-6.077133670434308,2.778344882519487
-9.730596709829852,-214.96326429485723,-111.40050881576668,12.297121857126754,-55.376940611870474,-31.024401126359937,-10.900092286234669,4.289694226870323
-8.611164457857273,-242.76115257467853,-121.65383630477363,17.444570257072062,-61.95336033812299,-33.58537688389132,-12.731949896662345,5.6677894195034195
-7.286203849916624,-245.23217522622218,-119.54268573003404,20.414286380019423,-62.078067272016725,-33.23603909687896,-11.910832623918498,6.715630270326085
-6.272019678594151,-231.54751960635815,-110.32244215527605,21.438182103004593,-58.183717807284765,-31.055461526269752,-9.67375428255436,7.362892160273627
-5.7957477526456485,-213.49576530001957,-99.94516802225101,21.37844663638242,-53.32257574149454,-28.441955699466284,-7.36341066468317,7.695801941663246
-5.781107186279425,-199.9073812790557,-92.4259690165721,21.194373572468148,-49.7208830087732,-26.415439244230537,-5.827688501763298,7.884913060342219
-6.00336665598519,-194.1846305019595,-88.97305738245922,21.500412699629493,-48.195687098816734,-25.3442866350854,-5.260498070106168,8.08269076472075
-6.243593477517725,-195.04900574442118,-88.62427744992057,22.43864835375751,-48.3823856023434,-25.05841041638849,-5.381728247421321,8.367602092280254
-6.351830930792854,-198.81362290976074,-89.42797738891711,23.81483355572382,-49.30769969275717,-25.114530448957538,-5.718789607471004,8.748280242559776
-6.258219497850147,-201.6138307761252,-89.49447687813125,25.30572177635225,-49.94908504846353,-25.048007401702396,-5.84646174988214,9.18966126801895
-5.9907578963544115,-201.02459306299042,-87.75295565441735,26.616622097278178,-49.671983932504595,-24.572435167337577,-5.556382832119185,9.632570469419393
-5.679452327661938,-196.9202494864207,-84.32596314233214,27.591011258717394,-48.47825000786069,-23.696293655762624,-4.928081742587471,10.015332661972598
-5.491602094727023,-191.2530739246153,-80.30304201613431,28.2828921679981,-46.92840849414513,-22.68081109689165,-4.245287872980088,10.309229475339551
-5.516744369257356,-186.6360337339082,-76.91818346620347,28.935413261282807,-45.71501940912535,-21.826132521043373,-3.776097593178255,10.546224289453994
-5.700155006833401,-184.49755997202152,-74.6598913574264,29.822553558688522,-45.15549243937715,-21.229747982450473,-3.568357813944057,10.803006961378165
-5.889623998439912,-184.13706383542754,-73.00456736831008,31.036331057025052,-44.99176281447261,-20.71813153590088,-3.4276564928371998,11.142011268800209
-5.945311668907839,-183.35897212548406,-70.93564811631117,32.38934399462248,-44.62919719794495,-20.005627620622594,-3.0893164424115516,11.557480943577673
-5.811963839843618,-180.059936324698,-67.72983221614336,33.523220627905864,-43.5741926593585,-18.931308956018484,-2.428494218419964,11.973269854394662
-5.523192635973978,-173.5676545552784,-63.400228472789664,34.142333148302264,-41.73986298222434,-17.58498093152285,-1.551745204818766,12.290036569361595
-5.19038515072201,-165.1090873639534,-58.67239029205341,34.21229472082823,-39.511725656574136,-16.270884007775727,-0.7488334577898512,12.44213497094465
-5.005415344935782,-157.53327687854335,-54.7310679597725,34.02969467021257,-37.65255975232334,-15.378809539412455,-0.372593609806813,12.435576107725238
-5.198965952786245,-154.39638925978448,-52.81616241922993,34.15823513556961,-37.05889091944127,-15.21232086792938,-0.6787883270519485,12.366249727581028
-5.893239849386037,-158.18165550594819,-53.50780315847944,35.22895414415602,-38.27748345027233,-15.768363403882386,-1.6197050831895285,12.413921357221204
-6.9117616535725395,-167.88266080282418,-55.81912622390989,37.58793073545256,-40.86600595401036,-16.530887949313456,-2.6691772592338063,12.782640755226078
-7.718862516266746,-177.39044678428812,-56.80852877506096,40.87680025805863,-43.03860438061175,-16.4795562667413,-2.8754623272924063,13.570134320101525
-7.603948351469284,-176.59547143702764,-52.472580667196176,43.81088230643021,-42.09979961105029,-14.490036219232312,-1.279296595660368,14.61662023273911
-6.03398180882194,-155.68101121348306,-39.799714107859884,44.45131120598038,-35.68522164712111,-10.018252601609074,2.4469756457176013,15.443953763069365
-2.958034653846805,-110.58271258138511,-18.77028425187149,41.00400181752149,-23.149341544459162,-3.640785822010194,7.551170468346311,15.36969355835252
1.11678258198668,-46.217169931371565,7.125551834154697,32.77316405385821,-6.195140272050597,2.998463850950583,12.328424426584236,13.769715373670916
5.30660511968496,24.820917678818002,32.335842482051014,20.69471414268586,11.722543016347071,7.925837966779409,14.860709353153611,10.357871251455606
8.684382164140004,87.58754361758673,51.819033997756186,7.079082020585361,26.909302664979727,9.87062659139744,13.993870772534684,5.339253114736486
10.610431813286024,131.15248690497558,63.204245723261366,-5.326304390640221,36.99353283061862,8.967407072003407,9.996895944701809,-0.6227011007367804
10.926084556066009,152.4950075152858,67.36146901476711,-14.432360126357699,41.6914981742026,6.685966336895628,4.515177324778259,-6.579630957571793
9.94948692030651,156.15618924589666,67.29149281639542,-19.477272462717202,42.47567416945763,5.034189794767445,-0.1631550924032773,-11.517691929637467
8.308041958287756,150.58480818136104,66.28978349996581,-20.993831032827543,41.53731617468798,5.538913324048657,-2.116871691486407,-14.555951823267137
6.702627520718278,143.85115307490966,66.59719965622213,-20.240356607296622,40.76964040349487,8.60809716208779,-0.5453637453007141,-15.113463019602587
5.692456250298137,141.02205847297492,69.0920469354628,-18.52017815080002,41.265957558182734,13.550618981824078,4.049617118071648,-13.055813673126485
5.552305041715813,143.70737788174065,73.67412871305365,-16.75151856223755,43.318588274520664,19.069966863217793,10.211709463883926,-8.798585961287497
6.2318550347155455,150.89524098665228,79.68341933926239,-15.386107602244667,46.618543220000404,23.838284616240326,16.13940358768012,-3.3005708086670213
7.429567654909213,160.14680324938664,86.10767035983916,-14.55140823574653,50.466613975758754,26.89377840357054,20.294497075764358,2.1183686096728533
8.751032431426795,168.848647714568,91.80761955332775,-14.23635899383721,54.030490084209696,27.842949446582402,21.85644800163288,6.135195931761183
9.875115947547062,175.40354799108965,95.9412306798645,-14.40356563708216,56.690280377460475,26.927955042448477,20.93723098587997,7.865198246205551
10.652032076054613,179.89822043756035,98.36870692014712,-14.993105821152799,58.334527842663256,24.946111374388405,18.497442617337583,7.224281371181172
11.108408311752695,183.7621870774567,99.67057984420687,-15.856017702371865,59.389934100255694,22.976442000476247,15.97222381851025,5.034109165802127
11.38096764647499,188.61753097719094,100.72885160942386,-16.720417145554297,60.53221578929436,21.969001155339594,14.731978979718198,2.7519831603731215
11.608993247513094,195.21275388281714,102.20806142610083,-17.296125676301692,62.26147004100309,22.374435087225404,15.579345087867223,1.8521774779411095
11.817208840334471,203.1806142704864,104.2940912947252,-17.505755065093236,64.59785979362259,23.990967248779633,18.459459819400433,3.0844569547448932
11.848679117666213,211.52991795250887,106.76655023381204,-17.66020158697938,67.04454738603228,26.089040896757997,22.47435889724876,5.98384066760129
11.423271582765045,219.25001732077158,109.26859151835315,-18.362293377331945,68.8262259381739,27.75353000154749,26.209859922678454,8.964244010618565
10.329423905966129,225.66613802268395,111.63501771160412,-20.124400926813816,69.3199513122405,28.318428645420582,28.300309415859196,10.04571123963004
8.623228324829421,230.66613372022996,114.150615536416,-22.969815122946056,68.4958143838475,27.724626214796487,28.035900052652025,7.875596340885406
6.647516840062414,234.88783875804825,117.52736416365165,-26.361060270775326,67.08506615551059,26.6031128878777,25.712767642653098,2.4782679380526433
4.8061964290580494,239.56812592638207,122.42901884813134,-29.546352237828646,66.25516998538627,25.964239515683232,22.485637547080255,-4.697906289866713
3.2557461128941516,245.7934672311057,128.7279309181786,-32.05644650080627,66.89432005836153,26.6093177034351,19.76345427659917,-11.442756505246576
1.783708945730936,253.55522626972774,135.0902609871082,-33.957298733174234,68.98099579966765,28.628729319730365,18.509843977951615,-15.75139597708431
0.005510365188308167,261.498708325463,139.42765472602494,-35.67753077059141,71.55047815931468,31.356844454637265,18.88590758369416,-16.579496700810004
-2.256331308076029,267.7968235819306,140.10763834812553,-37.5689233384234,73.34657364749592,33.83999536094333,20.411515034475393,-14.084117488474893
-4.700098429112068,271.5493483268194,137.13930968137595,-39.53386701774925,73.70886069028244,35.47775741653787,22.443930940818724,-9.375045450711099
-6.588862735705066,273.63657094268257,132.51114492414104,-40.976505138710586,73.07775847985343,36.36907833693636,24.595620522282086,-4.0093398627426025
-7.100016094258716,276.510105338802,129.4700582868677,-41.1229464919124,72.81634414448246,37.14537407130426,26.841875416488598,0.5230500464200512
-5.789357209476493,283.2294833476574,131.1663242812639,-39.552812101080924,74.50715583532062,38.46661526888124,29.333386961358872,3.171781906942991
-2.928974955351467,296.2273819804929,139.24102482614703,-36.65172407162244,79.10295549813453,40.55465679158587,32.09712428747872,3.5072077786488047
0.46166452294353144,315.94167486577027,152.75869744864605,-33.673172239238276,86.26270951541018,43.02603671024087,34.81063662497716,1.7195903351859745
