FZ,C3,CZ,C4,PZ,PO7,OZ,PO8
-3.431684026858758,-17.015078025326783,-12.783271671174422,-4.717595221152017,-7.679917730397357,-5.119715421055119,-5.825205912850939,-1.0581895339868819
-17.114368717269933,-97.74174791035605,-76.0960404497047,-13.696958402248729,-47.57521669444969,-24.764614987938277,-26.886193599681825,-7.359354386114613
-28.159400756719926,-159.84798488462766,-124.9717654505973,-21.143659531393027,-78.8286347473251,-40.8029652154329,-43.98820609190233,-12.746159003983488
-35.12805367076621,-192.75929271865567,-151.30585083562679,-26.269283364173923,-96.5841252921228,-51.15122059132612,-54.80390104548693,-16.70099213108353
-38.26985541686625,-197.66722336703566,-156.1621678023436,-29.28571311507728,-101.45244030658135,-55.899482785795634,-59.347699894684744,-19.235260286403204
-39.07331767752818,-185.0620216958554,-147.70295912235778,-31.067262057059175,-98.22432281672275,-56.75504656749399,-59.423486287637786,-20.70408109814886
-39.283427363016585,-168.0985225775803,-135.94452128833473,-32.54143964845474,-92.6784521796026,-55.757178865446434,-57.31577717997937,-21.490922935867903
-40.052621445975696,-156.12136038091685,-127.80907134696015,-34.240756930812374,-88.62553707176406,-54.165396103964795,-54.63756506862956,-21.808953019922605
-41.65351272456531,-151.91295485794723,-125.1815041695586,-36.21458273468016,-86.86272683800533,-52.18007581220893,-51.96973612871045,-21.716130814232056
-43.711119161770284,-153.11241551230376,-126.16812496264525,-38.201313294649516,-86.1210575176154,-49.45504549445402,-49.23921735482981,-21.246286729924236
-45.62024114729757,-155.51265681690083,-127.68972862573042,-39.85703286681008,-84.7591562627135,-45.80857634605392,-46.29638245385363,-20.49808556848993
-46.859774002232676,-155.66751794267302,-127.43772605195926,-40.92173260970973,-81.90077563235936,-41.55504583145818,-43.21534173364726,-19.61503293279233
-47.12519396628246,-151.91395731663832,-124.54791805286474,-41.29974138563234,-77.62863777563228,-37.32886562300319,-40.24292265393412,-18.704922895840337
-46.331711727250514,-144.3731526783594,-119.44112166162365,-41.04751763831841,-72.63322772687977,-33.677919170170355,-37.60880165091275,-17.77962671727054
-44.54681276325425,-134.54141802459694,-113.32527518972617,-40.27242925044205,-67.76808580834098,-30.770344784589607,-35.39310804689601,-16.75865933192201
-41.90011191993773,-124.51290187626866,-107.48371177978807,-39.014562821941446,-63.65402020684078,-28.38291523283701,-33.50715094941899,-15.539830603444456
-38.53957844765237,-115.9212308339635,-102.52719037366623,-37.23209995963877,-60.393961569411964,-26.152876622249046,-31.78210041281857,-14.11583221654377
-34.6838416389681,-109.23270959270221,-98.0998403758801,-34.931327900087936,-57.590459486193815,-23.95424618877286,-30.152015320719617,-12.68154044617908
-30.719449611691804,-103.9880883846954,-93.36108499330804,-32.325186080038186,-54.76205296899973,-22.168999044958376,-28.842753211654504,-11.645230280418588
-27.209389064494133,-99.69567442573086,-87.85885424145661,-29.8507514694564,-51.86556991244603,-21.61372905472408,-28.386719363425918,-11.487819323733595
-24.737225405111417,-96.38856194781944,-81.99301606090916,-28.00665362501782,-49.43379351209477,-23.064979214639905,-29.352007778894382,-12.52238713541491
-23.670435805641638,-94.31572296593242,-76.71504742507064,-27.143390522163696,-48.178726529171996,-26.645835847525486,-31.919270036042004,-14.702384822741003
-24.009714929871922,-93.29895372846052,-72.89571116846633,-27.357134870360525,-48.44523087971244,-31.514277002255202,-35.620429351571694,-17.604105165010935
-25.404653785986163,-92.60964627441574,-70.96940144423253,-28.499759588610285,-49.99860075209789,-36.11191555600382,-39.45017162764441,-20.577921358024096
-27.273033667446803,-91.4530828228366,-70.92533777031322,-30.213562894674173,-52.20717646167307,-38.822219877464796,-42.26587499741732,-22.953737243894736
-28.93139638445026,-89.38045721823902,-72.29180588163563,-31.95456493846503,-54.30136242156293,-38.62656437410349,-43.210263626187114,-24.198909599106944
-29.73243688951621,-86.18839966589263,-74.02415842623563,-33.08170256999759,-55.49939069162103,-35.44143260939835,-41.97079798871849,-24.016146074138184
-29.251585886207014,-81.68087766203743,-74.67755926206443,-33.07516872750125,-55.13357727885022,-30.09273081359788,-38.860745028680135,-22.41117854754898
-27.47819783458716,-75.84499342770815,-73.09889633527729,-31.794042789623166,-52.9323556156729,-24.02681597848132,-34.7424696533022,-19.715756618331724
-24.861230762266413,-69.26781308873859,-69.17476017015156,-29.580287498388117,-49.26585123308206,-18.825292295778933,-30.74676995356752,-16.509344378414735
-22.1117702062771,-63.066825562108946,-63.87083565410433,-27.109731290440756,-44.98901538713636,-15.598667688260322,-27.794746356351183,-13.430888739092936
-19.863067010466906,-58.11212802718853,-58.430929784145114,-25.091580545999562,-40.8719096469297,-14.49260362131073,-26.146446383325696,-10.970309020933751
-18.41959321812103,-54.28934894376358,-53.48997864039811,-24.011438554005508,-37.10619304457711,-14.641775535420567,-25.320242066565903,-9.357840014658434
-17.737318008250437,-50.66252518816069,-48.91948835265234,-24.024690703952434,-33.364358230849774,-14.696383040473703,-24.506495751958106,-8.587227435582294
-17.571979955609017,-46.4042237565841,-44.39072532016539,-24.975416611112692,-29.32120248048225,-13.62174426713515,-23.1857154533348,-8.508998345100837
-17.637231026497787,-41.492183167486935,-39.93132446741468,-26.48652326173365,-25.087588252963755,-11.23834259202691,-21.47517764975671,-8.91651919243432
-17.696245296952196,-36.514108165425185,-35.955411137894345,-28.108429178754598,-21.17835796415824,-8.17954689448895,-19.972270667311985,-9.606203701346656
-17.61844379436996,-31.991743652818403,-32.95694732512317,-29.50220664084622,-18.168923229242235,-5.391487052803202,-19.281144866365885,-10.428149959498512
-17.425969679037145,-28.05374472798092,-31.307272874408525,-30.56129833126271,-16.41875664448982,-3.563792232555791,-19.59469818147552,-11.315905795350485
-17.282900733072037,-24.623270935036924,-31.190972646931318,-31.37280747243442,-15.973248019992637,-2.79650634138105,-20.557247908245067,-12.258554171649797
-17.387410365433166,-21.565445458830062,-32.397310589846846,-32.04806902515446,-16.483549288947845,-2.5835633617939946,-21.40361511108403,-13.219651921215608
-17.828925483511703,-18.469370854927337,-34.005876795939976,-32.58401051697588,-17.121304019556774,-2.0707518761478036,-21.28352098486198,-14.07735720939817
-18.52975287734106,-14.51554934493081,-34.48324691686285,-32.88150485406984,-16.75401321529771,-0.5138682806788676,-19.68245012104387,-14.65980718961573
-19.309350305946236,-8.987535984162124,-32.504629296565945,-32.86773634128702,-14.541280905829087,2.226690211544159,-16.784426739019196,-14.856668267846848
-19.981610620667965,-2.1435306184204928,-27.984660832121627,-32.55554430354557,-10.605211643578523,5.443283846002415,-13.531191859764617,-14.699905446608408
-20.38268015732542,4.524114454051605,-22.348837816473576,-31.96121736929134,-6.147317813927058,7.832185112323042,-11.223475466891697,-14.329067436195038
-20.3418323107225,9.136710682159137,-17.670582882926148,-30.984709007261973,-2.7789288250551456,8.178932183742996,-10.824062482609449,-13.869613123889867
-19.695233508641287,10.73274431900002,-15.346237450438933,-29.414311627874206,-1.5362935713034331,6.086918447642537,-12.391313056334004,-13.335108909628524
-18.385654937715756,9.940826216363678,-15.327186097309363,-27.091179815330502,-2.300355784270444,2.308423509858322,-15.006374038840429,-12.635392160119148
-16.567127356148006,8.663335897494566,-16.288364900630835,-24.112403058744388,-3.9148061846366073,-1.4931704625246098,-17.20534216908247,-11.677986877339068
-14.605372448345605,9.272330874550269,-16.35080087226786,-20.92517799821188,-4.75385004553843,-3.401318522404523,-17.6288234516882,-10.487500275157617
-12.9631700247121,13.768448329714175,-13.911961849025305,-18.250858076270923,-3.4055918785588637,-2.048965468293979,-15.587490707714045,-9.271913910534135
-12.050406523447869,22.771714406986227,-8.509363442643082,-16.851043920887438,0.6275099690037267,2.6845736771078035,-11.395876998384933,-8.394060959249508
-12.094510831275148,34.29828238821289,-1.6179138241577982,-17.17250747983463,6.308023271803021,9.336559104922253,-6.3971586364406,-8.229473157991915
-13.015596357016982,43.204171782036326,3.233785929747776,-18.96616060520077,10.951420255645827,15.161567443932984,-2.5711897692004992,-8.93395413283687
-14.310294133774084,42.614345941787455,1.7566522613297788,-21.093545211307067,11.137653356376212,17.172849964061932,-1.7107304186064543,-10.227277951430304
-15.056181287564009,27.461946827754247,-8.600448018310026,-21.771916997631294,4.538119609712461,13.574774476634815,-4.46485055528316,-11.362881738065477
-14.177909849823761,-1.797936075587427,-26.45432010398178,-19.30929711521326,-8.371472262252432,4.817135561023159,-9.821639819530255,-11.39347882667384
-10.952104616419376,-38.0843367457244,-46.37070972294339,-13.013615369867644,-24.0027459843124,-6.439405691009698,-15.470756780864505,-9.647612368734986
-5.485938015620461,-70.4984978567219,-61.31147427948406,-3.7262790205903498,-37.212037203019165,-16.53706907607305,-18.93854249446679,-6.143307263476207
1.172714139321892,-89.611505836435,-66.26451579754534,6.4197185592139006,-43.87530420747764,-22.549029011184196,-18.840693833655855,-1.6576856373616362
7.4366053024933585,-92.00361394340048,-60.767247344466824,14.94545154369385,-42.89423803939689,-23.532568984326407,-15.497580987884701,2.6211234389376403
11.896806487186739,-81.31845657169619,-48.77390566371884,20.146386420849492,-36.43277191078684,-20.64973967359279,-10.581356556079209,5.660263518379293
13.940673090761628,-65.45352950026114,-36.11650789712471,21.74910921078776,-28.37842554104613,-16.228128167880893,-6.090722763002126,7.030412935391478
13.91676634517682,-52.00646376035223,-27.35184126279201,20.782084257041117,-22.155784498702985,-12.449052797906042,-3.3357632045810504,6.993819951507929
12.79672910430887,-44.93364514291349,-23.96893599642866,18.84543707702513,-19.28385865227905,-10.448894702411726,-2.5109895171782433,6.236657813543871
11.603861515161,-44.038275305588456,-24.69490180212785,17.293674259859696,-19.328061008873046,-10.196043407679772,-2.956018712781799,5.4639154945284165
10.97587312852204,-46.66870910505353,-27.084562779056057,16.78049244147206,-20.83324178123211,-10.946618465466983,-3.7487038045196712,5.107503985234674
11.054951321548264,-49.81567702419628,-29.00897765025202,17.271532562346817,-22.338041705776583,-11.822953469923746,-4.186367202498449,5.258117433560893
11.63597262182949,-51.35704082795509,-29.309049355776775,18.3298935053031,-22.91426145943017,-12.19876266761661,-3.964187213403365,5.763925314425816
12.383183824729858,-50.43171222431206,-27.804015565789985,19.429458348535075,-22.276466097577945,-11.846335300341632,-3.1353316663222985,6.377657530141875
12.993527171030086,-47.416115391129,-25.088857703710655,20.17951110526036,-20.712517640042623,-10.919844095769676,-1.991794352584253,6.878755062556265
13.295744805249,-43.60833009789978,-22.205913891866086,20.4468300141325,-18.891353371085927,-9.812413054907728,-0.9077128375593653,7.153463490014488
13.296752176035458,-40.483294266518364,-20.103364450050936,20.363300134186375,-17.494715225935707,-8.91729458496342,-0.15288825327643185,7.223675716538509
13.151636781506586,-38.797881280392815,-19.093781390282725,20.20515323566638,-16.816893668274645,-8.408865128619798,0.24064368306397213,7.209037655738795
13.050306396829214,-38.243463312870894,-18.76390728861816,20.203122924104008,-16.650075380260887,-8.19483154772005,0.4503230348163558,7.237411862971379
13.091521090785749,-37.963387411878124,-18.45111232804399,20.416474068941596,-16.567135425103206,-8.063073333758,0.6887587332188504,7.365623139763547
13.245451866763535,-37.38024557738754,-17.81476965903923,20.75815255524494,-16.31098016469767,-7.868997505266547,1.0450394406738668,7.569115870714147
13.424486948913282,-36.496132625931054,-16.94895162325341,21.11646864586874,-15.906733299006518,-7.593038132886324,1.4792642127370952,7.79381893386116
13.574091507744791,-35.520137962185956,-16.045370848155937,21.439236718255565,-15.464319086009636,-7.264658496038685,1.9308538500914223,8.007027361449536
13.691534011493411,-34.4608693809728,-15.11493345495219,21.719197215245643,-14.990349701338175,-6.891066424369923,2.3884822228135545,8.201495575220022
13.780906517634953,-33.215725690493166,-14.093558915936805,21.9452570439232,-14.442892209910381,-6.478695423168796,2.8536136726580987,8.371286681692007
13.825969675231095,-31.91363791156639,-13.08603369996505,22.104106845998523,-13.890838787578605,-6.08296379295601,3.284395808016065,8.505793009311537
13.818893578710915,-30.915100251564873,-12.330429487037174,22.221332631541177,-13.50026199434245,-5.782551774392574,3.6221870525919133,8.60992437796455
13.792931007500945,-30.40187228130071,-11.90198761677748,22.363367871169437,-13.339145616225345,-5.594506393006057,3.8697679675066707,8.713617802008732
13.7987626003214,-30.12079213439955,-11.580950177055303,22.57667078937535,-13.27399175856397,-5.446892595559017,4.104010564073048,8.846821726520135
13.847148036453506,-29.67254586794121,-11.102173708203185,22.836831010851974,-13.121367980612778,-5.25790592146275,4.3913210177336595,9.007337558381375
13.895009237137055,-28.988158056543515,-10.471127767106866,23.077549971455188,-12.864946218252697,-5.025376909324596,4.712105259269509,9.16418285431762
13.898129762929706,-28.360760105674014,-9.922142210144537,23.266376306212926,-12.64911036350583,-4.812021146299327,4.995045003401417,9.294377868723897
13.863561111236775,-27.998070659037534,-9.576231432148676,23.431673099491242,-12.561051902851238,-4.650375759900589,5.215578404365872,9.40667818059588
13.833644444466538,-27.717199803666425,-9.268840684812263,23.611046686951372,-12.503481284050794,-4.498843331491747,5.425760581306315,9.523294800340869
13.825111693997647,-27.20902470106595,-8.787803691830577,23.796646693847254,-12.336675202584022,-4.3083027846976485,5.676177614073388,9.646960635215386
13.806551577695126,-26.513038134569875,-8.19776996536358,23.95346339663132,-12.096716830103734,-4.105188378051601,5.938103205260608,9.759093042541137
13.743745997537172,-26.04363066884626,-7.8025445043643336,24.082454176162862,-11.986430084840611,-3.9726379657749997,6.133660126669335,9.850383233607525
13.649011949237453,-26.10952171409851,-7.783916994340863,24.23537955722121,-12.139603340111588,-3.9498801768121465,6.2342624452810895,9.939379780113992
13.566098004028634,-26.547615714464673,-7.987747538153921,24.453243951042662,-12.462167599705465,-3.9813078479966446,6.29578420767157,10.050848582785957
13.512081597025011,-26.92597290580185,-8.118286365101593,24.706731593470785,-12.744685237487491,-3.978993030960988,6.387617594197901,10.181711072749556
13.457149074551157,-27.003611644167325,-8.050988020079643,24.91866284681045,-12.87739389665059,-3.911341221041095,6.517051351527398,10.300872996692242
13.369491462953652,-26.834966614028687,-7.8487337750397135,25.04237022563433,-12.886474107968013,-3.8051608141008266,6.649522603307419,10.384383852899669
13.260583605500615,-26.473767013216005,-7.528630412887644,25.10028396323868,-12.794589897155747,-3.6798054005682204,6.782652463228947,10.440518514027755
13.1649132274833,-25.837513263146718,-7.006020748848437,25.14623886345845,-12.57412968334697,-3.530135272492399,6.951369109785972,10.494546266819802
13.081294215800208,-25.045701343016137,-6.375967505188583,25.216789105956057,-12.314465939292408,-3.3956559664198394,7.142204841355727,10.55827154633442
12.961085517838706,-24.75866173510103,-6.1323308851105045,25.337976033889905,-12.358452450614918,-3.405250162298313,7.240316877737332,10.627548158224725
12.768165823782946,-25.84681404822834,-6.8763651690089675,25.556048809347157,-13.108610690627602,-3.687119608933025,7.114181825614044,10.70689400442224
12.536078623660682,-28.49240756757461,-8.672923935732653,25.909684788833754,-14.591379383420431,-4.2033585306261525,6.769912386354221,10.817160803504288
12.345470893048333,-31.624560357658062,-10.718422004198171,26.342492290398667,-16.22232935242835,-4.692551664330368,6.403074089455951,10.96376054758971
12.24528786801066,-33.37492491064126,-11.730781931948354,26.66515717634332,-17.07293332222744,-4.8136119909475426,6.279160807772512,11.10310598321776
12.210128979178954,-32.2553699231975,-10.765462821192422,26.65794101430552,-16.46140573251439,-4.38367642441762,6.552883240084704,11.160333861341728
12.173549181532115,-28.173749687119102,-7.846648701008241,26.25854643845476,-14.436023517533926,-3.528134189559445,7.171050037091773,11.095086477601482
12.079685347817458,-22.75768898317519,-4.130168875168417,25.67593875700562,-11.905384296015217,-2.668976776854071,7.881523961908743,10.952730315792014
11.888581410870968,-19.035852187680902,-1.6846460810781378,25.326276493140835,-10.437041648518298,-2.3937916970837154,8.286545408974739,10.849768403700192
11.55716090336671,-20.523120347159107,-2.884895688630648,25.62619486471127,-11.740051372014715,-3.23425352480544,7.942842034986775,10.906350952941697
11.063698071447543,-29.509788164158355,-9.22694238724736,26.74653757958543,-16.762790412263925,-5.341149716158863,6.5816139685690365,11.174173740872117
10.469124996261172,-44.83451790923208,-19.78815262250808,28.401812711077444,-24.61124995194351,-8.14797105549781,4.412855093787235,11.58268045616668
9.91192425435158,-60.59194244165536,-30.414227748809864,29.739195647849982,-32.04273605947179,-10.30862787514541,2.2639130603108284,11.897498131966383
9.467074899505654,-67.6478693522749,-34.92079483761514,29.444818803708735,-34.406119985953595,-10.188119348100537,1.2759100184592354,11.709445762608587
8.958600437287103,-58.306312259435565,-28.40470230857289,26.183148573226532,-28.072314015864144,-6.820456094714229,2.1913099687334445,10.515916676981185
7.924709811435574,-31.7622493187597,-10.878019419889121,19.299824367524735,-13.08537304483725,-0.7684582184090482,4.681903301383423,7.933409532275671
5.8552147849839065,3.5859900366213804,11.474507289162657,9.439670460183379,5.894590505961015,5.820209476421229,7.28982059606568,3.974991391982723
2.606469065423327,33.58502112438151,29.01628615703191,-1.3717644498956452,21.531924588235313,10.248006153627752,8.2142941144561,-0.7707150860680292
-1.2746001628181804,46.49830544085636,34.3838320931338,-10.400107948125255,27.983072103807878,10.940259540902225,6.581944186793634,-5.214692047050662
-4.58803862301813,41.25886617027686,27.889125446642122,-15.397437277249173,24.924454082463388,8.74854727982698,3.3976787494694536,-8.132531064817638
-5.967608250230043,30.2241936119064,18.860410197855135,-15.730619159318794,18.72564045046361,6.929867822491189,1.4232053168835026,-8.693409005933976
-4.623333741775916,33.6487553180358,21.305354502034113,-12.813904022584126,19.518427455376305,9.558828028245728,3.822963408696235,-6.908357035085647
-0.930566940445847,68.17994034821874,45.826801296436734,-9.53950739300257,35.43400129889346,19.11539679231263,12.231597385532483,-3.744309027306212
3.528282503341808,135.81391471490727,92.39217180136735,-8.923395531824214,67.24668223537212,34.61992513217275,25.38669779341558,-0.7833663649451916
6.581431576592408,220.04414377941563,148.4474591879198,-12.623685649190394,106.69528212098525,51.50432391166203,39.250656303205105,0.4610952130872579
6.467766086134553,292.02689907836685,193.90770755277913,-20.089347828764605,139.73285655407213,63.47374005360903,48.70992004715877,-0.747326207461597
2.6943459913267462,323.8529368236822,210.56659488128903,-28.789010590813994,153.11512916712093,65.47403323065815,50.00434172049556,-4.0018228004471
-3.7176051473360263,301.91050089850125,190.88122102125865,-35.416230226733944,140.80357224270747,56.210201111273236,42.580473224502626,-7.935388499718585
-10.733141832094976,233.24856785236702,141.4341520533824,-37.46242837960989,106.76817202187623,38.85794519192243,29.359745033326938,-10.873788527988927
-16.269724964278915,141.79669751247843,79.41211190225695,-34.36135599857799,62.830432557798424,19.579706714401443,15.293301986499406,-11.626083446076423
-19.10262337279896,56.89403161469019,24.320344357865014,-27.645550050554323,22.93941667258346,4.652752261317381,5.018163324862475,-10.007605332177429
-19.2530573356806,0.5156561557691791,-10.439558569992382,-20.088978399604084,-2.911015347707404,-2.253038718514693,0.8782420717130077,-6.84163514175603
-17.730283637953814,-20.32697662897428,-21.88615704539101,-14.341481803939741,-12.039292351273229,-1.2705475232017442,2.284332272171502,-3.4740762795072584
-15.868800144000556,-13.058886518606178,-16.166974561642917,-11.791830973463803,-8.465446480818693,4.437580556498134,6.568916448721999,-1.0933766005089411
-14.684993485506261,7.3137828990962985,-3.4144554029684224,-12.204936575284044,0.5942171799939878,10.744218607698715,10.66390942007804,-0.2262334234114106
-14.576124165484718,26.57689471644111,7.754204088795238,-14.193395730570842,8.71204465460345,14.632587759259954,12.59108269374328,-0.6383140191977672
-15.399903896500469,36.72327912260706,13.251708312291331,-16.1179132531695,12.619803895856887,15.224922690418998,12.055890413661706,-1.6128675220212056
-16.734948367167195,36.7976165636294,13.405151441771237,-16.86062587147376,12.344009700879337,13.504240343901357,10.081686020245002,-2.386920811823408
-18.098980237932278,30.497051194721355,10.98043186243096,-16.13202917185192,9.875616529520252,11.221473658548424,8.129702312583168,-2.504519924325514
-19.052511331349802,22.909325153286836,9.036974676445222,-14.329968342102978,7.563097166036393,9.74676159517252,7.251086863445838,-1.9595608788513865
-19.25273212565715,17.991870240848648,9.524418073485556,-12.183190271584175,6.971885414164578,9.420461618644298,7.617146047735169,-1.1246201772841014
-18.518353412435104,17.243336338539645,12.705864859762531,-10.393662826637174,8.379494701329602,9.59293209405032,8.537481628840798,-0.5248306006125436
-16.876767129196043,19.545702498684832,17.27426777319664,-9.373772627535953,10.854815224990677,9.2358131935377,8.917198067853766,-0.5422752463951378
-14.531799584395806,22.1145136714482,21.102008609885583,-9.11138449530936,12.85036066523532,7.779254539865419,7.955028198533253,-1.170801782691041
-11.758846672948142,22.19748682143476,22.394777270566966,-9.197882929604463,13.088328187867456,5.685390713209261,5.721797843351228,-1.9612599963736774
-8.811321793873837,18.661189659457985,20.68810976187361,-9.032646961717518,11.295122226933021,4.342226838258876,3.235382512919538,-2.236840207256967
-5.9105065522052715,12.588136959419655,17.13184422502605,-8.138269624952052,8.368576845383895,5.244667328866719,1.9064388923362785,-1.5081483105142353
-3.3090159505819168,6.690880361095877,13.973776904256784,-6.4511767643283795,5.928658777479829,8.92832465448237,2.6491552427749405,0.13046840707331966
-1.3586965720408322,4.0613548865895375,13.598054655096014,-4.456184351304942,5.562494519225296,14.345782308238741,5.202218627164495,1.8707110899287573
-0.5169061888337544,6.83079085422613,17.487785332161867,-3.0894055247955543,8.103454673151044,19.11088088142356,8.07444317116153,2.44923864368303
-1.2507243215855581,14.953662151982666,25.292924515279978,-3.3906270779502297,13.098919722716909,20.482374626690735,9.137869752243924,0.7151880325624942
-3.818933182084518,25.321798828014106,34.274980315984266,-5.956486479178126,18.579367909919824,16.538571926008235,6.549292241030834,-3.7427652296091254
-7.966103182823282,31.883511778393995,39.70494957016052,-10.375829291483589,21.391652381972435,6.970626164709394,-0.4182285646768608,-10.213399085750039
-12.679121811663997,27.542222776450213,36.66007884297252,-14.972957079542308,18.328890377917666,-6.790670466682496,-10.953949891989087,-16.946497670280753
-16.249320481670303,7.628366637768774,22.74795444771343,-17.179268080171955,7.8037298271428,-22.069336599848956,-22.857928843286814,-21.73471671850164
-16.80602484918925,-26.778191278150846,0.20599420432227158,-14.57749442591341,-8.82635879885402,-35.81931071657631,-33.249297040908324,-22.793136026567552
-13.20530521024557,-68.00267429834982,-24.308111275855556,-6.217651783100943,-27.30311324958157,-45.57580028501171,-39.62332702387893,-19.56395531368122
-5.840151834719075,-104.55255077347233,-42.658709643227155,6.5063473258207365,-42.20063527266886,-50.17614090073189,-40.84816953531778,-13.060437218799546
3.1589382249663864,-126.32859710381007,-49.44050063995365,20.03249591641949,-49.53317763373593,-49.990730632997916,-37.62489191256972,-5.543527930831471
10.611148434316483,-129.26066747729482,-44.86447908535292,29.95159642730732,-48.685202135479486,-46.54577434080516,-32.113993754635274,0.36985359199912154
13.643156451696427,-116.49662269045655,-34.34897367202373,32.90473174796231,-42.39900683735921,-41.6738020005307,-26.83902890471638,2.781203029488551
11.052364297009655,-95.51237521451657,-24.97803864683235,28.097563530828467,-34.80591176461442,-36.61215607256116,-23.422098206066707,1.2682641233444791
3.916252544869988,-73.36288167655309,-21.208827190355024,17.62812155354577,-28.868174586096377,-31.58243049685203,-21.887214479836956,-3.032201743796944
-4.932134111236643,-53.52218121926083,-22.774633657373,5.467098350718126,-25.022455435229254,-26.137931513360883,-20.971683661575987,-8.03412758974946
-12.287782653760686,-36.27244782232006,-26.065525746792797,-4.333032512295648,-21.862299487667038,-20.033670459626876,-19.230598637357016,-11.666056286944746
-16.03332428197573,-21.621541926450465,-27.644428136058877,-9.250142258266326,-18.103113092914718,-13.942265512917666,-16.164461215922078,-12.69290046167494
-15.873715038398634,-11.733884468051059,-27.04178646977002,-8.972797028639558,-14.119327898260984,-9.392538892310519,-12.579356447988722,-11.027473260219077
-13.023514115119259,-10.348991180305767,-26.647202760546207,-4.996720655063639,-11.730416954687952,-7.8450265759419775,-9.92350521030619,-7.481036650677224
-9.173719333931679,-19.130012150388538,-28.75837238655884,0.41141299452233276,-12.285057540685353,-9.458050455450655,-9.048331450372077,-3.203678705904848
-5.466750493306756,-33.544220233201216,-32.04097924171356,5.192402158456893,-14.463177542001155,-12.40383910842643,-9.255686772208694,0.8203938446391008
-2.1226400968588246,-41.89050184055401,-30.324213325836915,7.948394798009515,-13.651548665783318,-13.360229817634378,-8.365836597055555,3.9707924389915528
1.1320177201543553,-29.551237123807905,-15.290064154697802,7.872864452071341,-3.8847224901289334,-9.137110875491086,-3.934056479237429,5.871859331902605
4.240341863930849,12.857035416494197,18.02088886334732,4.510969278540246,18.37177427927692,1.3395039775099427,5.006420408633878,6.154297847074932
6.267341537284373,81.90870813032797,66.18793200563397,-2.2788153981176476,50.80481165916289,15.82982183720314,16.740752639382567,4.3522123799418635
5.60964616483798,159.47197933211706,116.43205425009492,-12.062567970821267,84.61442904593041,29.243453423167793,27.10226158143271,0.08207688429218513
0.935139815388936,218.88309527039337,151.1519109741007,-23.492398666494626,107.67233209099744,35.80405769123441,31.274041121005588,-6.552371301905898
-7.691772595853692,236.87713736253914,156.11508839793566,-34.25697924645364,110.22067406907837,31.960228128897064,26.34395563530072,-14.5744508656521
-18.25130536759407,205.09380362886012,127.90327448172907,-41.55610968967425,90.06889683221434,18.496702508308065,13.201341856374592,-22.07960242456637
-27.271939211035527,134.62924306529857,76.22722902891297,-43.01923964104986,54.21121698374008,0.5583639988471949,-3.426218545316569,-26.698185618702603
-31.286605051775553,50.87692480956812,19.553585851497086,-37.688681125112645,15.730604181604726,-14.609546902720606,-17.00086814084205,-26.480618891944413
-28.52747688193655,-18.46724260333254,-23.5843127019405,-26.58827030981049,-12.37334794622604,-21.078242557648252,-22.25553347847329,-20.819321760696173
-19.92854294600446,-55.555106049737624,-42.75778530482338,-12.55119519148767,-23.009454201223463,-16.973642611045527,-17.661653626788016,-10.912454144051983
-8.837509076169102,-58.41058239678391,-39.020235047507114,0.6939999730225398,-17.394830726627696,-5.088802058464695,-5.961886876484781,0.5504548973862892
0.4557887384741745,-38.574939485849946,-22.261893999220153,9.830307821733095,-3.1057350699923614,8.835279580524917,7.42798212617309,10.403483676049813
4.607577986880191,-12.949219608729916,-4.779725295317745,13.094184428706107,10.6379169845832,19.06380659272467,17.150125241354,16.243660474632215
2.551970548460694,4.932962102229049,4.945471181931844,10.755759401319512,17.56044837589552,22.39485392139185,20.240907535705713,17.279077290912927
-4.330987518941384,9.732017570398714,5.0802346382582915,4.764052007430199,16.437843266449953,19.048948014392465,16.95144163576272,14.398645605900876
-13.145034026596072,3.8837759096625795,-0.8017509136846581,-2.213420958380018,10.182423463061438,11.788703580796687,9.924211785693595,9.521626199302604
-20.89723641155594,-6.296357195110686,-7.337651793807634,-7.878016270460003,3.125818038920994,4.0884307597762195,2.483997248017658,4.648921007755577
-25.672085421934142,-14.978574555623402,-10.83808970023979,-11.046021366945102,-1.6156920255003373,-1.5361221983827344,-2.924856460648934,1.1127212306340788
-27.086289297848477,-19.4281540583361,-10.84344933211271,-11.797850311129627,-3.360648953563608,-4.299506868970069,-5.467111909489471,-0.6812887743971399
-25.97683009202438,-20.25876064864475,-9.49537099903938,-11.065216295689465,-3.4376557932679153,-4.916629754418784,-5.718017699784911,-1.03621820175616
-23.636537921752115,-19.994939546225286,-9.619007069316265,-9.942254555447434,-3.788439454459233,-4.757358512266776,-4.905574562751916,-0.5240182355564813
-21.068639968694416,-21.11707618188372,-12.85107622006676,-9.11361524307827,-5.602933338895268,-4.941830043652031,-4.1180345263707725,0.3703013964395677
-18.64051555861742,-24.679351487960915,-18.874894265353145,-8.684628224145795,-8.762913981224433,-5.818940772716631,-3.8736664971818677,1.3466222916065773
-16.233818279909702,-30.09808795168285,-26.03782496903764,-8.417806157288688,-12.27155832906301,-6.990026426576746,-4.155826864464092,2.176955947329823
-13.676362567649614,-35.952207637803625,-32.710450110096,-8.111232904724668,-15.190064349347761,-7.732492730831887,-4.722271836765301,2.5847808600292086
-11.100101311452093,-41.00828377939479,-38.282006073771676,-7.802962538346331,-17.298772790519454,-7.494629545938132,-5.377116552013968,2.296731910319417
-8.986324913376151,-44.67525679226411,-43.07608133953528,-7.684115984343323,-18.997063375526462,-6.166888272683669,-6.016293752998567,1.2661411655399673
-7.921888111422112,-46.74554571057077,-47.439230504165266,-7.864964627635389,-20.63629824232707,-4.038809777192065,-6.503631319903712,-0.11980334136121856
-8.281865722746685,-46.96795471828218,-50.952957508901825,-8.233874978075459,-21.9570179884022,-1.5600768536769836,-6.583286934824932,-1.0710192507239253
-10.04888515614051,-45.04088178654427,-52.514356811265245,-8.525932954094117,-22.154111482907783,0.8998637565374956,-5.968216854463224,-0.7319807651877757
-12.836992322105525,-41.02929188014882,-51.16598772496742,-8.52575015528209,-20.492727829909764,3.1590374614713754,-4.557952251257091,1.3260349729127134
-16.057060338195967,-35.691574667808474,-46.89912372848281,-8.242798335404094,-16.93161110181196,5.1646652784017615,-2.6221632816400153,4.733607612762928
-19.11983935252116,-30.31011486255688,-40.785352703344806,-7.950437999076829,-12.27700393627606,6.817205503577806,-0.8201616808527112,8.303690538887002
-21.587318118586943,-26.147557968987922,-34.44444864035389,-8.074615435143809,-7.825784862214999,7.791126469097628,-0.028047871056184042,10.428962488511667
-23.20168528885372,-23.954602514089586,-29.320964585318414,-8.972466598311575,-4.794710654612383,7.517178133858546,-1.012269855405545,9.767065953369475
-23.75888793067055,-23.76449063501183,-26.1764665477617,-10.668611403804979,-3.8376088562527153,5.449026054896027,-4.029776361469535,5.933417649330074
-22.887703309839434,-24.887497698232824,-24.891743656214018,-12.659526302905105,-4.787745157021565,1.5450002455711036,-8.508873314001317,-0.13401219287854996
-19.905994253863724,-25.99864734858921,-24.526659660213042,-13.925885772657635,-6.673407455315232,-3.343148377760932,-13.030671198879245,-6.378077709111284
-13.939850430948574,-25.4186015956578,-23.63375378355038,-13.233540424209261,-8.044562835333263,-7.535745596549435,-15.75607476923982,-10.380876556254046
-4.343157872193824,-21.70320409611143,-20.803611260564786,-9.645571032904881,-7.556952496822236,-9.14916724118823,-15.187848654429192,-10.362091813328776
8.775696852288622,-14.348916818643731,-15.241358771045407,-3.0105269932077823,-4.568025419861275,-6.979277879524307,-10.890296315393275,-5.94123030776629
24.25099721394557,-4.156898820967003,-7.06056883853467,5.839604774219461,0.5911929764689814,-1.1303034701754249,-3.7526789389377218,1.7081905452313857
40.031188026932305,7.035908741941603,2.851771091388881,15.315286708036773,6.825263067086265,6.965167511033803,4.3573016447204305,10.368720525405475
53.8087512929642,17.074244534541016,13.223809843422561,23.630066350769884,12.788486322359919,15.096809007157585,11.338235783857955,17.674452146940375
63.81470693263639,24.180243490350318,22.73073179790656,29.427904404192613,17.348669635915375,21.06011012381174,15.592250000813022,21.95241687336042
69.384854749859,27.330832713819085,30.148047728228164,32.18309551077352,19.782245361213025,23.32533159573064,16.442094079608175,22.65907703021344
71.04400800687228,26.37823206571768,34.46983840097553,32.21825242468325,19.767145034245623,21.430608656242185,14.166156649327545,20.317044041283562
70.12082786973698,22.07551742877854,35.1492687712095,30.395430589622965,17.364867603477443,16.08532310315576,9.772881672752924,16.104907923965683
68.12362520741003,15.968360810326022,32.37165881235944,27.683082000175474,13.052053285123849,8.978725078674046,4.652426646764703,11.353304430673404
66.17292000827577,9.982061865072618,27.08063040393267,24.81460144036309,7.677294719764673,2.2754543393136437,0.1793865567792703,7.14396530394479
64.70773846380546,5.729965265223845,20.60344364236463,22.156258474534884,2.222643691687263,-2.1155998238911957,-2.673760895273143,4.09220345644561
63.529940523768104,3.893029541060313,14.060347877211747,19.774908105218852,-2.5570049856064303,-3.23078108376999,-3.6024802297118486,2.312220371247907
62.101489381011625,4.0700534377898485,7.954869434166989,17.612215703852904,-6.380447870380396,-1.3614209752176887,-2.988972453501938,1.5351452960529821
59.920574072028664,5.178948179212388,2.2172036221013642,15.654367561493407,-9.389314336439842,2.1909249383274796,-1.640947104519875,1.3295882713984415
56.7986449980267,6.112999714029106,-3.37253364739629,14.013577585355375,-11.842491827035639,5.781861370831704,-0.37259462374661656,1.3389075280507965
52.93088250548071,6.257094422947768,-8.722294477777279,12.885839826282895,-13.789839083241104,8.152827444026858,0.3577870102782794,1.4282823416677273
48.76047347726525,5.653688407897971,-13.26456473430411,12.410909763694638,-14.959061068822285,8.861822563205692,0.5840509633029605,1.6731775067736214
44.73508292909249,4.838025220193322,-16.195364624050974,12.52400751130529,-14.920640177898777,8.26594860345433,0.7153478583406264,2.2157847605536287
41.09809450522469,4.478572355612721,-16.944181913407952,12.914488527418689,-13.401812083488748,7.16544180983072,1.2748170557579577,3.1020783757360717
37.822806146987624,4.997897450088267,-15.55860155689939,13.150814687503724,-10.532292677343856,6.366861580880629,2.648906372572616,4.215062923182329
34.700337732456454,6.36219451168361,-12.750271188192068,12.907443658217945,-6.863664204914774,6.389177356667969,4.94721752039424,5.330201111350781
31.492883013133543,8.1527680089239,-9.579339892446875,12.130482963551296,-3.1639939602293765,7.37578143717049,7.972264837580688,6.212488314967497
28.036199584048035,9.835283863039134,-7.001695549748233,11.005578908563782,-0.1413500341830656,9.124834324254428,11.23783142910644,6.649417434001745
24.243559167585595,10.97850510593977,-5.5760852766560465,9.74567224084558,1.721879601037198,11.126673107213675,14.00334057824447,6.398257099415998
20.07061791697281,11.254360853175704,-5.454028916457978,8.37659281900397,2.170331651037276,12.601497528415244,15.374247208715719,5.143246655277948
15.545612713114263,10.332331786083094,-6.511732725662523,6.719194043547408,1.1306391194279977,12.642070269907007,14.551944259276809,2.59030853935397
10.897960402375675,7.9391497300186895,-8.39909616516193,4.614338571718669,-1.228823675428712,10.546221672914374,11.225049655284229,-1.2773227151267772
6.685987972955318,4.163112278914489,-10.46783716124752,2.229764766470881,-4.343774615749456,6.254016217328816,5.924246074387208,-5.926833177677714
3.757485616590055,-0.26494109464028687,-11.778560300239308,0.19535964783530596,-7.206667208330732,0.6272402474988074,0.07352842406590315,-10.21835244971342
2.9583396408670954,-4.064192748213179,-11.375002602298093,-0.587101046075782,-8.616494971789413,-4.688015114714053,-4.410629808106599,-12.705500808620961
4.689834767670308,-5.905955737951541,-8.734535590867994,0.6057288147098825,-7.673170703504522,-7.844594701800566,-5.842810652685363,-12.21419746127067
8.56010496650205,-4.989049036194982,-4.066572321229021,3.8575644716160125,-4.219865740203039,-7.557130809159563,-3.4573283043858476,-8.415499163102568
13.35890247747287,-1.321435227254641,1.7862106591286009,8.41667217007766,1.0608203748659444,-3.6494680924509475,2.290654557092873,-2.0720247144202215
17.41326343017041,4.365600542707297,7.766698493577873,12.901156661190292,6.947910527378829,2.8826720812047486,9.936870023374212,5.198642309100061
19.17328006657496,10.894237904703434,13.037012268152948,15.82188657792453,12.180398241696233,10.294402700254253,17.58557863604603,11.539587839865241
17.75866690104895,16.9485566781786,17.1770315723038,16.165965369466257,15.884144614575174,16.768155283264633,23.558908562555363,15.544655155678104
13.22239583706512,21.384137175239367,20.1105201210381,13.75150610274739,17.75567403739648,21.024072536004844,26.845245154218006,16.68977924705591
6.434933015471175,23.51144867991981,21.875500282399102,9.198025089608702,17.973950153955233,22.613588489969178,27.21170502647875,15.329672044224605
-1.314628248029756,23.23766228434806,22.397299200056555,3.5810055572123307,16.93322581291994,21.826599527244408,25.02274184285305,12.335279319567737
-8.77387571243562,20.98197030448052,21.41601434397971,-1.9961330963130117,14.97427835467368,19.344065637376634,20.940469945735305,8.635083548952688
-15.027013248478134,17.452915260742184,18.660454537604036,-6.690848515283169,12.288330036772141,15.87529324046485,15.696789258062195,4.9240090539276204
-19.56916073477237,13.467907344786838,14.191392299154954,-10.006799439521002,9.032219652860194,11.968047280189852,10.013806786276737,1.630811601402675
-22.23352188712195,9.863472840501544,8.639168355641077,-11.760742532127212,5.502537754875844,8.01715204799428,4.60117320263351,-0.9645424088457939
-23.0928953451297,7.3691309994049226,3.064692276365835,-12.034757720160172,2.1563129019730063,4.354189286412952,0.1064018191510654,-2.643331698791813
-22.393058826981722,6.3677500822000415,-1.5255946628293247,-11.1334600300397,-0.5728148449441547,1.2832539726235739,-3.0218307465721526,-3.2828065624623886
-20.500805474348912,6.701123491743371,-4.637650569231224,-9.504569556890324,-2.4856158975164506,-0.9755281776267215,-4.671630283118158,-2.9632493335709285
-17.842787060444184,7.765101309706155,-6.34793970344746,-7.612756784458048,-3.6403683044166217,-2.3704473308262917,-5.087674902497238,-2.0276810322215093
-14.852737531328247,8.89567347018082,-6.975239432526566,-5.824365801766377,-4.1787555804067,-3.048081348641797,-4.741322561527016,-1.0155462212718238
-11.955569810566686,9.737747314511951,-6.742973051097741,-4.366510364553463,-4.156989871850857,-3.299752853321883,-4.128429645823433,-0.4834061870720594
-9.568518719373367,10.302862200283716,-5.746145556905267,-3.355264331915304,-3.5520890923507653,-3.4481327573480094,-3.5965164904212834,-0.7912249476831247
-8.054467066803682,10.76295748580548,-4.140405514617967,-2.8276273353584793,-2.3853987356996718,-3.7154145516345154,-3.2497143499610837,-1.9463651956881203
-7.595847215362018,11.282503906083553,-2.2209986862984907,-2.7313273785251306,-0.770326585605767,-4.124355746872337,-2.9358057602536882,-3.5749872358912915
-8.054529211139547,12.058299427545597,-0.2375701954450533,-2.8974114126336703,1.1882892230659985,-4.495514717453782,-2.322870485909913,-5.046637045830619
-8.944761214963618,13.409415127479614,1.849047981101135,-3.0581565025665967,3.5024543187546624,-4.575252773034413,-1.0717352844017403,-5.717390153697215
-9.597662460496247,15.670171282954632,4.362185257420783,-2.9399524460054973,6.242678444810245,-4.238189073569382,0.9437215630423211,-5.199917286038695
-9.467842886584252,18.896564393231888,7.611605202419562,-2.399065115136244,9.327248603936447,-3.62443140906929,3.4826026323253143,-3.549639301966568
-8.42677092605896,22.664315898466043,11.55807486669997,-1.533279360868631,12.359076132050967,-3.0955789437210663,5.9569807522665075,-1.288756933694408
-6.877627612441802,26.178429943232082,15.714885248461817,-0.7059751970147635,14.684827432677794,-3.028598312360972,7.635169339274014,0.7474612099677852
-5.609171448093698,28.615994396550768,19.33469690046438,-0.44466129408694455,15.658478099616715,-3.597310362168693,7.925604193473151,1.696278774890414
-5.429405934234064,29.454460225606354,21.738490550107233,-1.2196167592757536,14.94536287764137,-4.694265941722437,6.606099105916371,0.9938689877059866
-6.731123293027425,28.655430100445344,22.635966913900404,-3.174335231273012,12.721017040590137,-6.018971945693164,3.9215279015079183,-1.372019013981048
-9.199773024926806,26.745409038883338,22.345031324113414,-5.941955937359708,9.711655439829272,-7.226152052949417,0.5473640597927943,-4.78899332680381
-11.840016739250954,24.79790479330734,21.801076003399306,-8.680767948682988,7.057235493811855,-8.013294917929002,-2.560475737832183,-8.181135445064756
-13.35313588197012,24.17990333301145,22.236513562724724,-10.359953691827242,5.976153807938828,-8.123726373440837,-4.416019235081451,-10.368417068186968
-12.697878847155918,26.001671321598646,24.58116246322284,-10.171404079264686,7.295062638881155,-7.3306739504798415,-4.3079996590770016,-10.49075150817076
-9.541068588663684,30.53502547738366,28.920383546078327,-7.8503903081347834,11.068682841805977,-5.461596564821722,-2.0410995450548617,-8.315019723355675
-4.358788338129447,37.05335697169076,34.428408378347555,-3.739555186669571,16.5588512112358,-2.4565516497769235,2.0222633437554642,-4.289464340162069
1.838698704005508,44.274876198804975,39.88195976462745,1.4078123385382995,22.63502606190157,1.5795149416472258,7.1528583320135875,0.6660314718855046
7.964296396846591,51.076968125326864,44.40003307584709,6.740344841225657,28.34554954420295,6.350683179413851,12.556191912657217,5.517408284113313
13.223848276723302,56.9422656553668,47.89581282882068,11.556693867503748,33.288805624479735,11.372952953147912,17.598935287653404,9.449532176017872
17.233381503749765,61.90949278555173,51.00319069918463,15.391659490572643,37.59846545033662,16.0276668310814,21.8618903566559,12.042838500526607
19.90575314234504,66.25143125779695,54.63371158467324,17.966782493392916,41.64574096797512,19.69519767454482,25.067306440788975,13.260519443633093
21.257326119947106,70.20103549704643,59.45668811625257,19.107822006710528,45.68514794071972,21.944911836937266,26.996908448995896,13.307075967997754
21.289064250641456,73.80568507805351,65.48073631056934,18.72298347135199,49.5992923090438,22.684179160601552,27.476562094909436,12.461634039988626
20.011641128931092,76.83408889322465,71.83716893381747,16.86943771482519,52.81700560773023,22.174325133183387,26.434842588682613,10.976226345795098
17.582113941398056,78.79211773574674,76.92924875680339,13.86087726786014,54.48219117644465,20.918771349103586,24.009927011770333,9.078543337207893
14.443060410838685,79.21656624688461,79.07450019975289,10.320996090898758,53.904909090716735,19.510831495041998,20.65633079139266,7.04788221288416
11.329032287331376,78.18042911352875,77.43531689110488,7.090897843877118,51.11178542631553,18.5039756479129,17.15814628343747,5.270569471438763
9.061043045963363,76.5691064116945,72.6522611901697,4.9680965465495985,47.09313417927129,18.28582350233606,14.44561659805958,4.177702067160236
8.18647995951759,75.71681296171037,66.64122774632706,4.368854565207515,43.43264651808525,18.92456901116322,13.217853434742878,4.052113148777212
8.658336800232426,76.55205072218179,61.59235826877628,5.089851254830774,41.44963514651284,20.04165622194045,13.553513994434729,4.812243116507013
9.767053109762033,78.92876204517297,58.828927955035965,6.3248689219407765,41.4146311583773,20.834654016145738,14.774530195830424,5.934390785237857
10.402507676336427,81.7063604752471,58.27012440153981,6.966460978979557,42.393052314743606,20.32270646513987,15.703300795232261,6.606238858322298
9.526139305506726,83.48645300505233,58.74808367952708,6.071007924163962,42.81671449265683,17.75071394642362,15.207170681946074,6.0632008309716765
6.616432017092647,83.41198493346529,58.84975019852536,3.27758681850783,41.388588911372814,12.991152878644456,12.75291477273912,3.9465419118566416
1.8802299067717863,81.53821643935238,57.74024514824598,-1.016232040807198,37.778436425346804,6.777165604149711,8.703389585750223,0.5028921373278967
-3.8488065368009776,78.72647297783425,55.57334375102982,-5.816563938223749,32.776880484032176,0.6419485572424167,4.224352777861128,-3.4815454334597717
-9.45962634716318,76.25741992267695,53.343472984801345,-9.970366069638994,27.89239760125607,-3.4986561628235124,0.8322191502392857,-6.990538586756696
-13.99175063332542,75.3116084143965,52.264160265877415,-12.662227146090354,24.6171619517552,-4.055562735847312,-0.24003255158067807,-9.18416509538994
-16.937164503042357,76.44698919146988,53.010862869208424,-13.702711628815571,23.73270444346349,-0.5024087130609652,1.4253814740723196,-9.700451022996246
-18.27495416899025,79.34882477156022,55.34028926029132,-13.453731652601288,25.045199541328692,6.263876981912111,5.28222236734299,-8.711075443676256
-18.254668791292968,83.12145065187788,58.42246744411385,-12.46740363573734,27.729193147309072,14.225027450546369,10.15240557696628,-6.737236968778987
-17.107582397392136,86.98892066718398,61.661909040298276,-11.100977536891646,31.042303832137875,21.114331443766734,14.840167184655504,-4.368899890088662
-14.906518968447076,90.81694081097429,65.29691002164911,-9.366886487796487,34.85334190858967,25.379423404377015,18.632324518908117,-2.063153347449439
-11.66920920270123,94.95992061839371,70.19253900202973,-7.0919426975576245,39.543417787535326,26.678839215921524,21.378385047184537,-0.11163231912061142
-7.605133465980366,99.60104683899358,76.94643489690448,-4.243939524186866,45.36037777182236,25.682491285746654,23.173087137345018,1.2645477385988502
-3.297409463159098,104.28183261809048,85.0427816169989,-1.1876490828539157,51.775664518707615,23.41947028731896,23.963157802547002,1.8169865038896402
0.3393833490607033,108.0950044089756,92.73610885374843,1.3103042085348742,57.38498626329564,20.666779630916388,23.424711133394837,1.2806736359784467
2.337731222441612,110.29830601444695,97.74366914109996,2.362059279444594,60.45506296438504,17.74270562003095,21.211643784548432,-0.4858583866404927
2.069172850873128,110.72125385907695,98.28486653695184,1.4032316279928652,59.769740423054266,14.718867098265605,17.382146659651053,-3.3143065158498843
-0.4346594802264243,109.6631610481373,93.91557724826188,-1.427683227867207,55.29693635484888,11.78510394544022,12.687637939005835,-6.630260311767333
-4.39714040531377,107.5486284180636,85.82641826030853,-5.208541816707516,48.35644329924497,9.459457350203195,8.502285482903009,-9.547930641670314
-8.519268221599535,104.76424220345997,76.51882262685484,-8.545177687339134,41.221067598581534,8.497603790938275,6.38479734643123,-11.148600649927605
-11.433450276205681,101.80712333170584,68.99214938862433,-10.137860874434198,36.32646464931988,9.577408407818162,7.472339496398521,-10.817324530939231
-12.18190908118422,99.59015954693189,65.817851250698,-9.301209459059626,35.46295748791271,12.975745647459638,12.012416041076982,-8.467833046453453
-10.50019367389113,99.69422132227314,68.56417314363695,-6.180607228144852,39.347218029208314,18.438317224262082,19.27498277387537,-4.55401668877043
-6.819749718217101,104.29766314126131,77.70606043110672,-1.6270792221502774,47.684735673249165,25.277451294823294,27.85625097289181,0.10122811872631571
-2.0802844757655286,115.34173932896859,92.58275484869732,3.1108579904506626,59.38389008725256,32.537361744687765,36.12593603680409,4.539002662658798
2.493412569793719,132.6615593099455,110.82609059374711,6.707950742742508,72.4363834643317,39.02622066398518,42.50559586726907,7.8593227388867675
5.591418844454625,151.752412264351,127.41320884490365,8.055995173770862,83.4475324906628,43.2140693277324,45.49443036765985,9.370301654837462
6.0653838639291955,162.9954027242544,134.53703500957818,6.57385531744605,87.53163791323901,43.26966781230146,43.68545057286603,8.737435397149518
3.282430920125906,154.14958373152922,123.5998988718528,2.4955837024967606,79.45246600010668,37.54153105121757,36.09086114436793,6.129821044082998
-2.5187711720709944,116.00519983869464,89.23067193087081,-3.047771839992564,56.04529638729886,25.443048477007828,22.784216156273683,2.266289496920788
-10.122193660079425,48.40588454361332,33.2482139927569,-8.34028448697919,18.674681172029782,8.234126368426127,5.433106939747,-1.7522159692493282
-17.673033864957674,-37.3437645362199,-34.270689900782266,-11.755893278779919,-26.073467394792342,-10.951403358288774,-12.828723164544137,-4.8244221011793185
-23.388428369611088,-121.9985068011178,-98.25202372830135,-12.477811838136782,-68.42827396921284,-28.095984086079696,-28.379323591947568,-6.282033950219546
-26.288428456076254,-186.47990932827244,-144.8860884387215,-10.840264178750754,-99.41483656549222,-39.895679008236606,-38.524584089680765,-6.138016555549356
-26.530845253389653,-220.12517077155422,-167.44041861959997,-8.068365744841094,-114.60675284920092,-45.09119578781748,-42.56118801570736,-5.001415560731307
-25.162520461052992,-224.37728685647656,-168.31746711109693,-5.575203981763873,-115.50930726607268,-44.7705525182194,-41.85458080578855,-3.710243605948807
-23.474281414426684,-210.14261621602566,-156.45819931810058,-4.264114955487874,-107.93351797602492,-41.52157772420096,-38.9204558166668,-2.908459305274113
-22.383906920754153,-191.0887300582806,-142.132740955637,-4.247029365544596,-98.6234060327858,-38.03062380221425,-36.130111194266114,-2.811987692708484
-22.184043575602324,-177.3133769330795,-132.44269031204263,-5.053390749076521,-92.28773459234952,-35.98515035878941,-34.81584051331732,-3.2549702203644473
-22.67619702172442,-172.6278807352954,-129.68484650132666,-6.060949625145332,-90.48254864667318,-35.775818693640026,-35.14127858673675,-3.9089551293153724
-23.462384913727334,-175.58490773591555,-132.38837873933662,-6.817335775901747,-92.27087776296122,-36.87347149372054,-36.528077081629995,-4.48959006232043
-24.173019997863317,-182.18052970840122,-137.40279452099352,-7.132195999735758,-95.60169883578295,-38.41485507615712,-38.18718194255748,-4.847472068900934
-24.57799324138771,-188.27951337944984,-141.67557400892906,-7.035059371453943,-98.48424813213606,-39.646316127907234,-39.47893090758042,-4.965590064304806
-24.63162601664783,-191.14785566032685,-143.34306385930674,-6.710254980427853,-99.69333493551159,-40.16015475007778,-40.09319678661487,-4.926156249919806
-24.46651284694991,-190.20240022833391,-142.20642713690523,-6.412554024269268,-99.07259868368672,-39.97405248236309,-40.10362746736468,-4.865482120584847
-24.304496666344278,-186.88306215329692,-139.50927486367738,-6.337663360117432,-97.40483870870789,-39.446938486552966,-39.8720064919575,-4.905883806704268
-24.308518033353298,-183.51696299651388,-136.99268188345653,-6.508929988968317,-95.82184285015067,-39.027133025915596,-39.799696466877464,-5.086817423294702
-24.486403379126447,-181.75544462374876,-135.75518285161792,-6.787384389092793,-95.06473327354686,-38.96756600356505,-40.07293813090146,-5.3512919122534734
-24.731781495738396,-181.74313862996448,-135.76508215154843,-7.009482284641676,-95.13962635650869,-39.222012245601476,-40.60446030318446,-5.606743880428098
-24.95021172979318,-182.60044860805675,-136.32693840390758,-7.118689434996748,-95.59619665422956,-39.5882863553905,-41.20043691689952,-5.803656867371232
-25.133792289516645,-183.52280003015784,-136.88615490807803,-7.167003409232428,-96.05693821260532,-39.92516967149236,-41.75794384435984,-5.957299212964874
-25.322412876079966,-184.31136061146853,-137.33697189247104,-7.216845544053923,-96.44256268800369,-40.22341976894018,-42.295982509390456,-6.1056676081743095
-25.527262613823236,-185.0157885525709,-137.71617289948207,-7.277571699303625,-96.78210720317412,-40.51061121534431,-42.841717016040384,-6.265775975755208
-25.718528145078764,-185.4527034823187,-137.8855107337204,-7.338068205772231,-96.98972455692703,-40.759126232347505,-43.35326420761245,-6.43588854633236
-25.87466824687573,-185.32130167932178,-137.65631946888618,-7.417659072476039,-96.93055600331486,-40.91811535624811,-43.7724186057042,-6.620611322152075
-26.007915759810004,-184.67113291062145,-137.10169449892123,-7.543701740721024,-96.6358392978692,-40.99753970348367,-44.10889974792091,-6.8285244554318645
-26.130214533998572,-183.97553018277728,-136.5465819296676,-7.686648557410016,-96.322578559509,-41.06812820678663,-44.42854617723378,-7.042541498681103
-26.2244393546817,-183.6747326040625,-136.23475122456477,-7.76180076816806,-96.1813913969454,-41.18003989502093,-44.77449564675182,-7.21506512181076
-26.28454874306776,-183.8389321058067,-136.1663702788328,-7.723803404835716,-96.24334272356136,-41.33082098627463,-45.153643343847165,-7.314520961368318
-26.37990694702283,-184.4097357322183,-136.34413033812106,-7.6453803185483,-96.51008180736251,-41.537850535073105,-45.614751898995806,-7.377168914003876
-26.63748275922981,-185.57901008366045,-137.01658725495994,-7.673134429690101,-97.11130809774107,-41.89735192093333,-46.281268948965405,-7.497634222302702
-27.12102668385254,-187.5766293347187,-138.4218732507563,-7.89641335461491,-98.16188652533808,-42.4985921092312,-47.229602720280326,-7.755962145695444
-27.720494934576823,-189.9647777458069,-140.21548422493694,-8.265508355419431,-99.4094652607191,-43.25275544775321,-48.31324601702409,-8.14871848969521
-28.177116832839193,-191.39824960448192,-141.32851413607463,-8.628398885704486,-100.1470302550064,-43.84662811108698,-49.153847511828275,-8.582212041911434
-28.24107490157438,-190.47845481502557,-140.64950909186666,-8.821406531458317,-99.66322440899503,-43.930881173646455,-49.377528547111794,-8.918820996494945
-27.84295043590085,-187.10419021331464,-138.0263993294574,-8.72726600670651,-97.91252077655037,-43.40838126121058,-48.925114661146395,-9.033663549364734
-27.175230997409784,-183.0745199918377,-134.7093555898272,-8.311087285783561,-95.80722269650093,-42.584644113983636,-48.19185331759516,-8.869185441941504
-26.66541308512387,-181.35868168403712,-132.87815003385586,-7.6925137805146,-94.86383867209612,-42.074999361079726,-47.90521582486474,-8.500928960870095
-26.84907491114886,-184.53521631450377,-134.59825393637414,-7.217833946904462,-96.43603561602471,-42.53907429388821,-48.814898614459565,-8.188037645742874
-28.122403226758358,-193.2147710782664,-140.6723093383703,-7.390770844199541,-100.90003820472181,-44.343843858370924,-51.290350420743664,-8.325743964842193
-30.396311587419962,-204.86144964242933,-149.60847243654572,-8.592119811839693,-106.99947820810985,-47.210773522103416,-54.901854948935416,-9.248064133707361
-32.82788297371601,-213.3235984944031,-157.02760777033114,-10.739391280194853,-111.56339460890469,-49.96468087696114,-58.16237622104444,-10.959405534405764
-33.90571060893093,-209.8236392454611,-156.2597861227437,-13.167950485784846,-110.02925078293362,-50.64117384094515,-58.73674210279711,-12.982812757127352
-32.019734082143074,-186.0718028865319,-140.72744691202914,-14.88487132794655,-98.09150149649483,-47.15857085431463,-54.296631670809475,-14.474516167530911
-26.29247174741472,-138.73244485988914,-107.46664979842463,-15.061382579235946,-74.0161600222026,-38.381488032090616,-43.739398116949125,-14.581619087053465
-17.176129200329413,-72.66213956626963,-59.710910340670125,-13.449096974204627,-40.26848431171633,-24.965529121516184,-28.048384835191104,-12.850435705044385
-6.396048264500854,-0.1982443224790646,-6.4264746224673965,-10.471529773184118,-3.0996180808864717,-9.332902529335723,-10.123903474410366,-9.455587051401306
3.772685874680045,63.926839652527626,41.48399338636624,-6.97788118723236,30.05729898560974,5.358788920485902,6.460924307587581,-5.132779759021076
11.467346340670455,109.31289454392746,76.18932317161983,-3.8621602813270766,53.95698006816286,16.67823231283917,19.068579761609612,-0.8766738245171898
15.864724383751883,134.0328853290701,95.96765416598298,-1.7947214865572918,67.56454513361768,23.882013648003266,26.9634091242574,2.4123162008216665
17.159858619331928,143.43670769914138,104.29795365894097,-1.1620235134320112,73.4195161513151,27.75874975544153,31.051128548375498,4.162214594128241
16.049891460779016,144.4527940059352,105.75068346632634,-2.103001322465808,74.83151004924957,29.52673357882892,32.665863945445054,4.198282083697261
13.188406847500625,139.46116215331256,101.7406955884204,-4.472305550882496,72.9469958792542,29.6461010954758,32.349601619428064,2.714209336530205
8.998226972922737,124.25025134376465,89.33796508828871,-7.716844981180108,65.84909611321454,27.455584182878265,29.533891840309725,0.21895545157576646
3.8592459388965183,91.63748197291996,64.03690282785603,-10.85264346559746,50.35718871055055,21.887376536629603,23.304567997954248,-2.547856324472656
-1.6422534601100969,38.09257993711191,24.345068477582522,-12.738483314865556,25.153388001233395,12.660125576306536,13.575766088040218,-4.791854162135312
-6.731880438109545,-31.590136606012052,-25.366982827586742,-12.614400743744529,-7.153370643539319,0.9767054276602596,1.6935719307653796,-5.940252993593454
-10.775515754898773,-105.07369576491065,-75.99736800029245,-10.598312718509916,-40.61601678230341,-10.85431576844335,-10.040889034021578,-5.911282455127628
-13.631852848541781,-168.1596345225739,-118.05149967746931,-7.758703679560335,-68.78895702719076,-20.614485804504998,-19.577759066335798,-5.1970128342567765
-15.660226575038752,-211.257365303895,-146.01733141733197,-5.601855489867559,-87.75291971055356,-27.289321531842546,-26.12138429487727,-4.637818900230433
-17.272718805289774,-232.15622907123344,-159.66592916775318,-5.2064703256639495,-97.18315581492422,-31.25323754406242,-30.14911785691677,-4.94881010784563
-18.332430804568776,-233.67906047346574,-161.6485352864385,-6.532909931535857,-98.8924075496105,-33.402949247144136,-32.450560678309785,-6.252775776700172
-17.915298553338683,-218.86672322907066,-153.71387674624503,-8.380653578201645,-94.27509213229185,-33.965610993544054,-33.0013151136206,-7.92456956957641
-14.740628522036351,-188.08976652278392,-134.86981310372633,-9.059336328544775,-82.87935027512783,-31.995101431569097,-30.650973552292182,-8.885989687332764
-8.065153284080754,-140.46636852752007,-103.02022790628565,-7.363996882832181,-63.27917293098305,-26.035800261176746,-23.964505486571095,-8.2056450073993
1.5624395564982625,-78.0235584770676,-58.591971074099284,-3.2579278171513932,-35.434257264970796,-15.498425681420894,-12.623492057973396,-5.656160291113347
12.242865355141692,-8.64436581199712,-7.010277525852452,2.1184265365946704,-2.5008841637199515,-1.7083509092931881,1.6786900520932364,-1.8999966244030622
21.46317065114018,55.11120196989779,42.16251954453635,7.064516940086025,29.475500629908417,12.205646655572405,15.57550324148055,1.8060892189855358
27.20885419512798,100.91781603222528,79.04415611000138,10.165101546505262,53.9257991203537,22.609033836967818,25.47142338278795,4.2211944757314
28.80865928320582,122.1572203888945,97.74290699240795,10.888865774628766,66.66284650849286,27.074839165543317,29.22457310702904,4.706715710032074
27.06827611201148,120.4841432635209,98.51856088831,9.669607515873746,67.52841870453413,25.490755653731764,27.07111842630984,3.4815446281589146
23.7033488984278,104.13712392527944,86.76847338764729,7.530519338787063,59.93772069880253,19.958828939523322,21.316385412857702,1.4447604195921258
20.4731490376517,83.46099672377775,69.9048940545906,5.544213422787597,48.87691203861265,13.646696464740355,15.089246062291949,-0.29489822574674296
18.501230742550565,66.56218000730941,54.23210480930011,4.423327004401821,38.723893869002936,9.315628374819534,10.936344285898922,-0.9196350352177711
18.052664571376024,57.25050168532384,43.35322492312708,4.373736654402285,32.00839281806834,8.289227454533915,9.954517756398504,-0.2066112262871742
18.733939761447136,55.4279327130043,38.22320665928054,5.183075180456349,29.32714993216638,10.231188279312414,11.7093886894698,1.4638381143390602
19.901449126858743,58.688355305115,38.02200345736165,6.449308025747462,29.937641712277735,13.636182356920088,14.764997500716625,3.3631937794779194
21.047123265652665,63.93803660419157,41.086012530147165,7.83551165625333,32.49516989092262,16.680139781308444,17.476219740988043,4.800018616885006
21.991549745112994,68.60351219178351,45.645218563344365,9.219272853301193,35.678518831374404,18.03691519203218,18.706665838746854,5.444769816848265
22.804034957868073,71.3608374600014,50.32465299071533,10.631655694956077,38.597695320499646,17.341054263244093,18.20054599500846,5.4208620931242715
23.504464174464996,72.19620180887199,54.27221856246751,12.010254952227408,40.859013169148284,15.129789564200994,16.46507298693723,5.110580585529679
23.761327259523384,71.71068405525217,56.870522333295376,12.960592048044916,42.27611087942111,12.346602090718939,14.262044102970359,4.805657107043338
22.857607012631956,70.16619064357201,57.38267342906748,12.765995120042973,42.51487230134263,9.741386166944705,12.059955916873493,4.448836219885091
20.04353519981302,67.13748195177466,55.048262195356834,10.727205932689227,41.088947828377336,7.563922411793972,9.836953184606777,3.6631203874634792
15.10676032889666,62.125275764664686,49.70549352280393,6.664959787209445,37.809273842484124,5.725070228357038,7.362754070291897,2.073450059106996
8.792159174788619,55.513583802824904,42.37544120440755,1.281373710765224,33.29776051788531,4.246463936757179,4.717379294946601,-0.2756869010927696
2.7590613674103466,48.90034422401272,35.15835502647255,-3.8646711941393845,29.03926483767996,3.6145905185887415,2.6278652084767207,-2.684835341179284
-0.9741699561522431,44.48104321263314,30.395934945770982,-6.827947535903523,26.82777064602086,4.743883495527463,2.341177580496798,-3.9451049870479844
-0.8659556743114446,44.03237418565383,29.67748575204179,-6.049082633258428,27.95398451912112,8.531757744696815,5.059859809415278,-2.8639738254894214
3.4149695468038095,48.19105207534106,33.27610393535189,-1.1177535824467335,32.61046119994934,15.244594529757832,11.225217350530672,1.061661212297003
10.71735115456168,56.213241777086274,40.13812922260856,6.860735030079438,39.75162610548401,24.082693243199035,20.030530728597537,7.203516155398887
18.7771748811137,66.0540230389021,48.238328212223095,15.574654985410284,47.39406724324392,33.22047185856597,29.47780113794653,13.907904445473115
25.120390388470955,74.79573814212547,55.191052077678435,22.438983539947277,53.269396985134655,40.41491135691278,37.062276259032956,19.17558521091344
28.09540524299952,79.6307762387319,59.09542432815128,25.707383590798532,55.68850309630199,43.95698160831465,40.82517081774222,21.576449419747018
27.51393961505562,79.19694581184535,59.3607764516069,25.161425771476956,54.292436157252304,43.46525368875169,40.23521633432229,20.882903299076187
24.56778699507296,74.4307982612549,56.982896750258384,22.019822969477286,50.23913148057967,40.028194864609155,36.385596996532065,18.069472047480513
21.10445888750106,68.14477019142467,53.93631085458361,18.190372527919283,45.60560727894585,35.576754520619424,31.381808972929996,14.721095653853945
18.705027514245394,63.44443127940306,51.98737984196735,15.340863503504647,42.303985156291795,31.871332168729452,27.289982090786985,12.230369603021957
18.060189197630727,62.00452901914157,51.68229621801821,14.268146533368625,41.15313634212217,29.71773851295202,25.241423480896064,11.224819383354237
18.887043460116086,63.219511768294346,52.062722646573114,14.782262119743903,41.58468582498636,28.807341339194263,25.10868530039093,11.462835477899834
20.30114290628335,64.50302477370286,51.10771489265428,16.040376298876772,41.999856279486615,28.12842105321587,25.788367341621367,12.156803233942133
21.379648874069577,62.43542429025464,46.62293271211776,17.111925798570837,40.50981473129928,26.60357617446129,25.855633766627236,12.496307754392474
21.65474144130205,54.44375933833753,37.403751408704416,17.513582217527937,35.834562739433984,23.634125775579697,24.300881782740824,12.10278277741572
21.35668001763982,40.70554417235393,24.48728136924833,17.469802456916025,28.193219164647687,19.41155985608877,21.099084812005128,11.213548358408548
21.31292741649993,25.487961963835854,11.892755996661437,17.75512898100137,19.83473800276677,14.95457904511483,17.38574649919216,10.524874166192275
22.526416422690282,16.66116156584054,5.933315321961834,19.185073905706492,14.670704584530943,11.824383164964159,15.07891521350365,10.784759832811025
25.616357258976752,22.685387280702432,12.718118225098163,22.05331017984866,16.753897911178168,11.519385459822196,16.00762827709976,12.357433151845827
30.42484728333279,48.111593420002315,34.81111052819913,25.885836492833384,28.145367985443205,14.741398924808822,20.93275255528787,15.00697647504651
36.04716527754014,90.25913009803124,69.10393184482524,29.69944038654647,47.42517267278964,20.925104642044438,29.03113380105677,18.03047686219078
41.3033652436966,139.61260629718862,107.64361157501605,32.60745487532684,69.99429166498913,28.394266331942486,38.23005536718561,20.660811836643834
45.36274145659563,184.2584829148056,141.33902558763617,34.34505450256165,90.24902037487927,35.16088626956559,46.25799181729941,22.477705546693432
48.082484151715164,215.77938826863587,164.35499409962958,35.30382457759611,104.35986441959379,39.91195662954037,51.75368991117561,23.54182441642637
49.78704296748618,232.65946863386623,176.24724612595347,36.00883138086052,111.79344279372167,42.50986820878233,54.671024438067036,24.1476951296254
50.636052925251676,238.78549009477973,180.33596062682008,36.42581616769348,114.49520737676242,43.62588820754159,55.70028321640314,24.37879549628913
50.10177485770346,238.26867509547273,179.62078531085052,35.685882607690964,114.38894975986825,43.78714890110151,55.19410709489968,23.82982028771916
47.06180728574276,230.80310749882116,173.53826311336923,32.54053824119297,111.21736634237078,42.62444839317896,52.52123549812144,21.7671715916371
40.55726177841988,211.4727196717356,158.26201850590598,26.288449443489473,102.53042302512931,38.98866034357687,46.457686762861115,17.671623577684727
30.714225518416306,175.32034797705276,130.38020574492342,17.51380341357808,85.89679645862537,31.90908770605925,36.37643211193296,11.796717330965492
19.138013903032125,123.05904887604943,91.01840550362101,8.08277589670138,61.59714999842595,21.673684799342695,23.314452348876074,5.331345102192194
8.430024083733583,63.33561304554619,47.100420764028605,0.3645558700584702,33.665766253020344,10.194131578337156,10.04346180111795,0.009182975454837173
1.0776933546884544,9.614288854041632,8.64566349119038,-3.8382936716755807,8.422663285365871,0.34222961955014225,-0.01295158799408453,-2.632845998444218
-1.6231315731384595,-26.281788491754387,-16.09349779690068,-4.015406309992443,-8.527651843004419,-5.337437752589789,-4.365094080017194,-1.9305893679562103
-0.008921089072750105,-39.71407395547649,-24.448782613481175,-0.9721562731273009,-14.861112925476366,-5.751272383615488,-2.580547362482604,1.655932548295721
4.315331784217313,-34.533327605915304,-19.844561687776036,3.742592353826677,-12.149921151971018,-1.603952539716751,3.669564972050305,6.807067692334679
9.327534531778696,-19.911563228936586,-9.111435135452515,8.580820941133736,-4.439664625486603,5.09975946075806,11.543568738541397,11.926167946424451
13.403805092592698,-5.296091741046024,1.2970170385306954,12.501996854553687,4.020827225489813,11.970281171138046,18.289149944401295,15.713459154832893
15.727381725225346,3.322555662966076,7.83530687076693,15.09056247784109,10.44728689340424,17.017219035246164,22.13129090435276,17.484502377243142
16.247528248809704,4.311597246019275,10.152826893432776,16.38796415592226,13.90024069578371,19.017277814441822,22.488027037403658,17.17817670618104
15.383710714676505,-0.8524775830730288,9.775812886635398,16.630515711210567,14.69179898533746,17.540738438941798,19.684405860295666,15.161278159007292
13.705739384727469,-9.367472981787015,8.492681653086462,16.03686508086821,13.574032493641969,12.867224192943532,14.537618867874537,11.992922445947901
11.720690267696833,-18.381604258996436,7.345210981049399,14.718887040214303,11.22935355588328,5.918564986751735,8.071162998079396,8.267979541583653
9.785770021825426,-25.672820904502423,6.410783059681276,12.734153067466245,8.137648608530082,-1.8463403274573709,1.3809751190457717,4.563206875480406
8.101267979458651,-30.01017400885462,5.1404746341032235,10.223917293563852,4.648828883493571,-8.701229507116784,-4.469535903868197,1.4211172258573046
6.714954029436931,-31.352766848388093,2.8681359735078353,7.5041712153905245,1.0483749120897785,-13.135878883087212,-8.644859253986365,-0.7196994352909009
5.490227986777421,-30.957280688288346,-0.9503700704201823,4.991586680287716,-2.5676079826087754,-14.450567825834648,-10.834016265720729,-1.6742174513674402
4.067797370273665,-31.42587540681066,-7.006199649609451,2.9924726430801836,-6.635561695309904,-13.204667848289846,-11.502456834459327,-1.6479755727156549
1.9377117615822006,-36.39352730664468,-16.537849952060732,1.5416723486387711,-12.357588355557638,-11.178151204313975,-11.83230681601314,-1.203346869332782
-1.2819521540140912,-49.175827096466136,-30.948482865966476,0.4633529875750288,-21.236736340943306,-10.620935495573066,-13.150726774330241,-0.9819717666674425
-5.4473809912737154,-70.13977876757595,-50.126412998346574,-0.39082250686975867,-33.675123058904056,-12.966954309506377,-15.988605913977857,-1.3140443004322415
-9.670812080057836,-94.03612036526329,-70.36135563465452,-0.9786807412006309,-47.35833712817547,-17.695839067831947,-19.341315223190918,-1.9933127561545507
-12.572960883543784,-109.7462591995585,-83.89962760153533,-1.1888084660297835,-56.88656007264125,-22.18811868453787,-20.79952911977323,-2.4228033819677064
-12.985716017396534,-104.12743275665653,-81.59724650984565,-1.1658453081452131,-55.65740329471886,-22.924119365435942,-17.733222858392686,-2.063611641143197
-10.694297097589274,-68.81256458350383,-57.839818344299225,-1.5060888567947186,-39.397624512520515,-17.460996588749797,-8.924831502559746,-0.8686631813458299
-6.693578475794762,-6.072471827854278,-14.733717628923303,-3.04735041655549,-9.230229895542118,-5.986929618019184,4.399832762909277,0.623133997841909
-2.731639927926189,70.33176511101921,37.48413141250246,-6.321604295181447,27.89212436983493,8.5552082089626,18.883175098792055,1.6057311129820064
-0.40326797641679246,140.5020193886213,84.56777633609386,-11.063146635636084,61.969325684034075,21.874027746412914,30.565027865671116,1.5075731337997962
-0.35978563277549985,187.2116904921539,114.69021894219395,-16.174802589310897,84.45156300926519,30.406109074753704,36.72541451050234,0.3271137376958193
-2.103316356489838,203.2225931599195,123.48109664464548,-20.233459724200586,91.87956970456302,32.85071836120488,36.98384889275892,-1.405996683922798
-4.426419399878487,193.23958594165285,115.00430958040954,-22.22343355146148,86.74494636869204,30.389653513074904,33.13273049966017,-2.9790398225043946
-6.150773984136247,170.12933180614277,98.68154953401555,-22.032996734983104,75.4770726153172,25.689100611089934,27.98995721227663,-3.89443410470443
-6.69804609946799,148.32792203038554,84.46855515889125,-20.443252431464074,65.09958512885645,21.45560109327714,24.05903354934583,-4.07401852353708
-6.234432166354918,138.14068213148315,78.93915334423515,-18.69373187456265,60.42699706619172,19.368780563977364,22.677771575966943,-3.803739874842934
-5.44262884219042,142.87215650551892,83.52792799368052,-17.920664376949414,62.75271069180616,19.736469144917947,23.829191534147128,-3.5242172475555353
-5.129338196500109,158.56772100037412,94.67083580313839,-18.70785585683427,69.8979944960781,21.71234818249485,26.387548617560427,-3.609170761398836
-5.832009670597135,175.54991606504257,105.23900213232052,-20.829122734481203,77.17045042939318,23.774043221362227,28.56384389544039,-4.205163776389744
-7.515299518244911,181.59186359860394,107.0969756577329,-23.215912945772992,79.0533910310586,24.30668876569067,28.50421618740896,-5.153045300100372
-9.469098530662862,166.6459328530842,94.53866605553786,-24.245324625443573,71.4622776382629,22.223749243229697,25.00967796303067,-6.023631717435874
-10.545521805577616,127.71542211196488,67.38596618658958,-22.399196700191073,53.82682519536745,17.43613658759384,18.123126849375716,-6.304734920498529
-9.738680225785139,71.11774085535457,31.808314708538344,-17.090184012199593,29.75865523926183,10.873738897174805,9.184565618285502,-5.69710248395428
-6.840776055199464,10.041978804984147,-2.27896625545645,-9.185379543360158,5.5097707260656,3.93755184823412,0.17700666733457662,-4.358504956082668
-2.740378105797376,-41.85646018219736,-26.21842664268386,-0.7979296467508884,-13.206143827358316,-2.340086812966351,-7.32638434071831,-2.908718177359191
0.9255838484929738,-77.11318213031339,-37.093368382107535,5.662479974565624,-24.17673863398803,-7.867178545693739,-12.95001378739552,-2.1373457616298492
2.645626427763951,-97.0427460227331,-38.74575178102367,8.670811558033247,-29.4820346789564,-13.348200759740783,-17.478448823189428,-2.5594461848906334
1.9260270565545,-108.48074301771062,-38.50771576296579,8.277985882310894,-33.47921725719362,-19.450761786250787,-21.973127521647125,-4.088324783993767
-0.376808837819562,-116.99749423274105,-41.74070310093201,5.875355594468065,-39.27058939675541,-25.834400100294985,-26.64469201763002,-6.045090461659699
-2.5352252116772163,-121.56978797592163,-47.90616721441176,3.2003916003967117,-46.101403946531505,-30.79043804817593,-30.327237959536838,-7.523931817719798
-2.9660824504528347,-114.76625422431621,-50.9193823973381,1.2543048217222785,-49.58344384841535,-31.905654988630776,-31.026972240728323,-7.903948789546284
-1.1478094649454067,-88.4620348467015,-43.53958050816109,-0.16290462887794666,-44.669686507647086,-27.457698127821846,-27.244775242415077,-7.19481770043985
2.1288962969941894,-40.961041972691426,-22.71097336656248,-2.0521986494130875,-29.338286155901322,-17.66849115857709,-19.172551739391025,-6.004192916523492
5.29537539072361,19.671704621848114,7.816756798178356,-5.3065902875458315,-6.447078665926031,-4.947132883148855,-8.910595040324981,-5.157995443558766
6.939534306677763,78.53795469273335,39.251251280409896,-9.960999199951125,17.470971628063737,7.113840554115032,0.4781725034299644,-5.223805281777038
6.541787039286636,121.17477338435081,62.533057759134884,-15.093749962887902,35.5965555621083,15.40608611039003,6.470576243685506,-6.233447608639907
4.603644109682564,140.40761501813793,72.88114011270739,-19.381701978944953,44.1464432526836,18.634817270136132,8.195123972633946,-7.7493932418249285
2.1905247156894627,138.6550797682932,71.37012709074877,-21.87109384273664,43.643529790202514,17.57867285786909,6.536367729036765,-9.18429319600969
0.27176536516726624,124.94927954235973,63.11996751354945,-22.435737422617404,37.73148170493613,14.289670959822825,3.334143693947797,-10.133534033570463
-0.7083390330710293,109.40160871629897,53.92809572899075,-21.684770372018956,30.751739249583892,10.887544246162642,0.3286637984312171,-10.518406599975783
-0.8506267742419883,98.81362022797444,47.681105827822556,-20.498378400786937,25.7597348692053,8.694510992333605,-1.5041272752070693,-10.511872319070722
-0.5507146148165322,95.32800101977759,45.613963179985916,-19.57368386686892,23.845050545739074,8.028765181980926,-2.0297776924233317,-10.370278856328168
-0.23091664692611794,97.50611694072798,46.92603327233028,-19.23188807716189,24.50699840629088,8.480067904674394,-1.6713591515218655,-10.30529061646976
-0.18931255586348222,102.19043336722989,49.77884548049863,-19.464568183341157,26.401739594583322,9.325824616899908,-1.0640945453373287,-10.434845950778085
-0.544681010187382,106.14413401850601,52.2054399454918,-20.06144726019344,28.057933130025962,9.889584767695759,-0.773837966733667,-10.776876730758548
-1.2282623575846183,107.28686227310773,52.899433095768444,-20.72880350766607,28.47824601593383,9.796217130576874,-1.0885683478232042,-11.259457696704729
-2.0333197730490205,105.36812411957152,51.706220488913665,-21.20690085871829,27.50208723381764,9.079141701974711,-1.9335204993009343,-11.759524514297206
-2.7367158462262053,101.69521538531329,49.462169508917704,-21.380710567074978,25.70646975299353,8.075591141030564,-2.9830228895453264,-12.171647792613864
-3.2274551543868304,97.98147731458413,47.226133794404895,-21.312813338925665,23.87354827404108,7.159228510453097,-3.912021381358958,-12.46269769871273
-3.539761935533449,95.21403415758371,45.563211655570015,-21.157070967358383,22.463124647550192,6.512137535317384,-4.58467847527638,-12.66589469884502
-3.775023444994629,93.48627498025824,44.50677732563088,-21.032009271004853,21.53324407802934,6.110134959462685,-5.034632958905655,-12.829398773772258
-4.012959028729537,92.69228801478336,44.04408911844071,-20.981876596010462,21.04763535495441,5.873307053881626,-5.3192892447784095,-12.98421610518758
-4.306037036643782,93.02924622726101,44.37584684411246,-21.043871432532562,21.08316949805554,5.7712434903550776,-5.454829855464151,-13.16377438916166
-4.72656296585497,94.60146353622257,45.55668667155004,-21.30065855945766,21.64046990358756,5.768268049467556,-5.501773299373902,-13.431201367732141
-5.358310596728636,96.65071574781504,46.98537180773731,-21.812931482603304,22.324781174090862,5.7212254381426515,-5.6516556283629695,-13.85199840889314
-6.201656309731908,97.50343988292097,47.4795826009707,-22.48807254679705,22.379482449343186,5.4082286505889465,-6.149865987520398,-14.419074386457345
-7.094698894073603,95.54486140472287,46.02075188598818,-23.046505884472648,21.158484507731217,4.695606731038932,-7.094583522764336,-15.00835234727862
-7.766002295952645,90.4243146026208,42.53302181108656,-23.162836769549045,18.635108459553187,3.6746835814037024,-8.309065657218433,-15.425900388142733
-8.00501834334471,83.57187138704815,38.11330195775961,-22.687170481571712,15.547977946520623,2.6403488399551445,-9.403822573364955,-15.522576757922113
-7.821078606975893,77.86219103393218,34.7141297145221,-21.789647674727746,13.170036819522025,1.958668558789598,-9.956660506034998,-15.298699601503127
-7.486003363024205,76.72135222579195,34.52761373475061,-20.95427351143342,12.884069275537025,1.9337120486606845,-9.690275359633528,-14.944587020249672
-7.456433536887743,82.69044458886479,39.04080433577084,-20.834149650784084,15.582756335627678,2.6802745166717443,-8.631757694527266,-14.80639810700827
-8.210321120139076,95.36702243000983,47.68902147383842,-21.976998446046824,20.849110392529187,3.9493790347768742,-7.27239221121768,-15.26978081026635
-10.000787086884658,109.5494572789381,56.720674602044234,-24.43264704973015,26.274863127172072,4.987435590985914,-6.60454718279706,-16.548808521637252
-12.558689949471237,115.4579892983194,59.57055074854748,-27.383376440374523,27.71670650573181,4.668292388441817,-7.809044532304046,-18.429389365649964
-14.910316472274292,102.35691087920755,49.514249301345494,-29.10333238835507,20.989709768943552,2.027906711077205,-11.563529354463624,-20.127304053955115
-15.559514496669065,64.43783172923432,23.611222236851894,-27.501639912198154,4.380395021758789,-3.044089943414016,-17.34994623963841,-20.44941424067327
-13.12267917181983,5.425074483729496,-14.553179913463469,-21.138921835427812,-19.621755776336496,-9.473968330884295,-23.336782271173956,-18.293899743600832
-7.149520787598405,-61.56122994043794,-55.49333382474171,-10.179819378202556,-44.789182033452846,-15.38722986804255,-27.11046830274759,-13.270079408927266
1.3848073593213155,-119.47305097963034,-87.88013205415415,3.352287404535398,-63.85772997896271,-19.04544828657598,-26.920548545103706,-6.069125322355831
10.308523626173764,-155.16829705106267,-103.8024641522439,16.27539297419966,-71.98097449672744,-19.74819007903773,-22.682314062779174,1.6829352110622964
17.154862277333507,-165.06871484535898,-102.21630692244845,25.568695661491237,-68.9226918296896,-18.117883723126482,-16.089165882922558,8.063684277346233
20.251391095069234,-155.57383698841994,-88.75757114814645,29.59913906336844,-58.78330764386173,-15.608602366397587,-9.746362109289382,11.667602124066347
19.391713591711014,-138.54002958690768,-72.36250083802645,28.628996510255174,-47.60186202833763,-13.599727158974257,-5.8543405243428275,12.176847942692858
15.753218566781301,-124.99788802551244,-60.909752946859996,24.43800828371063,-40.382968848475045,-12.684906627525425,-5.225506764087854,10.413159733174027
11.185127142928796,-120.73693497177875,-58.25363228721086,19.389163791748473,-39.18999952040793,-12.576840697069073,-7.149729022985973,7.879006805343347
7.327942403203231,-125.48035450367293,-63.71041239824537,15.480381198343997,-43.00797637786863,-12.575542883567904,-10.045392618452016,6.049496030917467
5.032575253192219,-134.91712940336208,-73.49824794435715,13.780915246218289,-48.95010176948646,-12.1683783347488,-12.380238171912557,5.764300801308828
4.277266846713506,-143.68881372862336,-82.92119442030717,14.343912417394984,-53.86677572908305,-11.324014487707199,-13.312755159944643,6.976389901873505
4.475609650257553,-147.82405270095452,-88.30518496673014,16.467172959900306,-55.61278977147588,-10.350913058693681,-12.813438526441809,8.925489567796573
4.929382150157994,-146.015113117064,-88.16456429406563,19.12472192273516,-53.65677066570762,-9.517044043634332,-11.37042305428628,10.61567632777617
5.208545399053526,-139.63968690563738,-83.35892976165471,21.4131437225558,-48.9918129246242,-8.746368399292209,-9.553817511537007,11.347996510400478
5.321691319315373,-131.66520632144903,-76.26265738921298,22.857659668903295,-43.47527315811821,-7.621165260800282,-7.710924726356555,11.031769497533208
5.615378181237917,-124.98844840546641,-69.42290810980525,23.447681207050138,-38.94395729443717,-5.735300521996048,-5.962990583516545,10.108228270078861
6.447122979174577,-121.16985746980806,-64.51719873677737,23.402407012548743,-36.58680306500295,-3.2262201161822155,-4.4871158088969425,9.147553320343885
7.818363604698947,-120.27992382003504,-62.15772632905981,22.852839017715723,-36.85261874898796,-1.1224510920933106,-3.8345106010883954,8.398810341256139
9.219804971165491,-121.65673742653814,-62.34409203290407,21.692958407490167,-39.71196099097991,-1.132025458340437,-4.933027390910105,7.610936986764945
9.820834395774238,-124.66445429662667,-64.88416551795413,19.706183244113145,-44.84153463790212,-4.805423998950149,-8.62244420489735,6.246165041188721
8.888048415628052,-128.8068607846912,-69.37942848454563,16.83830689388765,-51.54011077810334,-12.504479506362502,-14.981430551019695,3.920694956680027
6.158580403795374,-133.42396165475273,-75.01213102658852,13.385670516783085,-58.618130749079214,-22.87829220129866,-22.95709002758793,0.7612377479661575
1.9613285332480093,-137.6177007571154,-80.58886260840593,9.970671138279364,-64.59306106605061,-33.27197936942023,-30.626407630170362,-2.542283918848954
-2.9181355612951982,-140.5969926981116,-84.90349618056763,7.346873297935694,-68.1738489212125,-40.85063030347395,-35.950998496546966,-4.992138504115417
-7.501455510482107,-142.00975589770547,-87.07746936630146,6.147327838661057,-68.68544687849077,-43.755111399889444,-37.56193288178419,-5.693741020353033
-10.902530462327041,-141.87566408175744,-86.64746122197876,6.655902305974258,-66.1707984976302,-41.683872139005786,-35.182582760550815,-4.240140106616324
-12.59309489257545,-140.31219650187666,-83.56904694852669,8.651438621873192,-61.25804758679256,-35.75849144354915,-29.60920764187066,-0.9289409180345645
-12.605076148149482,-137.5113863623426,-78.37544674034471,11.392418579499546,-55.029011436884254,-27.935052121032346,-22.395767743342454,3.2758633111270385
-11.577521698422592,-134.0113581586784,-72.35945325850467,13.80164755388318,-48.923738196284525,-20.313362980496503,-15.403019768491719,7.048917152481444
-10.572277658100012,-130.8108604801166,-67.38105037383242,14.816852617471785,-44.500991572024596,-14.572187833250268,-10.305306712503313,9.17460094921041
-10.69430351380768,-129.00194886255753,-65.18221443656246,13.760145861610303,-42.97822931577339,-11.634979848401718,-8.150957702832606,8.987264232143986
-12.667363629070927,-129.1888360349288,-66.61983150856086,10.564268671662465,-44.77264808090298,-11.608548431989341,-9.114067728370593,6.588256821495024
-16.538879912416686,-131.2312640492615,-71.35665587029257,5.789860955665057,-49.35822471406988,-13.965436210870854,-12.533369543444245,2.765715283994135
-21.62644411949079,-134.4622559364413,-78.12898180477748,0.4677826414153649,-55.51240229978076,-17.84464119287543,-17.197549746777792,-1.3132298728218283
-26.738898516962017,-138.03203168023464,-85.26385504256758,-4.180223290326141,-61.74699891006829,-22.31747371152224,-21.734508585324136,-4.498771700152752
-30.62574682097277,-141.06774265627175,-91.1300108275857,-7.104674703479075,-66.70545579665868,-26.55701007268135,-24.981419132151192,-6.019281345522911
-32.503283721209264,-142.76786363921656,-94.50656055799648,-7.795754557310155,-69.48037883731753,-29.960184366292697,-26.280166339396427,-5.7166341759745185
-32.40705014384456,-142.68443982162918,-94.93691954546401,-6.495006705499152,-69.86000895208025,-32.26468693792166,-25.647153425722145,-4.081872781369892
-31.145923013890314,-141.06565070235092,-92.90837296098864,-4.09973944243584,-68.3893955012066,-33.600353926698986,-23.733120767352315,-2.054110531061036
-29.846906616120485,-138.81254939931776,-89.59362930978197,-1.7681665981944523,-66.09628573833439,-34.38044465378136,-21.540080899308013,-0.6416822114160532
-29.355710981342455,-136.90190688801857,-86.21016205350753,-0.42883150785328444,-63.962201362714204,-35.051571811320976,-20.013213085479997,-0.5295367896251166
-29.8605972068715,-135.74592377807895,-83.4701118532336,-0.44981292106236215,-62.49468244355258,-35.85643328196595,-19.722289608483038,-1.8509762360616973
-30.931283953648244,-135.0931605735479,-81.54665743863062,-1.5919172545088678,-61.70738143502169,-36.75316879422351,-20.76307907602959,-4.198875179129326
-31.864087220960148,-134.49100977756032,-80.44765305752244,-3.193204597418336,-61.42919133108972,-37.491214730550894,-22.82683445192529,-6.820402994885576
-32.0593367677845,-133.72793029314278,-80.27710319020996,-4.456775732800115,-61.5616842932014,-37.73586163465648,-25.306605919289485,-8.88375878594388
-31.231653720256205,-132.79624140843288,-81.07564587054434,-4.742316230711724,-62.03530781808892,-37.16667044948614,-27.400402985756216,-9.732734967038427
-29.43608569507485,-131.5760709923491,-82.49653689538764,-3.7959011236800113,-62.61167504782088,-35.567074811428434,-28.2851268664563,-9.082838658821691
-26.993862615227112,-129.7695449386007,-83.79083683078964,-1.8474791662812495,-62.857268934917094,-32.93377283344145,-27.400806418134085,-7.115767254513066
-24.379074630773463,-127.21238020944607,-84.19760885070036,0.4810199332261203,-62.377126525343776,-29.55619016846262,-24.7288825681219,-4.427184098839453
-22.08337310179174,-124.13825041423395,-83.36542389480894,2.4314300809322,-61.07004231179229,-25.974807792077865,-20.86616451513377,-1.82315661864776
-20.486458116048468,-121.02226684743239,-81.44446407600944,3.404934923383537,-59.157122526802404,-22.804957177280922,-16.808396052742008,-0.034362419859213865
-19.78603082391209,-118.19268648672242,-78.89696767069465,3.1578368038930127,-57.0150935239708,-20.52843627076969,-13.559464257670191,0.5357209215021377
-20.012822114356926,-115.6925495900139,-76.30944641536568,1.839426801582357,-55.02807325733264,-19.367405820446795,-11.77318648573032,-0.0668682693810897
-21.091793980594144,-113.50889013072205,-74.3001413242809,-0.09730899553892723,-53.54838168278219,-19.254164013528875,-11.558014745817548,-1.3841247233488485
-22.890944641568055,-111.79234990152128,-73.36589035725446,-2.062305049014783,-52.85511484923281,-19.83788460149248,-12.463088186182764,-2.7193720749508423
-25.247336699178426,-110.7519118121134,-73.61618246247347,-3.5431921854075226,-53.028288086386524,-20.52470626201689,-13.639028652005578,-3.3976138761333394
-28.001391686078705,-110.41629806773678,-74.64507254337298,-4.3208030393840575,-53.86169238082401,-20.63904190432382,-14.177612326748829,-3.041465405906364
-31.03942841355082,-110.6623694389182,-75.79374965721944,-4.5817641499552035,-54.98590248666453,-19.748017520842918,-13.554943907564239,-1.755843497138714
-34.28637847877735,-111.50499748177721,-76.6502621730429,-4.825423614862727,-56.14290551123154,-17.997532719671455,-11.954009977305759,-0.10983600373131253
-37.60721413519313,-113.1965014631752,-77.31091226754288,-5.57786787348341,-57.3346564523429,-16.179876404241398,-10.214974734889381,1.1171119731353902
-40.67864340078228,-115.86930449664615,-78.14061187370385,-7.074616621563222,-58.67487347006948,-15.386897883540021,-9.375876862555877,1.31702706760872
-42.96831877039517,-119.0818067452093,-79.29934640187535,-9.111197268867706,-60.10520417297957,-16.42277635535667,-10.076350292612425,0.35572376075658224
-43.90160926933022,-121.85619851584131,-80.51969661235538,-11.144333569577707,-61.28847859897499,-19.355976873675175,-12.213054607157707,-1.379529192865957
-43.144145226105756,-123.27475820828495,-81.29522414018618,-12.562547048980035,-61.782317789843454,-23.482421675875212,-15.04184783985106,-3.208696895509286
-40.82652862058672,-123.06429654631339,-81.21455698089987,-12.966041689155212,-61.30033145218391,-27.66950324237223,-17.603815547412953,-4.520080877184271
-37.57381417484295,-121.63955745708188,-80.15163405760116,-12.327075505123913,-59.83917405729486,-30.83679518038158,-19.183651158380773,-5.0542881289414625
-34.32423984322093,-119.7000420180617,-78.30909402260271,-10.976406695621366,-57.65954903248283,-32.33755508968154,-19.569948160004063,-4.965705042809635
-32.021451129437416,-117.86204820323532,-76.23263772696336,-9.429655637797033,-55.231391371593055,-32.12862896038963,-19.045977957381098,-4.654648193138663
-31.299149834277113,-116.54087176198084,-74.7306296601058,-8.134516364907865,-53.14903810237904,-30.707706375587605,-18.160424922970968,-4.491241479087127
-32.271615932637275,-115.87846445468551,-74.53216459991778,-7.274454549596453,-51.9229763593287,-28.84763074693519,-17.397748192704025,-4.601422103210102
-34.51263566345746,-115.5810786323914,-75.79142918878391,-6.74607751084352,-51.687403770626474,-27.23166798109168,-16.914365031582207,-4.829961787380229
-37.23350924309671,-114.92964876476731,-77.88115806924674,-6.309267539026251,-52.07195144767635,-26.165572547016183,-16.489889037514516,-4.870793964493165
-39.57269849153638,-113.23662593357005,-79.77429417136466,-5.777869323828686,-52.42599413935509,-25.508166762458373,-15.7138637445175,-4.451206794891997
-40.8566632304295,-110.46532592381428,-80.72419318720526,-5.1041957148363215,-52.23509747372395,-24.81032948562917,-14.257876907925581,-3.450889790880512
-40.737818819609565,-107.32183713846291,-80.59799895223296,-4.331639880532752,-51.3371792996706,-23.52403484971981,-12.031220036188714,-1.919425972902298
-39.21609972256814,-104.54718783584009,-79.57441618333961,-3.5146518826650346,-49.75267017860866,-21.165830139592646,-9.147831899459307,-0.036886113522229105
-36.598287747061065,-102.01042937373937,-77.60347400235878,-2.698995375999337,-47.37243917279263,-17.43521579156759,-5.8065792395122315,1.933329828183999
-33.40785026769691,-98.50424788435319,-74.24250105633654,-1.941923422536289,-43.88965465580738,-12.333114882233236,-2.22199019447143,3.7024596674547468
-30.215159037912642,-92.49850682645857,-69.01926899158134,-1.2863990779985524,-39.06349550958501,-6.256122315302147,1.3675077854584525,5.050564320053346
-27.406835544063952,-83.27018216154917,-61.9428196678329,-0.672772491913255,-33.05322059876281,0.013648981564538427,4.677073180982111,5.9325115328179665
-25.010165806312962,-71.67919944709567,-53.775717684046754,0.12058713127382455,-26.559497248290647,5.450381802485792,7.37364572942839,6.51263311426201
-22.695035798547394,-60.29255771870473,-46.01331973734159,1.4209595357062685,-20.74712971075106,9.006181323284023,9.07917108216644,7.071509913487199
-19.947324249070945,-52.80119378722164,-40.597194327605294,3.5199912527114945,-16.998577123332065,9.876008701381563,9.410242277240915,7.836954324995692
-16.275914129305267,-52.53577993831996,-39.16888284440318,6.554111353993377,-16.39826598215441,7.828852589838292,8.159197152680287,8.867709458142892
-11.331672438335033,-60.09116479855024,-41.75342075400996,10.452344189998614,-18.869932900477213,3.56939719643661,5.6400350924556975,10.071030854090724
-4.955015287178761,-71.07497583637402,-45.47039612149505,14.897547701696958,-22.330639274029032,-1.0926248173211557,2.9812049145130373,11.310149986294379
2.7467215031274703,-75.94584403834384,-44.535975950918626,19.263770006879568,-22.682378673869433,-3.5787762984192137,2.002971624919126,12.485791502227089
11.26797844821317,-63.33625470710414,-32.41715416840581,22.6168298876879,-15.245466074762463,-1.477784963204408,4.51246114887795,13.524157474671767
19.64448227904792,-25.92692534048331,-5.449164995911773,23.923171451445448,2.7674596007611303,6.27380133184458,11.304123603265616,14.311842036837781
26.6274297911449,34.44989867582791,34.25341860114951,22.482606753279306,30.16859875561424,18.642564614399678,21.492085639705518,14.675794175565445
31.112902803023932,106.05659121258017,78.76130460786536,18.374653864854864,61.62092979793378,32.7328096430836,32.696120114521726,14.462336155490211
32.63035571738747,171.9534678433428,117.62602857179738,12.602254089927492,89.79038622481742,45.00056798474083,42.07933678220648,13.667291477332924
31.589936469335548,217.7144044431182,142.72623785541498,6.757262570391139,108.69942600799054,52.817559424985916,47.66076736854696,12.503508557204214
29.101760070471663,237.66037903456768,151.7830308549732,2.3395490594238253,116.31093210301435,55.50942896504814,49.12592832985678,11.327298331013088
26.45014887448576,236.1144049088713,148.55065810203328,0.11340972661766266,114.8778846919922,54.32457997548474,47.695677198510076,10.459294838843904
24.538092735812064,223.5300293486537,139.94410519531047,-0.11891344831256292,109.10410260359585,51.47980090168257,45.24745308024632,10.028464171104968
23.62381142455107,210.53648772322464,132.27535841420783,0.7740509655110989,103.53101640308229,48.971753195372656,43.33031293455026,9.949821365868658
23.44040371913655,203.62285459854104,128.90102826325878,1.814803780359015,100.76890867765984,47.847829193237594,42.64677841735378,10.030573851462925
23.521290152356123,204.1872374339958,130.07025154636636,2.3657975223036978,101.2301126804499,48.16415478359828,43.1168003646131,10.099951745247918
23.47670340005118,210.09149753660813,134.13948508444685,2.2514647738143583,103.88825487797577,49.375295633115854,44.240504414577686,10.068953825199799
23.10458274401133,217.85131727732772,138.92036489747397,1.6234128735511941,107.22444607070473,50.77631172475076,45.44112531206518,9.91757061032124
22.38697188710842,224.3273677661894,142.5999522913749,0.7688439871208449,109.91708352547346,51.80801242449341,46.28108161480714,9.667348386015954
21.453722555730618,227.771503615672,144.29080052247747,-0.022842114492297075,111.26426527799283,52.2227144216685,46.5856696526599,9.371505302688417
20.521912209712315,228.24240834321674,144.23085835221391,-0.5481493414368588,111.34879103270788,52.11885861552884,46.47098036416297,9.10166913943361
19.789682020232664,227.18907959510247,143.45259570785643,-0.7564561434342532,110.83674719563996,51.81533429243596,46.22762919998276,8.910459382699752
19.324670154123737,226.31603367055894,143.00750998311452,-0.7568049555689293,110.46276546093387,51.61416477435176,46.10644730845078,8.795682711400607
19.034541184796314,226.53128465827268,143.32497331525045,-0.7306221407863804,110.5788133162077,51.62425880436754,46.176271201915306,8.708393531681564
18.7478418163249,227.81448686657936,144.24203274056825,-0.809772734138233,111.13687605495547,51.78866119478688,46.37457943419555,8.601086544544215
18.32855446433275,229.9119890100216,145.54361932657645,-1.0282369614303646,112.02730285545148,52.05384053138107,46.66603354331941,8.463426964816202
17.730069908958946,232.89154409818508,147.30652748552586,-1.372948794927368,113.31201001905814,52.4704371404655,47.10691253743031,8.309529607665207
16.98254691498069,236.86039604459913,149.63962572747883,-1.8407700371640652,115.05875025822868,53.10751652266482,47.73770625377913,8.143176723411889
16.17854735913076,241.25204006142627,152.19362282249003,-2.4113448722067528,117.00230634825888,53.88891199672204,48.4414992934764,7.952702444425597
15.480919379472567,244.6650947922288,154.1078961313571,-2.972068014888281,118.49085112453382,54.55008207215065,48.949403384763336,7.742267144468742
15.091118121714967,245.62868365589765,154.54572027644363,-3.3178509817563175,118.85819674455803,54.776672536394244,49.00732599442717,7.552534044402314
15.123522998775636,243.68701347033124,153.3347258591072,-3.2781684124850945,117.91619046856424,54.408389686071615,48.558977064860464,7.4341420725910226
15.448387500048208,239.98286760877033,151.21863138021325,-2.879160872314638,116.20056819049408,53.57291355662673,47.82243576470296,7.397843874601591
15.654990277111636,237.0837049384827,149.68285165585314,-2.400001862030691,114.88129290403903,52.71341603724579,47.25684786617451,7.3956869436368216
15.227721850712431,238.20697786909471,150.52783346494405,-2.272071012398287,115.41664456261238,52.50857660855843,47.443672348274234,7.350811545739998
13.869213983272456,245.85782290094292,155.1452858103336,-2.8762758862033246,118.93717190740023,53.62560394238688,48.84129834610651,7.201937157976192
11.7967699663904,259.8870760048919,163.4035738967073,-4.315195760082521,125.34975358011005,56.26976229917597,51.398929808330436,6.928667449133463
9.854237768618987,275.742626344863,172.59853392523365,-6.2174783018136495,132.5320440767222,59.7043527174585,54.212544296414364,6.564014330081241
9.362365405651163,284.54863652847376,177.52262581630444,-7.6648083429246165,136.38794904375925,62.12997241664195,55.56577094127294,6.2128309492988265
11.707403381542601,276.19445773128206,172.37266885808455,-7.381102527533961,132.29428198360182,61.22774158375798,53.55273433907684,6.056272168963236
17.758250452995338,244.54461529115454,153.85438640543737,-4.244560329800237,117.49094977590335,55.241015217012084,47.054679341781295,6.293963663587494
27.335493978175904,191.76660467501023,123.58568936388792,2.0624176019989706,93.0187097947768,44.01793224976698,36.49323270767874,7.01939691149349
39.04585303845989,128.66248390775047,88.01530905676526,10.671774228359503,63.814227364422685,29.359870169279695,23.846716630835502,8.110370113480357
50.692790111292894,70.2571961448941,55.65627258077891,19.76503434214624,36.6864817672617,14.415339976495318,11.876480578552048,9.247165429024145
60.160497381646536,29.10030729088692,33.30025486738449,27.397425568612423,17.328835555273045,2.4473433572744745,3.020977629634464,10.09199203136284
66.3368001017153,10.348706830247602,23.57504423316455,32.443864485561654,8.178979220304653,-4.3368451839159885,-1.40636208530832,10.52515185125155
69.53999708029326,11.396147176670903,25.145667574125667,35.04374818839862,8.28807200867969,-5.32639629133877,-1.3615551935580625,10.749527800832746
71.15142394029891,25.49317686355424,34.82096069342106,36.212727176314594,14.866304292034437,-1.3449338249493843,2.286797467061114,11.132493894601591
72.62440382692922,46.06751442789146,49.48861746016649,36.86945689287523,25.030649758769023,5.842545904268463,8.15716490689195,11.84449642122033
74.46793476121579,68.5703714538371,66.36277749132982,36.98293564594229,36.45399867323032,13.960243780325467,14.509086293213624,12.5492668096507
75.87828010612556,89.41993936590228,81.96389525757195,35.499477813693346,46.89445602453583,20.54406477559762,19.306607075196794,12.42640992019718
75.29322135083852,104.34576209637903,91.64973253359257,31.141578103724967,53.70947540299615,23.39034485568109,20.566573242930147,10.59512289822046
71.512748102165,108.64407649601714,90.97757474780875,23.507767626836802,54.360227695916954,21.23622969212554,17.09485625554629,6.6980512906468395
64.63270446792653,99.60220212958438,78.26479028608375,13.669077026526073,47.77470285842112,14.382043430698301,9.215099822071323,1.24854692215336
56.17836744715724,78.99453318493305,56.318763491769666,3.8267975782936374,35.43550027951614,4.762924010086414,-1.1060648951125385,-4.517690911558347
48.38216397920141,53.24174779396351,31.712075265462428,-3.7398324318733147,21.119004647012574,-4.767694176701925,-11.00017258864337,-9.214213070962959
43.09971780813696,30.640412166528048,11.772701878642307,-7.748529346792191,9.22235112140718,-11.653163392847107,-17.96365934515736,-11.949527865278323
41.02916236783155,17.356193473550608,1.1391990469757505,-8.368356455712048,2.6915789394738745,-14.687048373434768,-20.920730096843673,-12.668140727231716
41.625157746545796,14.807864159784046,0.024034087463012943,-6.872755256479076,1.8654892754239347,-14.320441832973664,-20.474162010120452,-12.02728597895667
43.62035385245773,19.987455378755122,5.070851139541064,-4.826644535471841,4.871470837864732,-12.111665003990817,-18.273021528970606,-10.947199709143588
45.729061684939396,28.08328107748477,11.88506498091448,-3.3537199246904343,9.10242972194721,-9.739837547039478,-15.983836661524574,-10.140959022490966
47.11525511307744,35.294797705883646,17.36945484913495,-2.8446210763004034,12.653281268210739,-8.213167727085558,-14.526778258272376,-9.876188021052117
47.4844056900116,40.081469964793015,20.550279690536115,-3.104347019146641,14.872626505333276,-7.6609242993390945,-13.94123285905326,-10.025669087258636
46.93867307443848,42.68210931806872,21.947311956445795,-3.7003767825453013,16.018670203623046,-7.646780884856932,-13.769173483031636,-10.292843336189987
45.807867148072354,43.95574998150199,22.446623984947927,-4.273699669261983,16.594317582080173,-7.658257464873038,-13.576681310021003,-10.45114588430512
44.55205734494652,44.53420059328707,22.519142224780488,-4.69595729989094,16.88172806172797,-7.463078132788322,-13.292422948485921,-10.484396170653161
43.69682691743983,44.5351459250832,22.03078826712999,-5.04859791570915,16.821144778613473,-7.213111115954614,-13.240282018519355,-10.579058824462292
43.728423696701476,43.70253262647756,20.55641440429886,-5.451300348441966,16.172359760327765,-7.301710332794663,-13.881022636786856,-10.97072054885352
44.921110198699985,41.94027233357653,18.07327735379038,-5.840036430052871,14.89973917169754,-8.026506978983344,-15.361564628068738,-11.71184810497487
47.12261931127827,40.10352076687906,15.721517185180213,-5.868675886567223,13.62853875063796,-9.19745997547195,-17.09658565676308,-12.499893818636572
49.57458667528084,40.39247314614949,15.96000163628428,-5.0678146564434305,13.780184929742266,-9.955157285869609,-17.715677556782435,-12.714188041018188
50.90697375276086,45.52506916794417,21.527574954017076,-3.2020151669468313,16.992815292652153,-9.042687107031169,-15.595891044230857,-11.701465631864394
49.460804998023654,56.745462647160814,33.50912674540602,-0.5663508381390928,23.952227589201826,-5.491423520515677,-9.805777576262303,-9.173768924705318
43.95914951583377,72.08249526449576,49.86918190273641,2.0420496021435945,33.444695090365,0.6863093671393323,-0.8812072781923275,-5.473361540867836
34.273049710870254,86.64548557888104,65.90931159609084,3.712118249292218,42.566047012583404,8.314138483679445,9.175567122689694,-1.515082882370552
21.818374593543677,95.40381511923044,76.82848198655665,3.916483014589323,48.27129242703999,15.587575876021566,17.814080518077713,1.590313015328702
9.206228499575468,96.7603773480462,80.80881755811058,2.7640416923460136,49.33809039583342,21.016964183109113,23.24923226454464,3.0270865707458645
-0.8251165480318066,94.08663096376542,80.26589527131387,0.8220140165959204,47.25789511149287,24.126710940701614,25.292385012292065,2.601544863674512
-6.694927395091896,93.39781570334829,79.91106670988482,-1.3515772321390243,45.122148856353235,25.387475403359467,25.09023760899876,0.7346624588924788
-8.767073340404593,98.12212268632472,82.58462464740451,-3.589139571439915,44.9996978784511,25.411374376192256,23.931089158203452,-1.8323813232591915
-9.14506296331383,104.58022883917292,85.81535837626834,-6.095662611307005,45.62894248358165,24.04236122805271,22.00871963060422,-4.401982232346884
-10.534841142053848,102.06341607747515,82.02340210624662,-9.05589786240494,42.3487812405444,20.132744920069545,18.12671216876973,-6.536594554800998
-14.797394222979648,78.48461414048734,62.854951592884184,-12.22128364983123,29.731925391501115,12.307230166523508,10.634096783715176,-8.063488670040408
-22.01160086213748,28.366391707294405,24.996762816155186,-14.856453655576194,5.34245880267918,0.21729729586676136,-1.0788380806082285,-8.96273413938736
-30.550698613357593,-42.215819052811575,-26.522785579434014,-16.121400943515976,-27.955150271318036,-14.663527916279962,-15.649985648827062,-9.274902704720688
-38.053814161020625,-117.31053648313508,-79.93382779591234,-15.607328369382243,-62.80323663121792,-29.365380171326922,-30.09185024496807,-9.088758538146815
-42.667646913077014,-178.5271255621999,-122.29356614996418,-13.629471755715153,-90.82526642227556,-40.72864491403164,-41.19929304521984,-8.569436262511411
-43.85323792614137,-213.6424609575422,-145.54257089956369,-11.07249307892964,-106.58683296656041,-46.866625964092925,-47.08673965351909,-7.9511167654018875
-42.39936969317967,-221.34242048722652,-149.51589914701785,-8.908470539804078,-109.70713053629926,-47.89110255657648,-47.91271937513953,-7.462746575066867
-39.78980817885818,-209.9235287830593,-140.61938683555272,-7.720022222129149,-104.16569620861105,-45.55423676402859,-45.47383622443135,-7.231490894061701
-37.40137308232077,-191.67223328730415,-127.650713449308,-7.519595109289304,-95.66297553299641,-42.173124559988565,-42.09303615751005,-7.241636942117481
-35.985190559042266,-176.81508646757322,-117.60089984338127,-7.912177900753117,-88.85587953072688,-39.56123421566546,-39.5546848045328,-7.381495279824446
-35.593729523334574,-170.20708453347243,-113.54532509359649,-8.411391537656083,-85.89512092361718,-38.50465380555229,-38.60614556597052,-7.532685745642216
-35.82261963324895,-171.43035318604126,-114.90698483139967,-8.676077297238901,-86.52048455391903,-38.846469222194045,-39.05847498166181,-7.627721464640684
-36.13621376307803,-176.9369592857433,-119.04050005544836,-8.577987841721239,-89.06220843064455,-39.901059019999465,-40.20183779467606,-7.648985908731713
-36.122702886203065,-182.52425776807678,-122.96992474653304,-8.162601162745512,-91.57701588211556,-40.89991457188722,-41.252758117339184,-7.603718019271734
-35.62847130942096,-185.20173107653187,-124.67794048009193,-7.585502226468006,-92.70571619780434,-41.32212260616474,-41.69326416000021,-7.514762236344021
-34.7628110080885,-184.1520925378337,-123.73920188558746,-7.038890456054403,-92.11151083966963,-41.0598472904135,-41.43871654294572,-7.422965465878687
-33.782599411939586,-180.63443036733844,-121.17247980202481,-6.658179667427579,-90.41548747086414,-40.38188761030566,-40.78546902105247,-7.372493478021103
-32.91858039928301,-176.88517449730352,-118.58605735666389,-6.448913620187695,-88.66236026448647,-39.709472439583344,-40.164307817728464,-7.378418903836286
-32.25335995798788,-174.64353568776016,-117.12964208643821,-6.300972742698693,-87.63147946074658,-39.339412436607006,-39.85857044905072,-7.411985712532316
-31.726149128280614,-174.28197803680186,-116.95931448278881,-6.089278967311296,-87.45666896954224,-39.304370841994206,-39.8816086292519,-7.426325097550731
-31.229902980783066,-175.03504487050657,-117.4872778626568,-5.769078456377797,-87.76143994516309,-39.44273622102887,-40.064890908298814,-7.397100178474217
-30.695041575789865,-175.85970952190982,-118.00324597854983,-5.3804204348293005,-88.06572239227133,-39.565749621766464,-40.224500355493845,-7.334208639233414
-30.09781482205281,-176.06386471317668,-118.06437456698943,-4.98047564203849,-88.06434524148456,-39.56024437425616,-40.25084666470451,-7.258614802506893
-29.42929302018871,-175.38650377746578,-117.50891166265629,-4.594365110466287,-87.65415995263939,-39.39063028205393,-40.10681630479575,-7.181491768559603
-28.690402684238062,-173.91707201919863,-116.4102800814021,-4.228200116303699,-86.90037283480417,-39.0863929135622,-39.82589489167567,-7.112488553136602
-27.914922649949506,-172.19767646832466,-115.17127438954296,-3.8945035345406613,-86.08375333181907,-38.766060325866064,-39.54250470362466,-7.07579682094286
-27.16590914345089,-171.24199329850057,-114.51436988104714,-3.5913897301734083,-85.68685347431847,-38.62876720292783,-39.470165274099756,-7.096200472910535
-26.484566088129103,-172.01296740099053,-115.06692817963449,-3.261610352675491,-86.12137754274293,-38.83447827969349,-39.760548494124805,-7.1592157774503855
-25.845445315614946,-174.52559550364836,-116.73656019126446,-2.8101237650147377,-87.31181488114474,-39.3332328807098,-40.33036639149833,-7.194495955333617
-25.177689230112378,-177.40432960543856,-118.48556669935158,-2.194587056341164,-88.53678858974155,-39.81379758198117,-40.83373033737207,-7.116116007465233
-24.433410392125435,-178.50296995857354,-118.85490736402707,-1.500087892056772,-88.78119716835862,-39.8640088127891,-40.85041947740931,-6.891935425552177
-23.62548813583381,-176.26174513576046,-116.91290896900686,-0.9061957694820046,-87.40008779928193,-39.24495729426131,-40.16781835469297,-6.581676087344995
-22.798512972119187,-170.8723222038014,-112.97134645837295,-0.562739018347126,-84.63869998955023,-38.089958244249246,-38.96689087036105,-6.315555603154315
-21.982080314762957,-164.59200306400595,-108.69142894303444,-0.4790078878956007,-81.71242382333949,-36.91922529055859,-37.81866816465801,-6.235634880262184
-21.188715410637244,-161.13343581611596,-106.60107282294437,-0.50107306839681,-80.43416680107318,-36.475744309818076,-37.50219365668913,-6.4306638462110755
-20.444891238075083,-164.23273603191288,-109.09759634824924,-0.3641609515634844,-82.46071557525347,-37.410910307359586,-38.6643910566239,-6.872081136998829
-19.791794733422954,-175.470579586366,-116.97139478436688,0.21638304838105907,-88.23501417451257,-39.848808232495024,-41.35492416334762,-7.361870046199216
-19.242196851371563,-191.92999915864232,-127.88782576777332,1.4069792310944766,-95.95767718530368,-42.972810199786956,-44.61072582598147,-7.542183029895363
-18.76423248724197,-205.23248648000472,-135.9329375229426,3.0656138203189154,-101.3352920068384,-44.94934369972027,-46.43489082505298,-7.024170445719237
-18.354466204695534,-203.6479617622537,-133.3212951932045,4.600384186477822,-98.82681485103738,-43.473710502242604,-44.43944782229693,-5.613645347358736
-18.14929322135475,-177.35343306033596,-114.10930541109742,5.063233032296579,-84.25900825927631,-36.85339026598889,-37.00268286063332,-3.4955784931629186
-18.437211198850825,-124.34794059312763,-78.01045286540732,3.5686695053458024,-57.493782444361244,-25.06669376612596,-24.315274621928108,-1.2121353838069124
-19.491003166508605,-53.21896611136887,-31.733902025621415,-0.13196991226948132,-23.359884602181634,-10.084860390191979,-8.59890806871341,0.6086094949691371
-21.301638716829448,19.61050504192682,13.476873506779867,-5.292425986346456,10.081387946950077,4.86531394934503,6.76144090123789,1.6247001094988758
-23.41893961123468,77.08502607589125,46.983190286331336,-10.341629969960216,35.16699994220407,16.738162362999905,18.725388871492807,2.001017776528435
-25.07344149029768,109.10528560071404,63.584008836233515,-13.57889675482575,48.07608835167553,23.97297220157403,25.867835799163995,2.307069861659764
-25.57029302208279,116.11684155588917,65.19603267811705,-14.031417810047039,50.07388752395487,26.92551958241173,28.701044103976177,3.137888803783891
-24.728256191221902,106.96905608175703,58.634399333188355,-11.966642647164559,45.98873931418912,27.274644411654425,28.976287792021754,4.700918154824603
-23.060803054767373,93.02328427984334,51.27867136294437,-8.749935755378196,41.132991007015725,26.89363312208311,28.528576168968826,6.636672914544488
-21.55586122750835,82.50856130054756,47.48707190431931,-6.156480544587654,38.68529909647713,26.911024634508706,28.4014330485115,8.174914209588541
-21.193922358079167,78.12475144736105,47.579582299869834,-5.572107865901686,38.88579287911509,27.401573347740158,28.640173441354943,8.50827035461827
-22.50657608612744,78.10256917859454,49.16661348066953,-7.505089388343259,39.96944245664652,27.66170360364033,28.63821321806271,7.163516946842121
-25.390771115812413,78.8590345194704,49.31807565297212,-11.540865931166845,39.788368149713925,26.74879238653129,27.676743484960692,4.2121996104252375
-29.182251651563018,77.35522816161271,46.24480435728961,-16.600703775623206,37.10769593804813,24.008955001472142,25.38201662395899,0.2798917290509007
-32.87311017778419,72.41162864918812,40.02608121354373,-21.318837909181024,32.15079427841227,19.45864372506041,21.984781432110637,-3.628010915291539
-35.389847562967816,65.0038626218874,32.434849084659454,-24.44773928841062,26.4066401472019,13.914526135979433,18.31100627038096,-6.454736790004259
-35.896416729140064,57.59529349356284,25.995135459658357,-25.231557450277954,21.8506745674147,8.757987454754481,15.452949474435075,-7.493272805335649
-34.04678315585389,52.68433053500617,22.619096410961983,-23.618752984072703,19.895123772015936,5.363871711536368,14.227128414784637,-6.683792708294324
-30.060024048050114,51.34208793314244,22.59854047104724,-20.181373138708306,20.646820322406533,4.480502052280559,14.73880384090451,-4.616549170650724
-24.56149219577078,52.80820381934271,24.71405575318599,-15.772203139534692,23.010850992704366,5.942858114080781,16.3704517493681,-2.2023917684402736
-18.299881577541704,55.43784601222829,27.39789913621639,-11.143157940239849,25.592745467970584,8.873181632302746,18.206699502276123,-0.19833291590994873
-11.932400851201622,58.051796638299436,29.937621313799102,-6.751833765816206,27.67243032870251,12.172086378712892,19.569207709331465,1.1267715409756183
-5.96797348794747,60.441258900482026,32.7001698722246,-2.7896680471748705,29.478765232362544,14.967144967316418,20.29674498938619,2.017759734898648
-0.7919874535079543,62.808868537035565,36.36112137165961,0.7059477968103338,31.6757343111234,16.840021423553683,20.673017212579033,2.99391909060824
3.3414047709134906,65.05913683754892,41.03639079760102,3.7725609418255814,34.654334338387514,17.852360849737583,21.163928541930403,4.516707017127314
6.352860151125147,66.76920519803814,46.08270236858521,6.4652100574204505,38.218792312580625,18.4202998930044,22.143010386912437,6.723254653017348
8.331331555119508,67.63531569143571,50.48785212865668,8.773672645103819,41.71372833860134,19.032137721417644,23.66306203994914,9.314382874800433
9.447567518626167,67.62785071812849,53.30134651091326,10.560945892653644,44.27978879506484,19.873695327582215,25.31149552679941,11.637669933548604
9.874140668797919,66.6717922765689,53.88046227868698,11.626649011903968,45.08535459962613,20.603359341737878,26.277843122310152,12.961305813157585
9.803440616718708,64.4757588858585,52.163473295476194,11.896847014565664,43.650178465276504,20.53430480865934,25.737688432345582,12.845414101824352
9.527295734122026,60.96738722003631,49.00912201467958,11.582824660825827,40.25460827159173,19.18161300696837,23.405559020061833,11.42005346786358
9.443390769217528,56.854687275975046,46.14451492866574,11.137916215010103,36.06959033056231,16.756346244791857,19.858081732626147,9.381090770678199
9.917856586364891,53.44519219841762,45.31971435056467,11.013664482825016,32.649598786671135,14.152645925905595,16.307893827794313,7.666370063181098
11.09223103105772,51.64302846313276,47.05578447391222,11.397960334086198,30.981919922551135,12.381259648677108,13.92525948982322,6.982665258463736
12.795801193656665,51.05545132846889,50.00882911282655,12.12998631544445,30.806965629727063,11.885087069154839,13.180956132662546,7.458015974287939
14.641258129748788,50.10095368285553,51.61015452245917,12.845833685609477,30.781001035040454,12.273753465139803,13.665114073532084,8.617295480653178
16.246991857045398,47.00191795998,49.59047837474436,13.264282839336966,29.360764706742035,12.668207331279904,14.466864562457605,9.687578637004751
17.466045789116386,40.83085525800058,43.3520920227491,13.459758430527799,25.772080135247027,12.39497073996917,14.829689249414212,10.061040878076307
18.511467181590223,32.08052753005349,34.45607927859381,13.959292553304813,20.521806623976534,11.565180504532984,14.683593190764116,9.660416767807986
19.889408172464325,22.83982176484096,26.173400508532225,15.528615913961104,15.324381226485862,11.17400140306908,14.764527401402791,8.990092214533531
22.095333949129287,16.59504317466829,22.33487255723403,18.646525687061438,12.523862999965687,12.61197818237395,16.220201273321894,8.810587313804831
25.160352522957577,17.17999728950493,25.660439353060816,22.918298577804656,14.08035363521801,16.77179885501624,19.82800716014654,9.598478283726376
28.31826915540133,26.617484636935053,35.97311790637124,26.867882522456938,20.344945729662633,23.202350867664368,25.211163425100832,11.125230134977105
30.115109246319413,42.831045088065395,49.27129271318693,28.425875809307573,29.249401976973534,29.87191764500388,30.585548698905342,12.461867782777684
29.05496895563532,59.16793678502427,58.7362137675164,25.97777847269202,36.68093567213347,33.86724270768764,33.374591164978035,12.46104238300154
24.47734056344084,66.920849056224,57.74973493087073,19.37530195455817,38.23400317993645,32.79139277720463,31.490401716366105,10.440941914382257
17.112829330837474,59.83282834572388,43.44964880056188,10.2393733432892,31.516028772778878,26.09088666082271,24.556704481139153,6.638666106733212
8.907002224536367,37.802919362521365,18.618636747796714,1.2979280184012856,17.5992779911949,15.487015245833852,14.287092692780867,2.139916373645026
2.160104132222835,7.28362218656166,-9.431180366377166,-4.885359080869372,0.633428162047862,4.20923161525853,3.7328583189656492,-1.6701609918465288
-1.5267195672744278,-21.981943130629038,-32.416446115200436,-7.057370389544465,-14.204026305705671,-4.530731822892211,-4.170199876463159,-3.7923089237517815
-1.8926309444469638,-41.82664971540466,-44.96376888914971,-5.667721706097935,-23.182536682781436,-8.942089598499384,-7.90122070700243,-4.031693349446077
0.07994374383936857,-49.15408553522222,-46.57596656823134,-2.3704006833564124,-25.471086481669825,-9.18666550286765,-7.788887122100595,-2.9461841705610734
2.857360814587236,-46.26717078145297,-40.82924744542894,0.972692474323571,-22.89266836229132,-6.879299541096436,-5.460710722991494,-1.425493655891697
5.169413856549944,-38.535242973886454,-32.790675426567184,3.1797240921877967,-18.464724542519825,-4.024217627239402,-2.7947759410084267,-0.19866743888131316
6.492196289519744,-31.449140622791017,-26.542876839948093,4.111742946512663,-14.857055166794106,-2.0886127264914727,-1.0601331073342526,0.4568249610609399
