FZ,C3,CZ,C4,PZ,PO7,OZ,PO8
-9.974803560148347,-68.1546695031299,-115.47525698667076,-13.853221368795126,-61.865836998197125,-11.723241968865201,-16.82646848055523,-5.935898043529915
76.54083456883187,251.73500399717423,317.2637083553881,109.70889328588996,195.59704648497132,65.02566496043413,100.7306086806204,61.9008835621469
143.07614528444924,497.4185707139289,650.3449706925538,205.01186237996245,393.6150650179788,123.59195978619512,191.02264654799487,115.12274736906419
178.32497896878718,626.5621355766783,826.6053875521608,255.948726442234,498.12076541889564,153.45454365540604,238.4207690171962,145.1576499157757
183.41246424858625,642.909198394492,850.6159185965762,263.84128267330306,511.8505247037336,155.23788977088867,244.10256792644148,152.12229457685322
169.22438561585565,586.887537306248,776.5070600089084,243.72645461838573,467.0268908654391,138.6430994195818,222.673442956214,143.07077905232597
149.7542410195506,510.7695621451464,674.6634197952308,215.0765638881812,405.5819332286032,116.74335560738442,193.31021195191352,127.57242748397445
135.82415170730243,454.5616368164587,598.9205596694361,193.05997269775204,359.7731092463282,100.28368740536835,171.1705465700624,113.57120496077196
132.17707687335206,434.872096384481,571.3639813868224,184.5356719921669,343.1396912081096,94.64917170087521,163.21099170211906,105.4301144588692
138.01022202675543,447.8132034263808,586.6260885299347,188.83911906003152,352.7946375870858,99.78174638352826,168.70251667248482,104.05451576273298
149.15868808267214,478.5341497108262,625.2992346001777,200.78557077979292,377.068987634515,111.7264819748865,182.10961120120746,107.88639429170767
160.35824295808436,509.960801939419,665.6315506999618,213.66106093539474,402.41549299960326,124.61231986376306,196.16685148335978,113.9407268180709
167.1170392809084,528.4135233365549,690.2230584586318,221.60235459148615,417.7351494601107,132.7323427706919,204.48342083380203,118.88088202582495
167.15507255239132,527.0549466998887,689.8169251921605,221.4358847599628,417.1121207916413,132.5897637681347,203.64323368091812,120.24495192723076
161.05893132812398,507.388010675222,665.3119709880003,213.59053881856295,401.26099930532297,124.25633329572833,194.29132166394584,117.42883969229221
151.78167627500557,477.8607230320962,626.648591221971,201.581350960551,376.7560716138034,111.24189803655345,180.55637938550439,111.85182093730889
143.2784442506709,450.0131393202553,588.4194362589352,190.3902128907838,353.09214067205,98.86866244793094,168.09028759583748,106.24547689621271
139.07694303273297,434.5538256920662,564.9876086154242,184.7341371579914,339.4077485772509,92.09227566221475,161.9186858349657,103.54834416580951
141.2133406984647,438.86284106139544,567.3117764343921,187.69979062066167,342.2645056784886,93.75695137675754,164.94410740177085,105.80387365493601
149.29272146560697,464.5950895421158,599.8148501561246,199.32994691151134,363.59708656521445,103.54920572987953,176.86359498276386,113.08282366528982
159.5833426053285,503.81794785063335,654.7197395169778,215.0490020698584,397.505267934104,117.53261309134534,193.12653781692106,122.57330846922558
164.9925200026405,535.9670678041123,706.4562252670712,225.2472679920645,427.54993236987923,128.5796241912298,204.73341066451613,128.5815659555334
157.09936881764563,531.1506021808922,714.1480936733398,217.8784688584578,429.0606710771381,128.37517126880996,200.44535748352007,124.2794544254483
130.13940570272723,462.44698218943853,637.3211880662134,184.08695071233475,378.9367646236478,110.91295272395328,171.68152777960842,104.96708720372396
84.85405778765825,321.9143613886821,458.9262389117915,123.93858677645066,268.98795896401805,75.90929120853681,117.77993656525908,71.12861032757135
29.457209537002033,129.5972742245096,200.73452989506993,48.2218149140401,114.05543928159561,29.882490384624735,48.00661677114297,29.14821943126928
-23.426056853217975,-72.11386159693527,-81.24743714232963,-25.53515611207824,-51.780486551447986,-16.22198248965965,-21.65550929333951,-11.136254617713401
-62.30201239107153,-236.75268331580565,-320.6617394081527,-80.82030341791372,-189.80871919419474,-51.76895460735815,-75.46025625620645,-40.77891089071356
-81.6406481031195,-334.1642378167915,-470.30352457522525,-109.16959676292586,-273.74909485643707,-70.89097531467854,-104.6182291284476,-55.47427055063286
-83.38638740497235,-361.48773162360925,-520.3660124409053,-112.64333810755171,-299.5907435037385,-74.2760495288232,-110.09152072184393,-56.7036932617491
-74.75164555569947,-339.7703980186445,-496.5702925533046,-100.99384540250894,-283.6004393691527,-67.65661616907757,-100.42174941935278,-50.00725748132905
-64.07609845440041,-300.166143993596,-442.05000561634927,-85.9156222249581,-251.29131896607453,-58.31786883026847,-86.5330361268854,-41.78218557800283
-57.25314642237054,-268.83794736688407,-395.4390776230937,-75.91206593929358,-224.76796190668094,-51.79177564633009,-76.77089168017824,-36.53832588046771
-56.286303246947824,-258.34865832935446,-377.0699863309753,-74.08448983925369,-215.14184454880674,-50.28858372832678,-74.52448057079793,-35.79872044868865
-59.941152255180334,-267.6552611134679,-387.5471047228826,-78.90555270686679,-222.12857792390477,-53.046983186420626,-78.71672789086338,-38.604833538090006
-65.43481126502849,-287.64484192016795,-414.98562208233625,-86.53731159117109,-238.46739265448315,-57.75116068502837,-85.89926567705122,-42.81269310681725
-70.09257618504772,-307.70755411622787,-444.3554827070304,-93.17518066441775,-255.3760593518234,-62.016506978554744,-92.47407002302675,-46.36490277592667
-72.41789682554405,-320.5023846031947,-464.512152028978,-96.60434776576419,-266.5722543856738,-64.38406726255943,-96.20881391445542,-48.114789706645375
-72.42755841862828,-324.0890529993165,-471.62436224510225,-96.73349188424888,-270.14699600619343,-64.6821156833265,-96.81489711554556,-48.08291246447468
-71.2794156474467,-321.4702792505563,-469.06780012355887,-95.1238492757961,-268.3360736182252,-63.787893628134384,-95.60804714184239,-47.164161628488515
-70.41901353576378,-318.01421473461227,-464.2318340586276,-93.81146998377108,-265.519192126946,-62.95109365671829,-94.48268911322792,-46.466481770593624
-70.73302570357494,-318.09543342679314,-463.78071827809083,-94.09919080303061,-265.4496279690805,-63.04631628099408,-94.76771630014213,-46.664495029658475
-72.21340244962639,-322.9367542157738,-470.138783214818,-96.04244552291142,-269.33880802345806,-64.19494434443313,-96.64730924975808,-47.752194267414644
-74.23970686844667,-330.83197381683027,-481.2948760713635,-98.81152232327153,-275.8929198003105,-65.92733249090114,-99.40746087667982,-49.264531982828444
-76.11139211720118,-339.03029538801644,-493.3484639183288,-101.43083442796197,-282.8356567267866,-67.63279533603745,-102.11732380127212,-50.67768686042753
-77.39104092407779,-345.46806723475703,-503.1945373589634,-103.268720748159,-288.4077272204461,-68.89694756965251,-104.13822498929754,-51.65834904023332
-77.97084486561059,-349.336338350406,-509.515163535479,-104.13625224396206,-291.88975443101657,-69.58054121027148,-105.24943164507636,-52.10858703939061
-78.0671193043726,-350.98174887444287,-512.5755962564297,-104.28286095761239,-293.4996470887266,-69.79769114802694,-105.63269004398941,-52.16868403012176
-78.23555108480399,-351.92265172030733,-514.1731514052266,-104.43568874412107,-294.38339162971255,-69.93049731050331,-105.90647029194723,-52.24240329912017
-79.22333316013899,-354.71044289594647,-517.6565618128178,-105.62882364055056,-296.5663929025929,-70.56782250630553,-107.01832325072837,-52.89555137291591
-81.51179977605314,-361.7702865612404,-526.6610564115008,-108.59213154810287,-302.11161305260833,-72.1970156589795,-109.73647507902835,-54.51365190891138
-84.79211728473426,-373.37867319125814,-542.3220448590794,-113.00661395470947,-311.4754900396066,-74.75954690986431,-113.93774108324196,-56.903481613545736
-87.87054919297974,-386.41375227613355,-561.0670653372392,-117.3155575970312,-322.3449468147597,-77.46029531981739,-118.31596115795391,-59.210894663667695
-89.24292780865352,-395.4390412868155,-575.5199644613149,-119.45542405210527,-330.3388224009558,-79.10557613718211,-120.9379999404887,-60.329985233879604
-88.0423181834633,-395.8640102182503,-578.6622597288509,-118.13192161590158,-331.5148951602599,-78.8198989717104,-120.40147621354635,-59.58499978175798
-84.78765547336454,-387.25148013720667,-568.6890844389426,-113.86884380318799,-325.1449743020154,-76.70085797817536,-116.89386755163876,-57.277188016770715
-81.51935834461676,-374.8382692510895,-551.6266622326139,-109.26438729654438,-315.1098121394747,-74.05085426833764,-112.5710332156626,-54.81279170342762
-81.19022615231488,-368.4341396138037,-540.3576798761642,-108.26951499799999,-309.176468206917,-73.05850674099413,-111.03076771785808,-54.31749270024433
-86.3359808075552,-378.6537334930911,-549.989403539514,-114.48752880762649,-316.11709513201583,-75.92125741558564,-115.85333539744452,-57.72260440315196
-97.26559947902543,-410.9054384406437,-589.988752733974,-128.74618006962294,-340.95720394945084,-83.50236700661287,-128.38157872780243,-65.44963845914559
-110.521186733789,-458.907371792171,-654.9832637026228,-146.88723062871068,-379.62182843296716,-93.96674706675209,-145.50936382870077,-75.21607982312179
-118.8287637936149,-501.62487494745704,-719.1501782575806,-159.4399400439452,-416.0098287045537,-102.3067766745785,-158.98313268246267,-81.87844824157827
-113.43386582137052,-507.94885881843754,-740.5742580084984,-154.51807564374357,-425.1426981481684,-101.64130128256514,-157.62133376301662,-79.02654847657861
-88.31729213472946,-449.84739836946113,-677.9617892717699,-123.4359748805634,-383.41038218985153,-86.24572026934979,-132.31703595218247,-62.02389821789375
-44.15246007818825,-318.43253677879795,-513.3949451160288,-66.24692191468448,-281.81455015737833,-54.91522045475211,-81.49533709039744,-30.96617927371375
10.605074811227542,-133.24926791779484,-267.8434991601422,6.401419605133514,-134.3618267583145,-12.581118167740792,-13.62499505792137,8.36355544574144
62.71192704641713,62.61388499392028,2.28124320051904,76.95737429794396,24.869095587374616,31.1493478685455,55.35935777407328,46.49784276391477
99.91192472362461,220.72836435234652,228.49331037885113,128.6576966610548,155.95436411260002,66.01435340258246,108.82872723196944,74.38739332997469
116.27647811544537,309.13278666368404,361.38536347823515,152.93310123700348,231.16248877120768,85.4802027867163,136.7433225745237,87.32457213315759
114.05426825628453,325.11838311124524,391.51349464459435,152.24601697024792,246.3694287740671,89.01156432930094,139.29959610491298,86.4577186745501
101.23095226218416,292.0376940447595,348.2425050030748,137.04113317116517,219.536226334896,81.16258336886577,125.1396965225784,77.23920175963963
86.7444152051379,243.62558431076184,279.2446649028494,119.29952792049278,178.40551866517163,68.48915546175859,105.82627860514476,66.11071091337577
76.4675778040819,206.66810694153227,225.12513399692318,106.95417896286722,146.0228711133575,56.43253618651111,90.30061945656944,57.59361754692267
71.9223466722467,191.7544382363883,203.95238813318312,101.98363839890493,132.36324019546072,47.79080310449224,82.20778764370685,53.19215261688065
71.48850421027731,194.4190757826228,210.7211737863441,101.98956081262989,134.50605676372322,42.92267315405778,80.45007189601134,52.027319570489695
72.55743760321283,202.42592389273213,226.8271297970383,103.17850601736166,142.25044894186698,40.834929682877906,81.4947491449282,52.23575257448335
73.31492272648491,203.9317291394871,232.16933478168474,102.91480460342598,144.92501711665076,40.364761031898546,81.90429298960801,52.296648780545034
73.65898043865242,193.8123282001013,215.71109278095028,101.11266455470988,137.0842412394017,41.11481693559659,80.30027738235098,51.900925749602
75.10438641537726,176.89444989419923,182.39144517260127,100.20242873714582,121.92853223380605,43.854258001098984,78.20508371407517,52.089602602043755
79.54355255828096,166.33638788465896,153.1350050246906,103.41987079187346,110.72042819073435,49.96009575924667,79.09372232366428,54.39677222887608
87.22613110129117,176.248609837101,155.15451760275027,111.86349814417788,116.96826478577702,59.88723393924528,85.65943283184409,59.23127220347821
95.24290957447839,211.61384471827066,205.49004849293073,122.11850493876963,147.49801263917806,71.62834207600855,96.83773899341766,64.56573996036752
98.02536743627273,262.27586376347926,297.69128001452964,126.66621727635415,196.11249589616662,80.61855123792543,106.99622656804142,66.2100624914643
90.137955599847,306.3727637961456,401.79138287807655,117.63439599088997,245.02209749982896,81.69862124526614,108.49672200567305,59.94282506901787
69.75959277933943,322.0318357063632,479.1295100856207,91.76058125246185,273.9997192071602,72.0934568637693,96.25054230209683,44.24951232556003
40.43232409844197,299.84173139317573,502.9209016685879,53.14874446081404,271.50153037166695,53.376299514046984,71.16858540350293,21.743824501955036
9.724847861732846,247.93392751116343,471.51937759979313,11.76082100584543,240.57803802324162,30.988144093072115,40.08569520139346,-1.8178897876264055
-14.429285270267988,186.7545301278067,406.7328423080065,-21.48684664704365,196.1662853061327,11.561253110843671,12.211538644916505,-20.353523643244976
-27.440496550719114,137.50663922746324,339.68550069269145,-39.93199367280238,156.1600858345631,-0.26689958596298835,-5.536461337135882,-30.32816291588209
-29.656831047261512,111.86335813890341,294.2066220635399,-43.6056924317252,132.31806986108572,-3.656583901487065,-11.439054289629254,-31.996496490592754
-25.21686507194508,108.73264103261499,277.74866330161075,-37.88046408416653,126.30647910758783,-1.1475897539012891,-8.687944323140142,-28.528774450655593
-19.30413705555868,118.39916249252832,283.16801101767913,-29.78748158865348,131.96559363146523,3.3355213756929523,-2.691735493569434,-23.905551701908944
-15.67758109229984,129.65809623760322,297.0704894394692,-24.578550525004736,140.7186307666244,6.580587484932377,1.919246608842176,-21.02383454502026
-15.682326515841359,135.00859028588948,307.76679149304124,-24.26316758898353,146.04823410465423,7.142361360438045,2.889023340604142,-20.933849723925686
-18.668185580073388,132.0622816881505,309.0206334157979,-28.093824959027547,145.16503299476213,5.217609589259086,0.27816793588464833,-23.148897450356067
-22.996102362156936,122.44916852891944,300.2263130566691,-33.89950747824205,138.59107514126026,1.9342730548829703,-4.444345804580886,-26.408722234184456
-26.965367640527216,110.03673779494316,285.0571110084388,-39.345298506325996,129.01444215244047,-1.3687490833033127,-9.37877008612913,-29.39500159437956
-29.471781442154505,99.0504771741216,269.29412747463385,-42.852186423614896,119.87283174682523,-3.686195796095579,-13.00178330328818,-31.25016660993667
-30.365508940770326,92.13878714448852,257.83316282981804,-44.13135758340909,113.68380305646555,-4.703650007510809,-14.759717105358948,-31.860770621616396
-30.369320671278924,89.15489847830567,252.07393906241757,-44.12225734217032,110.78677830475652,-4.8477287191818625,-15.20907340955655,-31.789817112609395
-30.516640585721,87.71533619828976,249.70784614512243,-44.245005536364985,109.51690480104615,-4.9230519000808615,-15.504440259920132,-31.83467584552563
-31.453733296070492,85.27930684655463,247.2101802061248,-45.42396382673874,107.79271843827311,-5.538579911261823,-16.53957891763421,-32.48821697287626
-33.13688430778374,80.93665684779982,242.68059970320684,-47.63364123931941,104.68314928813325,-6.769596722419439,-18.433331226977227,-33.71231517705298
-35.09923288624159,75.39868488154006,236.4465877516055,-50.24438399547512,100.57905921874699,-8.295264282471475,-20.729880476858497,-35.1473814535128
-36.91698832365027,69.6788426214517,229.53037161882256,-52.67108681553916,96.19959389090577,-9.777135058143521,-22.955441941278742,-36.46723509958608
-38.40980765871763,64.20430860395948,222.35233671574255,-54.663688360737574,91.8449614575186,-11.062211308822057,-24.906689132823683,-37.52911704881322
-39.54175694430067,59.12612545336786,215.1191600729859,-56.17065807178868,87.6371124024846,-12.105750580668188,-26.527412815305123,-38.30261543488875
-40.352201709198575,54.840974538912384,208.7036176934699,-57.234297078556416,83.99408342400994,-12.878460191183276,-27.77794393554063,-38.82668186408098
-41.074493726632426,51.60732757823985,204.16175751248878,-58.156988738509675,81.33375841202951,-13.462765308583672,-28.789142570990695,-39.30132155865968
-42.18496979880449,48.71702866800433,201.20121913622924,-59.58745518747546,79.2849340568249,-14.172136451827553,-30.030724609328406,-40.109721355274665
-44.10116265707281,44.648599886326046,197.78025986664213,-62.11725952580012,76.62887648236762,-15.399368682979114,-32.05797292840979,-41.567345390640426
-46.705973109927875,38.49472043596023,191.83269721677456,-65.61238396168385,72.38582151079339,-17.23163137631613,-34.92761434627687,-43.55257749813031
-49.212140039405405,31.177310739522706,183.36391627520467,-69.00059473119609,66.92616762678534,-19.23088945263403,-37.9059688934112,-45.41890496111355
-50.61426702758432,24.97536368703062,174.56195952382046,-70.88397677457154,61.81264420316069,-20.668493982191173,-39.884655871239396,-46.36646858348202
-50.39706025496948,21.766090229389828,167.94780218462984,-70.52887055320252,58.54369383413168,-21.03576071402963,-40.187233925351855,-46.00442043501503
-48.95886587468644,21.71181035406487,164.75137368082008,-68.46746373612329,57.546763712891774,-20.40220895475931,-39.08766629942103,-44.683535340749756
-47.53904530958352,23.30859100363508,164.84615063396845,-66.39998122451024,58.18432407138372,-19.421513820612166,-37.74340534449404,-43.434314337899025
-47.796162690611084,24.086138321296296,167.1728062881448,-66.6077035851548,59.16339626849446,-19.116841334765958,-37.771133932223336,-43.6154695692868
-51.1535064481235,21.117054536995916,169.24237329673483,-71.05804582861225,58.586504126900124,-20.566490675707424,-40.6849939762651,-46.358342297463984
-57.88467141396126,11.805332096972442,166.57755263705155,-80.16286834206164,54.089611423605284,-24.392547014138415,-47.09748318631564,-51.80689849004143
-66.17206641592746,-4.183822093549098,154.3404321510003,-91.48378819561452,44.08895295178536,-30.040166498406933,-55.71735726980591,-58.37810297660698
-71.90575375036791,-22.712548803887135,131.22774518291695,-99.42586373644058,29.82271444592825,-35.30709759547328,-62.85483915703072,-62.670598245316484
-70.00028906256017,-35.32087404600475,102.20311365972594,-97.01533725941653,16.108601627267717,-36.83756728128407,-63.43395641219301,-60.60945048384351
-57.040289808721376,-33.362958198212745,76.41581609118124,-79.5430516775887,9.078599389680663,-31.768045226186803,-53.62325938803954,-49.615723264235385
-33.784721286481734,-14.160527333042806,60.810152398367705,-48.05723523337211,11.828287887885791,-19.694480846036896,-33.66823628810758,-30.584975579452323
-5.705341659426732,15.44019773846186,54.34938299332585,-10.147361070323408,21.292851420279348,-3.5775836621737542,-8.827945272210608,-8.218187838402088
19.16272172563535,41.49558928669705,47.89004533869116,23.036770357474474,29.200621832078948,11.265301663782335,12.659173349234047,10.836741448664919
33.97485253274706,50.46211107474284,30.38396292799718,42.0567231904994,26.93160257885077,19.66563404691048,23.619955910418646,21.117041646589197
36.21103081404691,36.97864588272376,-2.946797108160202,43.629800501063166,11.060437446289347,19.144428635937533,21.56342822279118,20.91891285015642
28.351575611781293,6.699205726169857,-46.57511720824443,31.609891838396813,-14.334816494022748,10.962229007634951,9.631634111555272,12.797328786446096
15.906786304356439,-27.66284346766345,-87.95185283794231,14.161254162538542,-40.27505470587406,-0.8694601034582791,-5.582026249526262,1.8257930224401766
4.321533903528675,-54.044835663400136,-115.58912693380437,-0.7692604943715136,-58.415398624401526,-11.819265744824662,-17.724904938104622,-7.130222634772909
-3.2444030671533706,-66.93418459886755,-125.57186292842991,-8.796604466351722,-65.37144079529918,-18.811696797984457,-23.445915172437857,-11.430661774167609
-6.291678113150507,-67.95394371986278,-121.87153088273607,-9.746219540439109,-63.04741107876551,-20.922910361014385,-22.852837869402617,-11.06858491469345
-6.044441179813257,-62.351323590936275,-111.70025027992259,-6.233936161553845,-55.826590518338435,-18.906767960753903,-18.19926677083287,-7.800373200541503
-4.343538408629553,-55.35534683142363,-101.08373937996494,-1.7927682771303546,-47.76655192581341,-14.364000649768915,-12.304379226583038,-3.9278614025465384
-2.953996931075886,-50.81206501641242,-93.92804941742372,0.4862580575828752,-41.74819050767944,-9.12788027909432,-7.609849015260066,-1.3555797598221235
-3.1037555505458387,-51.18776685452875,-93.036616846041,-1.135102096122801,-39.75636650096854,-4.819870968029849,-5.688771425876891,-1.0015774387041572
-5.023942292675024,-57.05905662434742,-99.83771765005174,-6.384296996433005,-42.57394707253607,-2.3635862207535085,-6.786039655069563,-2.5210879249798817
-7.7476270535478315,-66.17410205697954,-112.54305688657944,-12.939598255368312,-48.845444159803215,-1.6079469992157804,-9.582300934904236,-4.496806163352213
-9.56563060712466,-73.84356295112134,-125.56242773570331,-17.464956924099166,-55.064600773443075,-1.4463694050058167,-11.714472687505026,-5.1988612624445
-9.026735525161508,-75.35622422586862,-132.0121426481809,-17.390149077481844,-57.31177235828171,-0.5099095909276821,-11.045793434041698,-3.5964223209073922
-5.8450645645215875,-68.82178312575448,-127.6288359837952,-12.376217790391038,-53.58277925032714,1.9731752154626376,-6.936921374941251,-0.013683796030362558
-1.186045510410422,-56.41097824918576,-113.10198923207705,-4.639305954696449,-44.98387172963458,5.635045754243399,-0.7643705232602038,3.9296700954398487
2.6829984635649198,-43.70790193994878,-94.0363301518598,1.839715070477729,-35.432113631921474,8.912567364582497,4.439507992812211,5.951831469225676
3.168346767973045,-38.14378203882172,-79.7925824130206,2.767246152573376,-30.632772110173665,9.458424542794944,4.976718178082197,3.992917071017618
-1.4803052326954576,-46.668409024902935,-81.39449207392852,-4.569470825152863,-36.48216229583103,5.098821302353666,-1.9662127434339474,-2.7845941666094
-10.686419495296064,-71.86673723459924,-106.82823921019502,-19.170471234244207,-56.11176610864533,-4.668026754381424,-16.28277852365787,-12.981525565311793
-20.449842819728325,-107.23458386471079,-153.68861549054117,-34.910872808105935,-85.86143655276781,-17.250983361052736,-33.26005474555141,-22.439950275015597
-23.85137557297743,-135.2987639092417,-203.84519744721203,-41.464023009476264,-113.03735185478803,-26.844518182637536,-43.856563139589056,-25.039378025370223
-13.786749937869947,-132.6168664795871,-226.83072179375463,-28.353693582403697,-119.02829221432415,-26.465217303139916,-37.993703919432875,-15.130123455363021
13.091652533877918,-81.31496685169213,-193.7292063598326,9.35836656556815,-88.12353937539899,-11.531528086077406,-9.809604388710978,9.338689811987786
53.619670059685184,19.138746148906918,-94.58236578932464,67.1464868207051,-17.394733850918342,17.08924666539032,38.181715280168454,44.90194875364289
98.65576394064136,148.18222522920945,52.36124491824609,131.82297649092828,79.14096629993124,52.712479718507524,95.03593886120935,83.4079283406745
137.01621850582404,272.22862892544975,207.07978834231878,187.20698207755123,175.79796487475343,85.70356977307003,146.0220775512298,115.4800923117734
160.63971453280342,360.5234903743844,327.12269675485123,221.5598509773362,247.43889663113956,108.01236737370233,179.45731830460474,134.73058812173664
167.93144369388224,399.3317425510566,388.2044128081045,232.43149975323885,281.32373526306554,116.6950056693231,191.718790888537,140.2820312778542
163.44004452728294,396.0191599569603,393.4557484525181,226.25806420443794,281.45600364339646,114.44454791268781,187.62228646949586,136.2451593714701
154.4501575026071,371.4605304743643,366.6596672544764,213.50523300962752,263.44007885637996,107.154082363633,176.4296122864988,128.77606706388113
146.93937286735198,346.8730187603207,335.7282673626721,202.83837635800822,244.2073725591329,100.37662566316152,166.44610430343286,122.76004979477652
143.32429144516516,333.84329069535596,318.14562493153704,197.81518001263953,233.65380816741228,96.90899035749693,161.55798208516688,120.05178383996224
142.76840562799853,332.43384684601773,316.3322224769453,197.26429979509413,232.51919034802674,96.53284167918095,161.124689360155,119.82828017453254
143.08660520388565,335.92339061215847,322.40480120873457,198.0061648773927,235.74582430870404,97.37814997880517,162.25097996635643,120.22372214011959
142.73177091299448,337.4237144474287,326.5017434700536,197.73735342895552,237.63819791582296,97.67341729377176,162.47733013976114,119.99247139741868
141.88360172531276,334.6646862747112,323.65358050756254,196.6409891471159,235.8222787952215,96.95750071221804,161.48556536415373,119.38254481193692
142.32626973080593,331.5747803100435,317.2302258432941,197.25404558207455,232.87360931969758,96.37864420841849,161.30725389233413,119.95599137086116
146.13852813780906,336.2002076232569,317.9933404607052,202.6218461901209,235.16634079747416,97.96710657669249,164.95962267297122,123.41276291276324
153.61580530558706,354.9533839592855,337.7113088932298,213.32648002333917,248.65727362222503,103.01370587868908,173.84914365212884,129.83920199952772
161.56061133605445,385.3347230186505,378.8688424221648,224.98785285642052,272.93645976990683,110.29382171196363,185.2008308078161,136.36666358056863
163.46299413306298,412.15185489821266,426.81287300899845,228.41425564835308,297.43901826448956,115.44705070447928,191.5272537996233,137.46045627722702
152.2487565491848,411.97147242640693,452.0912142761085,213.433076463334,303.9926211437967,112.48292338148812,183.44420191676335,127.30265185092563
124.40012411402914,365.3124786562085,424.78909564642237,174.78356776006467,275.9959824430377,96.96691639995727,154.84980663547861,103.20859585308531
82.84305692196092,269.5469912311914,333.05802375459115,116.3834030576078,209.05726746163285,68.99300519400606,107.33036209626401,67.92884306837438
36.43964054719317,143.54771279556616,193.25186817252734,50.807148551786085,115.77131458227994,33.89127478504772,50.654200656805514,29.109294672531686
-3.915669753782071,20.06281442565475,43.879528415198855,-6.170972780037551,20.768729039516693,0.024163355804805546,-1.3615516611186411,-4.038305057767279
-30.318566226442314,-69.98112869097416,-73.50136482551972,-42.82813134944689,-51.27982680642805,-25.05022369404823,-37.25066124514232,-24.955483149076887
-41.00797779624026,-111.68153460138636,-134.50900006206612,-56.251109303964235,-87.29223869431607,-37.746782193713834,-52.74376697071521,-32.37416104306256
-39.99230295890976,-110.57657918710646,-140.95163939321705,-52.08180135477516,-90.09095439372673,-39.21971844686479,-51.396788951108185,-29.984765480993225
-33.84665709277868,-85.80268652806637,-114.41907737570179,-40.060466313166195,-73.65326908538631,-33.66628004954574,-41.19962983948405,-23.682495849637565
-28.03607295514761,-57.79132984514917,-80.70098030143103,-28.64528745964834,-53.55586075463001,-25.636611171589717,-29.822449794401102,-18.339380988652426
-24.9587923485898,-38.735919094212726,-56.20684883746901,-21.92069925203571,-39.24511790655328,-18.122676859752733,-21.49337695503776,-15.986914060249758
-24.292443947872236,-30.448731659003542,-43.84324551966671,-19.80757467750645,-32.131113149116324,-12.232654501408986,-16.756475877577195,-16.013557624262294
-24.627716320171057,-28.376400517780144,-37.77758732355677,-20.2783416781668,-28.733498983126882,-7.997655012587692,-14.220219085541085,-16.632218629159414
-24.955502858790723,-27.366529430433346,-31.348646543852713,-21.56423411455304,-25.331778005860556,-5.331872979056717,-12.549711240086065,-16.416052791853662
-25.23050467992022,-25.610290084641946,-22.8862842171426,-23.167035349442155,-21.137543689555564,-4.505646405621847,-11.540444197323165,-15.11699935055562
-26.036236280455324,-25.494956703375067,-17.276815184392046,-25.58831453194297,-18.917385531639766,-6.038785490831457,-12.050638529304974,-13.589341526110854
-27.739112380534255,-31.417922952684943,-22.98004653649876,-29.228914876360164,-23.09474461493704,-10.161376644928092,-15.039583095161051,-13.001177968349008
-29.630306867995873,-45.301602142978204,-45.097057325077806,-33.12579237814716,-35.859904909619345,-16.061569002967214,-20.16912816057518,-13.752927867891204
-29.69845480294023,-62.04757713403536,-77.3586036102272,-34.468927371798515,-53.033756805323634,-21.373301231997075,-24.82239271319467,-14.791429775200053
-25.5987004909379,-68.73347309223975,-98.91289651405316,-29.799481543049858,-62.91243513669382,-22.578987347435696,-24.64615282646475,-14.027541599333164
-16.666025638999564,-50.30160903754161,-81.33958239117825,-17.80042485960102,-50.754605139481946,-16.669008480557228,-16.039411613822125,-9.9464711384037
-5.738256942810102,0.03467330744315775,-5.055847745331996,-2.004226265711117,-7.911844085491706,-3.419852781587793,0.5814785966442021,-3.4644893318267753
0.8845090301917473,72.23113435676905,123.94468279360487,8.996439210467802,59.743105275587695,13.226084166027132,19.12610776607822,1.4826414713559726
-3.9102854540672327,139.74629133615372,269.0390037037565,5.039762213990267,130.48869994805128,26.044354245641845,29.646506436531684,-0.4728098852559943
-23.8714510394235,170.71591183570587,375.76165750204154,-19.782374857925586,175.11887656106344,27.727965325252416,23.28977448537011,-12.964136048973455
-56.13632157358205,144.64673920041753,397.4531855899491,-62.37007646743991,171.352739022229,14.846974138000867,-2.278991912325672,-35.03239665190497
-91.18405601854171,65.00810192034483,319.9457070510866,-110.20449994220438,116.28719072058881,-9.738232163578632,-40.367582471056174,-60.53352061720747
-116.52494610138996,-40.213904318691135,170.84671942449606,-146.1953013731885,29.39616848824551,-37.62882549987587,-77.55393657607895,-80.4926855916895
-122.4125369956102,-131.11591415780754,7.348028454907897,-156.5339939696487,-56.175872444976804,-58.64375931779436,-99.8542231920825,-87.27770667404288
-106.52126019554231,-174.92139453161295,-111.06085826705255,-137.325213657922,-109.41805316876575,-65.61573012549076,-99.42704586048872,-78.28842154642932
-75.00066068597818,-160.90625789046285,-149.85398325278112,-96.31494943152096,-115.59563625410988,-57.58864129570967,-78.07626701561843,-57.09892451759892
-39.36034510264307,-103.26172101121671,-112.11093324406761,-48.83170317659996,-81.1896923789058,-39.70412319030192,-45.70818843330998,-31.49596533129828
-10.985266232200194,-31.246102088566154,-31.130183246486723,-10.343499419684559,-27.76821605950368,-20.023490426884653,-14.870132316397417,-9.648860819758545
3.7055554954241985,26.761283370186458,50.63898694308536,10.219786102736085,20.65803901740757,-5.29573187559188,5.332285855220275,3.4002620950803495
5.037400934296419,55.89376538984954,102.98982948445979,13.003068452926868,49.04265797805122,1.8529422848425492,12.574962601801378,7.15310245981405
-1.6662623789500173,57.874111950697795,118.12581593568471,4.940586759486418,55.54730917936414,2.9504888994175467,10.536937431986788,4.633440110358688
-9.778002825110002,44.99846690672551,106.83275425633377,-5.20954077223766,48.01196864436186,1.4792409462231648,5.281931444019189,0.022357241516770515
-14.636200077049958,30.827108620133966,86.8600400931879,-11.265844908623572,36.84250486796435,0.2946716309889445,1.538944295297058,-3.4563948507808564
-14.846446471155591,23.70573861657567,72.42278795443843,-11.363849880291003,29.409263468845626,0.3222612406651683,0.9908582026466493,-4.4350908766883474
-11.64820631360637,25.358327868800774,69.65455448567339,-7.11126857676383,28.24089694665392,0.8981091326274657,2.7937359214316384,-3.1597206318646514
-7.401832453980732,32.88524465726826,77.25739283742662,-1.6029445363462689,32.05571792646897,0.9515486641549087,5.131423091615311,-0.7470348411842134
-4.197529906080529,41.63676173666803,89.51509060155222,2.386379436137471,37.735063890044295,0.021973107054045232,6.572145918372958,1.5510554910023058
-3.009991090590918,47.784167502689904,100.03256091544142,3.5239719463655272,42.299699436986856,-1.3732550631171265,6.757697607676177,2.910607653431963
-3.4670112065620025,50.26070227885173,105.44690641171258,2.283978467847709,44.6077471966584,-1.991302370504474,6.464582992372271,3.24734601092584
-4.247984182235356,51.294104372040486,107.48430404265834,0.4753450730064702,46.069101129553154,-0.5349137086616844,7.090649288443822,3.124595480593169
-3.971489869833011,54.71200446238494,111.45380586750389,0.042606171679376664,49.537678159859134,3.531978678720706,9.690135049567276,3.2429821429919214
-2.0762566800202253,62.76059676894835,121.6293251003371,1.7985309326975027,56.80280647290453,9.449028269960815,14.068319480476994,3.851691994514991
0.9131192343756507,73.87268671442804,137.0752395679752,4.990263212064662,66.6382451241873,15.32429340762092,18.647970929870695,4.564559479078799
3.900388531191761,83.37170464646232,151.56435334271552,8.01046134632429,75.18951674181403,19.0165875502296,21.33176413531532,4.731382774170947
6.04360949434969,86.6270539237625,157.76186101320596,9.624065606757746,78.49053195100561,19.211880768112955,20.76508911585237,4.016052095585004
7.261197431312957,82.27024202907943,152.43011397923775,9.767962859766795,75.1959597747979,16.035485492717797,17.120507996817462,2.698910548961218
8.201401534651474,73.52827597354968,139.32069429927222,9.534647199869141,67.83820425983194,10.951722924290046,12.04097155024756,1.5431735931839106
9.88609076891622,67.39611347423568,128.69112181920838,10.605165707166078,62.27597180395536,6.179329853020868,8.009051872327678,1.4147020638987888
13.219259599877455,72.07888284700013,133.7627348909623,14.446957954561025,65.64572646687917,3.9118270615534647,7.456891625019925,2.8600140332274675
18.338310655337487,92.82185365144025,164.24813696747876,21.320442877550974,82.86702322844332,5.42002114050306,11.62745654255001,5.688384250428965
23.93048758026573,126.83578887900093,217.93281017098528,29.29899868829185,112.1939016900884,10.155957750239407,19.320618701186113,8.651247953586196
27.093005025188695,160.11623705910267,274.50032317394846,34.094297509758114,142.1104661055031,15.368326373834611,26.311330123975242,9.55294754730449
24.368716741323222,170.07986550035326,298.03214013528833,30.548254049668707,153.05092765965617,16.890173027069583,26.490955748688712,6.110495675085522
13.795091340988378,135.3025614039561,251.27618019294235,15.571933462473549,125.4385768056457,11.1460665268328,14.848573960476948,-2.6491644943437005
-3.267050046826164,48.13883256118369,116.28870834401175,-9.180023247038818,50.82374677658511,-2.616902359252282,-9.210046422540955,-15.309559351313453
-22.009021761769613,-77.75228493266536,-90.91663218900638,-37.0051476902806,-60.715760976420604,-21.37104899513523,-40.5052969191877,-28.224916401613346
-36.226965622839586,-211.0212705025257,-322.6735630610298,-58.961360122282166,-182.61912930952795,-39.48108205176034,-70.00774224806177,-37.10896574309972
-41.46987856449491,-316.5349618711421,-519.8268961342983,-68.34512242496193,-283.32338215288274,-51.47679517848614,-89.19288780832726,-39.21830281309385
-37.320492872099976,-371.758394177908,-638.8461433090868,-64.08185770493668,-340.85472926419044,-54.77414051759821,-94.23173097157911,-34.77728168362264
-27.34568257519813,-375.8982418286787,-670.0275528331659,-50.87489246955364,-351.929639251552,-50.67850700312443,-87.4356734180365,-26.712809557491077
-16.82104033166434,-346.86627198678224,-636.7337590620567,-36.12906507704271,-330.5676682433361,-43.15595812022593,-75.21855003668033,-18.88897851953249
-9.838089775486399,-309.23704255738255,-578.2279246994266,-25.84224861531119,-298.2112367665455,-36.37041067539995,-64.19790812375088,-14.052516407832119
-7.670332895753726,-281.72323764315934,-528.6486167004333,-22.14640267699302,-272.4778656881739,-32.69414086649911,-58.10743083489934,-12.805565199874232
-9.104569936022028,-271.30303906447324,-504.6250935013122,-23.605818736583643,-261.12047509322144,-32.25845758897191,-57.13858550535315,-14.015009263043765
-11.921411182760531,-274.9423107270972,-505.2792270615908,-27.217654084339713,-262.6983419734373,-33.78453147355403,-59.26329381632973,-15.974689901699387
-14.197717372820406,-284.834622870275,-519.5961865561949,-30.259987718509315,-270.84553320480023,-35.67554210268035,-61.94925133320178,-17.33705762497916
-14.829317718073336,-293.03359923746757,-534.3827186232784,-31.0914559410665,-278.4777989989958,-36.68257942975164,-63.21677881213605,-17.424459209401373
-13.577585689737127,-294.35097998463584,-539.8918019428236,-29.279103791678374,-280.62369739239773,-36.19202674574978,-62.10882887713668,-16.1963258450085
-11.03904591056109,-288.05194732975156,-533.2558322492848,-25.597861249744984,-276.13288567710646,-34.389794272730335,-58.94543921736161,-14.180677489882832
-8.442195902814323,-277.9987398637506,-519.258463721184,-21.765497231071027,-267.97203025111645,-32.21061406564439,-55.21163357081069,-12.291874312661154
-7.027906867220361,-270.2492960242956,-507.0301128222359,-19.563643401843002,-261.2799914966468,-30.82596435338165,-52.72741212922458,-11.361020394531433
-7.259333344659778,-268.8478409638791,-503.5470522732921,-19.688298176605002,-259.7395945051786,-30.842418014528757,-52.40542178068845,-11.581599713400943
-8.509260166303578,-272.8124852046589,-508.3821165713163,-21.265021745340352,-262.80366255144554,-31.8349602178467,-53.56405152551495,-12.352243387028679
-9.522815592838215,-276.85284345605095,-514.0317730842578,-22.48884495201498,-266.0873797201127,-32.64212212097238,-54.41613834565715,-12.703176330204535
-9.221111705593918,-275.14949640904183,-511.5010262659248,-21.794438100348593,-264.56465686028145,-32.15765220370296,-53.28876576103765,-11.936165084587664
-7.206213370827352,-265.13505642106253,-496.5781252446242,-18.624900161687123,-255.9717429883762,-29.980488154443247,-49.59656803315223,-9.9762963527004
-3.8394088331493186,-249.06566190750482,-472.7485893199435,-13.565683783374832,-242.31138688649105,-26.606065032487574,-44.11329620745982,-7.343333076258052
-0.21170671686946646,-233.50684126822782,-450.29121524249297,-8.26751146584822,-229.36032441140864,-23.31603091013794,-38.799497710249035,-5.000096335264429
1.9216155704580855,-227.459729813331,-442.83189290821815,-5.280684184654428,-224.85003593049908,-21.896472561858236,-36.37221562591138,-4.168934721461166
0.6636167816083156,-238.69070260413292,-461.41857489117575,-7.248818157068301,-235.17752907358357,-23.97111876407004,-39.27496489510498,-5.871091260042955
-4.806847582788278,-268.0018712002711,-506.0691032232604,-15.157209451117156,-260.55393216198115,-29.833966733107342,-47.884398374030035,-10.096437723122177
-12.9913873320056,-304.08422787308217,-558.4111018076502,-26.594527892996226,-290.76031726733686,-37.38540031702081,-58.90208496546283,-15.135895641685583
-20.035267824668786,-324.0551189155655,-582.6527498697907,-35.77920084065763,-305.7290489339035,-42.28422944260858,-65.62414306575425,-17.908045432322908
-21.460926652382735,-302.56705794434055,-539.356513728409,-36.14182929361872,-283.4208538571947,-39.850879464481004,-60.85912425220335,-15.497903978099297
-14.777899261274802,-225.88846628930852,-407.0654833364464,-24.155912593167855,-212.02188096582492,-27.852435797491445,-41.13139751876871,-7.041461620808109
-1.190899519171438,-102.15080676905093,-198.57195260503966,-1.8225333411061353,-98.92447395016667,-8.326073105088193,-9.390572030122271,5.411777082505923
14.848693991769192,39.80984615597947,40.20780583977827,24.028068430328617,30.169086381655053,12.978268625546352,25.840779075619686,17.804442488756735
28.0091552295857,163.33083671335788,249.96892313657403,45.26735408004984,142.48274723775367,29.392904519238407,54.58165449616751,26.235246863789733
34.82993230159917,241.03228476203952,385.2046101738258,56.575115951379516,213.32903273341,36.70629590244781,70.26698007484578,28.978543198874576
35.150873199238205,266.063425051557,432.94447003745245,57.60127448928852,236.30807398168852,35.08466575311127,72.4469275367574,27.090093526339736
31.528629486212104,251.66458344419115,413.19845188516456,52.147399949408346,223.21161811489094,28.51499512907591,65.96122733626646,23.363757993594994
27.359292757768458,221.0267904835054,363.36742660209075,45.39598386300899,195.11715050996256,22.369975605578578,57.61193133044941,20.539316355156284
25.12757241078938,194.96279241946277,318.143443730805,41.2612534284713,171.20967424128105,20.746971476924404,52.73141571097368,20.021521275855516
25.727442995553233,184.45363782229606,296.59752764852306,41.281066607065675,161.76372534493137,25.012802581977862,53.51174352972174,21.73949204128795
28.75916524429868,190.1155838726164,300.62323620605724,44.975971753219994,167.42064810869942,33.88861848084395,59.28437238325468,24.81149342643347
33.132602198455956,205.94192390671884,320.98651781943903,50.73909325065158,182.58141486843655,44.482033436325736,67.72570810712577,28.25980184356768
37.541598354615076,223.74623693623465,344.91277247889593,56.606274962587186,199.6137267280477,53.541625700677756,76.02983982538292,31.355520636981407
40.84080177767657,236.60580542621594,361.8275035735302,60.89432667928109,212.10997237790363,58.56524870574855,81.80722841903004,33.695641219464626
42.41329849366055,241.10100683522938,366.7301686571472,62.77914480108043,216.90851189603748,58.59646432406915,83.78733242251344,35.23330976385602
42.35494821192318,238.03125903622922,361.056772683128,62.53516210229359,214.68685447508682,54.46837871839586,82.16055322073029,36.24876030180134
41.2725980261124,231.12186384240886,350.5924136502172,61.15499618504669,208.80161394378555,48.30996930965806,78.28058603042453,37.139457676046504
39.84932344327017,224.3804282787379,341.384712898539,59.618511742760724,202.9349950056231,42.53182614852483,73.8611564852513,38.111054467890916
38.58831860198531,220.0683571157913,336.5351708241689,58.47088088772136,199.21603575367348,38.88306627320821,70.24970618147368,39.03894671329012
37.89704600754236,218.6981042724129,336.1737615719756,57.98784345316618,198.1023571070197,38.04827776688286,68.19811222281291,39.617880910892715
38.20337173999602,220.28989425633304,339.6959064258187,58.47169771992344,199.47789313578502,39.740257554165055,67.9453173230321,39.59036818599911
39.74193715962383,224.87920602556522,347.0775808054807,60.08645914363886,203.24036893431878,42.92843819784959,69.1712369848955,38.77938019246387
42.124807051002456,231.53169808095666,357.6143788238714,62.313477686434126,208.59260334688648,46.033588115491156,70.79911325784435,36.942594565781086
44.21558241787189,237.3122413488374,367.9262154539778,63.73953583761611,213.14224366494673,47.26193461818706,71.10909170179137,33.73014946479171
44.6236942323224,238.02185393041702,372.2534184525056,62.66826335439162,213.39328930272214,45.232042715323274,68.4689528770356,28.922278421174585
42.55051400648136,230.67038254846494,365.6442107425912,58.23828521850457,206.74875691717418,39.682756141464424,62.34207855682717,22.797538191653246
38.42040369814774,215.90422778933424,347.7018282782511,51.27726180079813,193.58894545106068,31.829941969122345,53.89360393790401,16.346213811540522
33.955280615486565,198.8065392927644,324.3318650344091,44.39658946537316,178.0318079120116,24.136348931984838,45.83890583519695,11.197961229731064
31.683069370772454,187.778793280819,306.74214399603335,41.287552741588364,167.06891881890957,19.58729070458022,41.65295719627122,9.279332889986293
33.9302769661081,191.70495607964614,307.9226284021847,45.27902016138399,168.2766322124626,20.648083495821254,44.313762223190935,12.160119570185088
41.367296565222425,215.34610978712055,336.4748874238786,57.255400438161125,186.09055237244604,28.020842346030864,54.621366940155895,20.039907456713845
51.57711210317352,253.76753755292233,388.5392351816561,73.60442339171604,217.20659035694783,39.51644671970699,69.48303007137943,30.693778884652662
58.69941931903633,288.9781369610987,441.88756371877673,85.6974048569222,247.57106687026007,49.79096795072065,81.33311842548933,39.217019103953525
55.132631741584,293.1862907836143,458.6480153746607,82.32770515896802,254.59617772035213,51.739737200789264,80.02258333469388,39.37606345303499
35.09955181414143,240.17811246662117,399.91820014014945,54.866320944576486,216.12229175409632,39.506179687195484,57.2388976268566,26.425527006658097
-1.7019491342658815,120.18822324036427,246.9869325724669,2.6011834690857936,122.68263070473992,11.759389945069508,11.438090572125525,-0.019032243759494208
-48.75767325185629,-50.80760925677743,16.627116504312788,-65.21243593995455,-14.273242637167478,-26.775465811472348,-49.84197352467994,-34.94133340771836
-94.98300617811094,-234.67407844038888,-240.97963047578565,-132.50217199953514,-164.48505859448764,-66.82036105362076,-112.30864458860762,-69.70499073711046
-129.59949834887894,-387.20031353,-463.01527936647386,-183.41914343475108,-291.53478840915614,-98.56053576688173,-161.07714304181917,-95.87896427731421
-146.89808543314342,-477.9840371411566,-602.4827549813635,-209.32662466784225,-369.27869816184506,-115.9885555411317,-187.27521926289103,-108.95061881437194
-148.14912516203617,-502.57013344831745,-647.7869109428025,-211.7290506366631,-392.51600960262704,-119.09977486191148,-191.28271631309966,-109.80425169381672
-139.80130734328495,-480.32971888340734,-622.5788999407467,-199.80642042112956,-376.0687677029833,-112.84965693740278,-180.9929137087211,-103.32670121074936
-129.50941392279609,-440.97309297769874,-568.123324015951,-184.69952559009218,-344.1177080515391,-103.883878547406,-166.7261893127872,-95.35154732943786
-122.62743456044569,-409.2812083435149,-521.134122668669,-174.35078017028837,-317.4924801025201,-97.28199928142678,-156.26173006212915,-89.9717409258122
-120.89358211925396,-396.74700980272615,-500.2974998970396,-171.47005669662977,-306.327594832265,-95.050768276738,-152.60589372946168,-88.5294843740446
-123.17353809654114,-402.1360912361939,-505.7227311146963,-174.5231018262044,-310.1394704236887,-96.52695533794481,-154.67466888985498,-90.17059010703144
-127.01924724297571,-417.0269740550176,-526.3457105310418,-179.9798296672817,-322.255661680123,-99.69102363970259,-159.32868716715578,-93.02239919171322
-130.04924629255663,-431.6349288366083,-548.2719758289661,-184.35035980011094,-334.6272807290219,-102.42455091554753,-163.2946571028984,-95.2512672258183
-130.89791609831693,-439.02091954193395,-560.9014772497197,-185.5944539548796,-341.33138407323486,-103.39243614316021,-164.50927585545216,-95.80448020556342
-129.7027599616766,-437.62580508213114,-560.8086086851655,-183.8474312577582,-340.7369392152312,-102.53226347607637,-162.8637379210159,-94.7926604686287
-127.88552138075629,-431.5185035512302,-552.7404019565811,-181.12515105234743,-335.898558253478,-100.9688789193492,-160.06769816702558,-93.31328870558787
-127.12683473066296,-427.4618078610425,-546.191383250029,-179.86389660687564,-332.3566217640149,-100.2054390839167,-158.41585785786086,-92.65066829325635
-128.1063702571415,-429.9494319227275,-548.514810362909,-181.09816585519866,-334.09311378638944,-100.98542402891135,-159.07353312839587,-93.31084038605526
-129.98027014838345,-437.76175733886276,-559.3335685188349,-183.6689528362211,-340.4883031053045,-102.67962696342893,-161.1702013457418,-94.63721892278112
-131.03367352009732,-444.8988910156537,-570.868741740542,-185.12204105790272,-346.8012606728144,-103.7301106045647,-162.46681889292114,-95.32297054760458
-129.9501891303675,-445.0773588738623,-573.8415291798531,-183.5297968142194,-347.7412094019184,-102.79904134215505,-161.02945867251495,-94.3780637719832
-126.74359631564167,-436.19976144587247,-564.0644040107301,-178.86345099401095,-341.2291843509617,-99.75193038062407,-156.61614208053672,-91.82779050226158
-122.89407961234446,-422.047494008981,-545.4032574116167,-173.222597871457,-329.9581829230358,-95.9121888065242,-151.0068167666941,-88.80991107564171
-120.8439330190549,-411.1157097727017,-528.6706529179678,-170.11842503349357,-320.5885405161888,-93.61790792125362,-147.39726633752534,-87.1920705123212
-123.03496300242327,-413.5202771924125,-527.8965654590431,-173.0826799957577,-321.382624843199,-95.2808168944578,-149.15805107617908,-88.83588036116913
-130.45980494380143,-436.03727943724317,-554.1024565913192,-183.5842300429084,-338.342183768232,-102.0068812087325,-157.964286389077,-94.47984735906383
-141.04926794904787,-475.6740934783052,-606.4989170252961,-198.71149908048451,-369.9920520902531,-112.0699689270739,-171.61750914392547,-102.50129721630016
-149.02634952017826,-515.0580619591447,-664.8625765470514,-210.22044470332693,-403.2604156695136,-120.21095125189032,-182.92955647829484,-108.43908775042993
-146.4823003201779,-524.9893409327976,-690.6961103738207,-206.75115451745302,-414.8750400799041,-118.94991856197463,-181.4228496821733,-106.23037529057322
-127.12283275879037,-476.45510270754113,-641.8797387374859,-179.181209848418,-380.5931350648049,-102.04259795945535,-158.10347906998572,-91.0913975440856
-90.23807793202263,-357.10285833458335,-495.6007681012451,-126.3637874007272,-288.6811891846651,-68.42301758880596,-110.98974003129682,-62.532089430447094
-42.237696718859155,-181.93354898453225,-265.7255845723658,-57.419686975616756,-149.38844567622434,-24.050683357722388,-47.77181156484535,-25.48598910869564
5.5772705773325315,9.77384488874124,-2.105424215518871,11.393785017257038,6.527194300150505,19.9246280623066,16.585930378991172,11.418627871983244
41.910933165248615,170.69360460612742,229.51200698156882,63.72798528448807,140.35483319962617,51.955197289997855,66.25808970980798,39.57682218102922
60.271120334030115,265.86052793914786,375.9094487463709,90.12520754711275,222.13967314023094,65.21292901880848,91.38823519543254,54.006425963966294
61.12888521211968,286.1744920177729,417.6002707109413,91.21833968788005,242.4378111663655,60.257167285178326,91.66306916316032,54.93574708694648
50.684586166972544,248.95935207561328,372.93196097235733,75.9894492938076,213.748262191091,44.082674559439646,75.19806925419016,46.86937255883127
37.452019646364406,187.46721627400711,285.9931244650525,56.81198499011909,162.66489708524605,26.493871736156077,54.07737088877828,36.09306966403212
28.696898042498134,136.37164460192147,207.1291759936773,44.25454739033286,118.21499440963593,15.937257032736936,39.28242382501699,28.12757084265529
28.168009707973365,119.87327700159562,175.2999388578094,43.77704755604372,101.79922647580351,16.61681526201364,37.14169322451839,26.102875972788155
35.396856882506796,145.04469389256747,206.51180614357378,54.724344857342615,121.04885781077847,27.54787518816843,47.872841426811995,30.14328843386038
46.20015978511544,199.94609507218513,288.32581899373105,71.04040486251252,167.42012585342707,43.27196433319712,65.82188963788428,37.49049558639371
54.14608569752332,256.20220354138326,380.7872571170248,83.31692546270911,217.51832895729936,55.76423247287122,81.14751903958715,43.34393122226667
52.95183117888343,277.1705009964022,426.5257004538157,82.16823036091087,239.42835808181314,57.2040269747008,83.07668593279833,42.59539121250235
39.39461796574755,231.90487987023064,371.5922436951475,62.43864998888258,204.58294208796858,43.100629383205664,64.39559744181854,32.21898990491276
15.546738718114613,111.00905943609737,191.94119101521068,26.608069496153288,102.05320233490495,14.730351775363902,25.609305525175422,13.304395494763924
-11.130017624852977,-63.5072567672274,-86.93619727707157,-14.76443158843719,-51.64693078920417,-20.43030057298174,-23.587588280327385,-8.592861446987081
-30.480186643503583,-241.79684537592107,-390.6272027285671,-46.67334610153505,-214.2117516136367,-51.01903641180973,-67.13475137197695,-25.44366803876089
-34.20936322040022,-364.45389962424366,-621.3821215997326,-56.22644415635936,-332.54772054127284,-66.26462198956217,-89.12879943502442,-30.383579703340203
-20.03315435762163,-388.1287499222066,-699.1968732099614,-38.93295746056289,-365.32428194288326,-60.69309244438048,-81.08736976667254,-21.140704732152813
6.943247043962016,-305.5406846831988,-598.1460076978475,-1.1905788652216986,-301.84057036453663,-36.6749511534662,-46.09744313713758,-1.2853804849604495
36.56650790966131,-148.83430855468458,-358.2907093089028,42.65031146862235,-166.9229869431296,-3.3539294453564543,2.5837245052873112,21.508941856630422
58.48973579932357,25.797454328319958,-66.37286709687305,77.13719617949852,-9.014663269483357,27.573783518236137,47.81947514812285,39.239639999086855
66.848326059953,163.74979143057078,184.02659954708616,92.67990041781312,121.95977008796568,47.010450973358466,76.3302255267235,47.23365584566169
62.281358921105976,234.18526730240814,331.41140720664686,88.9416267372582,195.07907491104024,51.89782706699042,83.78747799776737,45.724941517828
50.52840458734378,238.15155370830044,365.2848052973773,73.30590927124558,207.34733560910982,45.43834075110271,74.99210543071494,38.756354083506984
38.81464532434753,200.83075984956955,318.8739912688554,55.948738507060014,178.5001621960187,34.44811755003932,59.78774273423316,31.393134101800932
32.26155223668024,154.7168541200549,244.09679511391022,44.65582053235886,136.9116123266351,25.615423691400846,47.5214366710294,27.036285355973178
32.14931807566777,123.93617171813011,184.78267258409906,42.08250390135709,105.41348761061528,22.671165023398643,43.103897509474336,26.262247064019114
36.465593738928206,116.9639587930538,161.38139816226024,46.22515292073066,93.81894100500378,25.576821273200093,46.193789555085125,27.462812460221297
41.82081915540338,128.63022182737768,170.88025911538043,52.90258411883782,99.59640008420834,31.54542778761335,52.98423970560849,28.45369414153216
45.351054648367466,147.2691832629217,196.76915733296767,58.31733075412892,113.53511831230233,36.90487647050639,58.90569733030474,27.87282511367786
45.73515419633836,161.90860654047853,220.90765085230532,60.44779762221751,126.01371161235346,38.82050474753785,60.759710851323426,25.671639498206865
43.26118015494259,166.58234921860267,231.69702162429283,59.18427958685796,131.11122032652762,36.347505233936815,57.70403054145631,22.76514964533583
39.309206785755265,161.34272423656424,226.958786709111,55.752460817966366,127.93409966235441,30.646530331255292,51.17806347723762,20.335439476751265
35.59239839525776,150.70502923613506,212.28982964024533,51.89870217485594,119.63610611036773,24.354715572676692,44.02287249465462,19.227941887493355
33.3893377338788,140.56777528338762,196.52391572033426,49.080617113981766,110.96087593641751,20.31661769823939,39.11231826337306,19.632940239258136
33.03182025961939,135.03554927698073,186.59055581157375,47.89991609901219,105.51004630628077,20.22873432608589,38.04431758243796,21.090860481849656
33.90495969129097,134.75861154118456,184.40005485850577,48.04007694743414,104.15987862870975,23.916225342282033,40.558014017250585,22.791318491277885
34.95767370191167,137.56554882737836,187.24148506333393,48.71859454795339,105.40202937758832,29.631816186364752,44.974372874716394,24.02485342807011
35.36602320452087,140.5634183039598,190.75065341438076,49.27822989752646,107.01886697837406,35.11881290054746,49.28389869029586,24.53032291584712
34.90901956514345,141.95672286583493,191.85384886285007,49.47178624508984,107.62920152068033,38.740570972506255,52.13046980824849,24.52815354886962
33.903942215984,141.4927928478583,189.79950118163217,49.353177881046555,107.10711257050919,40.06901573785356,53.182397988998595,24.4647322599084
32.89189494789842,139.85416503622397,185.49586360816755,49.05799338201829,106.07595669386534,39.76915486669882,52.91922274495025,24.70580063404361
32.33349009163931,137.95131805869732,180.52695347301955,48.728519220879214,105.28816954349612,39.009815677712226,52.16414091773486,25.399301313392602
32.41026198051429,136.5382456064771,176.55316120194226,48.530598656578086,105.29483988893105,38.76532639281788,51.62524262672597,26.526870763174895
32.92034675400562,135.92395840520058,174.7540215381715,48.57691617971494,106.22525411962985,39.32839931303559,51.56384669317976,28.008378269296813
33.31967754998293,135.6911181324736,175.0974592231008,48.77274056762673,107.56385068808092,40.251373986505676,51.700058092776075,29.743557632017936
32.9956198948739,134.8269790843616,176.09836803521068,48.80485451878219,108.24348051409042,40.753284512581885,51.45390143095386,31.576598510210918
31.691950533659444,132.5174808934186,175.7445453680599,48.36991341875668,107.30525141863062,40.34870929871112,50.4122972922233,33.21996505608591
29.781913290516073,129.0375550466744,173.0569853347466,47.42933098547077,104.70558774235575,39.23912834478243,48.6562549832009,34.18175344163142
28.11948485289144,125.78449736278502,168.83280144885032,46.209573713421975,101.4655043801637,38.12201236202028,46.63582316616303,33.78233446678484
27.53246221573501,124.24220894769601,164.8309314509242,44.95554108773142,98.9069844817758,37.53262112425169,44.6981993407637,31.377227357284927
28.330487026209237,124.7805056030057,162.26999797324575,43.72849577180179,97.65784707259914,37.26690171952762,42.7395771137807,26.787813548385405
30.167913734266484,126.37577113613234,161.10114176424602,42.459276327448656,97.32500404916992,36.40761114805134,40.334826596719566,20.6901621586499
32.28550673301258,127.38541408029046,160.47711095968918,41.139745619562404,96.99282428222196,33.970945171694,37.20324647530904,14.580613093018036
33.89830604051494,126.55933742070113,159.56744754637108,39.88840362258905,95.91408315330635,29.66866000683896,33.540449333784075,10.164545947910023
34.50573615615517,123.53440729380777,157.87386874691487,38.8279061502625,93.80285633310994,24.21564024593717,29.931591547192433,8.48394047906519
34.04947888670045,118.80669022734354,155.17219390509513,37.96838912134566,90.77446795962894,19.011829946353167,27.004199527153965,9.378718612991081
32.91662593407048,113.55421695696164,151.64968815759138,37.26094563345894,87.29478993571959,15.476029337697337,25.169679140708926,11.668091472882171
31.7680739382222,109.36859881533752,148.183470035118,36.735392786903816,84.18010649927722,14.447397773567078,24.599055326422373,13.91022498965996
31.214875303802803,107.66820440862786,146.10435377824524,36.51947689647261,82.35171716573574,15.912146369919947,25.308268137708023,15.213423521279665
31.500344797615483,108.90438143422132,146.26512581079322,36.70261631416256,82.2895353737125,19.09551759528558,27.205349376871908,15.614481960285515
32.403273443417355,112.18900353581766,148.23230129445844,37.21457656741543,83.63672065333459,22.824681120225172,30.09982276981709,15.88594840553351
33.426868278144234,115.81430029980429,150.52462884935522,37.85742881119206,85.41481479989658,25.99432112610321,33.72657984018251,16.96375830469332
34.105092216538004,118.31270685165637,151.74015535350802,38.42256514686996,86.70006564520754,27.932568128759296,37.75096236262581,19.323132972162625
34.194301163274766,119.17144018687205,151.45885284718653,38.74258072417438,87.12944863595492,28.523640595368516,41.7041675598249,22.61070899736107
33.68096297288237,118.73020642646955,150.16332473949728,38.671339568417146,86.85662256758077,28.097908529407007,44.93548996368933,25.73175079253458
32.71468647066158,117.63004493682854,148.57390515148165,38.12033546623213,86.21528416831512,27.223118805272907,46.75519462590014,27.38528774056092
31.566539873162082,116.4407383609231,147.26171914960108,37.185528028312255,85.54847226572308,26.504241638264354,46.77782629287883,26.77218406350275
30.57776937006752,115.5937200989631,146.71963667813642,36.202746450730565,85.24303569750228,26.387969376644588,45.20278213588819,24.050736432392398
30.026015113018698,115.29022888736064,147.3316731876895,35.5771415546182,85.63264474152686,26.95082447246202,42.73886885058584,20.255880461017153
29.961090654116045,115.2657362478699,148.94833513190153,35.485338334253264,86.65697676585805,27.771665332478676,40.189769187386226,16.760100313925022
30.167236194000456,114.77133215690755,150.60266099034098,35.73508689801892,87.65749793995226,28.06770842217915,38.04268676047029,14.636836679424327
30.3185454704784,113.07247889556224,151.00535647137502,35.9266958173182,87.70330867329541,27.125918895696707,36.37567669963373,14.269194461037415
30.196092825333643,110.13565733418498,149.5587992552655,35.7469768374635,86.26824081042932,24.781388761397242,35.062631940230034,15.312096173388309
29.77499266906686,106.81021948508727,146.89171877377723,35.11889453468259,83.63696506502023,21.587556274696258,34.000169098514284,16.919643440469333
29.143981200221162,104.27231145209021,144.36374883674338,34.13956350532515,80.68396763182551,18.542853906201948,33.159701239305654,18.11035431477813
28.39208493666753,103.25967607099331,143.09495406868004,32.97429919253487,78.31439267667197,16.575461974110862,32.51435390647098,18.16383222667431
27.58100682251073,103.76178690276775,143.45904599272987,31.843421980481263,77.09073804181844,16.116518583229578,31.988686793339642,16.919411683812985
26.77301281926785,105.23137999682746,145.24776470152145,31.03163055158837,77.19114555966874,16.953034108896123,31.478108842051068,14.835404547721417
26.022288783460628,106.87469933726175,147.9326779678889,30.786505893675585,78.44822496895594,18.364108932241667,30.894664583153432,12.769126870341013
25.334389459749946,107.77176631592219,150.63718460857677,31.14657558527803,80.32587905084686,19.471337880288917,30.234418425265105,11.607506389402559
24.68781933707798,107.0691701955631,152.179688946486,31.89400512420765,82.04332873911295,19.702521962263262,29.694923072324464,11.949191321803792
24.140590109505208,104.47571182571936,151.66132858398393,32.72175419928316,83.02353128127872,19.167786590918944,29.76555178748909,13.941555538286421
23.899861859481884,100.74053798934156,149.2886891300973,33.45693615986813,83.37812904705285,18.675212975277294,31.097322244679386,17.238851248437523
24.22731888310083,97.50672938602477,146.52831759678475,34.11401447080735,83.89258014650768,19.264819996403784,34.07483213475848,21.036775516929332
25.225621853126814,96.43042417341891,145.21951485946346,34.75527959405118,85.39387056019045,21.49397565582268,38.33841693487884,24.23477032086458
26.698248987414306,98.21024820150433,146.37215762377295,35.34848614939662,88.04105649005916,24.958232381349394,42.68838918326227,25.79419934348103
28.212705175895177,102.27095846788635,149.69072924942407,35.77070335856488,91.17691191867587,28.405683459471717,45.56921534457272,25.19963016749535
29.302237450497362,107.18531066584565,154.02789696604376,35.89885802269623,93.7895935067612,30.381332067885783,45.85496778762837,22.746554702314878
29.644964807950043,111.3205067182812,158.0722328665036,35.64789691457034,95.0724691572453,29.98456549415397,43.4063680426187,19.417259730824778
29.144628606440893,113.30284851275276,160.68142647974187,34.955431429253125,94.6626933701766,27.30585044024107,39.0779495494925,16.391905370962526
27.950827325510367,112.36477088140349,161.0324285404692,33.8330179909474,92.63577828499582,23.363464249091717,34.272297107514376,14.513429497736318
26.44337710241653,108.71351727374248,158.99056506750512,32.50117707044407,89.52024725070072,19.635074060392288,30.36086801041102,14.021824506597422
25.12663328853797,103.6721802155502,155.49450533197918,31.432929111524352,86.29515845422827,17.421913763332196,28.218455176780644,14.628245557015925
24.40759430516234,99.19529489640057,152.3034933331923,31.1508657236656,84.10138988105386,17.318066749824474,27.97831115302072,15.777519942514385
24.375262454812113,96.8706613847695,150.99003453387584,31.887443860530684,83.67691129811134,19.022562926166877,29.07623157957163,16.92245733476163
24.763468031201985,97.13131205471885,151.99344480997092,33.40827421925355,84.96774905477237,21.590011252837073,30.609358096817427,17.722784556632217
25.136662823515824,99.28720414186124,154.6079416452935,35.15639301500117,87.30402770986761,23.968185723069272,31.852708157893595,18.12771109803864
25.129505115792064,102.19681887035445,157.78212534369337,36.55900900836456,89.94809947574889,25.476987556632004,32.591044468120835,18.302820992080836
24.544796406372637,104.86380686554622,160.7848567909851,37.22363034974245,92.43910350540624,25.940413987464638,33.01733344638817,18.426845075861415
23.300823131063737,106.56622646002336,163.1656131082911,36.94691991077873,94.47578697474461,25.479038523836223,33.3256761706961,18.504298145186493
21.38318598002077,106.79954317565034,164.44463669183668,35.68294337258144,95.68288068298345,24.238494682078578,33.412187774030336,18.359140655175747
18.900341011166887,105.43103573815881,164.23767894706785,33.58529245739661,95.7059769663019,22.320522934961204,32.966774776401586,17.813663205479994
16.159980644419093,102.94369127705198,162.74038871301207,31.039929182245846,94.56845990727506,19.93793450995157,31.830761024952952,16.868260785986994
13.625430144609638,100.3120324887534,160.8234325347111,28.553658283679738,92.81333549637203,17.59711306445944,30.255466778245335,15.701106380469765
11.747526140298582,98.44165744779025,159.41980137025527,26.542298984067138,91.20043323972915,16.101966991124375,28.845766129288958,14.509426447895448
10.805139739621712,97.69930450939874,158.8523058458864,25.21442667288368,90.285606487192,16.313975768527747,28.279661989256446,13.385973330358809
10.84706424383176,97.99854772567947,158.88925443759132,24.63850643426856,90.31049600795943,18.742666756154033,29.01260179722483,12.366742385888664
11.689992360772512,99.21348709685094,159.38085517756528,24.846350569323633,91.36135123355295,23.128543382736897,31.06587487751201,11.56936780133081
12.906419416044425,101.2964895842613,160.5733075879708,25.791296228070973,93.3977438494076,28.24757298287683,33.908730162666636,11.223592193603391
13.861192306647178,103.93712640642975,162.66831376459143,27.20848831175695,96.02470795208278,32.170420330380686,36.50907195456438,11.514752031272854
13.913984974998558,106.30525937616969,165.26311280223237,28.60779203497419,98.39008276281143,33.02685073558742,37.67370792861576,12.376665948779912
12.750794446847067,107.39313390519553,167.50307223436985,29.49945630896096,99.56521932727881,29.964139917998697,36.62305043776424,13.436830506800982
10.602877432660573,106.71156177837217,168.8240430980561,29.66252824170517,99.16891872306869,23.721366338766078,33.46955039025105,14.176946571065987
8.141417991999987,104.61165341559548,169.36575348119274,29.19998451981655,97.61330609152543,16.384494897362746,29.238454386539445,14.196668076636348
6.1179194780347474,101.94615724801542,169.59802852794078,28.37597365221061,95.73798295787651,10.4148818449496,25.392893196428354,13.424674774687068
5.043615538174812,99.55443848767513,169.77153240927663,27.466761858822064,94.27916625958983,7.5358088908686875,23.19276362853123,12.189931971709203
5.110167215801591,98.12454170288267,169.98086866354205,26.768588627454115,93.70869282420587,8.105841798414362,23.262312962314343,11.130579244764894
6.276558279850546,98.31339213152955,170.65755781604636,26.631469019255253,94.38655144109501,11.216004352731755,25.482080244022622,10.947984521989595
8.32757677183428,100.5887181395009,172.57993908696952,27.324797309936905,96.53868360431565,15.303320580849046,29.098989655508287,12.072089160672622
10.86075149470304,104.72432328246012,176.09885337565905,28.790869484153422,99.90805929879552,18.898180689175685,32.96968731627308,14.395212782738401
13.334476355968398,109.58178227673528,180.45734182752878,30.562522792736377,103.5520676665682,21.196173771022416,35.94692836792124,17.24627762871169
15.256200427863128,113.6886095563542,184.17457382661007,31.98964857519121,106.25119989720356,22.26758127247434,37.3371772164151,19.6441560230752
16.387622123309793,116.20966756890827,186.22160634841367,32.585610866270606,107.27908930501918,22.827943429899015,37.17283272072,20.68895442662089
16.783137631791924,117.36750618258486,186.72542412365692,32.193832252412115,106.78733066184668,23.677175246745012,36.07028295604008,19.894422350716493
16.649447230266023,117.94867141149298,186.5156723721991,30.914065876804717,105.4661270624484,25.14212138974564,34.7678856411645,17.35510193388486
16.19130550571084,118.53273869843379,186.22447423888937,28.983564477463663,103.94998179717079,26.89863295802965,33.719940027054164,13.736227569006966
15.566292819080294,119.24860597373247,186.03575232948847,26.75444376423595,102.61136009476287,28.26507923839427,33.021870490724574,10.081643405449057
14.894508530773516,120.06096810696089,186.12338123411016,24.670004208280652,101.75065578264942,28.66848838987842,32.57640175886494,7.43950506820783
14.219709708184073,120.94978559031297,186.84783814467437,23.100506925194104,101.65759731220643,27.88256701887354,32.22463613404645,6.415503047950245
13.457849424586898,121.70047386953622,188.25615432175698,22.133952864733697,102.31678735875848,25.932805162397933,31.752023566217066,6.904032310090226
12.466946430709521,121.77549945948222,189.63386824843937,21.57893966157307,103.19527727824034,22.92025109347037,30.93079545527999,8.21154686887646
11.243868767313446,120.73348262048428,189.99876834430947,21.237306785444577,103.58116985900347,19.032877112081593,29.702292712238044,9.512348186013979
10.050775644353996,118.84909787223906,189.18351233582132,21.16140413750937,103.22677400953144,14.707610899570533,28.321113079325144,10.29993603827896
9.29648373667978,117.12909899766554,188.20977367215704,21.589742019018836,102.56477630954355,10.675532318363722,27.214735750307334,10.518507591340988
9.263407427889824,116.55614911750729,188.39561514280444,22.628114944992205,102.2297862142607,7.742341544664657,26.620662136208214,10.375727879169352
9.952732877616,117.34108288180889,190.17146463086968,24.052104529660937,102.45623366978579,6.450959990394333,26.370122183779944,10.108497219280443
11.176359387561826,118.95116182803991,192.88979024424182,25.453714424641202,103.02361746113179,6.880034616503938,26.066429436023377,9.917241474330536
12.73517347937387,120.71074609548887,195.6103341842404,26.540198620549557,103.66361116916141,8.670734560299154,25.47552219433382,10.017066554188833
14.463780659065877,122.15587625381319,197.7211395848647,27.252258561137033,104.28522972912194,11.194435676041216,24.73337847942207,10.622345446556796
16.154353763697575,122.87756790057801,198.81052585130377,27.65444261497884,104.77516156535656,13.767650597230618,24.220493700812245,11.815969827800776
17.56089418581267,122.46496983674703,198.52924270948657,27.840329903739644,104.8740109232073,15.88183856124095,24.307797680877396,13.435961728343692
18.558552389696345,121.0232634291764,197.2309683091514,27.98865778836658,104.57292101587345,17.371799193896933,25.199047816032206,15.097783005515947
19.265204352478534,119.69297771273025,196.72702476458304,28.38601193720672,104.60171769167115,18.37202227369653,26.844161914629087,16.31471369449682
19.912449484173795,120.14791559730685,199.62272483429268,29.201046802168502,106.12486855908114,19.02210778667793,28.809868058059585,16.617275366665353
20.54501404578498,123.05846026888014,206.99008379195888,30.15357337926608,109.53933866905649,19.157062860001794,30.21629574178599,15.667900233187272
20.866283851611954,126.87997462712414,216.29237113027273,30.488979563675894,113.45479943811269,18.329519023289805,30.010012367905205,13.428331628231799
20.420095696471634,128.3326548532578,221.8369627162315,29.432300339633365,115.0449500321102,16.242667139817396,27.596219362974413,10.326787351592264
18.96008885534891,124.46529195313003,217.9718243884261,26.800395475768063,111.76800124917749,13.260392258472255,23.419999684809614,7.240087967979521
16.714188333985803,114.88483208189719,202.9898997573751,23.291261501358168,103.29360760803178,10.553116267323718,19.01922254130139,5.192363275167416
14.41315510825968,102.83501015516087,181.44012060367805,20.29788209105225,92.4766210561367,9.745718247119743,16.49508675267824,4.933769269886064
13.120659754353701,94.69303057575964,163.7698418935718,19.43330032893618,84.9564265838828,12.29169438016729,17.75203944526693,6.678223730646103
13.851083197771128,97.82381060325763,163.01782735466892,21.90095374051336,87.3218235855498,18.8378585646391,23.785076900856865,10.078496347633202
16.902479596734487,116.69496703738403,188.43949063501495,27.66616324083203,103.76207801902663,28.66856283263687,33.98055584681158,14.256569345696125
21.0967304602304,148.04465327116569,237.2901954346893,34.6129141829479,131.83250550706103,39.3216651308729,45.46722591874607,17.759276463469032
23.55861522211486,177.87355120416,289.02832236946495,38.41472304417445,159.64289652151646,46.72878456853494,53.07391020429683,18.64010004338617
20.668760823391846,183.93894751639954,307.94438820125146,33.91127291425423,167.67974703790964,46.314727632283464,50.67472686314748,15.019432586111634
10.06277024540211,144.9788768249763,256.9558855100742,17.842087956198526,136.56224524857552,34.989878018897116,33.960609514449565,6.123984443830299
-7.465037224989959,52.87472274731516,117.55177579794417,-8.555530792631565,57.75410839631518,13.126089490774064,3.339571343644215,-6.789348149339713
-27.598217063864666,-79.6658191305779,-95.63196538474541,-39.04024542155631,-59.1164569377185,-14.808029275117837,-35.03675547767954,-20.441180140782166
-44.268385652556276,-221.9329400981189,-336.23891310341736,-64.81432966829024,-187.86731000358026,-41.717562764959375,-71.31872023032143,-30.797071313612214
-52.690111675740205,-338.3598639274704,-545.2143977157161,-78.79301929944546,-296.6913640118283,-60.93451735402707,-96.33329858133881,-35.02464406400115
-51.806773931518784,-404.88952258627876,-677.5672843049177,-79.14006334252818,-362.6406849726627,-69.19712717578072,-105.83802316241514,-32.951294672538445
-44.5750742691802,-418.90754619274406,-721.3524052086781,-69.81348627473776,-381.2039993854095,-67.79566057595369,-102.06947317454052,-27.03458528095683
-35.96209923902567,-397.1614363884042,-698.1514461217866,-57.839159983655,-365.57394102488894,-61.2615562101867,-91.72162044941287,-20.83890890595175
-30.111979157731025,-364.14959437800235,-646.6597455690929,-49.289687703016035,-337.0922456882555,-54.60568670115413,-81.90207721722365,-17.07534031698896
-28.588664767983122,-339.3694422605553,-601.5951181730906,-46.67544613002901,-313.8729420118306,-50.97030157458102,-76.82376406340587,-16.515683480481986
-30.53840029676327,-330.9531462690636,-580.8312250352288,-49.03176029396139,-304.4499178210482,-50.953976369972914,-77.00882752484955,-18.285485791476436
-34.05555538080727,-337.0307876959183,-584.9928305130819,-53.77731309510031,-308.2285124822904,-53.42703992141583,-80.61844906563094,-20.931051016611015
-37.42594726347536,-350.76336368817067,-604.5225516069153,-58.48531898788848,-319.61566350165106,-56.739730098964145,-85.23102871738531,-23.28416304780435
-39.60509576989859,-364.7106151461425,-627.1633739310508,-61.61282144771693,-331.9909743988451,-59.497651822943396,-88.894584506616,-24.71454574943206
-40.2308155696022,-373.3800845061838,-642.9344308661771,-62.564922798893186,-340.1972302086262,-60.884384994131246,-90.51378698208498,-25.060591406619448
-39.61014283081888,-374.78196518135644,-647.2284110503763,-61.706845238530114,-342.0777777818525,-60.825815626003944,-90.05457754715918,-24.591177457119354
-38.61543190718575,-370.9600063897606,-642.0997437470849,-60.24060609454048,-339.07072983330875,-59.98132351020163,-88.52677829607536,-23.937087741896846
-38.223706015177484,-366.48221836134417,-634.3322956774114,-59.564526089420575,-335.0285267294056,-59.34302586687662,-87.3901783145699,-23.773342900258886
-38.88185893579353,-365.21635084221623,-630.5216973988304,-60.358224800634325,-333.4613009317006,-59.569922304197775,-87.5736050643901,-24.377306260568254
-40.27752856686453,-367.8595041003801,-632.7344481255238,-62.219424710915554,-335.2561699297141,-60.600494105283,-88.92851907889326,-25.485786654068907
-41.75749755862091,-372.3648321759029,-638.4117921069915,-64.2286196449508,-338.82402188148,-61.895788468837225,-90.62719648415961,-26.617390705719696
-42.92017154115039,-376.46387870870734,-643.9970759646253,-65.79748096459682,-342.19392686568847,-63.00486713110008,-92.01222190799726,-27.498987295571943
-43.75487200193241,-379.4378702704861,-648.0984991807046,-66.89863395392727,-344.6639248719635,-63.83825236014964,-92.97349469834138,-28.141172097886923
-44.32465772125392,-381.6658078345662,-651.3115556818192,-67.63318299363496,-346.56376537267624,-64.47277566423092,-93.62571733944887,-28.58664998953397
-44.56046357087286,-383.3592681018363,-654.2047924608456,-67.9227935807059,-348.14756800690407,-64.90452065624936,-93.9467834093469,-28.768568734897805
-44.49586438291311,-384.50586666727514,-656.6943639364222,-67.81540543984079,-349.3886443275405,-65.13826000906474,-93.94812898813315,-28.71016003220479
-44.572057907795504,-385.8237973605008,-659.233099657822,-67.9111639373893,-350.7189818245886,-65.43480135403185,-94.06335422061649,-28.763157034625795
-45.45831203678151,-388.7814582552254,-663.2302599993009,-69.12501706700296,-353.15833729387197,-66.24603254809318,-95.024887444228,-29.460898575313
-47.43707067534794,-393.9969907399696,-669.2610082066342,-71.83349102927869,-357.1302933300336,-67.77223210656885,-97.15448088041285,-31.035627031294123
-49.99801070911128,-399.86302587516445,-675.2672909336105,-75.30653861927233,-361.3680482782077,-69.62994955395095,-99.84111442735414,-33.098183754659225
-52.09133982671542,-403.4422717498164,-677.7668385539653,-78.07348361594934,-363.6347762975359,-71.06016182131027,-101.86372075785222,-34.821886736617486
-52.78390828900713,-403.0749923901883,-675.5382650235456,-78.86660775472755,-362.8762084942213,-71.49886804952705,-102.27585993826035,-35.438846506001504
-51.756351623273325,-400.06590673901616,-671.8560921148098,-77.32470075533244,-360.57637690583454,-70.96369887150885,-101.02272700038195,-34.635476652723206
-49.462750690421565,-397.89626744135575,-672.6094485048699,-74.1743483570052,-359.89419021924493,-70.01085472698252,-98.92934771502426,-32.71966106142943
-47.16394258678675,-400.057202748888,-681.9677731448197,-71.1971512819762,-363.50993515897346,-69.49978864486782,-97.40727947571337,-30.70007091380772
-46.83040594931092,-408.3555724706438,-699.2205872897791,-71.03461209589788,-371.9964997391742,-70.38985751315741,-98.16601533756581,-30.23025003383969
-50.48767094881814,-421.86881309216,-718.0936643846755,-76.28482518036826,-383.16838387590553,-73.39266586863353,-102.61103840449461,-33.05996595735521
-58.82149919830026,-435.6062469820729,-727.1365694480891,-87.63752059977193,-391.618083050344,-78.25618994937233,-110.60831674549495,-39.868166988357295
-69.80778316065721,-439.42303118008414,-710.6075509974258,-102.07705767553716,-388.5098244888969,-83.03572056110829,-119.25242917821956,-49.117500492755006
-78.71028137098233,-419.7340670032201,-651.9043020597378,-112.98526954486533,-363.2903433955283,-84.21426116995318,-123.05049873486315,-57.01906083718272
-80.06995189163396,-365.5301100068114,-541.088770607071,-112.98283547892336,-308.39465447939,-78.14904090218364,-116.25865861077561,-59.117060660613696
-70.72460549658945,-276.132822689266,-383.55249500989714,-98.13894263084876,-225.02548906953064,-63.20810856091475,-96.29976261205657,-52.743811658826154
-51.878907062973155,-165.15784903733345,-203.2964080311819,-70.7629754491467,-125.8057099922605,-41.18573566297909,-65.96052087066212,-38.768541101991126
-28.752503606376177,-56.7520464865477,-36.33497954669214,-38.7295293282943,-31.34401983638108,-16.93553616743971,-32.66550629014599,-21.423207585041457
-7.975313037055361,24.66497866718906,83.72475704996424,-11.624524640941715,38.20890969305898,3.6461186874934066,-5.104172043346914,-6.259313420443145
5.604516192156992,65.33064453382842,140.1457640794682,3.8775799089348726,71.95481544485358,16.08791512187757,10.733289638943491,2.4965896222983055
10.762563913064012,67.29948518941276,139.17297001072305,6.617956163957441,72.27527956906728,18.889428881138087,13.769011885458516,3.6220913992115755
9.53215938897379,45.144820855778605,104.40556485282997,0.3025959413545171,51.95482418085351,13.522816113660943,7.284178802809156,-1.1811805356118203
5.323156772972318,17.00955112866585,63.43012148716124,-9.399293286676896,26.670331403652114,3.3044497043122125,-3.529701165792195,-8.710045580273526
1.0256482536214473,-3.94593033588138,35.29438979205359,-17.802870954880312,7.797990686329581,-7.945785727075606,-14.05229733586078,-15.898637946381301
-1.8562049364523807,-13.044801974793447,25.63695840969087,-22.609259085586643,-0.5670435944565975,-16.866415332156855,-21.446240716042333,-20.7893906158301
-3.0771092380209204,-12.359217491989474,29.862579354600385,-23.730934608630648,-0.1516473288657032,-21.18730614795357,-24.651979270754133,-22.71620641416873
-3.1874834042416933,-6.929341274722267,39.49729080156984,-22.471195575317335,4.73540164788072,-20.2733397472947,-23.988153150038958,-22.07061299123701
-3.1617653003436583,-1.865809317299473,46.91825036788641,-20.74695946958663,9.69474663807795,-15.430319531966713,-20.837824831326504,-19.938751370876094
-4.054641760348743,-0.8648343340929284,47.36164456480568,-20.38408643870075,11.480350606429932,-9.50372234718885,-17.223677713133174,-17.637618876423844
-6.5636394867497545,-5.340959722938506,39.61522916107259,-22.405360084399888,8.710353525591925,-5.634110925027658,-15.038517287640842,-16.194504800097747
-10.695139562761051,-14.087831145632915,26.062918394503306,-26.615997204122504,2.2028495808677113,-5.773363734776968,-15.252585709263798,-16.014445965679343
-15.83460909751345,-24.162976744887196,11.317026779961223,-31.86729860860124,-5.657298913267595,-9.895039548970646,-17.68759925487569,-16.950740390697845
-21.176152260726205,-32.87528668662335,-0.578100845519451,-36.84441022322415,-12.52713967454021,-16.340581199188414,-21.47653290769615,-18.65155459138894
-26.114646305774162,-39.35631278708522,-8.407872865995376,-40.72847079608529,-17.48747603310538,-22.912138688146406,-25.695996991399724,-20.812137689741355
-30.319558414651517,-44.380617668407005,-13.533762378463718,-43.298592801824775,-21.01809253779442,-27.93844643580964,-29.655213965107663,-23.150639104587896
-33.62525516876308,-48.94808861886189,-17.70349192723352,-44.69425565390433,-23.879349310144725,-30.809782284223264,-32.880689949993396,-25.31000951636066
-36.02215255569903,-53.37109433079051,-21.52501594495164,-45.301283386461826,-26.33252140351735,-31.93671193904466,-35.15637058825537,-26.959311482328044
-37.750471007449036,-57.662862192473966,-25.03590751637642,-45.79996847340094,-28.444626427322873,-32.295042339355334,-36.67585827961671,-28.037746255912296
-39.23940686498234,-62.22593176032354,-28.979898685628296,-47.00459933844,-30.695702519751233,-32.749012255048044,-37.97136023196715,-28.818598643723064
-40.81190528917512,-67.60564526125492,-34.657281273861095,-49.368531185923615,-33.79797241766344,-33.46224450411542,-39.46405499729892,-29.65220341376614
-42.4514691065294,-73.61120481169458,-42.42257519358228,-52.60009346699386,-37.889649392729204,-33.82136459128343,-41.03833794465784,-30.649831798799145
-43.93614871307845,-79.17423942109404,-50.932766020305046,-55.88117807976859,-42.26581567112342,-33.05590114258848,-42.16684574509363,-31.658799030126083
-45.20644689251987,-83.36776040996959,-58.29893784599577,-58.53762888498627,-46.12521071131602,-31.143891905643404,-42.52454968883149,-32.53115204361316
-46.51506169105429,-86.36574445001132,-63.733674391115855,-60.482704091919416,-49.40092069620839,-29.214015363047523,-42.43407325629778,-33.35246121116196
-48.162536412064114,-89.12756086447473,-67.71085232223328,-62.044264207781545,-52.61124344030761,-28.998174203706046,-42.66087198170712,-34.386808256252216
-50.149445275161085,-92.30415845196576,-70.8425769726315,-63.52565175700144,-56.041823132502536,-31.708509843631223,-43.825120318750635,-35.85442240212221
-52.18419123293257,-95.91442744154256,-73.48285107059044,-65.07941958300185,-59.52905051120199,-37.20669013890019,-46.079086651652965,-37.81013503938372
-54.02410845082953,-100.20184670568163,-76.82738261058334,-66.92809361444452,-63.24347813312294,-44.033898434686904,-49.268665373076644,-40.18091423583926
-55.698356603998,-106.25849179964928,-83.64594060718915,-69.42542331690937,-68.29568580345254,-50.15006475265361,-53.16934673305656,-42.7915854132161
-57.32333502210358,-115.05906900515403,-96.57961796008728,-72.66825265735503,-75.91829906086349,-53.81729522355617,-57.390630573569354,-45.287675604951
-58.75291458563828,-125.59686975803419,-114.8706995491871,-76.0497675734547,-85.7021195660751,-54.20387126107058,-61.12328065812607,-47.10858423031524
-59.517201991546,-134.27606118006673,-132.8887844596545,-78.36319292042485,-94.76749238301376,-51.606673988940386,-63.237732001071905,-47.68327373933067
-59.15951925363817,-136.69457151461313,-142.6243662187389,-78.52288177544818,-99.05864417879616,-47.31425363899902,-62.87869130922712,-46.758343192028164
-57.66673723869591,-130.67028823463232,-138.72665840129207,-76.36501211645201,-95.98190668644027,-43.14296067725697,-60.14010741854522,-44.593831928878856
-55.69179073643377,-118.41733798372383,-122.67276998812899,-73.01931601861268,-86.58654618727324,-40.81548407606575,-56.34701221307692,-41.92668069372624
-54.52749515317308,-106.74570185610938,-103.80359130861233,-70.77475509240263,-76.12754086711182,-41.50365334201005,-53.84752145223209,-39.84639686848069
-55.82612114492582,-105.23511418158762,-96.87390108296549,-72.4847526621852,-72.78134498603657,-45.692151038090444,-55.38869471029706,-39.649244671541155
-60.87099534220328,-122.33052728624418,-116.18850311310554,-80.32732728986772,-84.40507786314893,-53.09155579484429,-62.95368164809391,-42.43235683323455
-69.33712478287087,-159.49856287943393,-166.64656469592043,-93.90351803309206,-113.44364180679126,-62.20508601298521,-76.01575733576756,-48.21618951011952
-78.15634940366112,-205.5629718580183,-234.60931440878576,-108.58055802036701,-151.74644653618455,-69.70280638567216,-89.96279304474167,-54.980629124588866
-81.66798798068284,-235.78573240494404,-285.1905611492935,-115.76586035083606,-179.19904657596442,-70.48855290054308,-96.25449116546103,-58.5837419004307
-73.77400776603658,-219.57250267271988,-272.2308121855628,-106.1317409910444,-169.69652012532092,-59.29163983017084,-85.4145733512263,-54.26382502717492
-51.3404789330494,-135.37821783721293,-159.96227774981514,-74.68316590396059,-103.63308240974106,-33.47488850978527,-52.00238831696901,-39.25031553731709
-16.776408380908215,15.049716173979878,54.50569959990578,-24.6474338281561,19.527276574974767,4.5812153859190445,1.2801391368262813,-14.889564688062817
22.157846248586708,202.74690735381367,332.64905780336886,32.69244073578327,176.96605490643776,47.385110218962204,63.32427978148809,13.302632231193241
55.59673643216832,382.1924289058123,607.857471854587,82.69733978469392,330.66572058559444,85.10741145076787,118.9941006656097,37.98345080555756
76.11769934436366,511.56854959251655,814.8736435010621,114.08993171629055,444.31955753819074,109.8747782424567,155.92515391564032,53.43058861421841
81.91753719146439,571.1200514150995,918.7653556102268,123.76960593886449,499.41309256182643,119.11901592707581,169.83438399477208,58.038104750241615
76.83059468176414,569.1562325842608,926.8373625323894,117.03276626478345,501.2797081705671,116.05935892600901,165.3496545638163,54.4477740468073
67.48585463159199,533.2742638775222,877.9725142645935,103.52683077103573,472.4688372270351,107.24947024195667,152.277904417561,47.49298724479232
59.65304706961981,493.6588039868386,818.1907450229152,91.87346092241172,438.7788010231892,98.9413428071971,140.03792561541132,41.48299843900104
55.978497252319826,469.1188817963157,778.3825862016969,86.2097877295656,416.99781898277917,94.48232929337578,133.66717638793966,38.484750644103215
55.94517162093129,462.69229817972445,765.7500236622645,85.97179409099515,410.5533676499964,93.87444947115547,133.1227686249212,38.238074113737355
57.338422583557474,466.301543734328,769.5770022341775,87.965945295824,413.0678896776867,95.06544537836771,135.22241482036316,39.18416268128663
57.972509168272566,469.2352774225073,773.9059318187877,88.92817390928538,415.5215492301296,95.76561300397307,136.4136895549493,39.7050643352193
56.89644077613349,465.42384324959033,769.0389303325651,87.37373256357732,412.5953934470715,94.83888488071966,134.94277282953283,39.01674933895412
54.83833428501012,456.92735656366443,757.3588866658312,84.3205478622282,405.8109292935685,92.87530825230945,131.79574493471378,37.53981980847205
53.76292390202625,452.6423276435601,751.798174581733,82.67304475912114,402.5617218591561,91.80828973541678,130.13202117545097,36.63277150182385
55.514580257918546,462.1718276696737,766.8977986845273,85.22468207530014,410.9945614892544,93.58601894122044,133.17171357177318,37.638530852981674
60.07110301833302,487.0454986857799,805.563090512064,92.0483275636467,432.546223919755,98.38680229650572,141.30796099809825,40.616178018767336
64.5678222429055,514.5100959114816,849.1520414706686,98.97873675498768,456.5116803050457,103.47975116660419,150.2169179822533,43.608634495090854
64.0927950989832,519.4619586621418,859.5558327938215,98.6938567739453,461.4589339409084,103.79885072655287,151.69512589866392,43.178283983464226
54.10180052936884,475.60064609006326,795.6794456286783,84.24472024361893,424.6290745785831,94.27787596983116,137.34939774377443,36.09730269320195
33.05546568545308,370.20397523682493,636.4315140142231,53.02979952841937,334.7065770017974,72.68262906785186,103.19468051949248,21.19065010947973
3.6294159039098695,213.5094654944327,396.2471237514592,8.755367603200058,200.17150313359718,41.18636558233234,52.3935794818772,0.18249270908740978
-28.232605759347965,36.52582733257612,122.73608764682251,-39.80277573318484,47.67006631007634,5.6876055725897965,-5.545141307605478,-22.927076902485975
-55.837972904220926,-121.84464246229558,-123.03030980578642,-82.48295357136593,-89.05513320386385,-26.723536595642884,-58.66184889192178,-43.525356185081115
-74.44294755800239,-231.15800502394018,-292.50534917409163,-111.83456862375587,-183.4438261433379,-50.67780219207522,-97.37194288503073,-58.159748305041035
-82.82894051016879,-280.5125097417333,-367.70314521806233,-125.63189146954136,-225.8595307317281,-64.27768524514877,-117.76576368883913,-65.60579360307122
-83.26104618641632,-279.61925020126546,-363.16528272438126,-126.95366400978754,-224.51484041603473,-69.04446373476716,-122.10633832058045,-66.95354124108015
-80.21953611462803,-251.4793476251699,-314.251402035154,-122.33706875653344,-199.01044067176855,-68.57179367785787,-116.95719515387623,-64.95396410577067
-78.61800231813511,-222.13407938990602,-260.9396146180375,-119.09215785944536,-171.4580289612314,-66.89833073277168,-110.29874761691505,-62.98775886490449
-81.94974247606508,-211.9680326269855,-234.95285938371697,-122.5246661007079,-159.28893174199757,-67.20261643914269,-108.6830533633951,-63.812858432862235
-90.60189235676397,-229.78442899461064,-252.04888814062895,-133.4785180375235,-170.7053289584389,-70.80023270346324,-114.82520494670796,-68.20897833313599
-100.91659567794986,-269.60901455985555,-308.0510833048612,-147.00163357147653,-202.2506418336756,-76.41736231679496,-126.09741765371122,-74.02753505941287
-105.95323752365444,-311.61697427247304,-379.1619044570268,-153.42548544866537,-239.1932707507534,-80.22939567514425,-134.93407596329294,-76.504460876196
-98.37699469534908,-329.2005366948207,-429.49880924340226,-142.42898080823417,-260.4570419523852,-77.26955559498862,-131.8938040662908,-70.27842074858773
-74.42018549402495,-301.1820740688219,-426.20556928184203,-108.61904252281762,-247.89370532253602,-63.99539035058892,-110.5299788758927,-52.37388516901523
-36.640868012772756,-223.48794045067595,-356.0675427063377,-55.45069327602288,-195.87800594940057,-40.671921808068596,-71.48537832612361,-24.405702969129685
6.475038376092079,-113.05681495901587,-233.86973122212876,5.265570920690025,-115.42585489949582,-11.94365625822492,-23.115735125853128,7.552526553388335
44.15070899280763,-0.7133112474611745,-96.35353587002014,58.42078834460412,-29.64358241871547,15.02620625767635,22.087607897391283,35.586481474714915
68.19215423737016,83.3789644608549,15.53109753133909,92.45084818568041,37.30411445960497,33.876324375003485,53.325554371733354,53.57740111404497
76.31660757415246,123.30207134110596,75.81466426022753,104.06040928508123,71.32619585066206,41.87115113612542,66.18488456134178,59.74477213176886
72.21108085643081,122.39869783042732,83.09607613305695,98.36920067151033,73.29481614545848,40.62409801612773,63.63599574911106,56.7550424235258
62.70956346528986,97.88422095382897,56.13774587528805,84.97999119501354,55.62133215980144,34.53991687059696,53.23513274041991,49.65573579372533
54.133141398249634,69.82330881654691,20.323732105070935,72.822127649203,33.84730278683357,28.233242921448905,42.74206181378855,43.15798488947836
49.91837634972188,51.83173533713429,-5.298002861457764,66.77971711692261,19.08017221453848,24.574701648352292,36.887289837574876,39.860103796763106
50.337330143916894,47.952325967043066,-13.474815817937074,67.27022297952463,15.113998056172267,24.2038245211014,36.61566386856119,40.01634336232465
53.64954620527013,54.95379259693414,-6.751289661395833,71.8608014316828,19.92885927025886,26.186974277011263,40.23500583670331,42.36727713330134
57.542165885376036,66.46880923742137,7.478533407730298,77.30085256059081,28.801641926956275,28.98776678836781,45.08653535441053,45.19529586465996
60.18616277103432,76.34666949414913,21.209451425792388,81.00986369690513,36.897742344957145,31.21916133024342,48.842483593260496,47.1168667917445
60.808120655841336,80.78524834110921,28.727517381469866,81.88133900202583,40.98831117669786,32.112351085465036,50.286783213804114,47.53051388425191
59.79440875865793,79.44166613705632,28.537287885830526,80.43771978795856,40.47757785193349,31.72409386429637,49.603275811857195,46.71227699051065
58.27619888076994,75.07229140301835,23.55724537818194,78.26193166206141,37.326731623919684,30.77419917309601,48.03737651357724,45.506541346435306
57.34903034028877,71.44982638605705,18.757979804776625,76.90554467778884,34.52107221328046,30.113828845963067,46.99338837483239,44.7337738608477
57.43171759506846,70.80250725065706,17.567978929362237,76.97498196513003,33.97346542873035,30.168071682967344,47.14507643871265,44.70746968189077
58.228306478621334,72.81503605206551,20.011032956010645,78.06088485308481,35.567411400334144,30.793337372755524,48.238992951545,45.21010678666075
59.21207493505599,75.82630151679548,23.989684963295595,79.4159628365903,38.01753206233062,31.604029645471773,49.6366922279989,45.85706163138882
60.082607531165095,78.66147412491144,27.864427297123104,80.61032100138634,40.36986264953148,32.363761980173585,50.939128787023265,46.43119318742331
60.80140751281834,81.18395624947007,31.45383947725566,81.59161315799766,42.51828588000917,33.054203445751355,52.09635816122291,46.90106977428809
61.36611620332935,83.49736038685963,34.96919174334188,82.36260215154022,44.56600489050209,33.68311058833819,53.11403749397386,47.2544945888286
61.73032529094863,85.3265038980808,37.97887544586869,82.85728481604394,46.27057098360943,34.183673136714965,53.903008907572854,47.450121982277366
61.95327469262168,86.47933347723207,39.980513671443944,83.15088186017772,47.402651969449856,34.54308121826807,54.47197382014283,47.53599326392229
62.275390243419785,87.51758299677365,41.54437647544615,83.57711867378406,48.35708796017584,34.92181740351381,55.091407182567586,47.6995359092069
62.915211280843074,89.39676848212154,44.05564461245119,84.44939741515634,49.93061363842917,35.52623538027974,56.07987330756946,48.10521265794564
63.81387121847531,92.3601812446241,48.115364930121686,85.6937817973101,52.40021172734403,36.36532024155253,57.43341659248215,48.70299386446725
64.68410613574798,95.57940475429686,52.73220115874086,86.90602321746502,55.13804775328496,37.22442145065928,58.805843202475565,49.27459792723789
65.33982508541233,98.14611610548208,56.53836391134293,87.81552847067366,57.37262830405452,37.920565727363396,59.91516877390601,49.68575706254343
65.90199322111499,100.19802379057154,59.538359207325755,88.58754517946008,59.16169103031444,38.52312783418086,60.87599093192622,50.03381486441456
66.62677323963945,102.72204061013564,63.10152891404999,89.58908976958175,61.30988883216304,39.25759256577689,62.03682733573875,50.50943082154481
67.590361201768,106.29890567519973,68.19999905812861,90.93758290774386,64.33932119775811,40.22299652444793,63.54430640346876,51.16150523532777
68.63397235968613,110.42087791238804,74.19425470121342,92.4101365071749,67.85467048240297,41.28870524915139,65.19675303484829,51.86657477208441
69.60178052628513,114.19002493456736,79.67240031501515,93.77719887952314,71.07465576101949,42.28001893275339,66.73578527701852,52.512855174526536
70.51349565178926,117.35228145236346,84.08954244991352,95.05750511651917,73.73530398162583,43.17492041696559,68.13779514809622,53.12254221397275
71.44000947298225,120.2893499336696,88.02542423589931,96.3521940235042,76.16217644312842,44.049410648336014,69.51546658381801,53.748570647722914
72.30498832615322,123.17944982210662,91.98460519123462,97.56075086313051,78.57567693715083,44.892544095301176,70.8356867741678,54.32685871783866
72.96300142394914,125.75744628614288,95.763476935387,98.48117002677485,80.80770191523317,45.61152830154397,71.9448850353589,54.74546904138206
73.50392353593914,128.18052522854333,99.47965735075326,99.23889057036315,82.95759049640269,46.265048223588806,72.93884419339648,55.077900951082476
74.35297961392213,131.7047264936524,104.67481581955295,100.43726615852376,85.9920143819263,47.18594403112163,74.34327637608969,55.64983227345055
75.92869423454124,137.80539340049398,113.33920629759349,102.67807297722031,91.09898322899194,48.72913608930482,76.71170776784444,56.77193244543274
78.17188215139774,146.34030723042738,125.34173051360561,105.88443010758425,98.18264188441306,50.850927329634594,79.9768101656841,58.38865266522529
80.45663758649417,154.83108844291544,137.20548773038482,109.15995728612025,105.20964005407637,52.98578417846784,83.270441115155,60.024608298834465
81.9856409200245,159.92592024709273,144.09098994716496,111.34931452169552,109.38818386557159,54.39052937262192,85.45459919880179,61.088651542338965
82.29069317648081,159.8236848774704,143.44475451284407,111.7672860296123,109.229484045848,54.64813654827112,85.88260460176639,61.241854851151714
81.48456641825625,155.66603694696818,137.19728307496612,110.57651851432192,105.76327416265418,53.94256357283076,84.81146299880434,60.57414993065136
80.2888022199213,151.27172068926058,131.22350144470045,108.82916954980733,102.27359570503458,53.0405781726004,83.38819152819757,59.62346357284699
79.97655444562655,151.93662867393783,133.15148339030014,108.36994222890856,103.16737724138056,53.124746173079544,83.42517973002887,59.34100226901326
82.0695572872225,162.6484697274901,149.52892292356265,111.38725087065338,112.41271018882968,55.44826345899062,86.8882243567957,60.86713273246446
87.49042602719142,185.20596677974336,181.99394675015458,119.19719223579801,131.2341249990261,60.623242170079784,94.7859492458495,64.88731847149192
95.36868932738946,214.66707868518805,222.85827654916295,130.53831881775298,155.35931941988497,67.68169769520692,105.68472964247808,70.73012395498706
102.40649372265543,237.87011337769528,253.51828561614295,140.66449342425287,173.94321937202233,73.62876935428262,114.9813437541556,75.90208502905654
103.70306092354716,237.22607133923364,250.02555705332975,142.5301031005248,172.74978215705332,74.25601018123314,116.1278456414916,76.72785298538992
94.94972260988283,199.5928558846965,195.67890029269907,129.95856441988175,141.47513186586852,66.15160499792765,103.71214288324973,70.00622505163798
74.76440609128872,125.24200802431417,93.58155756368696,101.02955868112409,81.10238863168703,48.77982110940335,76.66927037661482,54.746779125097405
45.688155845089334,30.42235509553889,-30.35302729835188,59.53604968667739,5.838903247507039,25.215801045826424,39.471585881127865,32.89531104447819
13.217107955421662,-59.21187690878621,-138.00712585633798,13.574294548458502,-62.67567011329967,0.9343025156019196,0.3801509981358305,8.604839613911397
-16.527485619278416,-120.80478019559332,-197.81730293704803,-27.877252009447766,-105.85857119546397,-18.67750346953746,-32.24903936004179,-13.490859857642992
-39.14605988721602,-144.7385403682949,-200.16571820294646,-58.426849540249314,-116.96530654172967,-30.623161652322963,-53.428512657557455,-30.01923680506728
-53.127267414928895,-137.17900095170305,-159.9525271326647,-76.01417106298388,-102.87988780042498,-35.155051154488035,-62.89220887993356,-39.76564353797444
-59.50813726286592,-114.02418615299298,-105.58821734807307,-82.41913858872951,-78.40223735301628,-34.930717318956404,-63.953504307589974,-43.492640130528045
-60.656766596072345,-91.1623903384718,-62.59310685637294,-81.42697488283589,-57.44594177717322,-33.28321444237431,-61.07896358453992,-43.118749470328126
-59.11401290839185,-77.53730997803827,-42.52419025190088,-77.02505928025764,-46.95560202787969,-32.75968373889099,-57.87522824010329,-40.885483224552694
-56.9494263856097,-74.14776842961106,-42.44887098660853,-72.34830706905532,-46.35769861022475,-34.520611315634035,-56.320380791116285,-38.7901708674887
-55.47419468717027,-77.20843482844542,-51.885928353236054,-69.21083988488488,-50.91443779282742,-38.40836944537384,-56.88823180992711,-38.17455352196532
-55.08555249807384,-81.7224386945002,-60.31742003435863,-67.92869563787441,-55.41846566215348,-43.263445188874925,-58.89319716696035,-39.39754378453978
-55.349114442802936,-83.51993133562495,-61.10368296062606,-67.56680164752892,-56.2005143493771,-47.3797142916215,-60.90412222610972,-41.79919776355328
-55.48400338631326,-80.25880964290074,-52.298041654091016,-66.79152465626181,-51.78633540200094,-49.18686513921141,-61.42945119738906,-44.14268324684749
-55.008635544705264,-72.10137330342168,-36.2726857004514,-64.91310971320749,-43.04661161629145,-47.98002506384183,-59.72259716904561,-45.31273692730563
-54.009968895210164,-61.524848774087324,-18.377402394259967,-62.29188268003907,-32.686368255682645,-44.208239707501036,-56.1114279945066,-44.77205173363709
-52.82479067654777,-51.641357601145224,-4.046432100452163,-59.79061527311567,-23.664301562176764,-39.04805868063376,-51.529694955492424,-42.53484768495058
-51.54229285103675,-44.010125602831145,4.473023436316761,-57.903165470985314,-17.31060633750976,-33.60216329226367,-46.71577262613037,-38.91401055157305
-49.887079266600644,-37.9082094991844,9.10549126356347,-56.44233159378808,-12.743079034799075,-28.38015163056891,-41.860094796760485,-34.41952782096047
-47.54027676514234,-31.66708129254658,13.659507139144045,-54.93409111455347,-8.115687720004725,-23.370609395054704,-36.90397874326167,-29.817288669081858
-44.45474034102071,-24.4686004026031,20.58725680503195,-53.08350448529263,-2.3429155517095004,-18.43154131279803,-31.950829878246946,-26.02860450688129
-40.83056515353154,-16.712929299185753,29.906740109369302,-50.785287400634374,4.41050625441217,-13.567611892116796,-27.262474262481934,-23.71937174015205
-36.915757784715,-9.023214925118861,40.62229499575146,-47.880099727319525,11.560951444691057,-8.98321980988309,-22.973262508549887,-22.87276658425122
-32.97589681629982,-1.5332316282200726,52.19196243561464,-44.171459700104144,18.857800015850884,-5.072962853595847,-19.02622368523807,-22.767474069949042
-29.428291083025005,5.66572870071424,64.24198834777765,-39.74341352610886,26.141398486413927,-2.400722607628854,-15.445544440881172,-22.414805256946877
-26.808810575663667,11.90020726652413,75.58905142720165,-35.096376885757806,32.79343967461747,-1.5095383084083898,-12.510387587435728,-21.090662472936852
-25.43798230227689,16.37434386714341,84.62786028907571,-30.819343354762378,38.00166754316033,-2.519733127714292,-10.489221596645555,-18.60173311367174
-25.11633520427407,19.318106957402286,90.99071856584112,-27.16103755701327,41.68325007240677,-4.816303432464906,-9.213019771167128,-15.256996670757585
-25.240234302681262,22.228903765316772,96.25823392347358,-24.028525232781416,44.799328471193206,-7.1943542689700575,-8.045298714422808,-11.716881904379647
-25.253776970856244,26.649702971437573,102.5172328700312,-21.370843138560147,48.48334782861445,-8.435437007007716,-6.3419548528147,-8.785928115007449
-24.951161875099945,32.84969629173994,110.40616495188101,-19.380026364638503,52.98807445315813,-7.868753079605058,-3.9006220564470966,-7.0953132437028374
-24.353541451756,39.94176201269069,119.01890771550121,-18.20379298157213,57.73159495092566,-5.535651658779973,-0.9621249772361966,-6.759592082755866
-23.427648692576998,47.116413011848394,127.57913404306738,-17.567965979078085,62.271676780578446,-2.013412507308857,2.0805490470885752,-7.2936797625384955
-22.066379904598666,54.29981128971092,136.48265323727966,-16.875595315389127,66.83471901625411,1.8101939023817473,4.8262620427156335,-7.954264437138719
-20.325576677069527,61.497073759487606,146.3045316473093,-15.723397704884345,71.72121451336756,4.932661427179575,6.8083688865856455,-8.251436301145427
-18.50835555557752,68.00393082357651,156.2992039681173,-14.193065324330625,76.53636676573919,6.574028894891048,7.613162343848751,-8.157458162510652
-16.87403754797957,72.87506555590329,164.7257246233641,-12.540482125674563,80.48475217692864,6.660085536141854,7.326248230370301,-7.846872785568277
-15.276136371460032,76.22476136325557,170.85497313000565,-10.685174051052325,83.4881096672066,6.06555496046501,6.84014703107448,-7.311425392255831
-13.181525866488414,79.6141063844815,176.12224431902746,-8.161475127956244,86.6564020291531,6.2289546614882365,7.461913869575612,-6.29737740603033
-10.080476671505298,84.81688289219385,182.85618284564754,-4.594197380341827,91.37452861720591,8.297850201999253,9.975440426668735,-4.594126599155046
-5.84759363934823,92.3016825357262,192.06072216120316,-0.11011573598779822,98.00951803679158,12.466949265953227,14.007098729582644,-2.291349212362673
-0.7333899141883866,101.09315441647655,202.7878890798942,4.763480418190406,105.68106402555014,18.009085605221966,18.310338827780683,0.28788100799063354
4.848664790540612,109.89823981279018,213.42790793206336,9.478630790313144,113.14696610586206,23.83192816713831,21.65485112374148,2.8443691059088194
10.400117664158106,117.94445188404391,222.91233227738047,13.619949783124659,119.5692263197546,28.984035984845566,23.478114101844422,5.227487842135199
15.278961920279094,124.74647489910684,230.50873952008766,16.791982204606224,124.43266262803306,32.79433681044895,23.892000505660643,7.3559941957364465
18.81707944369179,129.74362804868335,235.35246344036287,18.6673239841416,127.3109835935536,34.837638378730226,23.379211235757673,9.15217453565429
20.71593852344872,132.8787124369733,237.34509540964459,19.363817266788153,128.36760579640776,35.01589606031968,22.623036235859022,10.619801028419339
21.34996737061824,135.49504979266266,238.67315355174446,19.681007124016876,129.1005962749494,33.692263412717274,22.40776736797657,11.896087120062534
21.556132010606568,139.89710654860556,243.37747782050025,20.66940246839248,131.91493960380507,31.58505706323511,23.26424081363102,13.077173650067948
22.015590472883474,147.28374213093267,254.14128184407795,22.750837553661885,138.208658012643,29.381591740959337,24.95356007975835,13.94710811190758
22.811735979698344,155.97118400295528,268.9936314734218,25.25289826061147,146.61335551578733,27.420735150288785,26.373035821689285,13.976134023263233
23.57520342934257,161.98705422481652,281.4827746412577,26.903617506752067,153.3262809338029,25.763697452014338,26.2408496169484,12.722539652434397
24.011353849394684,161.854706239378,284.7533901352795,26.883486893236523,154.57755629722084,24.540176798039084,24.133734811725105,10.32080498823204
24.285602710857884,155.34570607551052,276.4365571394874,25.550428664558595,149.353691586978,24.17906220017151,21.054092170214854,7.62376698319505
25.01240765367105,146.34126265449225,261.08161164072345,24.39039474338622,140.57304736854726,25.33155439917146,19.149380854602953,5.910046767620601
26.9824172369565,141.7146520277089,249.28187449260002,25.402085396636195,134.36876624470665,28.627602101913823,20.88123120776899,6.406674317270989
30.761373543945403,148.87710644299042,254.1013844199211,30.209826614490677,137.91837755482874,34.39307504780714,28.03972133465595,9.818888202862203
36.09519042898657,172.0393621343007,284.91530760312486,38.93673876901433,155.93437385369205,42.20674045019656,40.65554392999068,15.831993948798974
41.22045714600343,207.50514076064852,339.22301587849256,49.06602969653481,186.2016302524275,50.2549257251018,55.91385972251812,22.647123941154288
42.69829872451609,240.467651922386,396.2490776969713,55.20036291200148,216.36772697556,54.97892042713756,67.82856116061267,27.008427912815797
36.503372993343945,247.36464373867165,418.9504290524105,50.7524398588188,225.60213636311082,51.831366721654696,68.75159814198624,25.244326180504338
20.2718037025602,205.5534000944439,368.14928604068496,31.397756807871186,192.87888782085994,37.36372860394816,52.82660878274209,15.171335966527806
-4.593857888571248,106.3788028948093,223.79336270636787,-1.6259085064373417,108.71100059578772,11.638439742615692,19.726318116411278,-2.2203393484877454
-32.62619003729715,-36.55592860312864,0.7153952195440147,-40.840505612349844,-16.80173695929105,-20.749587900443924,-23.88973643292733,-22.60160194032858
-56.42292099426437,-190.4776700635952,-252.73460925011577,-75.46754771354223,-155.72511759445806,-52.10966083893566,-66.6674542949581,-40.083333477726384
-70.12727129698443,-317.43430005598873,-474.6286354204367,-96.50844718832606,-274.02461879948464,-74.99379729129589,-97.63160639856605,-50.01731694762306
-72.16576961453407,-391.44092936862125,-617.2524888254916,-100.9368376529966,-346.87678012852075,-85.53121931479778,-111.13792455314945,-51.14346373935277
-65.59668845476129,-408.844164575353,-666.7647633607321,-92.51498232666113,-368.7338245426272,-84.80377149883005,-108.82739474515651,-45.818023811485986
-56.00038850618646,-386.46269061536185,-644.1615467425613,-78.97976994180382,-352.8047205197265,-77.5918865300789,-97.67649285490887,-38.32682238666268
-48.4170872403978,-350.0119396702514,-589.1894674845647,-67.66639243200483,-321.4999946740298,-69.50786910488988,-85.73670202373536,-32.500735167044034
-45.26509962193188,-320.94009515809904,-538.9619806134764,-62.368100545729426,-294.6719852308711,-64.39935271330306,-78.37627963361402,-30.133341760624315
-46.191774095709924,-309.16421851320536,-513.931408273553,-62.91316232767792,-282.4696512186894,-63.37237820045243,-76.96557483678285,-30.900192372415688
-49.327319361824884,-313.60306359951653,-516.1367522203974,-66.81906250560601,-285.0400470270135,-65.42864264289011,-79.90720098581721,-33.33668886721684
-52.69714639524265,-327.1255051073848,-535.8374718893779,-71.28879120209122,-296.5373054035807,-68.74028263427361,-84.51813805894675,-35.91546930430595
-54.99374460479968,-341.5669975067161,-559.7362887992488,-74.37287322430167,-309.63830319861734,-71.6554777246478,-88.4504570663253,-37.63086859250147
-55.74643668653262,-350.92275424419665,-576.95166909242,-75.2900838591389,-318.6394855306865,-73.19641343948206,-90.36010169903379,-38.13122656540739
-55.237453054016825,-352.9506561211285,-582.3956695466303,-74.3635921279321,-321.1174209254604,-73.22054405622563,-90.10859099284946,-37.65528430703154
-54.260374221217205,-349.3875865051947,-577.7412841461982,-72.6980459419297,-318.29391434515827,-72.32205347095417,-88.5997942129589,-36.834646229424415
-53.65756925831525,-344.42711077448666,-569.4445362937029,-71.50922411321726,-313.8162837492729,-71.42248203453971,-87.1620487789741,-36.32296762152993
-53.8243772710723,-341.94602017527546,-564.3732388680457,-71.38392450111056,-311.32405332824305,-71.20342445956877,-86.71566106893914,-36.41496205848162
-54.591073433031085,-343.3796723057279,-565.855413590491,-72.07971652422417,-312.4080415016586,-71.78902765111435,-87.34835981375481,-36.97133855224215
-55.606346042515455,-347.8429847422016,-573.0021422621065,-73.07044109739047,-316.4521018050809,-72.91926039971854,-88.63903201353536,-37.72338317842936
-56.79865203960004,-353.8855369931233,-583.0636226403666,-74.24183626567495,-322.0372343036755,-74.35640572996007,-90.29878679248218,-38.61721890259868
-58.38712180465257,-360.70605459401463,-593.7680641553682,-75.95384626293674,-328.1271573344674,-76.04076178773029,-92.37724663053778,-39.80568007624762
-60.44285516203223,-367.69978090194974,-603.47272293775,-78.42185296143647,-333.9411947265384,-77.86653875582246,-94.85608177721984,-41.3142170031478
-62.539032174241974,-373.524963912521,-610.2598671895435,-81.16041750838689,-338.3309590805965,-79.4508503500062,-97.22580660621553,-42.79810392166413
-63.92668927676632,-376.48120997211623,-612.467416308882,-83.13839442364676,-340.11681313248204,-80.28685981167222,-98.66019612695608,-43.701104604584685
-64.09015046071218,-376.1847661787763,-610.8490852920969,-83.4974021645778,-339.42195533332495,-80.19731063863014,-98.68182362064428,-43.678202549977634
-63.19057693119674,-374.7150001520801,-609.7739550229714,-82.18923755547803,-338.4831735703179,-79.6405805903298,-97.674479642432,-42.907291952234694
-62.123087409673374,-375.8597515402548,-615.3394843405222,-80.16497773179655,-340.74546772195794,-79.58156614204329,-96.83377767646134,-42.10183074341879
-62.26800091840321,-383.0205592696981,-631.3844381380808,-79.2107034076051,-348.76764279291757,-81.04613273845149,-97.70330777733574,-42.30285999950143
-65.02254753894923,-397.224748121135,-656.2383353825171,-81.48328794505912,-362.39203486105254,-84.61083872461498,-101.56393849452992,-44.51940581301639
-71.02493683677685,-415.79979981058636,-681.7501056475522,-88.50783179993847,-377.8998378067001,-89.90902019444516,-108.66204067394654,-49.15575485466228
-79.16841195285578,-431.4675745113488,-694.0887735877362,-99.66407724455432,-387.93490254523897,-95.19936795454747,-117.29188545894156,-55.316571314566495
-86.06473754572457,-432.4210043398243,-675.9074446468655,-111.07372970771385,-382.29913254672493,-97.32804941521086,-123.32729519575356,-60.4940461390099
-86.83263381311501,-405.062860462421,-610.8777743428337,-116.25794925998171,-350.5469011023404,-92.57877042831832,-121.15873429134224,-61.25576654234629
-77.36529438078244,-340.08823994611885,-491.08427687392395,-109.02682853470064,-286.71984835728205,-78.44612657219145,-106.29249955457921,-54.959643260592514
-56.974191691671635,-239.47598372307777,-324.58513780510833,-87.25280311350996,-194.37781803963955,-55.49455601330255,-78.41378664533863,-41.587718287870985
-29.63455069297312,-119.66360436871457,-137.8685080291085,-55.04163267203995,-88.45766751048036,-28.005481371016508,-42.829857729986024,-24.38194666671531
-2.700268528476943,-7.38187523093648,30.682977085410787,-21.496443001192738,8.536232629758288,-2.6401575261267163,-8.87973116595729,-8.582120777912351
16.442609651178415,71.05730243277353,145.14508077877858,3.566976996638106,75.23153417534198,14.422668163827424,14.206815256877466,1.1627078270609725
23.882334268878278,101.68448551863449,187.60883426088807,14.473653273910188,100.79879047148708,20.339314389155007,21.72651964675256,3.151636107107359
20.741803071550542,89.09883591611376,166.21495027747812,12.126141085523189,89.72435208341061,16.769949582040393,15.549287930950054,-0.7253586169163068
11.943866916381227,53.058015126210975,110.34328519426754,2.637948296967741,58.869563442942955,8.674384087018053,2.588334996154418,-6.396351418004463
3.1733989923298953,17.51056897564687,55.329549614150416,-6.651274854007179,28.442651512454557,1.5404038779971903,-9.1960919128661,-10.028462116744608
-1.9669336121638852,-1.1476590808723064,25.73622290474857,-11.069465461438755,12.315652949790135,-1.2448441866948976,-14.708259411200704,-9.89490026034837
-3.1485401676283193,-0.20058827320789518,26.2757053262605,-10.333252662414017,12.920480917233576,0.4673071218923935,-13.500764123501753,-6.791966090286622
-2.7599878319664457,10.608909727674176,43.23897216635109,-7.8734508664385405,22.21215471678513,4.113640359172406,-9.133833531232682,-3.22846380173907
-4.35619770601118,15.165724818011803,53.04773000530852,-8.75592242237859,26.671082464525348,5.930330267246232,-7.064077852035103,-2.132782748417215
-10.762752784143512,-1.0978226432879739,33.462677060413625,-17.071568606472272,13.813133090946653,2.7792256817423735,-11.981446934328766,-5.544523152256028
-22.199422014946027,-43.123487012463066,-24.860622378863663,-33.280414642252985,-21.122374014119988,-6.073997104217568,-25.092319118411442,-13.418858793093007
-35.071159248073776,-100.01368934352467,-108.87018026025754,-52.41126243990132,-69.82648976611833,-17.74241381599191,-42.16317618033281,-22.888832339492556
-42.493435542671556,-144.6978996483088,-181.16884231612227,-64.6596666178986,-110.18787979440609,-25.973132093141515,-53.80768412943595,-28.723269258163675
-37.10039038202273,-143.01994253933958,-191.4292208644439,-59.25719427065857,-113.3555659251271,-23.491348132448067,-49.02975190400521,-25.402624677098366
-15.091717095140115,-70.38410698042246,-99.93223150161008,-30.2399824289282,-57.48591548645191,-5.727757858046781,-20.943508128009885,-10.074669069275902
20.887511199369175,72.71663955633002,98.39595387161495,19.26698088840125,58.800659136279165,26.136439238521078,28.544458588421747,15.36375688754892
62.12574825510718,256.6028821995763,365.0300891103627,77.31401870894554,212.07612595836204,64.89407839561932,88.32916987552068,44.584301795845946
97.57533021721157,433.8161422556233,631.7968926092309,128.236111331683,362.8613819961048,100.28562467882281,142.70223209756645,69.58968618270717
118.83387679552546,560.225226721108,831.0639182304174,159.74159352583976,473.1515341241389,123.61322615094801,178.4369722195085,84.35531832058814
123.51847940316136,613.8442777435383,925.0626572945168,167.90657846742934,522.7661477089632,131.36493279462547,190.3021391071839,87.2507114619501
115.32183422166703,601.2022967372345,918.2560118625618,157.51623888159813,515.621544290825,125.947279398792,182.10815077549557,81.01813000079709
101.18308946794966,549.2723795069177,847.8770743952059,138.21890995290218,473.6658630767634,113.50407482016847,163.30647692587488,70.6743240677206
87.61681759969852,489.54437674833684,760.9651048312599,119.32321181739131,423.6133537696185,100.48098977485773,143.72774999234483,60.85868541066346
78.29583203716432,444.0765761511514,692.4714644506762,106.24966920550467,384.7883704307314,90.9805077576464,129.58357332471678,54.13989907496242
73.69881482908941,419.9197119965128,655.1337232838855,99.8848291940751,363.8482167784207,85.9865940470024,122.3366214571151,50.818985559788494
72.2099270978697,411.8679431750743,642.3937480914814,98.05028761901764,356.75189573250395,84.17521617986283,119.96034194899435,49.7389025778864
71.54410849642865,409.22907620255944,638.4477839312146,97.51277973831607,354.48067669460636,83.31796432848276,119.0644916209584,49.28247415123764
69.78632358512208,402.2804442471484,628.5467916287055,95.50163765928339,348.7127291360059,81.47163865024463,116.67960351543304,48.077825910412685
65.91955094717268,386.2834318876151,605.6716066455341,90.51724910026772,335.43550101434175,77.66095165951111,111.2801692593942,45.354890805870696
59.92545889010305,362.53925875393173,572.3824172389164,82.5171098486306,315.9259922297517,72.0370990192687,103.03001174755967,41.02458202991792
52.51633793860016,336.5027381181067,537.7392770809205,72.5406790056664,295.07520311454533,65.54154003973463,93.29520982523542,35.51904662829382
44.65720366878306,313.7607136496537,510.5136429651998,61.99278997076482,277.74774095842923,59.236057042409286,83.66993205498225,29.502136442922335
37.20939782115421,296.058152843472,492.2201625957026,52.07719117383481,265.1077587125415,53.693048102663774,75.10285513120652,23.673488621184145
30.9181972838938,279.9797238826769,474.5683369493302,43.74179628497057,253.328835783285,48.841673652172936,67.68849641014101,18.78690598549419
26.555486031697985,259.18996137816026,443.51362881269955,37.90810043441313,235.69767587089012,44.28979875986482,61.10851652282339,15.700031305339754
