FZ,C3,CZ,C4,PZ,PO7,OZ,PO8
-2.0157229730667723,32.15149150785566,28.683366428760547,-2.595374533601034,17.956505616517337,6.1542818305143046,6.642085108070995,-2.507028662030514
-16.461046229810286,53.100795007972714,18.34463006188823,-22.048334120685887,20.86180350038533,6.728937449035708,3.5010301475040415,-9.35690150994048
-27.963972161091878,68.61756234157275,9.690896597108022,-37.27135687987145,23.137191318730228,7.404680338758445,1.367207926101436,-14.5943874848109
-34.836424102772526,74.9937459967426,3.44884716787579,-45.86032743546261,24.10772698090175,7.95725436740003,0.5543815490685858,-17.463910379248997
-37.157319050646485,71.03622801897708,-1.03913400679119,-47.95640465228126,23.07991271080976,7.774139647311929,0.4612827021470055,-18.36421677096267
-36.28716829549907,58.059757676264255,-5.261346095336799,-45.55723952161751,19.640270237061575,6.207091177887664,0.02197618517929803,-18.416403240446513
-33.842781782337184,40.00932667643259,-9.980721420870621,-41.122371902080836,14.359682232215292,3.22881064224837,-1.4088725854713946,-18.665911162457704
-30.906065129409317,23.72678263702808,-13.713214279839494,-36.53499206258136,9.440598716907212,-0.06881784353346262,-3.3670782441657092,-19.50670075447671
-27.95078491270449,18.04657220817848,-12.781412074368367,-32.96523408027545,8.429633743073788,-1.6698658117874234,-4.382527301116396,-20.68529217378181
-25.31795279499688,30.66379659259762,-3.5049119663282884,-31.303668490069434,14.605513091512252,0.3728122952752018,-2.913397629923966,-21.76026049090724
-23.632715533688188,63.8283218375751,14.795049301580855,-32.413433195287794,28.832766805125303,6.705741550728159,1.5248893733478455,-22.570748514434335
-23.703918358493443,111.78870946566128,38.315458534657,-36.810690511654975,48.429027515007476,16.064608067751376,7.869699354620757,-23.34693491364792
-25.99304204223913,162.371313878211,60.1918943547594,-44.083474867218115,68.07481280753201,25.76755790756214,14.024267881330966,-24.449439307019784
-30.14951642103291,202.30162800778524,74.01305891951975,-52.69133379607365,82.3478414014483,33.02760627181852,18.00335296992066,-26.019548365262054
-35.04179380463274,223.1796655860579,77.07622086980894,-60.48058797724882,88.29689238368307,36.261616946466226,18.93592212147753,-27.836419202492333
-39.29217970467176,224.5945381262961,71.31853353933052,-65.64478847580894,86.50044751726851,35.641471070876555,17.332878225341645,-29.460500332240855
-41.94232149401403,212.9060884248654,61.6095700837447,-67.50525489164787,80.17139204211757,32.68638805031827,14.58036388079669,-30.51282253294454
-42.82231494782301,197.03807871798327,52.85479050831782,-66.64178038293541,73.14755772622058,29.292519511796463,12.10030108798615,-30.874265063847698
-42.45400367104931,184.1449668423577,47.84041652640425,-64.38503965578714,68.11571993381865,26.83760462037414,10.719169064968932,-30.696650914435033
-41.644742246864375,177.38807965953725,46.7941932657074,-62.080236125930725,65.92631792857759,25.793497023227197,10.51604089712051,-30.272401743281623
-41.07304046636817,176.1860492446455,48.26484864921354,-60.56648974785025,65.9467733192167,25.865864147756913,11.057873209837654,-29.881011580789295
-41.07234344947315,177.85367249442044,50.31230944837694,-60.04775702032325,66.85895003016479,26.395731333619242,11.756255628515955,-29.69347209862832
-41.62843642266693,179.37915645623448,51.366634466238956,-60.249926571428716,67.3896380173616,26.747983330484153,12.146799914541909,-29.744901109620752
-42.49790187691155,178.7111148211694,50.69909143974606,-60.679244194104406,66.79482890903155,26.557016650887125,12.0344934756793,-29.955610350317045
-43.366801510066466,175.38713853393332,48.57477603131648,-60.87451153471403,65.06423374242101,25.808623334376765,11.511290180927325,-30.18907928262989
-44.005971155729235,170.40350004779478,45.987331499327105,-60.60462698810202,62.78556838642922,24.764398130489056,10.851619054938967,-30.33259561260747
-44.37271500419847,165.3710541012739,43.97895305086992,-59.946407688180315,60.697268748185714,23.765725281297396,10.325583284784134,-30.360710059711664
-44.60129244480917,161.442560419812,42.95715784542419,-59.188068196348006,59.201851848733156,23.025200485792194,10.039642751540498,-30.33647900550624
-44.88290554156511,158.75030581909863,42.55237422970679,-58.61196409957176,58.19751491933584,22.539374607524614,9.91532914310022,-30.349848638235258
-45.32614345549695,156.681071134981,42.09029999622229,-58.31787324652636,57.31316616427113,22.164492311770644,9.803483530298703,-30.447324737987316
-45.90511485088606,154.5652351771606,41.166192587470036,-58.21078606047258,56.26278573223338,21.759366483359422,9.613681554620438,-30.60896017454213
-46.513662285657354,152.09339266263476,39.808516720933845,-58.11736817380783,54.991002075091764,21.264708586940515,9.349823762216218,-30.77553020485092
-47.04969015301888,149.25662034277295,38.273084130878075,-57.89556599656602,53.587557628568355,20.687768400974655,9.06245485390802,-30.886075960334338
-47.45947150964001,146.1726377733101,36.87367707098092,-57.469604019217634,52.191569078701896,20.064150239369262,8.803733391542078,-30.900600799927975
-47.7500552932294,143.10454275466822,35.99023906153078,-56.844931145978585,50.993821350573135,19.453021967697058,8.620413437661355,-30.82069889521115
-48.008589407975656,140.48824389875048,35.963426975108916,-56.15593037027987,50.194613273023116,18.933127860004415,8.53795677778682,-30.717991150817316
-48.40890578788658,138.6431148206868,36.68810579688375,-55.680228046417604,49.794955082791404,18.5472408317251,8.50605653484993,-30.736984637812863
-49.137594113674325,137.30891436398554,37.278736560968504,-55.70769723646768,49.39669812992717,18.227829407801813,8.36992693899709,-31.026236447480468
-50.23488111488966,135.57799960687376,36.39007504021786,-56.28895622060874,48.33219577818751,17.803150554014035,7.953691020182276,-31.61230563519156
-51.46823889818046,132.5053099134727,33.20695675174753,-57.06556639626087,46.162138029819175,17.120002617695278,7.229103695478367,-32.3098876835597
-52.38470170223142,127.94631806196266,28.358204215778677,-57.37706980382694,43.16059694091516,16.18925348500046,6.420519977019134,-32.76507988656823
-52.56213968080794,122.8810843992816,23.948994960163624,-56.629801671046266,40.3487041902801,15.222113380016422,5.923189645161264,-32.6399122129928
-51.917505444179156,118.96711121276401,22.596854524236466,-54.71157308497259,39.00807739439364,14.52462156432101,6.068601069227952,-31.84513362813923
-50.88165080106388,117.69473639078416,26.011275453073285,-52.21871090805995,39.97270412843851,14.331285250426129,6.888254061872809,-30.693833734149848
-50.32621492342296,119.59538873507508,33.732107312498314,-50.37009304569201,43.02970362895561,14.665948172844264,8.005166967114874,-29.877916774501664
-51.226495615135605,123.64110799891269,42.46709411185894,-50.56784421104442,46.620484080585264,15.258800773148469,8.698793788866281,-30.218362107663793
-54.12030685251505,126.95820946837952,46.54398681710735,-53.63564253564887,48.04242578343385,15.54371990133325,8.155220652610076,-32.21036827618158
-58.53688982253951,125.33279337734511,40.02228511899558,-58.96105418482127,44.40664270267202,14.81217628759664,5.895830035549257,-35.512590401535306
-62.730034639448824,114.93160147264074,20.21337043063265,-64.05870267020514,34.280203392827424,12.570079779038943,2.256993007893648,-38.67839962837652
-64.08605956255003,94.68950152530941,-9.19155716863681,-65.13547244464205,19.190770525155585,8.961050204793994,-1.3967334479849394,-39.44489629224028
-60.28740948005382,67.68786875162345,-38.05469659081489,-58.77731723502818,3.6967645530041784,4.937828507772518,-3.0656427638561774,-35.651606240314976
-50.755416992150415,39.988234395043506,-54.160280664320034,-44.04314087686886,-6.675575280525776,1.9262360748219554,-1.1252016014798558,-26.431993293710704
-37.47120807284298,17.201306705552422,-50.218876959837424,-23.665562867958457,-8.749944614001656,1.0724099653845063,4.558405274363329,-13.003910487519269
-24.428230290849566,1.181526911090049,-28.970766209550984,-3.3174886176994463,-4.025857158520864,2.528955159548934,12.192269476927896,1.5200842086755266
-15.775379043820157,-10.438264128799092,-2.2030287325767635,10.963327658498558,2.0087450267565745,5.275466467836577,18.757553335074533,13.339685377139105
-13.687152721688747,-21.381960764554815,16.440909575084838,15.77102478899628,3.4879038039935453,7.596998044438928,21.499901956766397,19.56264917461705
-17.367162262659857,-33.11999368344792,19.888586214619345,11.826981627315977,-1.9177245176637416,7.86042980591673,19.20458141811047,19.27277084575754
-23.885785197655057,-43.98123133232562,10.78554541889374,2.981306346145143,-11.967355952275186,5.078768642884783,12.394926065180334,13.526553892531675
-30.187072890687535,-51.81908509215734,-2.9220470585080434,-6.4447022289577385,-22.498255922662388,-0.9309652132753063,2.5210538904692785,4.5094525755560175
-34.72259511589538,-57.31880904877111,-15.620193731899086,-13.930962674260272,-31.208451697352277,-9.584865566549738,-8.943269492326078,-5.408062283968653
-37.615101798819445,-64.21204867057808,-27.9319342467387,-19.144792444853252,-39.06956310417869,-19.5320462680802,-20.687334269586255,-14.166927707283254
-39.602421290977595,-75.85285686092286,-44.01543187629078,-22.70543441529898,-48.34160803887752,-28.730359528364687,-31.161169420162302,-20.134785569483707
-40.955809899783645,-91.45005692722674,-65.76710636406888,-24.84377771194569,-59.47016724371507,-34.91411954142164,-38.41237207483211,-22.247501945565187
-41.29450429908981,-105.68605585348834,-89.71534611544918,-25.13055537897704,-69.93554508949971,-36.48261887004948,-40.69362334694242,-20.337595497771407
-40.19818095491918,-112.20329425628762,-108.98661504654496,-23.14660484708121,-75.93023041776503,-33.33170747892714,-37.467257662666206,-15.359918480477619
-37.84185830085832,-107.98572635038512,-117.89109911024623,-19.1542986478896,-75.1126842925149,-27.00468501551451,-29.931284170657705,-9.138413522165353
-35.061112208538816,-95.22876454633355,-115.10878922952526,-14.118228502150947,-68.10560304994718,-19.969571187425267,-20.571147410027972,-3.630292110766765
-32.88715786130174,-79.72961721045127,-103.61675227223513,-9.20030761353772,-57.88978560295962,-14.45759334833548,-12.038134604336243,-0.12517484388878047
-31.98671707581237,-67.44394169645958,-88.34773415710275,-5.243467453575531,-47.953256531809764,-11.5619655327949,-6.090929438664421,1.1442041971864707
-32.36888238460169,-61.50856456226115,-73.5563499938483,-2.5696789473210515,-40.548462477923344,-11.015839666807263,-3.1283714416243726,0.8180623852348409
-33.44463750334147,-60.96874155834198,-61.13172095415942,-1.0752249682487665,-35.832460366164774,-11.5705175236641,-2.3462691411669216,-0.13326127210073208
-34.34952250775698,-61.326720034684016,-50.223508127603694,-0.4676672703754834,-32.01544349478762,-11.63289282159327,-2.2641013258056204,-0.9464852821642765
-34.3984391795152,-56.74553921391468,-38.30058483828186,-0.5153433835926922,-26.437250393212096,-9.91471702865291,-1.4071878426745867,-1.3403385128105467
-33.50392971629751,-43.62850785131473,-23.529489901596776,-1.1896391501929877,-17.38035502380212,-6.022865600850151,0.9716774255205008,-1.477864029488238
-32.33174143297714,-24.40418342790081,-7.504565434120381,-2.574762966547915,-5.961806920487711,-0.8890902162015263,4.33103168826003,-1.7174362248995678
-32.02065716988939,-9.12128303119473,3.5698394360339774,-4.536071006208366,3.111859064767218,3.2418859047411,6.796555256802515,-2.3115399165135826
-33.53654352680312,-12.579375269626421,0.8677287647776426,-6.37349158795667,2.98828036963045,3.5401151552367636,5.896880074079061,-3.2047483355887247
-37.0231335402258,-47.122924589835556,-22.214088397814876,-6.822520897109648,-11.86091857726309,-2.073245375874361,-0.11191756476879915,-4.02942720268824
-41.59195777479231,-114.56804472464502,-65.03215936555527,-4.597673992561685,-41.905566359844286,-13.606459535099615,-11.02884418284305,-4.301530118267987
-45.73924414978595,-202.27391323350037,-117.95088690455411,0.7374198162359953,-80.9436143350715,-28.50846413565727,-24.383714891260272,-3.705262120484914
-48.149668564494874,-286.48662620567734,-165.58794170370976,8.13467674920802,-117.9491757997367,-42.44409982875253,-36.31196995772764,-2.28952925796227
-48.368195972706886,-341.82905018974594,-193.5715214212389,15.199226925109006,-141.62496461209818,-51.039122689094526,-43.20169801504075,-0.44130338313741174
-46.91118268338556,-352.0901952124292,-194.99686988485055,19.19676441122747,-145.22909090405642,-51.72168152485798,-43.223605828134595,1.3553225731729568
-44.78267430155865,-316.73925915863936,-172.98377368784426,18.435839029749218,-129.1424115601961,-44.733087084377786,-36.96611794732675,2.8115629923411785
-42.760126596035896,-250.13522611299356,-138.24801170842832,13.213903582375641,-100.06617312197301,-32.854567404960676,-26.95624477748989,3.9716097661265524
-40.920212954547075,-174.38986588549798,-103.5117729596593,5.741057915057416,-67.61488012357604,-20.07045173331488,-16.440969755808553,5.105895315026321
-38.64766598268221,-109.86289887817144,-77.98381707113941,-0.9135888778570157,-40.230253629210004,-9.87250153564193,-8.08654551255412,6.459058668869377
-35.031497628828184,-67.92712999598523,-64.52980865519703,-4.22473211088684,-22.34183718225749,-4.001371611973003,-3.1643933552287575,8.050933408714442
-29.356025544033056,-48.979197107692706,-60.34711497408425,-3.1925673531737386,-13.81452317372896,-2.1387063114368092,-1.4792149171827118,9.660910099720098
-21.412138066703577,-45.69829270448842,-60.09698949160051,1.5324500089677981,-11.49028653425593,-2.559261651634651,-1.9226407604562163,10.972299155977405
-11.507083775346366,-48.82578334196044,-59.375578510409134,8.28582600015441,-11.619292973043269,-3.269175065916459,-3.250814686599796,11.752762669265724
-0.23478138892886805,-51.84798109835132,-56.59430468015021,15.304971473340856,-11.720417711440186,-2.9701421752501447,-4.63826943552358,11.956317084457407
11.806276950909272,-52.44426935267792,-52.64816790003249,21.40570615034283,-11.071739277462644,-1.4142219520876684,-5.791151363103358,11.712120494599839
24.168672045447476,-51.13158089024544,-49.242446718200426,26.17616223798703,-10.075248150658956,0.8456841011210362,-6.723075469376179,11.249614745965252
36.54039073072333,-49.10247420669461,-47.33102380330318,29.795767565512133,-9.332327457242366,2.9927650346569323,-7.451243038835789,10.844206693806163
48.649315960327534,-46.920472491804055,-46.56738804954443,32.74793117125586,-9.087996668548195,4.430881975900643,-7.807056550304601,10.82208267763794
60.196227622481,-44.44912541071788,-45.74935083205836,35.60328101019039,-9.17968127974006,5.022945974887488,-7.433553313801633,11.569461572352377
70.8439802095542,-41.53194787346792,-43.743460210980295,38.88020934446606,-9.310559482508106,5.027994316552097,-5.975797696769731,13.450383089229081
80.23701300895999,-38.79933085217215,-40.34136918466345,42.93243877453849,-9.422093393441113,4.7940607339198005,-3.397762739907475,16.617168316105648
88.04927961129826,-37.97951595439919,-36.54843062162432,47.86430049324756,-9.907531420917662,4.406182515169895,-0.2213037106299391,20.83319038808541
94.07638638850078,-41.08599193286549,-33.92178169542493,53.49233486185555,-11.37038555400289,3.5835934141336825,2.5837721106749614,25.465537243895838
98.32686402545164,-48.412443828517056,-33.10021593348109,59.31380969522438,-13.870066537507892,1.98546376113399,4.131165808193873,29.681893941717565
101.00066944368656,-56.5135206441834,-32.50419504875315,64.43291918948432,-16.143904845861094,-0.275857191084564,4.254574659966414,32.71973793588481
102.30264582999379,-58.17332455120634,-28.505811624436813,67.5232270651909,-15.632110402731229,-2.383708630864546,3.7277076762744006,34.06176370997603
102.21606645054186,-45.45169656812999,-17.489758803595986,67.04028172700728,-9.70744472692659,-3.1501840406193606,3.805452334448801,33.47594230004696
100.46975110844735,-14.50614210512039,1.372616908293799,61.812224630379504,2.499957185452657,-1.7669826292073443,5.369751722507533,31.009080548242057
96.8117723524614,30.991172209145763,24.71394192170259,51.805604938110285,18.997279951810498,1.5789497172102818,8.30616389908828,27.014020990856277
91.42652202664979,80.53207920827128,46.23420203991216,38.56830878513857,35.521015480863326,5.706477293858881,11.567916337008603,22.172732423942893
85.15505696875273,121.53802382892266,60.006475618843055,24.913438012628617,47.61033868674806,9.079171297019425,13.859192138538305,17.40302553552858
79.2842309468019,145.35838459071184,63.64004608846797,13.858700968580155,52.84694821517924,10.640597860561623,14.425525152125397,13.599865096685905
74.99072987041404,150.83297208485723,59.20375280834426,7.3617160537523265,51.822194984655354,10.291161575283574,13.409896147710334,11.310103545225273
72.8033520291931,143.54029397720143,51.482464511326725,5.583959301792881,47.33645841149415,8.749025765757326,11.606555479985284,10.534697734750441
72.44729108545273,131.82748657321116,45.0518291813293,7.096106869439721,42.58874298317601,6.994308005322513,9.897087276898171,10.796846469530337
73.14561161399138,122.57454554914071,42.2610249288187,9.819392381671166,39.67172976770322,5.743045764106423,8.816128230875037,11.435998796947544
74.11318744194584,119.0896050646904,43.11337381301541,12.052676772440519,39.16545021772042,5.258527891536469,8.47344990570122,11.930849051551185
74.8790069046318,121.40353140755263,46.389851877441856,13.002906027161798,40.61768179561781,5.463211788398147,8.716654865077267,12.057154352151715
75.28276786878284,127.61896332187781,50.71403650604131,12.705809775982617,43.17504005074025,6.114095478203446,9.291710867398946,11.839987787741535
75.28597825752867,135.06287539663762,54.93519336056686,11.64122694225123,45.91649868244909,6.893211426411289,9.903503755815064,11.412409075459006
74.8387971519073,141.04881064653713,58.13872707626525,10.38687382961061,47.988641641780475,7.456833434899873,10.254075177834768,10.90991418521802
73.9096522560738,143.5972715732873,59.73536238598348,9.421182166015809,48.78316721499529,7.531064533408294,10.131236723982182,10.436191030952072
72.60841256540847,142.10531384570663,59.60400050653309,9.01561636660229,48.136865748279725,7.029988537489496,9.49986486081484,10.06028996355216
71.28253594178452,137.5752215458049,58.06099706783515,9.188519109128208,46.38079089872078,6.101887374817569,8.515260146616049,9.81633216352666
70.50788341110011,132.27753425163465,55.75935166360203,9.760408195913186,44.240852287133116,5.080139349467644,7.471694930526107,9.715276309960554
70.9207459766547,129.16032205588576,53.80937714042348,10.487669872464501,42.750208353940934,4.402146870102985,6.755481733781816,9.766535804239991
72.85616998658796,131.15825068165518,53.96329771251477,11.147318897583169,43.14565886044441,4.517834373979108,6.787149029028639,9.968373442596118
75.8784386306972,140.0540615068363,58.186019584514035,11.4984493472148,46.44620795453653,5.712505303905523,7.846356095916162,10.244314311646539
78.49718172682444,154.73417333320157,67.28038036958532,11.237181537283659,52.589966795760695,7.81678760646485,9.768802173486048,10.386008794347095
78.43534739693148,169.7963105856464,79.37438654197297,10.134660514331802,59.6383945944894,9.987216768133223,11.736836783156877,10.10744605186998
73.55329018358357,176.25737378846327,89.77368136394807,8.350034193577294,63.939164747272635,10.86349403818201,12.468936439220661,9.236063635363209
63.04356883333603,165.19069257989514,92.9440789247939,6.636859754232979,61.65305457488078,9.211580925592267,10.866568346712292,7.921362591948114
48.18236999562015,132.81060586668283,85.69997526199066,6.146090129513208,50.96423363859438,4.7489382415267665,6.773814817781073,6.6812677451847335
32.07841091901826,83.80952677166775,69.53060851555252,7.840101008334498,33.560380333600826,-1.4080008100373704,1.3157075513693433,6.2046162615360245
18.444129968207598,30.35391319943238,50.39348903453662,11.882905027344883,14.276524429355254,-7.0670425579708445,-3.499735499743352,7.005029379754599
10.025394742687523,-13.174487142302798,35.9229206116954,17.435740532732115,-1.0513664932225457,-9.953799288447302,-5.752756492251627,9.133981221298203
7.535992935580469,-36.790068469778014,31.665924315918275,23.01648552567414,-8.315755289269807,-8.817665297529588,-4.599006001784492,12.13158042874489
9.616049319014705,-39.04678715877729,38.554473343187475,27.20026473423448,-6.8749454927297515,-4.001698981259081,-0.6817968083311023,15.248194116367323
13.711681449983187,-26.520667782321866,52.9632816051497,29.22531277632632,0.6059632048832597,2.826835826194614,4.259085486806998,17.80211188744507
17.287305553498392,-9.44582297337745,68.99683117078368,29.16359283970644,9.883487262660797,9.550595002054285,8.29829701430131,19.457887108874168
18.728763116280717,3.4743875424614745,81.36420410892003,27.639374369039984,17.213008804632846,14.50849228612064,10.182307320860051,20.2754948032192
17.62702925202513,8.168432919118727,87.23990875038713,25.374408063795137,20.618871126813577,16.957101949993568,9.691269827746732,20.541208326109665
14.535663938758013,5.289381598611355,86.58376468838831,22.87567632040018,20.013864934310764,17.003039107897184,7.456386563038919,20.519420237591252
10.489792291954481,-1.644560425348466,81.3894882459356,20.375551781490316,16.584327655652505,15.248437423862427,4.489368265822956,20.275826275072532
6.533287451878534,-8.490016862716063,74.53620634465413,17.921447883950822,12.009708909811188,12.4284108531798,1.7132678766106813,19.646983721810077
3.3853453078373734,-12.205201614005173,68.62886985018457,15.482288415177553,7.80562026965979,9.169605365790355,-0.346794644041686,18.352811611672063
1.3069623184802348,-11.821045033873546,65.08038227006399,13.038320880252487,4.8728598096358935,5.8879755696248415,-1.6571361968017153,16.20037737732104
0.1771008204374365,-8.502192602656935,63.77622876570703,10.668292122037993,3.3551539833920367,2.8280824590359663,-2.540361940118072,13.287453303985943
-0.2953996314259081,-4.612045078120707,63.51708105491652,8.593832474152418,2.881656143025363,0.21442192013446512,-3.3730520599569673,10.085540386432536
-0.3687862233565695,-2.2288246162144527,62.92555033310454,7.1120366611220485,3.0288417195993658,-1.605160386162448,-4.288727035407973,7.317220302788631
-0.18630889301424214,-2.0767657486818814,61.15139791036176,6.436478037732166,3.634801795627354,-2.1744073197908436,-5.07922166687465,5.6633591906509775
0.19494088848788288,-3.5416447157204427,57.991868746860014,6.577599672069127,4.752736150570076,-1.1264332185997814,-5.344173264474597,5.46168993962302
0.7572041090921633,-5.464429829345992,53.66582666826271,7.3668122607867295,6.414494619564699,1.5896545855816038,-4.749532489359309,6.571330040330397
1.5096051166542928,-6.815595195448931,48.69795535362671,8.575960518195767,8.531633425040035,5.636409071484446,-3.21020092711893,8.458360803749445
2.4723348176466295,-6.797306478793908,43.9700358316898,9.991545251172111,11.006897867639562,10.394866533673634,-0.9329688414841216,10.417869312448428
3.6142956522692735,-4.76178601831427,40.58845890210877,11.389788816167423,13.81789986747546,15.1215506780509,1.6249844756543652,11.807795882572886
4.789468895995692,-0.4731497145976057,39.39738771386102,12.509810860811038,16.889372925546347,19.05809968183529,3.8449252829488976,12.227772557293363
5.76582438823308,5.433891702879109,40.49669331319587,13.133985183137408,19.90562471097836,21.543392370404067,5.123516016062663,11.631293696455737
6.356682890110084,11.449916677690057,43.25590245167809,13.233395702234336,22.355621112504743,22.21330789120006,5.145750320044531,10.350115799859852
6.535739081692476,15.911847039989748,46.82723067817845,13.015396128802454,23.84067407514613,21.224371838497188,4.115559210889753,8.985202045098012
6.40805287612814,17.94792957344341,50.662080510362316,12.779591777857101,24.352884744925586,19.30005653703209,2.7426339053882898,8.158900676815906
6.0462398149501855,17.956995627845824,54.629891216958896,12.669574137430725,24.26882473822047,17.478885197319585,1.9348710874908932,8.218994134148152
5.332951290704657,17.44593067824976,58.81563229719829,12.494616254792437,24.11731995701505,16.677335257273878,2.375765551163136,9.041753457882741
3.939611625731343,18.460457819266253,63.25363508629048,11.72278559585655,24.32968911147072,17.309997381132327,4.228571188816503,10.037301683778729
1.453850455997756,22.669523259242315,67.58535539691421,9.644346011536188,25.00251795755721,19.114335862964108,7.059218180233816,10.359946833286795
-2.417568030578932,29.97226847670574,70.49131153723397,5.680652038496345,25.550127940487872,21.163848237099394,9.913235147233529,9.24838587187572
-7.643454416703335,37.030737592612425,69.17447711406311,-0.20075660638857531,24.34458228210471,22.026427079504053,11.494367787556262,6.384105511097693
-13.718404763254242,37.01934920839457,59.69097666402948,-7.119354938416336,18.816633731911804,20.112748334358205,10.493399730203079,2.131051513147667
-19.651523946581026,21.82979629558384,38.65922935584151,-13.255645076333373,6.438450064047712,14.255104774724286,6.091393101992317,-2.4843603330490382
-24.184094441573567,-13.62509555998842,5.729847828927427,-16.393207326508243,-13.663101764042118,4.36034572089131,-1.5336524641578355,-6.116183064279071
-26.230367962344793,-67.38716567907267,-34.83863554829401,-14.90813818206616,-39.459137565276215,-8.236987778439186,-11.02962704051831,-7.657165297146882
-25.365780277010842,-129.62949381925574,-74.97320149647656,-8.690927691601354,-66.18835893142396,-21.06303462165122,-20.260345080337352,-6.743232233281289
-22.087285721067456,-186.2142151431353,-105.95844958702108,0.5987468133027294,-88.16205550986228,-31.42762455920307,-27.159887817988263,-3.922947806590538
-17.653135926598715,-224.9236953629823,-122.30668374249493,10.18951058630802,-101.28636335072096,-37.54190510932383,-30.61125848818134,-0.38478672452259116
-13.543715246288365,-240.76441810455668,-124.02439902293098,17.446034763889482,-104.81243711395085,-39.209776541865395,-30.845891556705993,2.6113026660671297
-10.822432072873674,-237.29676277043168,-115.95442863880565,21.002614755935458,-101.28859412569484,-37.70902600088359,-29.1455915910167,4.2835530993653155
-9.751469365982764,-223.58137085570803,-104.79736141228786,21.154662732408724,-94.87901129641612,-34.985688018827844,-27.073678968411603,4.570088020773409
-9.858894696807777,-209.09100222752446,-95.84301066265037,19.370738702632252,-89.23584002440202,-32.69606592570028,-25.737620122339024,3.9756810715014135
-10.35669325393039,-199.7715905776565,-91.28745845830935,17.341211427314093,-86.19106604730187,-31.64016708905086,-25.482707475275703,3.1792047966585115
-10.59869488702343,-196.96325983777083,-90.55390569159648,16.188694593723067,-85.71488675678414,-31.767314340857737,-26.04903748264186,2.6710456475518414
-10.30931509225531,-198.67667495708736,-91.67129128149763,16.210840868247224,-86.68137208724224,-32.54053306789574,-26.929160278370276,2.60626057582626
-9.543822497609886,-201.65086228565806,-92.57205351190832,17.087037088429742,-87.73019628417853,-33.334475836121804,-27.66146161462223,2.874080525518943
-8.526597739669384,-203.06956793319787,-91.87753914813506,18.246677795578883,-87.8673207933509,-33.69926800578198,-27.98210868192767,3.26101629085611
-7.509281343205172,-201.64389675823455,-89.28568250643802,19.176487370090587,-86.79777193607363,-33.49162995147827,-27.880966983368793,3.592995607112243
-6.676990886899117,-197.98088498252702,-85.58603703330019,19.617915068418505,-84.9809608431127,-32.89062047613666,-27.575469476118222,3.8124965927227916
-6.079260065166336,-194.01992443553686,-82.13604484441016,19.650389525448634,-83.30517696885079,-32.270978107728055,-27.372347233698726,3.984856551005803
-5.608962594204481,-191.6376823676445,-79.92788688759111,19.611034108640844,-82.45895528266115,-31.959978457096838,-27.458636566833842,4.229801598855904
-5.078460046884524,-191.25874698796773,-78.88083652791146,19.845590813758754,-82.40842948597614,-32.02489590635509,-27.769739520359302,4.599816688689354
-4.366944821593064,-191.53265162750583,-77.95664902392255,20.437582432831462,-82.40976778946818,-32.25169949514694,-28.052906967268463,4.985552486090082
-3.520558323749542,-190.34741340321196,-75.99349359852768,21.133040483734742,-81.5616440179176,-32.32105483014831,-28.07412121119577,5.146363292993149
-2.7111394858928866,-186.37524950594522,-72.54430555471936,21.534645758413347,-79.46202066327473,-32.02561268044653,-27.792108565902257,4.88408534225406
-2.0917467338628337,-180.07600417328766,-68.14815873889654,21.410639447788295,-76.52804292493512,-31.379603516004316,-27.38165091538195,4.252669380840397
-1.677512395199581,-173.70592402088357,-64.06918532886317,20.888978442149966,-73.87734326505677,-30.60857889734191,-27.138330800375666,3.6416539150382405
-1.332871373963898,-170.49262854350323,-61.81264332615413,20.434544276698716,-72.89804585614456,-30.082194685124893,-27.351795265015436,3.639063624389868
-0.8394775911343335,-173.1710487185037,-62.48095137563279,20.655187269558112,-74.58489422351964,-30.192984165263585,-28.16760603002817,4.708000054950198
0.010448642118052534,-182.03212791855677,-65.89225071940857,22.003921445274518,-78.7081234411262,-31.132237830713454,-29.42283655714109,6.811227611009043
1.2979373274106825,-193.1913642317068,-69.81386346419792,24.418799129157083,-83.17314213120598,-32.61385489936701,-30.532041176313395,9.161091857256357
2.8283856612313385,-198.52382859456722,-70.16370438028268,27.02221864341419,-84.22288108050743,-33.760398812302014,-30.591314669749757,10.270054747513763
4.026954673149164,-188.39372123253665,-62.70708165219372,28.139267122593857,-77.86387332320975,-33.35743775855752,-28.76956361719499,8.406729820661145
4.029581361903189,-156.4951589819231,-45.577075687996974,25.85003797436939,-62.011242652533234,-30.427267443932816,-24.7937889513178,2.3787314889607654
2.036790954648915,-104.11303353394835,-20.953179261826204,18.95266650908447,-38.06167924692325,-24.785898813262413,-19.170725608045167,-7.687151497722586
-2.2199550185156043,-40.83817336491033,5.467171627281934,7.815763209361541,-10.726616821626292,-17.211590837781255,-12.932367386817498,-20.032068494697317
-8.203409212720054,19.1687990997395,27.06421688711859,-5.476465804770496,13.953733935914643,-9.119883793760335,-7.059478898556934,-31.72412163044796
-14.717438175526064,63.30608799902689,39.31340960600292,-17.897403627003598,31.247607193474632,-1.982495926230474,-2.0072120816940444,-39.769774760451796
-20.434032155191396,85.40768004173694,41.30901971519275,-26.78589600008333,39.43032357588308,3.138337710166526,2.3209402028394757,-42.33993218083231
-24.480679738294537,86.78019991331733,35.09396191859572,-30.93077521971398,39.70790701875138,5.74212865381335,6.188002591933234,-39.46214009267449
-26.698282917663686,73.6929616467444,23.838794853718117,-30.80527172133813,34.86585229811677,5.845153554344855,9.634823087300152,-32.82120196929497
-27.40633518520239,53.98264971601614,10.68884180798895,-27.902119843851906,27.958403654272846,4.001562212770146,12.508268027008809,-24.825450072764504
-26.894503401190708,35.335463402710886,-0.8463542222192777,-23.737314226609644,21.9613579324904,1.46860618943057,14.927945233431887,-17.50654275368566
-25.08496506180586,25.486581517088375,-5.908389450477267,-19.256409277236802,20.121432923626752,0.2562699537526377,17.74196944969411,-11.859942113165344
-21.65888156471456,32.34933698846686,1.4446162409523078,-14.946434193568921,25.923950383416866,2.697069768948906,22.43108993550566,-7.88633204586068
-16.52832269230551,62.13911086566877,25.88671072114102,-11.31439056370698,41.96900240767739,10.489450136084653,30.33678508880728,-5.1233702431418715
-10.226888641097561,115.79368581239594,67.58462606245065,-9.115652669630242,68.2260175215739,23.66787426848301,41.6709592735019,-3.1992604571707974
-3.856253118956591,186.20915224340388,120.43900160166423,-9.01901449000342,100.98693529342857,40.1776373441055,55.012868918331584,-2.0399627824005613
1.4068306109930564,258.91477928274486,173.41602137576675,-10.966244737373977,133.56798628795914,56.445027647224734,67.70387227563998,-1.6887074881175257
4.8827134106527526,316.68969258015045,214.52393714832706,-13.81796633412658,158.65009195748692,68.7277927614452,76.95023883579753,-1.9860400402439602
6.6160047628809595,345.9950858402994,235.25787188637685,-15.713894710663997,171.03475189832776,74.54869922153794,80.99102764544797,-2.4228703329965247
7.1020007024173974,341.9004775388407,233.16305260787277,-15.049607475618817,169.34563199532775,73.48544272985686,79.68782996125444,-2.3111282466634475
6.746265123608343,309.1443636115738,211.53918295744475,-11.476096581702176,155.9380395845159,67.0042202929578,74.30371948982008,-1.1628924472869488
5.495879374381813,259.2480519815568,177.09005688089317,-6.238019998679085,135.38294545751864,57.57306447651783,66.73426175832763,0.9842621036222364
2.9355737813134715,205.5777146122805,137.20237230720824,-1.5731916930374668,112.56172344177413,47.61026527428526,58.69065844829154,3.5141440747996913
-1.2321009522892492,158.81251957326674,98.11439060164204,0.48300061918925724,91.29176157459946,38.76398410195939,51.21988482909495,5.4846571086409766
-6.698835958418599,124.50825900440312,64.2175120337467,-0.8412030077008409,73.81380288029823,31.719104420790188,44.660882204630646,6.0413240830511725
-12.425544075161708,103.14671092031571,38.05762751507235,-4.7397512949439955,60.950505846601764,26.429314807035684,38.911064414698345,4.786339913214008
-16.97906118340277,91.93862727764702,20.562351905589093,-9.361045674072136,52.55650932449639,22.521777010539264,33.797118328109114,1.9597121411442613
-19.114737431723096,87.12070388206384,11.328285186469598,-12.758915381382854,47.97146077874436,19.640165635589117,29.369827541286043,-1.6053265414866331
-18.25621779830496,85.72406766428743,9.078231706058654,-13.669090707968408,46.39281816682117,17.625664913319415,26.018323283048762,-4.721794862289359
-14.650102672735263,86.46231951301242,12.355646498564226,-11.796617999573815,47.197285730374354,16.56150057840424,24.37117564246119,-6.23499970588491
-9.235275017244991,89.77639108259397,20.11296717502658,-7.729787388433705,50.12061082760973,16.707652829435084,24.98677952987817,-5.483338667314995
-3.423298043936098,96.95563190243105,31.522348718474767,-2.7659502298763585,55.02643870737651,18.276398886966884,27.881204105460142,-2.685339060334859
1.1001400803170198,108.29888372382034,44.76028602555611,1.2707426367981587,61.15412018438331,21.038946636889566,32.07564052244932,0.9702339844665294
2.6424616390700533,121.06584985873381,55.64901149394636,2.406462013531097,66.30709740410649,23.971031148816106,35.503180016021126,3.6962895367522313
-0.029737371134666915,128.86273500771821,57.774759899500346,-0.7808817804392901,66.87190742866402,25.309874690854482,35.56990383923443,3.8662444717404694
-7.112143498862414,123.76531067281914,44.95053409161304,-8.382510214788356,59.190482220231054,23.222135907052383,30.29208163616751,0.8026088383406609
-17.41796563600399,100.59120299310491,14.954581550562501,-18.833221620720124,41.73340667068717,16.814214683631853,19.444727443227208,-4.8517248625125236
-28.614246669827683,60.736040217121285,-27.98475820941124,-29.40752037314772,16.644004003586623,6.847516925854764,4.981902947909754,-11.415850688602164
-38.061925019993836,12.76419069867658,-74.04437263970827,-37.376627185226276,-10.599800527538028,-4.385562417252005,-9.649420137318328,-16.960925610975657
-43.87052801591258,-31.085796116629876,-111.93812170117224,-41.195561153868475,-33.4653598983615,-14.0452732168373,-21.000890291767067,-20.169218943693497
-45.60035282622059,-60.590965673375884,-134.0175424429084,-41.04569221871974,-47.32613437842793,-20.041444899734696,-27.10502125196755,-20.808759048026683
-44.24084669681953,-72.05180091697298,-139.34521480123053,-38.469708597317315,-51.36499013899934,-21.89460472554843,-28.141705945282574,-19.62571239814616
-41.53067367964782,-69.03868424350595,-133.07797181743337,-35.404722179906415,-48.374806481060226,-20.70267986935804,-25.994881405288115,-17.80237462981598
-39.060270312435655,-59.295729902925636,-122.88007099369233,-33.24276566386409,-42.77274679863423,-18.32679034369654,-23.068760963282948,-16.341289564533618
-37.65870482685589,-50.12555527762976,-114.81813772413871,-32.415674282449615,-38.20437308804657,-16.364232874606685,-21.108363376726995,-15.69917047795236
-37.3043618894766,-45.17615017903006,-111.10708818152519,-32.56733988003557,-36.1469279686586,-15.511073519675431,-20.637213976102718,-15.775891310218416
-37.44981718611898,-44.09493325982084,-110.47793728670156,-33.019259819000744,-36.02832023036315,-15.55983385885772,-21.146630641899414,-16.149139942107972
-37.475919571467934,-44.417142273809546,-110.24872740562034,-33.19714618952645,-36.368024370398594,-15.853605015297866,-21.734686284915842,-16.371529171063308
-37.042449214585375,-43.98578144645323,-108.57006858441765,-32.869238032510786,-36.050530934850705,-15.834677632227008,-21.765513621197513,-16.19906511931668
-36.235216520813246,-42.53109949075689,-105.73655890794477,-32.19315912225738,-35.08501170549972,-15.40881635575208,-21.250606900558296,-15.691900459733114
-35.48618197425392,-41.86284277053568,-104.09444087627308,-31.582402305726564,-34.6017487671307,-15.002926017989257,-20.829538570292677,-15.162636864430128
-35.28436811854518,-44.64943756742502,-106.51730440614362,-31.412186416488815,-36.08601977893451,-15.293738734497735,-21.3521403963796,-14.979776949908077
-35.785578793971595,-52.148262598221926,-113.9497936154441,-31.691341342874818,-40.10004865071642,-16.683852285274245,-23.208741535799213,-15.304508109528882
-36.54189311554487,-61.952378323848336,-123.29204063988819,-31.927571644582912,-45.13934540460658,-18.769363227575464,-25.747684506224065,-15.9067225134027
-36.56860299367073,-67.4347601967485,-127.2881265318614,-31.330550585859694,-47.51203707273042,-20.1718699315271,-27.203595982406235,-16.188248137876556
-34.77751569021526,-60.07777874132728,-117.26631436139633,-29.246092594923912,-42.73815417940723,-18.99292055754291,-25.349647462128882,-15.423911033168062
-30.55282624669062,-34.02595599321312,-87.7090105634117,-25.525983430955925,-27.963581974042008,-13.766885135797828,-18.633847858351924,-13.100166894254357
-24.13462608174919,9.738779312680006,-40.04712638761885,-20.597057695562807,-3.992126887980037,-4.399480381604587,-7.179636178829599,-9.182745134728918
-16.591107771539242,62.481274929611,16.84058755770152,-15.232096855859023,24.44356376256996,7.49196864416428,6.965682548835225,-4.193829354714214
-9.404596746893805,111.05884880701241,70.05174003871717,-10.218452287714523,50.52225685311932,19.09144789218925,20.53832798857043,0.9292406951351244
-3.89662986192037,143.7795462860188,108.20945773845744,-6.125758496253914,68.30507616653811,27.504610958000875,30.375731296919263,5.14118129036206
-0.7619151662235837,155.41332372957828,126.0686285173893,-3.231942430158958,75.17381458496588,30.909264176901807,34.67174141762806,7.658873380983554
0.12622028179832068,148.67594226738387,125.8674083193774,-1.5230530314162294,72.50334455804332,29.193404509237183,33.58296853654205,8.27001930033719
-0.37001140389036874,131.905453620388,115.25918107154675,-0.6734847663486899,64.51107297838735,23.869978600843083,28.997524289109208,7.456411673352564
-0.9521192229664102,114.90132685576718,103.51680381668534,-0.05455198624037451,56.226480990361665,17.424292183104136,23.682063792170233,6.234000737528608
-0.3476080029609806,105.3347879354933,97.98627642234482,1.0564145405003131,51.649059516763934,12.417643133113126,20.195929387171894,5.697303913058637
2.126834759350533,106.80361698748307,101.76965480608645,3.0037137054732126,52.57319675646186,10.625350622790798,19.922587680199847,6.421081647755825
6.091361193792203,118.15762106269503,112.72916083966214,5.276301179583222,58.04542538494155,12.40306401917239,22.49738697852015,8.038062745584973
10.036419492700476,133.61906632917749,123.93616084874031,6.483997995040867,64.47719639827406,16.477047624329266,25.87437000730188,9.30925564318901
11.880735308461889,144.09411371436954,125.97807817788114,5.014440957059995,66.7035546009124,20.350232545785502,27.142486654060257,8.744432958447067
9.992634024574867,140.28001743428786,110.96570287992125,0.05450205619045648,60.05527540449043,21.322189589113677,23.86558241862354,5.456025063555548
4.125842909447392,116.93197543666594,76.69820317707614,-7.714235338916034,42.72433175058625,17.746764313392433,15.338376855329242,-0.2692867905836852
-4.321086769722304,76.09301117215114,28.601349254921754,-16.27394979038135,17.096639633798734,9.880617572340093,3.0616646415071935,-7.042031329237826
-12.920901955636136,26.999938810695745,-22.08137140977004,-23.227205917472403,-10.9450940147349,-0.1930393692663332,-9.883011585477885,-13.039656472496416
-19.35799552301157,-17.780979811909322,-63.15944180077098,-26.95601908544688,-34.56210587750219,-9.56338679850078,-20.244154526298157,-16.866033322295955
-22.430003904891553,-47.996378676682404,-86.79390685771217,-27.283835717432346,-48.9779649862226,-15.8559169480565,-26.021397674401,-18.11168621690776
-22.379039567285023,-59.94563103410004,-92.32628255842963,-25.31066040831274,-53.302956931542056,-18.20245970347823,-27.14626436434724,-17.353552528396317
-20.47545345852857,-57.06428420645268,-85.33480977189829,-22.640945104227097,-50.272259414581924,-17.342354540427422,-25.15149140937542,-15.690353069018052
-18.220816593506953,-46.96383174458247,-73.93797407539068,-20.55726811290918,-44.31320155691962,-14.937545198710712,-22.161585091271174,-14.152637787021535
-16.673989050012963,-37.149177806904675,-64.80884757638624,-19.60113507464947,-39.27641106851304,-12.623823968707377,-19.8646519170681,-13.316665129375915
-16.1957468024236,-32.0081186201392,-61.02089158713075,-19.643078484639307,-37.09352176546884,-11.356933828099214,-18.990192086446296,-13.245002355266728
-16.578501655468177,-32.24608042106089,-62.22145377395358,-20.206786288217504,-37.7500524018323,-11.286385071977428,-19.386867174306815,-13.661049306948694
-17.34336410260115,-36.1198687514686,-66.15874648784428,-20.779430257573736,-40.08388478342176,-12.014763153918521,-20.434321651376887,-14.186553643041968
-18.01667284338717,-41.087216405172605,-70.28825867065058,-21.002974607017315,-42.68245949929021,-12.959537755852228,-21.46464830118292,-14.524981665143741
-18.309994193193468,-45.00671391792419,-72.81450275816117,-20.762701401303886,-44.48643681708762,-13.634722255398666,-22.031345854474992,-14.553465308268395
-18.18631994904657,-46.78508530995348,-73.13618457328708,-20.181391916948087,-45.07238012373174,-13.809510633588314,-22.013921502717352,-14.322853715012918
-17.806373897257885,-46.559908280815534,-71.77911010490655,-19.505763139907213,-44.66070578286791,-13.541661102047918,-21.580038461495405,-13.980578655284022
-17.388377061237538,-45.357219569077394,-69.86218469637461,-18.936937892239445,-43.85361217136199,-13.07907915306945,-21.029449304246793,-13.662874920822732
-17.077714293118554,-44.31666103029519,-68.35408813317186,-18.532177767544567,-43.21794372484014,-12.676238885159949,-20.600509198009064,-13.428940017179666
-16.919713151753818,-44.00476244936935,-67.62785891539528,-18.25402998829492,-42.99866126082244,-12.45047377320001,-20.369267091842655,-13.278534589486688
-16.927058986739564,-44.3698305175348,-67.61723325918713,-18.088971970560753,-43.17339063088054,-12.382314827067235,-20.303905106935364,-13.215964087029613
-17.134670629545965,-45.26528875493681,-68.28023576339766,-18.082229240893064,-43.717761599165804,-12.42583560541327,-20.386904499951957,-13.27807175378555
-17.558562372096258,-46.84854471673761,-69.7561846159595,-18.241965122527784,-44.72408513506978,-12.586659256757128,-20.651615869826976,-13.48747231785817
-18.099937237914496,-49.336011574962335,-71.99443909635548,-18.43127731137687,-46.203711519652366,-12.879065000663081,-21.087927972241953,-13.779379449633607
-18.516160915877542,-52.3975366938084,-74.3067472368857,-18.391167846020817,-47.805752622231516,-13.227251999762638,-21.533822551769983,-13.984985533720936
-18.52493129202267,-54.94528793793362,-75.45568859148109,-17.899237181854733,-48.8250945586035,-13.444507523046166,-21.697751497516293,-13.904229381325893
-17.985904265384335,-55.66962046213689,-74.36716250702402,-16.939380730077747,-48.592226998273354,-13.334018054306403,-21.32611877797729,-13.427963287528772
-17.045292564542294,-53.927658558709844,-70.96980991698865,-15.77150506376435,-46.974649643087446,-12.828243206712765,-20.39771103790862,-12.643110545431584
-16.162605919550934,-50.35259272849292,-66.6067612333361,-14.882664542940923,-44.65295612184673,-12.066255272649705,-19.221885674439893,-11.869661151884026
-15.987148369689434,-46.90308952319398,-63.798418143398436,-14.832021813359507,-43.026063794406845,-11.383537161690885,-18.392709646093383,-11.58947679361034
-17.07206677556617,-46.36798854450793,-65.35369997904873,-15.974450569920016,-43.74314784086372,-11.22762847517592,-18.589532885369085,-12.235551144865287
-19.466471438687105,-51.2620165135275,-72.87034047549476,-18.097843813509606,-47.876261129765425,-11.979237450683057,-20.218673175954176,-13.870788975148843
-22.360462522088365,-62.09358161450138,-84.9635387803592,-20.174056414126326,-54.88695214147761,-13.665229141999907,-22.972951194983604,-15.90615923916739
-24.07420181800446,-75.64976551870534,-96.21704305412761,-20.519239757099207,-61.916389433456665,-15.678601184079689,-25.558208416543735,-17.08926056847666
-22.595512709919554,-84.7209908186796,-98.15012380923578,-17.478947095237142,-64.16722084809275,-16.755341617801406,-25.911564190084714,-15.909595968642115
-16.536957090920488,-80.4257301932683,-82.62955660824433,-10.354933792726573,-56.73305547985585,-15.391181286190875,-22.020660144455807,-11.314550336043059
-6.01788641689634,-56.63407305040302,-46.36942334384882,-0.00392441238508989,-37.215543902879205,-10.581526002809959,-13.018239983402855,-3.3753548234361452
7.103994811993419,-14.096161433207984,6.150675774049317,11.346003841328447,-7.619255838050941,-2.4700806721183124,0.0861636586425149,6.509405128121495
19.893629097224448,38.52769258711154,63.53831880215355,21.035948610924855,25.843705915289544,7.523226624004836,14.560683733140264,16.06101596609324
29.58287339436015,87.85615376027685,112.09340560188849,27.147559371549868,55.204700275446335,17.212257640353016,27.001361708258408,23.032777212101394
34.710852139361215,121.64532528922899,141.7288708081762,29.232258335104568,74.16497092519221,24.50664620898927,34.732448200732186,26.121341604443355
35.55601036518136,134.0334457211875,149.925262787688,28.247919567553488,80.59234654291237,28.15065163607462,36.8135035018757,25.418701036710843
33.73670082468619,127.36418670035268,141.7994991502095,25.89294027454943,76.84388276551746,28.013521230697787,34.1997791823153,22.231258908015636
31.35244108865315,110.08588300844934,126.86547019385883,23.84501354302286,68.09303659947325,24.9430226352638,29.135486090457164,18.44034183231139
30.17252846818426,92.54157936155494,114.75407734890929,23.27236625241808,59.911334545574626,20.416107386626642,24.218847636174562,15.750971755282986
31.135929486916034,83.04808359596295,111.92657439017489,24.610370287987504,56.331112102287804,16.15624959315694,21.543642095431984,15.118287677568661
34.13601734436257,85.4739771124095,119.98110129728207,27.42822161814004,58.80423163793607,13.68419357822468,22.06987670419439,16.491895139922224
38.01973476496409,98.20101307958811,135.21464279953767,30.39807282295706,65.85460003563931,13.74401062538909,25.25528572548476,18.916057351114315
40.87198369676928,114.27737025131898,149.40076253292074,31.605041380821998,73.3460594327564,15.795512026814633,29.087459076298337,20.959349327019282
40.68063931327198,123.27151845176978,152.2932367743004,29.319391938516567,75.67240601737461,17.996761206778167,30.72471048888591,21.34178582939376
36.23876405609861,115.19962716080481,135.8107343230918,22.932065231589384,67.97796952693933,17.948294837760915,27.70336207396825,19.500416446591768
27.842801177547752,85.37012257011625,98.29444127531983,13.46477590337261,48.642122949839276,13.939169308493842,19.206626008614247,15.815957555501717
17.323007226454603,37.4689270855003,46.26416223554975,3.245762636258223,20.57515659154569,5.9635185357269185,6.65017691571706,11.38726968684239
7.296033152199433,-17.454993178966667,-7.925283959918303,-5.119221974015719,-9.745216228825605,-4.18013574160388,-6.865426789074134,7.493594923683537
0.018118282071072304,-66.04226521037242,-51.62584147334874,-9.884379980856561,-35.20263827505905,-13.812551674358787,-17.99981859346629,5.048162583220504
-3.5248780621955835,-98.91103270044111,-77.55669070865643,-10.769171640705208,-51.29880715902369,-20.73906037998922,-24.69472352223557,4.316533313064035
-3.817091741998753,-114.4023852491318,-86.30868992943108,-8.77934557712907,-57.81338607442297,-24.1970447109385,-26.898507357349935,4.9830257411068155
-2.288949016109777,-117.6005464232143,-84.40462986760492,-5.508775547288499,-57.960049560136476,-24.850009516770186,-26.142110959620837,6.431599255695856
-0.4805393642900924,-115.57165660237945,-79.4444571903917,-2.4462341140563217,-55.76197781673991,-23.967430796630453,-24.349215637052936,8.012040061399995
0.6020764690785321,-112.24433236965409,-75.56993649544518,-0.6413167281232781,-53.47064080936089,-22.4570194769562,-22.69697533788831,9.152002398342146
0.6825725226947839,-106.38272420473419,-71.93412144746189,-0.6838335826754998,-50.65018146747851,-20.421920886483363,-21.194022777888406,9.363787669130176
0.05082257343787519,-93.68286482424692,-64.5972990053531,-2.713690093665817,-45.253172498136266,-17.43865755287051,-19.07199370385948,8.302086035963141
-0.7128398851030003,-71.05785714491368,-50.05827396715234,-6.303703009719518,-35.64834888915463,-13.201836654490968,-15.555044680132987,5.9488819615220105
-0.9599243903601281,-39.883810364530326,-27.962775808190912,-10.359585467046596,-22.10287732545232,-7.9786383140924935,-10.43957513846123,2.8131034935389785
-0.1313118004696304,-6.072328728870963,-1.5243254983940595,-13.306525912967704,-6.833578911287191,-2.5514351416955323,-4.1811799629193995,-0.07386005543843341
2.103524380484583,22.798788215860753,24.16958946318945,-13.639351715433527,7.190610659148015,2.246632230472335,2.426799509923734,-1.4923673740865644
5.730291218526478,41.211257323649335,44.63677079837628,-10.591491145545012,17.763527355916214,6.013950116663382,8.665396575834793,-0.5915844007522736
10.363209073366969,47.999428977045284,57.81011447575101,-4.524475019931464,24.32802385539876,8.930056236860649,14.108622012208217,2.631489780950877
15.36428173472459,46.25162586032311,64.47323646571951,3.2098318729187096,27.89253687613752,11.519159310829393,18.591199179573813,7.234129233969053
20.07400913347704,41.50206712556949,67.52591378846626,10.840902272351528,30.310653035824075,14.265936822213437,22.075092306988054,11.702259056095045
24.016748298331123,39.48420872948403,70.61603946726623,16.826914330903865,33.436192775760915,17.3526414310645,24.560125639375237,14.595629000148847
26.943811377369663,44.07495602951534,76.45206652442502,20.249587228220786,38.35213785642544,20.57199704986345,26.01587171147721,15.10225171647633
28.72380803803851,55.41662406866958,85.07761573640254,20.913022647142284,44.64613189928686,23.300815222060955,26.24213460116476,13.239571971395174
29.255820853697525,68.63252857089141,92.90504961269717,19.339702817425334,49.968187943012836,24.506483518127236,24.727862965486494,9.705671959912532
28.567347789196873,74.433411063343,93.61913375405425,16.785945409384887,50.464864413859964,22.949445312119327,20.755354536515185,5.575980570920582
27.039150514943127,62.59577472660764,81.22430882838118,15.125295933543352,42.414288099184354,17.711191256894445,13.878260877470197,2.014289606095606
25.4964138988902,27.30688878823786,53.8143345138084,16.349663633700096,24.44084321689906,8.85985409849032,4.52247507763454,0.019386502494772653
24.95890640056344,-28.655962205813267,15.621371507495994,21.71674210454881,-1.0802226904264247,-2.2112766269574387,-5.787233047551987,0.1666072708307032
26.129664642265016,-93.90135772507634,-24.28424980572316,30.985297918582045,-28.554308182557964,-13.134329015829472,-14.880728043700719,2.3900925281218446
28.95519997669869,-153.09120045891697,-56.10206019721888,42.29049499417436,-51.54082835757685,-21.519305116130056,-20.887045092219626,5.949631813537621
32.579081438044916,-193.77208150173053,-73.80916664953253,52.85897869949978,-65.6316649789575,-25.988152258885428,-23.10143397600204,9.683653352483741
35.74966945402313,-211.45318037351703,-77.44701325969547,60.21552451114655,-70.16452288431739,-26.690739536912673,-22.2387169544583,12.476066812017578
37.44147671400455,-210.2493841142014,-72.07706432764869,63.21324641898164,-67.88868205096294,-25.02786342553514,-19.938658196235703,13.706431595741613
37.32318855940797,-199.3142112528706,-64.41955170955225,62.35169643582748,-63.023096049356006,-22.801975838627946,-17.864309661973728,13.44516926943902
35.82904062834471,-187.76897102277897,-59.45273108796498,59.31456908726581,-59.06506032442835,-21.33978941474473,-16.953665535583927,12.309504747135984
33.858411700666885,-181.19608747705428,-58.84969433837764,56.10986011327731,-57.60760966696382,-21.0668382509308,-17.211126460291993,11.097596122972227
32.33156640293076,-181.0240317352626,-61.56525947182993,54.31164156596902,-58.50095272913701,-21.645762724781562,-18.02314124561664,10.420241122840642
31.82952296393674,-185.95565677304955,-65.515923921241,54.66031170361677,-60.77386068018695,-22.433636188508274,-18.68292233587569,10.493333657607783
32.4047818975139,-193.71289237588917,-69.06946342179386,56.965163418504986,-63.495618413675096,-22.924058284700646,-18.803340761112867,11.119953042846316
33.54845954601118,-202.02654202406595,-71.72029814885202,60.171048914746905,-66.15084756622038,-22.98556989565158,-18.479089240812186,11.807687422306866
34.32105473800141,-208.8498393902226,-73.9594228474013,62.59715576153296,-68.55356824550806,-22.868822736320936,-18.20072800580303,11.97324885610693
33.69123391539538,-212.19740947649564,-76.52573150816139,62.453832039554435,-70.48361689881409,-23.00694540284653,-18.55461856747633,11.205477506021436
31.03801354905311,-209.89494883304914,-79.30174389320142,58.59096518946705,-71.2314472710031,-23.658245675997406,-19.784039149725782,9.515258056439837
26.588393758406696,-199.4925095728519,-80.43320972764536,51.15044897419866,-69.32919453363517,-24.541232611391816,-21.41356376185236,7.435361337672535
21.482225373396474,-178.72070411285554,-76.4766612690975,41.69476982684983,-62.81957199004122,-24.715927741986395,-22.223654684258467,5.854790483246979
17.32245922690885,-146.65960727407403,-63.93342341220051,32.622967882353485,-50.173964998509,-22.895849329032668,-20.72307339927429,5.620530993478349
15.400903564488639,-105.11318232861323,-41.49918832099299,26.120223755487146,-31.447036752295016,-18.09989215756474,-15.929132068767197,7.116263210291738
16.041045698293267,-59.15634035288541,-11.594071391732951,23.208286859982568,-8.897277370781092,-10.273090419429794,-7.992480346298718,10.079244463784216
18.465115590810925,-16.08125574746626,20.01589139305758,23.430595453764607,13.499448483418972,-0.4662099067161651,1.7545692561843829,13.776033618294148
21.270012822127153,17.06868254954208,46.52510062864055,25.31339731900711,31.544254231844402,9.57224552284026,11.385143583556022,17.41220418974646
23.20251368339857,36.170325692991,63.04507390226719,27.258803361984874,42.52595865098219,18.144268986626603,19.2283946304711,20.487663518908125
23.75032531433701,41.327565450963206,68.43677677808132,28.31213214192753,46.136536143055935,24.207763403732415,24.438821867932717,22.869130058415067
23.24224889819312,35.991303459218464,65.01744608002907,28.439978194997796,44.07688884659805,27.48664463672357,26.986142428244072,24.59457955844956
22.511568138570453,24.662638416751125,56.711722892015025,28.321760254041774,38.78903514422286,28.159089245084104,27.25280941106339,25.638990149550718
22.407933101225602,11.117974420330691,47.27157846770211,28.860249364357728,32.3835669910272,26.548480508577505,25.715491963620515,25.86175182273014
23.399731817463284,-1.4839648972797073,39.71149120127613,30.59725355622275,26.496897479626867,23.16045130695436,22.990358196967527,25.14423898783222
25.342111882202502,-9.300148116469003,36.58985662594125,33.194311755387965,22.773450334409738,18.95533967298926,20.03897097464562,23.53252296544621
27.422394864861293,-7.46369051099566,39.8728100733731,35.227982621323946,22.99098574605375,15.395659052796498,18.087436508862822,21.21798818054291
28.349624779277022,7.957926744112555,49.83693747498056,34.5764036773979,28.282129277597903,13.963467565902441,18.092530604038643,18.383030691616963
26.84114606997929,36.82364071527251,63.95439033338417,29.40632239105296,38.00569606487574,15.37316746174535,20.10954079059451,15.093219315723632
22.26992951311719,73.32851250291355,77.23108191150857,19.30134706950987,49.41208316719386,19.077043381087073,23.124230065326966,11.368099252192389
15.123297467056608,107.80888727448749,84.38760755129924,5.813703017553571,58.703038776939756,23.499365164392547,25.57965103386026,7.36872102370578
6.936441014245911,131.19943345037643,82.643468900048,-8.016925346647934,62.9374100663944,26.88846988650528,26.271325597737768,3.506292045543382
-0.3399574635216325,139.35657968377862,73.21670448254773,-18.987537177540684,61.523927299088065,28.22377908138465,24.998697773593946,0.3351503244836441
-5.20872104541155,134.5401011321023,60.502391040293325,-25.15194154829939,56.322399009390494,27.605254872266404,22.557691787999087,-1.7174231877861046
-7.23884873214883,123.32840466121836,49.50259039730583,-26.529432874560943,50.35779671819223,25.95079825026101,20.142722985705497,-2.587125297699323
-7.09168002785357,112.58915348421542,43.22176632991815,-24.76326397356583,46.071669321778636,24.302746600546858,18.615137742000563,-2.598115200306846
-6.003311586106435,106.16462091371554,41.61717517790805,-22.047157265333617,44.23811069627957,23.24866682443242,18.11988416032368,-2.2635923345075732
-5.087620022389569,104.04373201656938,42.4701733352643,-20.0272877252152,44.07044386225392,22.782870083806603,18.21812837285283,-2.0096003350156533
-4.876029136713921,103.86829475757791,43.23483960348582,-19.272083571099966,44.178732504952464,22.56946224900278,18.3316392527004,-2.00391844704187
-5.285538707563452,103.25167269133512,42.53099236457759,-19.43817300490648,43.598350716991305,22.32521298731825,18.15124575728394,-2.1687158991219233
-5.910761491731505,101.40664937897168,40.570084679679795,-19.837897320579714,42.30948075116129,22.058143012315583,17.787441742308634,-2.3237335019778103
-6.390950198774709,99.4556370569507,38.64164884965724,-19.998981276095048,41.128747036683805,22.059345109877956,17.645715899453783,-2.3514878597093345
-6.651700765905391,99.52888813387808,38.131209423379666,-19.94934387456365,41.13132734847259,22.67639179497054,18.120331623083576,-2.3016393099281953
-6.939418769827974,103.06010280808029,39.46721159279707,-20.1456919186318,42.829496941290195,23.965620002980646,19.233461759724843,-2.3925780839800694
-7.6476888046105875,108.99020646969039,41.39885875560987,-21.091271523179113,45.44139039564482,25.397867550510508,20.396206698698453,-2.892580572997345
-8.996478056052524,113.01302717003003,41.14379468262609,-22.81198745621134,46.747366250669316,25.860124327197546,20.50524965487701,-3.9036982440005805
-10.719060621464804,108.90121461364284,35.72286887543357,-24.49901066731397,43.91790367174295,24.113387641678194,18.471432398999323,-5.149435277938319
-11.984328784156581,91.78281903768763,23.97863962787582,-24.639853217113963,35.104581915787094,19.570110401220848,13.973873133131617,-5.923076163663435
-11.70621641452744,61.5787647592802,7.947822608495996,-21.709171224148776,20.872962501215017,12.924127419242785,7.957780092664864,-5.2997342571878425
-9.142291781215784,24.126256099302434,-7.652932805930257,-15.076182864706155,4.399496396868728,6.1137823847349155,2.431471419185822,-2.551283116701805
-4.427553752482649,-11.267587019896261,-17.853189025358454,-5.535616470767147,-9.940279492695863,1.4627741930955245,-0.47026514823900617,2.4533421342122863
1.343724327429739,-36.622027137852484,-20.298283339760857,4.95522162735636,-18.829577295258776,0.41694115704372875,0.3361020817412279,9.096041550466552
6.610988025905571,-49.302513593376844,-16.533604974951075,14.220700999670534,-21.640597263768836,2.6625632777846056,4.205299651025426,16.190608622014903
10.1392121869442,-52.40976061773547,-10.637787649456879,20.874396003235862,-20.29545408260097,6.255181708670498,9.071841078719853,22.377170619943392
11.591010470183923,-51.23146028726535,-6.0840350094488125,24.696383347884694,-17.468486738634063,8.746257517749894,12.593626990574458,26.50204243224085
11.486125329558234,-48.50312676591781,-3.195307745525077,26.15246398895121,-14.516669692146024,8.597016573795537,13.397840899176881,27.81986745100309
10.59873306097638,-42.26373012655838,0.7568250855609473,25.509438202158037,-10.752564616049824,5.954042919100949,11.628666297956553,26.026557196278578
9.274820303051655,-28.02156867514715,8.8465554078075,22.33767106753364,-4.566116325240296,2.3262757922840858,8.522434389721058,21.249225732620193
7.206229002403705,-3.3962472629246876,21.38328541305659,15.863647336314878,4.632090518297104,-0.5137243205396731,5.434975659551453,14.076648570765053
3.814531004068021,28.573650992917813,34.92757437686178,5.89989536796905,15.297752002440395,-1.5983106544633159,3.0562768503554034,5.571452892875546
-1.0955132473015663,60.06703269925534,44.19669062901323,-6.427465647325235,24.35240456506301,-1.1415317105073208,1.2758558929676476,-2.8707176081663768
-6.944446071558921,82.5351799411148,45.36515505469945,-18.78999684898227,28.981943173631958,-0.13258689087918524,-0.38740475500434124,-9.867122672521239
-12.54567561182589,91.23876622215458,38.365055043567004,-28.603765805885594,28.27848135921299,0.42754390068190645,-2.242991627109257,-14.482017186424557
-16.699074970302036,87.30477689540038,26.734007828651826,-34.20591819175603,23.62620424080909,0.09257106697932302,-4.187066997666387,-16.527865669900798
-18.79164507399481,76.3349627497126,15.381340666756277,-35.52539870717194,17.721909026913615,-0.9503531678509147,-5.8525704898808995,-16.560971902022832
-19.025527251479385,64.93309560613851,7.94880303531538,-33.89344271103551,13.037848333187226,-2.1896874430738946,-6.931962309714439,-15.567419938655874
-18.18610500958581,57.558375977649355,5.4145827916915374,-31.21175257758181,10.751804546868438,-3.167681770723236,-7.382504230963734,-14.511314330728542
-17.1692953919958,55.34988063026573,6.44841863362427,-29.04522765435543,10.641523576319559,-3.6786096532923986,-7.397563812634901,-13.98399061558862
-16.587364420653394,56.89522898462549,8.786383755380811,-28.12504625554712,11.691282043206789,-3.760043705798176,-7.246485071466834,-14.106334111480713
-16.633791046615347,59.786720871289674,10.507029446757619,-28.37680570663927,12.808695219170058,-3.5936615726949115,-7.146447752837167,-14.664996416665932
-17.17257178405545,61.89879473934263,10.620766145653159,-29.262652230786482,13.255917031982463,-3.407714723636161,-7.22398924242451,-15.338876092310176
-17.91223060368971,62.063125602664705,9.082512495336932,-30.160809870367082,12.782449249950812,-3.3899849487107616,-7.5153405495320085,-15.874738335317167
-18.563235368422152,60.266355939107044,6.543421983945923,-30.633604363778577,11.591485804282609,-3.6094197325796546,-7.963919696273581,-16.160849068925486
-18.95002093719255,57.432268670419106,3.9611503796201544,-30.55466697233069,10.178746112568051,-3.9916852768818156,-8.442502055052318,-16.22311682825234
-19.06486347178004,54.79329479801878,2.1026178620611495,-30.092602410001007,9.043810032813036,-4.388047170384133,-8.829077220624072,-16.178969829363915
-19.038964748439817,53.13362473574971,1.1538002237861988,-29.56094304319477,8.403808840760686,-4.691972745089603,-9.089854739296543,-16.1665645764605
-19.037789986194706,52.4287049945299,0.7313215702771517,-29.212006611136072,8.123148375424917,-4.8997642647824,-9.287165866689811,-16.271456858500976
-19.152066109987356,52.13093459901929,0.29430593486707113,-29.109559021610096,7.912188373905336,-5.069096074864988,-9.502744650242278,-16.490484586472324
-19.367316896827347,51.75018603524545,-0.4318098548237456,-29.15908955290764,7.587576997768142,-5.240546199458601,-9.762436755046162,-16.757877899509747
-19.619822608415447,51.146959689712745,-1.3925019979804083,-29.23491279784264,7.146915402481492,-5.414534207504678,-10.040501352547038,-17.00796009167642
-19.865028806473845,50.37415166613236,-2.449228860659182,-29.27022489755761,6.647637726336868,-5.5902773970057575,-10.318810801924561,-17.216994435491465
-20.09092113805346,49.43327881641943,-3.5653197456289605,-29.249504768234104,6.0958181140055565,-5.792705447956826,-10.613550899672362,-17.39497320329933
-20.28877239186299,48.29922121143721,-4.735783139973298,-29.16380562121631,5.482477991663903,-6.0426491877216995,-10.938597684235347,-17.554168466197257
-20.441326543270435,47.101148013978,-5.850602733177835,-29.00903306392987,4.8716391069209894,-6.316217516777734,-11.267593417011339,-17.69775751903258
-20.54808422370693,46.103625617139265,-6.752707300030121,-28.818526082440776,4.3739509543527975,-6.560301227423601,-11.55696421156803,-17.83386296172914
-20.643809523578906,45.438474802789585,-7.436087109865219,-28.65944568058586,4.0191005614572255,-6.752629580194968,-11.802343355882167,-17.983212732438997
-20.771717556097734,44.93697703047288,-8.093295904299707,-28.574516658902994,3.7047487998074287,-6.928136576820826,-12.049185776561494,-18.161779119533467
-20.938545706337806,44.31766800747488,-8.909804085093484,-28.5378658125474,3.3091782650551713,-7.134594582994513,-12.33876005232829,-18.36076163242704
-21.10987164537353,43.51038953678994,-9.856386517174238,-28.486580856892573,2.830626609342063,-7.374988936259525,-12.659793080826324,-18.55453927299974
-21.253532304866145,42.701347044432794,-10.750164219081864,-28.392108648003447,2.3725283154424948,-7.611564538120059,-12.969290795756159,-18.729609993467076
-21.374838012499996,42.051498384719835,-11.500366379029755,-28.281578880731352,1.997996685617756,-7.821991917633761,-13.251717333100636,-18.8969266103436
-21.49873805618649,41.47655437598684,-12.209373293580075,-28.185896808763193,1.651385231129165,-8.027966039404152,-13.534276525499727,-19.071073763607657
-21.62686665366149,40.78374659086652,-13.002446745811955,-28.089835603179637,1.2493352691426738,-8.257549817132858,-13.839089888233387,-19.24521688866316
-21.73169677068341,39.96575331412649,-13.833198862976996,-27.95470767847416,0.8091747607199957,-8.497280769840737,-14.142956346510822,-19.397873823388423
-21.798005227911112,39.23681043808677,-14.541452637343012,-27.78234134510495,0.4323143713659171,-8.705855748117864,-14.406119857391362,-19.524831472699535
-21.85457759507585,38.75560714269036,-15.085165194969415,-27.62975436782165,0.1635385350395787,-8.87470198877111,-14.634228788271065,-19.654110555113235
-21.94946460558404,38.414765969894,-15.620727130643148,-27.548960491592194,-0.07812982134250623,-9.051657205480629,-14.88694409950163,-19.8220825950846
-22.09684229763649,37.98404931188798,-16.31112027963106,-27.526965665663667,-0.3982918258234781,-9.289897979750231,-15.214597981675317,-20.03792901500859
-22.261060712775347,37.403843870714354,-17.11714342282485,-27.500105379415324,-0.7922857507587497,-9.58434148247973,-15.599839995137271,-20.276345313261235
-22.393719380751715,36.82168312412952,-17.852465832132125,-27.417899330507375,-1.1598363554361983,-9.875401530113352,-15.97472267697375,-20.500164591988295
-22.472480960603438,36.334066778150024,-18.421711281468514,-27.27247808817976,-1.444754566021925,-10.111413159977305,-16.285626713666204,-20.680191025103433
-22.497779171376393,35.82156367887364,-18.913557215900596,-27.069902701769355,-1.701802336063599,-10.288293389754218,-16.52402274436284,-20.7954557053486
-22.471087697698767,35.141313643521706,-19.43243915794942,-26.809137787299512,-1.997444790777054,-10.42634461070315,-16.701645144545868,-20.8358461189708
-22.405572227550742,34.4243406092955,-19.92706067212885,-26.52008418291265,-2.2901670033614154,-10.536996901630252,-16.832327784840903,-20.8283941169242
-22.363208385829928,34.03439425928791,-20.281786504685233,-26.30864512382338,-2.4732793840727356,-10.641316633586403,-16.964754502376103,-20.862361351896507
-22.451216966975576,34.16944949891622,-20.555684225489614,-26.31325361179179,-2.5381828203433376,-10.811538962203175,-17.212852255798158,-21.06149163609319
-22.74063543608851,34.57089880053126,-21.013030622346747,-26.571832729161212,-2.6358115862871268,-11.148067682666412,-17.698163973488686,-21.4937741542808
-23.16714692695561,34.69744049240195,-21.841837334862387,-26.922183781878324,-2.933171445386351,-11.674253349360773,-18.417142924033975,-22.081761375826364
-23.518879200683923,34.16395520257226,-22.88016874873084,-27.053625492323544,-3.427679727828112,-12.250466490864474,-19.1613986012291,-22.596829005994945
-23.546806160409833,32.979159536313084,-23.693211021125713,-26.69233264621091,-3.9380824403152714,-12.620031956798275,-19.59942675961231,-22.763122163037266
-23.127244938870323,31.455889871101384,-23.928449412633817,-25.791996549044175,-4.265322151865552,-12.576489389400558,-19.48529288780639,-22.420528373670116
-22.37429043819372,30.084485551734083,-23.56959940507403,-24.620662302266485,-4.3200887072752705,-12.126150453073784,-18.851357295845247,-21.665351157979895
-21.649068286771602,29.543529319952338,-22.89534326113851,-23.716211397718304,-4.106224964580761,-11.535275167242023,-18.068703080017833,-20.899066707301785
-21.457047733823572,30.572073490275887,-22.326969817168546,-23.709331888302962,-3.678644344456345,-11.249462199943315,-17.74963358896817,-20.73036170935642
-22.227285106836295,33.39259560230648,-22.37552884498163,-25.00156431364885,-3.213986518578212,-11.722537208177581,-18.5070923160276,-21.69957446052585
-23.996571162444205,36.96911801230464,-23.57000093340975,-27.359881532089553,-3.101223951101777,-13.174214498266878,-20.593115179259282,-23.877999278958736
-26.13154786658932,38.8878743761214,-26.118365426645543,-29.65959616741008,-3.8226376980988914,-15.321144615741948,-23.520520254383015,-26.53401469528607
-27.324724812388155,36.29926273678309,-29.432715579830546,-30.083483941047557,-5.607094136112608,-17.241909706874075,-25.920525131740007,-28.139423432633247
-26.029558986393425,27.40002414798177,-32.08656442540271,-26.876733268224434,-8.175162270678276,-17.60143821352107,-25.912044691180203,-26.878157490164448
-21.220469910676062,12.380835990392663,-32.59235813192106,-19.342260771473427,-10.913455470595848,-15.296029898216148,-21.99561091824314,-21.519692555935883
-13.069140498906288,-6.797654058320156,-30.608140732862935,-8.472833544583251,-13.420674765153716,-10.232109598397916,-14.056775967099417,-12.218956001295915
-3.084350051380751,-27.488011558284533,-27.59051827006557,3.2595705921761366,-15.961141692371553,-3.7136777632504625,-3.8265260688126084,-0.740799361825671
6.445131228017602,-47.42341419071519,-26.179227263973715,12.93686056236648,-19.37286630337066,1.947760837766246,5.63505461387979,10.123938612479117
13.422895086625429,-65.09729889781718,-28.559688127467894,18.493251554701367,-24.409060049180837,4.50617845079307,11.280503492894585,17.717355505995283
16.777974021128593,-79.46656560509244,-34.91254352615376,19.535117293968277,-30.977030079934245,2.949682481334415,11.531856898825763,20.646529313905443
16.709318401546202,-89.59628741771574,-43.123063940957444,17.254528949407387,-37.89105178338703,-1.9541698098336782,7.013811465888477,19.279717823629337
14.303342671492343,-94.87230896160646,-50.06267050879345,13.608368951038457,-43.420795819721796,-8.08939944281611,0.14735470045675172,15.37843180546676
10.884357825756824,-95.7011946961441,-53.5427610877467,10.360879721179593,-46.2900782636971,-13.116433609128036,-6.109377909793071,11.145547098897339
7.534337418103432,-93.85762297395566,-53.47848655476833,8.526664055807535,-46.377069737384026,-15.570801222043801,-9.601329030380024,8.254818522424715
4.957252222861726,-91.7894983967757,-51.485591652628344,8.332216516138734,-44.61306155129723,-15.314537945957973,-9.692711771059749,7.333402577618861
3.5514648420423396,-91.26777665622836,-49.48595337393801,9.463536048025757,-42.27856461407567,-13.239311780676902,-7.151412805014039,8.03423009280177
3.477056500978728,-92.55358191625415,-48.58420370654265,11.348407305792328,-40.337480602193736,-10.59280633111623,-3.4795448761735472,9.520452708792869
4.656945001097442,-94.74341879392594,-48.88349261549969,13.395572037802019,-39.20689746539428,-8.373899703388874,-0.124129297407661,11.04386693369671
6.790554112698731,-96.72571078962488,-49.86457106767315,15.192048188769709,-38.81897321703989,-7.006262499804545,2.1104413798604584,12.324957801076469
9.42889890095997,-97.7293085007324,-50.682411595108476,16.594078556405442,-38.679525277702616,-6.288532618662074,3.273003678950859,13.571961172316662
12.056233225191715,-97.23387177621294,-50.33303768487944,17.63375376912252,-37.9546781090573,-5.584154315517073,4.0351772897446585,15.170022701501974
14.122115386187708,-94.90029563443696,-48.08098286184313,18.309374231977213,-35.840169268559656,-4.213421201458272,5.128765690411771,17.264599905349975
15.068668919369884,-90.97963348304911,-44.13901931049887,18.465128460038297,-32.177321006609034,-1.9030291347385162,6.780193532204826,19.531897669416807
14.437973395476721,-86.7267112195869,-39.95270530357653,17.88472701335886,-27.83136603136834,0.9623373414827627,8.522510673378283,21.29201959503285
12.045170282559198,-84.0423759389997,-37.56676444190815,16.488365431174454,-24.390376181793517,3.4597957953343217,9.5069006256256,21.86672437310677
8.089968317132392,-84.37943442443232,-38.42852421141439,14.413231288874618,-23.324207422367078,4.539053097896768,9.055827918545228,20.923798894425534
3.108886198387336,-87.82851807746557,-42.56991483462167,11.905844824916631,-25.216855873021746,3.468085486231581,7.053929962927184,18.607167419893347
-2.1896508861340505,-93.12146482580621,-48.7094340212653,9.166761468930915,-29.543572067326473,0.11969165330138076,3.9744579746295248,15.437018413621397
-7.091467136998251,-98.3479465372699,-54.976042912899224,6.304612579575255,-34.960703353199804,-4.930984570424601,0.6353905219893371,12.090844089435393
-10.99603020796989,-101.71702804826228,-59.67294527607,3.391050215693488,-39.825907196087705,-10.48931371731982,-2.1255940417712145,9.171150095739774
-13.524628175685132,-102.14100727778626,-61.87615630744749,0.5107704456333633,-42.80323819572393,-15.068696707503372,-3.7623005004119476,7.018086163482451
-14.611568262682757,-99.85532412092105,-61.89766460743556,-2.2029351025262613,-43.486376796886105,-17.474649024270104,-4.2655262941295735,5.629054443963324
-14.468014005964651,-96.87752339265224,-61.30840920690334,-4.446111322863235,-42.72525731619302,-17.39520569318771,-4.19691487190346,4.760046735796141
-13.33609370964539,-96.44680715081157,-61.975814618931565,-5.535080093559436,-42.1697941999551,-15.552925753755577,-4.3438712692920936,4.200811760266347
-11.160130654509407,-100.9749150623963,-64.22979295465389,-4.343482986095598,-42.985509797162564,-13.183785180236052,-5.075267571107377,4.056150202118145
-7.477452221878184,-109.56549170488998,-65.43794637859575,0.3413588674324542,-44.54546989424759,-11.14722885312112,-5.830376502795406,4.794346371477004
-1.7279552807537706,-117.23225688166231,-60.560159395767876,9.08137713447603,-44.25833103039252,-9.339887706181903,-5.228741138740931,6.963461632100971
6.167368835903944,-117.08605504252267,-44.9445705700693,21.12000004631044,-38.979002874840916,-6.883725871297604,-1.8756675271160477,10.74020607367489
15.391045525092519,-104.44600533065334,-17.70393623531175,34.328910990943044,-27.17481521058097,-2.938210421139803,4.632384575116554,15.637358101282185
24.347742576110402,-80.11384650915306,16.75776106584569,45.951893844249774,-10.315728849932595,2.504642443097913,13.219179540541168,20.606954999814473
31.31384514125901,-50.4690586087162,50.34775958953964,53.77707536177881,7.550885971526938,8.441023141738055,21.736882160185633,24.501744635971882
35.22671429943024,-24.239491052688063,75.1320187602057,57.054747710204964,21.804301881445333,13.394809204983382,28.024653852851962,26.60764676419053
36.120451795898575,-8.055235792113383,87.03261109258565,56.636933505508594,29.530433989867365,16.25310216813675,30.93822653541402,26.920142918384776
34.96824543111484,-3.5788620924319785,87.18627915509411,54.32874755716126,30.672712839952485,16.812293784678417,30.736344187422304,26.028215254905078
33.09616448045555,-7.713952215262287,80.46329355261521,51.92910577385543,27.520727725101146,15.729601956025798,28.691388467009325,24.735590619355392
31.576907151969433,-15.18408743143847,72.50498326612927,50.54380829775241,23.146768290088723,14.033901843776661,26.301558784510654,23.68576903417752
30.929137174747616,-21.397161695341328,67.27949997740086,50.442714106946944,19.935531787981063,12.604112696700929,24.6394747736362,23.182361316246368
31.15925392820576,-23.932331841684572,66.26238853375966,51.316970343697555,18.957929649888463,11.909214099083568,24.120520546195586,23.2134186095453
31.964456160449053,-22.502273934659726,68.93650857841119,52.62150501412614,20.127176294019673,12.010448831462952,24.609774989178323,23.571170079537715
32.921975538051676,-18.271077594242236,73.66536760517127,53.81475924812359,22.633604237358803,12.666536570932038,25.638974110040344,23.974641843950863
33.62331597292701,-13.206850357073671,78.39371796298643,54.497536204023554,25.33095852132419,13.450700803882048,26.611073620881324,24.172916051217147
33.786905998111685,-9.444539560863907,81.2447011291294,54.49945108957524,27.098116676512273,13.904025587496122,27.00279175650223,24.030217896946052
33.34734108937763,-8.485884986826473,81.14444232695277,53.90285088014664,27.24252004173667,13.732932408574221,26.563580106286256,23.5695521141989
32.47839666670797,-10.507780850066306,78.26944561243467,52.98630029007928,25.80265174968808,12.95779703393289,25.426874864020434,22.94943814624623
31.538589228466307,-14.262481587971546,74.02772782265538,52.13524616193202,23.546830319944142,11.908425787370968,24.059929883342512,22.391320037180453
30.975538106507486,-17.630939186081875,70.59742706974887,51.77867701408265,21.677259095991296,11.07592827883591,23.08519129101261,22.105029568378338
31.204035547511875,-18.413239604995578,70.26145384158502,52.31336992954991,21.425057852517725,10.920890498917837,23.061627853987734,22.230250457494382
32.42148167989854,-15.057540357672456,74.59468858123225,53.91098261807896,23.624196805827257,11.69711117523809,24.257696844806198,22.768607289840546
34.36453879335986,-7.45013789007906,83.40503242092161,56.21916926149213,28.199424706509827,13.27515686544154,26.40818814553232,23.502037729631095
36.154167535615635,2.218614571753231,93.7262808984678,58.18518137795859,33.65961397551261,14.997503001199487,28.548234618330216,23.969146658636138
36.45576585762007,9.209628597062235,99.80872862927328,58.28281110983298,37.06110400037337,15.730069705346557,29.15258420128149,23.595966123803084
34.03338467133997,7.607852340880508,94.98099157025356,55.173596509557164,34.94059991922864,14.270668347532547,26.731103934495053,21.978773131460745
28.463759835625297,-6.655677613191874,75.03265790077374,48.4653300524388,25.09137831411121,10.018959659469063,20.685599518951562,19.16376066837052
20.563576116035133,-32.73675697775729,41.263190082543,39.07776011476346,8.205884904114882,3.501476453840843,11.895785744280781,15.713299049302083
12.188599953126246,-64.06269844908655,1.0013780702607706,28.93662611926157,-11.831371664368639,-3.687398533840663,2.5338383717665796,12.46583218645602
5.444331796515371,-90.87886962909879,-35.21463533729985,20.138819177831937,-29.472993268520078,-9.613023798020077,-4.926858000542989,10.106515093125195
1.738519818980438,-104.96299490253621,-58.409419851150865,14.063860311855406,-40.102697385243445,-12.991475728839774,-8.965041580058882,8.809409761367933
1.222429257743455,-103.66887194314893,-65.12871987762945,10.925850463350596,-42.15639669815555,-13.807864845619555,-9.741917612473,8.179551757540688
2.913628820396388,-90.78156879598784,-58.31593866843504,9.95225777987391,-37.51191138520364,-13.158110763691711,-8.83644504980035,7.529670844505465
5.344738518448734,-73.80708320285686,-44.89436201531951,9.966717626356088,-30.054293849097782,-12.453754005098435,-8.184346257074637,6.306817122208895
7.279320186442322,-59.73263042602506,-31.938745799694967,9.961348150158676,-23.51491300595157,-12.572272617650762,-8.951545669912052,4.4036053000313515
8.098691948197674,-52.093728847572855,-23.86879103021134,9.391751852632847,-19.981653059936715,-13.517840456607907,-11.048950263022114,2.2015364444634424
7.785060194491859,-50.75673198805612,-21.823355581474896,8.206934490359432,-19.707073378722985,-14.700322339066275,-13.458243162567904,0.38347454528216396
6.689478872139931,-53.560211328317344,-24.60450732232113,6.744410828896988,-21.77906157420078,-15.463483723382298,-14.971861360532827,-0.3485913860761132
5.287289218254854,-57.96018977510917,-29.902910393488153,5.543353666931985,-24.83630605000241,-15.418296461084076,-14.812056547232634,0.45483978752039367
3.991057085637642,-61.71694000163535,-35.16029142388932,5.070150929605614,-27.46661988439167,-14.458112093229387,-12.878059972733062,2.7802834839537445
3.0205754711511585,-63.0491143572737,-38.24089557668409,5.442062430830096,-28.488764112442805,-12.654222468245043,-9.692432875126938,6.061935100291929
2.3646889827040924,-60.96016710518893,-38.09164364350955,6.337395767389104,-27.321538481591702,-10.235532563014964,-6.190769164085792,9.298574359222515
1.8788742334859556,-55.672360711989064,-35.081933399901246,7.19644625342879,-24.259271210099463,-7.636365306648502,-3.4104176863015487,11.397338532709202
1.4682509539712958,-48.61690097679724,-30.669239031737686,7.587094462907838,-20.351990054068434,-5.468911531933536,-2.12484859860019,11.61655128032721
1.2132786826876398,-41.87939711333438,-26.60099257644594,7.479140931265873,-16.926841246065656,-4.365658734933376,-2.5675197049041802,9.883829065760539
1.3419807538506514,-37.57098217789825,-24.23870532408766,7.2748884780758205,-15.095378649756391,-4.766556021691612,-4.395401578073427,6.829068331313118
2.099135171968419,-37.3550679049991,-24.233351032007928,7.632475594656998,-15.442413662132575,-6.720117106748784,-6.868582504738692,3.5380288873832737
3.6319389597559666,-41.73439932805015,-26.243052535502066,9.178268453434987,-17.75749054004284,-9.705748912601544,-9.06252650525621,1.1513078258730274
5.927566335737001,-48.893030313573135,-28.537925985253974,12.146723006931982,-20.724510861035757,-12.544439823038015,-10.00315594801838,0.4440157215190925
8.737351330248485,-53.99352754888078,-28.05028415526593,16.007668667661786,-21.925748799610485,-13.598299725144733,-8.831325873635263,1.4983330324765234
11.46969188616412,-50.38940979499756,-21.597076415813785,19.300942904985618,-18.663816142685747,-11.400969222853897,-5.144491617137286,3.5930750194169208
13.183941815338253,-33.011202520134596,-8.02708016330875,19.972896227270656,-9.504593545382262,-5.5108436266009395,0.5888081946845164,5.425283955337053
12.85207355380381,-2.0381988568800593,10.192527736809714,16.264351478794747,4.416116184169277,2.9651828831783775,6.911085717366215,5.652046293212043
9.861932542541135,35.93725850348418,27.48684394510128,7.7437474789268865,19.437934174505383,11.659681877728927,11.841425169512743,3.5291425568058843
4.474414600614652,70.5623171366501,37.86846557367708,-4.178032989140437,31.021139116287582,18.004018932530347,13.782613044998696,-0.6994505902448616
-2.1150053034846263,92.77953693066355,38.18456840285312,-16.679609140272955,36.04938734697907,20.457892973035616,12.335446973216943,-5.9023392482745765
-8.230632155075508,99.15395410195411,29.783521150438354,-26.74196326548137,34.338811854363826,19.170288687344105,8.489347399438007,-10.608518895196726
-12.457320294446665,92.89510332080717,17.56000270702981,-32.46377557498282,28.45297084111043,15.71315699177877,4.061870108463731,-13.691968188588842
-14.236670882152968,81.27740122811352,7.122885681838916,-33.74163589267252,22.06938373185246,12.125667789913464,0.7498765410688789,-14.815562092367893
-13.983304128128363,71.44723744680178,1.9893579696078414,-32.00093886805202,18.037948142016763,9.897765626298824,-0.6220375517678381,-14.42678621838554
-12.706411648972438,67.30140739204236,2.4574897547442722,-29.257491826600898,17.305274085169966,9.463236184749212,-0.25806038259834047,-13.381075867223336
-11.428868694614039,68.89665602139509,6.441132617329783,-27.136111337747405,19.106490389514498,10.352710620492836,1.0086993713478012,-12.469291981384181
-10.765576970387219,73.88834030392373,11.223170657896631,-26.359473316647424,21.926209590683168,11.723175246023796,2.2957910816181446,-12.117813447789398
-10.832535047401226,79.44211804446581,14.824403266901967,-26.806401355566052,24.41827780773344,12.85120020355226,3.0557616788148017,-12.35407395363043
-11.404150060945128,83.4834065290024,16.45101540904209,-27.891238590171486,25.844350749994984,13.36809457815529,3.153251607901096,-12.950930207250787
-12.132418824755856,85.15663050174858,16.31504895545814,-28.962699574381798,26.107412791873855,13.26772911584636,2.756065478620024,-13.609231534196939
-12.71317573407435,84.81961675437618,15.27125060259516,-29.574099139042023,25.610073061188253,12.803174302603896,2.1836679203605756,-14.095471167703018
-12.986428769574196,83.68719500307472,14.386072768203787,-29.6073925366354,25.01034169601184,12.330441255857888,1.7567566894389586,-14.316679122800242
-12.975852229447081,83.10472508378429,14.422847878272718,-29.252128577528634,24.874109336752802,12.1255782948293,1.6548880080880755,-14.329629716788215
-12.846373352557972,83.75706008274612,15.458518577566746,-28.84535062213074,25.37066378535228,12.251229220965167,1.8418973590280554,-14.281134590173853
-12.7848435698005,85.39019780915973,16.958461325687303,-28.65189649523309,26.247086280122765,12.566592357457774,2.127323728169284,-14.307204530273165
-12.880999528001555,87.26293092563759,18.286738487570762,-28.73066680818872,27.1124306060095,12.873836523543407,2.327312957471101,-14.457224467364945
-13.101242691509196,88.84518555518981,19.182736859982185,-28.97238534450328,27.757846828172482,13.06783511558541,2.385635423625714,-14.69459436825038
-13.361440007197102,90.08541092814414,19.783432841631193,-29.240475855344826,28.220413156351174,13.163105807697733,2.3575938231393057,-14.956371870094431
-13.609363838982384,91.1362758934212,20.294542073076475,-29.46714853908769,28.60711266088947,13.213325136346858,2.3093062470392645,-15.204898446708084
-13.836886837167965,92.03914207229441,20.76733068875125,-29.640213020538738,28.948187935338417,13.243999292868187,2.260945657259942,-15.430134842144966
-14.039545932592901,92.77377835230159,21.1990456847919,-29.75103262028066,29.24196088777845,13.266447896779868,2.218197271090531,-15.626022454265472
-14.199125586878699,93.48416122650163,21.703692847844653,-29.7935933152571,29.560845175177374,13.316583249800487,2.2132059477802533,-15.785980597190512
-14.31496285029022,94.44147495130495,22.43759024301422,-29.803433226066183,30.01588078941927,13.436447264161696,2.278176607178414,-15.921505629634167
-14.42989227307202,95.7244770007653,23.363624503070483,-29.85570888846616,30.607325331609033,13.615109170050005,2.3874172275807406,-16.067409870534412
-14.600375795777156,97.06188045470488,24.213649834212415,-30.000458824806753,31.181444071852894,13.780036281165494,2.4616864063410073,-16.254731645906357
-14.840135050218464,98.11059785737793,24.760191474243403,-30.211372239688735,31.58718577900688,13.869693237793303,2.447779838301003,-16.480840123870486
-15.108307605114547,98.85528231442437,25.077085476333036,-30.41767114850066,31.850981603383357,13.904493576791197,2.3788707608794226,-16.7150473408747
-15.356617129678378,99.62405582560432,25.457743280894885,-30.581491650973447,32.14767934697468,13.966007935068578,2.338663740094602,-16.93279265805355
-15.573141427866917,100.70130795538853,26.095639023141924,-30.723277118363526,32.60401405410994,14.108367819491832,2.3741466896500927,-17.134503088530234
-15.769870603800054,102.02998211510372,26.924489542743313,-30.86986571662918,33.18030170287834,14.308970299499856,2.462939592091452,-17.3283141449725
-15.943498165553946,103.34651147006397,27.774582427045377,-31.005882941272215,33.75646753568396,14.507882870348457,2.5611157009044607,-17.507220020316748
-16.07741910691957,104.5034262951773,28.57305988796824,-31.102028921072968,34.272853293056905,14.669451135823063,2.6500498782889133,-17.658913981400897
-16.19098412342746,105.52405346149907,29.297880393635282,-31.18226153873302,34.72725534957485,14.78474037331588,2.715752167053474,-17.79841717429049
-16.363984406314607,106.37576505583792,29.80226393330565,-31.329621565062627,35.06689573817197,14.833999183112931,2.707071733239906,-17.97552424750972
-16.681690587853833,106.89554875988861,29.86583919678625,-31.605968090152732,35.19075966492176,14.79497911127404,2.5649571669465385,-18.2354445126811
-17.14333165939806,107.09233478203656,29.528604843872824,-31.974964554984794,35.12660358710648,14.713341110258888,2.3186579277093067,-18.56965709339475
-17.630196136443676,107.44900543494597,29.30955301834782,-32.318369863587165,35.16291188773511,14.738281701928328,2.131641374109146,-18.90917265533853
-17.970733562114322,108.70375670415056,29.938243949325496,-32.524710562402056,35.70045156989481,15.034891565058283,2.2094861258506504,-19.166308617269863
-18.045688129703773,111.1714428800523,31.75283715505773,-32.55594130623363,36.897693697197205,15.62345689329486,2.6302100486795497,-19.285140055642017
-17.859199198109796,114.25993213255062,34.30416116806076,-32.450796887210906,38.44153043473052,16.2974051275015,3.245684212713663,-19.269167936525577
-17.559672391792162,116.69197378866684,36.50052627149347,-32.312452219831705,39.664462179397766,16.709999599920206,3.732381310922909,-19.191884694668143
-17.425506801122413,117.25512357181329,37.138108301820274,-32.3170530301759,39.90615569379078,16.571706585477294,3.7427222567835843,-19.198826214244313
-17.791925862955242,115.5143109442951,35.48479519331512,-32.68738322105697,38.87223168437214,15.833217064610967,3.074168533309299,-19.47433623321715
-18.87228187164984,112.17512200645245,31.783348222154203,-33.55607049494012,36.86986124715974,14.780140809870003,1.8233755087039716,-20.139143914985578
-20.51122721373123,109.12750583274702,27.61967735614697,-34.76419402506954,34.90764995867098,14.015964958841256,0.49410593846550377,-21.107599827143854
-22.04046062398905,109.07700273254237,25.827612970926147,-35.77098738555509,34.53653342447645,14.286045893874958,-0.05415226141100292,-22.010139767839384
-22.4239385756022,114.41648796127929,29.45417047538321,-35.81119242982332,37.21472412565869,16.09517430467162,1.0550883116603968,-22.27999371229071
-20.704483915735356,125.37626872860436,39.86243794647613,-34.238337195257316,43.25813698777214,19.219112869210644,4.1477190977391905,-21.3943711044016
-16.52603712957121,138.49112871810323,55.0412613895602,-30.832013623014085,50.98304815658167,22.428612935995343,8.538539280357963,-19.139579919541884
-10.413380884260471,146.94232674137407,69.59177430955337,-25.880036695467517,56.869490331491,23.774441766017034,12.590622403832084,-15.740944083511074
-3.6255562442466247,143.41603373717186,76.98318386206878,-20.02244253366726,57.04652483213897,21.47584678466644,14.42478332803075,-11.779299031668469
2.343803354368391,124.21459508195255,73.0239687207101,-13.996075537047174,49.41807889816926,14.991183519318298,12.941358615244495,-7.939940629206011
6.346355680626083,92.0441371072879,58.39654635779657,-8.441117226966636,35.111556757402205,5.605696778694691,8.530573829608892,-4.728343106218621
7.948351281306377,55.411132264555626,38.511891523264296,-3.837699512899759,18.218384497450614,-3.9145629661848758,2.9894615522438484,-2.2945831841727315
7.461682485035513,24.682650519770647,20.665967736859358,-0.5146250717409644,3.868042002909006,-10.493161072664483,-1.3403749811379355,-0.4357252670539662
5.720727991915648,7.1293458714742455,10.308866520782054,1.3786716518586006,-4.211334478206009,-12.101946115962766,-2.6937674225853487,1.2550903171046885
3.7774092678701265,3.9910098216474146,8.782761009957891,1.9603254904615015,-5.168624073265179,-8.557358597706937,-0.601011114365521,3.1787358622021356
2.610404467824753,11.126864394172163,13.6821390037208,1.6509673525892354,-0.8058860594695071,-1.3927755114220357,4.124891470349717,5.53386110122399
2.8467344119911124,22.235392974926093,21.03761122872832,1.033825124591189,5.861386917450366,6.961272499725119,9.94716494102426,8.185436246941046
4.523513598983589,32.096909749931164,27.498504939110912,0.5858182935909244,12.102982855955561,14.12509743555507,15.261050930397113,10.65532078456811
7.022982910649651,38.00787808607008,31.3144106079209,0.479990955879548,16.234346995762937,18.418936510419005,18.84208662820818,12.28436438727337
9.304112713557291,39.52335858172459,32.25309076505006,0.6008597892191633,17.68699462226826,19.147145518685207,20.074299897953342,12.531202480925302
10.365308755319733,37.716469580778515,31.189145257821927,0.7032046489534126,16.84170478169327,16.638139588729935,19.042367764679916,11.25196976622392
9.681484187453908,34.61688199742851,29.65598387817456,0.5391130069568446,14.802250674112797,12.077759832308889,16.45842975921274,8.780217784914834
7.374870639438183,32.52001974130377,29.157702579065152,-0.1055934768034515,12.946875241473105,7.085364207410912,13.346496881787598,5.761495814013346
4.0850007042917245,32.89964960092638,30.288063264798854,-1.3651424329945874,12.248741790105244,3.1101047124231798,10.577819263117231,2.880479091076876
0.6818116745560049,35.50586907982646,32.26406689227797,-3.1644159009626294,12.7689576742769,0.9345056410781757,8.543059982385143,0.6700260291720247
-2.0289863360042766,38.51105909746402,33.396025640424455,-5.110908196760551,13.748195936881443,0.560095724972412,7.180231222793271,-0.5310120639734417
-3.546907229970068,39.72733548847155,32.21691087176639,-6.586527329259684,14.226947751346684,1.4701469155276838,6.276090915734965,-0.5573405419325546
-3.8281228569154755,37.97772428072056,28.423292576461012,-7.057818820433024,13.687609411402267,3.009694970028055,5.74482422543582,0.5558476201850069
-3.2729445172701803,33.77899608494263,23.09081643894791,-6.403407376351438,12.324642996117712,4.6461267684413,5.678593109514726,2.494523514010003
-2.508178552204236,29.271442460989075,18.306622991842517,-5.0308936323051014,10.96518496352299,6.074075052024528,6.212076062012867,4.634435857881348
-2.069352779764969,27.628165478682504,16.50903168303631,-3.731320517759558,10.793408849716467,7.223140708512747,7.352265918311576,6.151797039151522
-2.1916984033845814,31.761824320900853,19.46265696926354,-3.3748177989332127,12.813906829262297,8.151454767868177,8.83933362901992,6.284211378765881
-2.8251300632405174,42.127542933312505,26.817956426953096,-4.5476645638884845,16.96965585881403,8.780477887450221,10.036323483423436,4.659746066469034
-3.774747789571103,54.52899025567865,34.978273527103795,-7.185772846230918,21.31621297758282,8.595741861778308,9.930527701115468,1.5588177684867486
-4.776892855319101,59.994766204034754,37.60088786181839,-10.332899336428042,22.118752715089947,6.622014178690458,7.410851199542258,-2.0401813634427137
-5.45781216033886,48.16922605578658,28.337094223189176,-12.265260332076242,15.393502843918371,1.8767778161690598,1.838687187933572,-4.731684407634608
-5.316906021769994,13.073915110113795,4.598761990552794,-11.131939784262633,-0.7200489454344777,-5.89242825221033,-6.384252677657563,-5.228557280205477
-3.888863916947618,-42.312699392563545,-30.130013485303284,-5.904151388823224,-24.29845923482314,-15.712226900329497,-15.69813270502262,-2.9542834423972084
-1.0464577517491385,-106.05286613442226,-67.27901502067263,2.9100577710028577,-49.99031526185054,-25.57095218760343,-23.931219196406957,1.6377481316084666
2.782047746521024,-162.3339489386978,-97.13832897370106,13.295921594276047,-71.37608261334817,-33.267084213712664,-29.262630536651702,7.224343190513269
6.693610653797652,-198.74099605799194,-113.4177997856845,22.5770189529022,-83.95170433860424,-37.42222373098986,-31.039463696281604,12.190754027636173
9.695109309318621,-211.44099002471714,-115.72806531662077,28.618713116996602,-86.96653047790352,-38.04270199601918,-29.965050988024405,15.323526972553852
11.170040060940764,-205.53757021600356,-108.76721243589728,30.706204507162358,-83.16508782924225,-36.32566189277748,-27.58444904876178,16.25806980821144
11.134683958359446,-191.05214575927937,-99.14646544416534,29.636831576668577,-76.86284609889621,-33.90714026483621,-25.435745193213577,15.47799440201709
10.134904951618912,-177.51119685428876,-92.06547143947554,27.071968056745806,-71.72430475206666,-32.06917996980926,-24.39709994345627,13.926941444061685
8.886141685334067,-170.30410544493708,-89.65189325113377,24.624485350706667,-69.49635830819228,-31.343679393290508,-24.54091874360731,12.497806830624713
7.917853856889296,-170.08434360193937,-91.27233032158979,23.22243125088127,-70.03573105815238,-31.590801460658454,-25.41506762876196,11.684842797761492
7.425625656062497,-174.35168951007492,-94.87327200737975,22.990851138296712,-72.11010610220286,-32.324038348490404,-26.439176035363325,11.52655283400063
7.336197155148808,-179.59018692004648,-98.28316631006284,23.519086546105846,-74.27213717183574,-33.0225668504855,-27.173014756863093,11.767666857026256
7.450998806155913,-182.93782843717713,-100.03973124607987,24.226468938207194,-75.46321783739182,-33.329312355697084,-27.421230838607404,12.076518308078082
7.557056552716346,-183.1467274440762,-99.77930914430426,24.638391788498122,-75.32756074164102,-33.14877884421662,-27.242235508517595,12.200982772495164
7.495173798012588,-180.7880533636257,-98.19948631001627,24.537627203970327,-74.23600416656163,-32.64599174926905,-26.886430483970955,12.038696316269714
7.212249722892037,-177.621623388664,-96.53404192573409,24.00080307908606,-72.97651549599752,-32.12376277358486,-26.651568845827512,11.640066806642094
6.7805054616591125,-175.3903465661766,-95.75543649944841,23.30932040764745,-72.23363738593093,-31.824986514860743,-26.707370994769246,11.155899224745223
6.344890332670721,-174.80664450062707,-96.04644745824187,22.76014461824777,-72.20142709117792,-31.795421396844908,-27.012248906278185,10.745088647513926
6.019493877770916,-175.42420285272118,-96.9170170529018,22.48972044342023,-72.6035377332094,-31.9075053110987,-27.38781978313495,10.48859759906823
5.819027565720518,-176.3064685016662,-97.74774789407805,22.435326430260833,-73.02445410987413,-31.996573482052327,-27.67036027452619,10.364740063624136
5.682492870868322,-176.7389425838548,-98.19269130171514,22.439604099307644,-73.19732375288986,-31.967821765273584,-27.79766568637761,10.293808166195538
5.547189775954552,-176.43093376111358,-98.17503710105898,22.37784286968015,-73.04251635657226,-31.80300821958236,-27.788938534597367,10.20059207689355
5.385798582217077,-175.3822662525774,-97.73761712993793,22.199929114546773,-72.58730020116026,-31.527658357330033,-27.70081597308973,10.040936571036944
5.18340566725871,-173.87959720950758,-97.0764595458929,21.903159639908136,-71.97664583171074,-31.21763342417823,-27.63209492295216,9.793870543127408
4.915485552181884,-172.6260842294846,-96.65849876965977,21.522280963836774,-71.53686431799129,-31.01826918190813,-27.732706120872294,9.460841098830397
4.577882534025861,-172.5443810736001,-97.056448452801,21.156165644471056,-71.6661374263956,-31.085097646737804,-28.128260543876046,9.087535170738505
4.232458132541978,-174.0759209119149,-98.45172139356366,20.955588962455998,-72.50337427847833,-31.441326577348683,-28.779106569346865,8.771499949396912
3.9913729154232085,-176.52407292964645,-100.26270737262453,21.02080639998688,-73.65975031131961,-31.880461180977168,-29.41618377368045,8.616633216756412
3.930233155415453,-178.18532690273068,-101.36034359075182,21.280693023138184,-74.3365328849785,-32.04176384847852,-29.662771829111666,8.653211130826731
4.010210773028567,-177.34996010196326,-100.78423624041689,21.48376993157938,-73.8126524993749,-31.635131488026953,-29.283439514559614,8.789215789807734
4.085843006970212,-173.47851586236328,-98.41991467733688,21.339393565472232,-71.95529097176527,-30.65959120727568,-28.38605417554688,8.838290569941922
3.9870600207300897,-167.79882475319806,-95.21856373896645,20.7101550098395,-69.43159337661088,-29.47828895259165,-27.448985070882564,8.609366241315266
3.6060409436883876,-163.0864241163099,-92.94788776794975,19.727296673672686,-67.55368339021892,-28.720485232561998,-27.163198634749005,8.010780968811146
2.9517508700266393,-162.730046826268,-93.59335737012451,18.78215233406984,-67.8177645185035,-29.03780469397349,-28.132454603521914,7.132828938687873
2.1852712932301754,-169.1290511344527,-98.38681727582335,18.40980814017532,-71.15665535812622,-30.74125051237879,-30.481225492322285,6.280659680620101
1.6274699316936898,-181.6345735734881,-106.56426798234283,19.06702080714312,-77.02343116953561,-33.40745702896825,-33.496915008016366,5.910805481419813
1.671822478721778,-195.00797403919066,-114.52616957583302,20.811184038273705,-82.78889307723647,-35.691792048357264,-35.568913279013366,6.429613848489202
2.5600073961959606,-199.97671409133505,-116.4307230881385,23.00252555500388,-84.16516271565466,-35.63941333545242,-34.67895031660591,7.8967153383535615
4.115579636488495,-186.74032661838996,-106.61908942401408,24.282388059637828,-76.9462367251388,-31.55177392974282,-29.392790995872833,9.801062918620643
5.646079254897831,-150.20094363345635,-82.85244530331313,23.017393925059295,-59.37499514592295,-23.030008688524983,-19.860265271803424,11.113599992017255
6.161209303033947,-93.8598552482454,-48.33940929398285,18.088985342309137,-33.69696358441368,-11.536715705153602,-8.140353621489215,10.686163474886069
4.829798287948567,-29.531324412693657,-10.992700544039671,9.578689978169946,-5.709431833135948,0.0014272807107308036,2.515003404897764,7.828671501655742
1.3994078434811759,27.50428927201869,19.902707088467047,-1.13309716461548,17.668953107205112,8.444469172622004,9.11999423732535,2.734344969475471
-3.691440243539441,65.2430210460827,37.6819059208679,-11.981717078392267,31.45194238231751,11.85662413512575,10.325299959962951,-3.522568751619812
-9.558531273590487,79.60039323056556,40.61348035902503,-21.16877750109069,34.46862270316583,10.26680321305593,6.892540019733077,-9.43461422869933
-15.257285531075995,74.45539298208459,31.4762045997023,-27.80727875240117,29.116385833139454,5.389722371923096,1.0698999947439167,-13.68562540995829
-19.996073611307356,57.876258235189844,15.341974787316047,-31.836518371741587,19.530661518735076,-0.3707528272561943,-4.594830718497579,-15.581582488869268
-23.04839293211592,37.7893488678606,-2.432005188457746,-33.3558891814475,9.693004909174865,-4.9009340478804395,-8.180549441829896,-15.085963848123358
-23.559935706114942,20.004596706585712,-16.79412753244995,-32.011785217056755,2.6456250536804067,-6.8046803645859075,-8.615928955716848,-12.559225108495873
-20.606836970198078,8.822360746839998,-22.773475314952304,-27.038534908538196,0.7077535036325548,-5.327572248718696,-5.42294988785437,-8.483314627263926
-13.66051800146694,8.069800155201833,-15.975279081886717,-17.994514840458955,5.671935088203982,-0.2194746533374088,1.4690395224945278,-3.3755808461469785
-3.200093518045677,20.53586347953366,5.582435612584744,-5.615451195623896,18.249990167904116,8.157174480338838,11.55550459536725,2.1353308908711415
9.032510687231138,45.96516078052362,39.45290760250161,7.943600639620595,37.12185966283192,18.609274502722617,23.474014403511216,7.260435100867009
20.468249250792,79.66253155446324,78.51238369919551,19.77493630433223,58.64914501416559,29.180913484375285,35.082130143851685,11.180369040153606
28.703031351753463,113.56034974449379,113.3876846578092,27.4428563636427,77.95464742219534,37.72758159475455,44.11261526034604,13.332040499347572
32.51256924898387,139.62728565363327,136.49057944329817,30.04206940943124,90.9922102534052,42.7863737389957,49.124557982458704,13.675854541197456
32.31859282561405,153.53079875268233,145.2969304011431,28.500096704515858,96.37015869777305,44.22665135349632,50.16257365157532,12.752235872280346
29.868078042005898,156.1200153174628,142.89468806022748,25.027203078925925,95.74243348797927,43.239188667646374,48.668362935511226,11.462955932043858
27.342002716974086,151.8527513234786,135.60155087150395,22.09072624803315,92.52172480307505,41.63121172843405,46.66323810926819,10.681012929324424
26.378588239544865,145.51857226034068,129.3064089697655,21.435200203040807,89.79451652036968,40.84190689337315,45.684077958952464,10.879205753099917
27.44104057214098,139.67786239532293,126.75608990712095,23.48238836614997,88.76413596997544,41.24510414224749,46.07028428149199,11.92930324586478
29.703004549644987,134.2995645775772,126.99862382309001,27.189788434333458,88.5131113327591,42.07085137200517,46.919175912416705,13.12728035910964
31.400167103070277,128.125625516685,126.63137134778746,30.35049349356999,86.89993409621827,41.8817409786592,46.62023863954626,13.43265525925701
30.50942968334694,120.15492580572256,121.69215598455526,30.331065014501863,81.8199550838404,39.29246635366366,43.645935489706005,11.875606649126516
25.579384582506364,110.13406812169494,109.29495750037906,25.145718394059642,72.17149942880633,33.61701235420223,37.27419790420935,8.02337741817194
16.446102348429722,98.20709131474834,88.71678306564802,14.496034450021549,58.295166516325395,25.231652738085977,27.998686719623112,2.302829455343521
4.496257274640982,84.56951778978123,61.872034139658666,0.2100004733644758,41.92082590488238,15.530101950284637,17.459050061304072,-4.045648314741245
-7.744093111785698,69.66241678339067,33.01792897212945,-14.30974245688473,25.698087544496424,6.450798925771701,7.859218955755305,-9.453253468685862
-17.58312219241601,54.6837555766393,7.575993640028588,-25.476559042190182,12.405975002533943,-0.26853687791182357,1.0761173408138256,-12.740851771488147
-23.241725752632412,41.732318539987254,-9.697732901217003,-31.052254956112012,4.037283535938251,-3.7823106026366324,-2.133231724601344,-13.671465308194174
-24.485265035743183,33.12987771716452,-16.515294756978594,-30.9940133697211,1.0750044923442947,-4.425371694394566,-2.4166925442994174,-13.00549086090335
-22.50424799814138,30.240273203357713,-13.9439699925516,-27.19828112548622,2.317687457250359,-3.434384021234966,-1.4365581393757865,-12.030674257647005
-19.178223520706727,32.69167867412829,-5.819661333048286,-22.397579564795596,5.435598696360096,-2.2514433264362657,-1.002128396182963,-11.867825794845661
-16.19738664434514,38.58876699171669,3.006836871751453,-18.921977341164066,8.013645017801954,-1.8225755702319255,-2.2099646689814803,-12.97011664256433
-14.51945857490861,45.33060414060573,8.501261718131508,-17.959460242136938,8.451440531347643,-2.3153493989486025,-5.076438710252056,-15.058164312422905
-14.313758930089929,50.19891650832286,8.378696014000742,-19.464521727588096,6.202865372444574,-3.3685829616222893,-8.801823802100397,-17.410922838364176
-15.177975083607743,50.57294164156573,2.156894567152675,-22.433904648304846,1.4679583503958704,-4.562660489588095,-12.344800114854118,-19.224570572523046
-16.328006533382812,44.539021037866064,-8.859482640745643,-25.24234244197115,-5.038695732067528,-5.642063992440491,-14.808733893910173,-19.81056491700842
-16.690157534385992,32.39242016890939,-21.230107462537568,-26.005828906554445,-11.853168491578721,-6.311826818327545,-15.424535875715865,-18.635823839686903
-15.075882987990584,18.111089835523376,-29.350100528015865,-23.112002693362896,-16.446118121720858,-5.905130895748856,-13.382359589356382,-15.368839950193184
-10.595541352380687,8.988780917093148,-26.84441776524971,-15.89720059874176,-15.625372224670418,-3.402785419931264,-7.935546748162646,-10.036906286382608
-3.1875611490794213,12.608330335604938,-9.454484956050104,-5.146617111903984,-6.938841722998963,2.0246794018464347,1.1045712703026813,-3.207011953297727
6.096732514459968,32.556510448305,22.108247013654122,6.983351940898277,9.648666086478881,10.29450168552864,12.833774810581332,4.0107059478122835
15.345682626091712,65.67799241974257,61.412688221033505,17.73063271102054,31.03707586150733,20.084488415574604,25.195636738005057,10.252518154086449
22.53184353400582,102.91057955845376,98.58072079683512,24.844779835409636,51.952910702734194,29.226977587369305,35.613789068095336,14.38836351850944
26.363245511750222,133.4091836036894,124.5216105526871,27.4708942392275,67.18838591898935,35.639131637178174,42.0285739606064,15.954695448124337
26.778223875575907,149.52914672347285,134.77109107389992,26.35599040258896,73.84857909209789,38.23818702998672,43.75055428084847,15.302286676424812
24.85484013809349,149.81646467600393,130.8827989490618,23.356017445641335,72.35562942480244,37.324610406851306,41.66248025058491,13.404849096349757
22.262233494746994,138.66641518406118,118.94657635735118,20.60200050762318,65.81715782600449,34.29594517847573,37.72718301560856,11.462837466920028
20.588330160987933,123.535988669455,106.50947564688948,19.748920960677925,58.38996317727093,30.969244943390017,34.15176686717689,10.496791046209223
20.817022027987164,111.75832657999058,99.6955991336246,21.50525495762712,53.66720021209783,28.92138640663281,32.63015507841931,11.043445397642975
23.033260812800982,108.36538365585001,101.4959711990481,25.415097552211208,53.68425971284859,29.059788180634484,33.859269894709726,12.968445016655778
26.338239400683587,114.91673622753167,111.10738881013094,29.871097118089544,58.47098327349039,31.382555458143585,37.30181994772403,15.410612201763188
29.02046968205928,128.82600629753566,123.98164551517735,32.48090662732701,65.91756734859023,34.86380567050607,41.19023016351464,16.94565376637344
29.077813856946275,143.43665921123429,132.8231063955848,30.891618367947057,72.10452182531213,37.578357814302635,42.92287247941354,16.053006881971697
25.038038520265633,149.7935979556178,130.0012193132534,23.872282056880398,72.4832684281216,37.254965079258355,39.97162700779206,11.801564411137836
16.743681955118213,140.3428695544256,110.98918215851884,12.108231893519743,63.84079013395882,32.21571076047558,31.075123207330936,4.44287030679019
5.627635978386227,113.02861315335893,77.16674994180168,-1.8504794531463196,46.15309130194915,22.285317137891315,17.1102148510463,-4.469602281814151
-5.7859520411511935,73.19447882569648,36.031719595028186,-14.60368914236346,23.093194970620672,9.109290577397708,1.0270572184863773,-12.609407556453654
-14.957400770976767,31.612925946950526,-1.8283346753673198,-23.38289162168187,0.6007821693188031,-4.403134132825547,-13.280235498132559,-17.847938852018398
-20.39880031652909,-0.6067788291729677,-27.56848075876595,-27.172194082604037,-15.843430015670469,-15.268831664641096,-22.627917584118112,-19.166603540038466
-22.138917127626947,-17.319454980968082,-37.9854447750938,-26.857832459698933,-23.6856855437903,-21.61611742250808,-25.82388851628359,-17.022875233332275
-21.385725526261897,-19.7026678090186,-36.26230756746791,-24.42553708253646,-24.083818927299845,-23.25013947060038,-23.905450074975512,-13.008932951502551
-19.69661147351301,-14.474654360272735,-29.371793314422117,-21.806978691918577,-20.69374161458094,-21.398846681299716,-19.32259742968599,-9.054638585195168
-18.212693269383184,-9.481674533704993,-24.01704980395294,-20.08701476642147,-17.41359413663702,-17.931020177651078,-14.665043077904363,-6.638273184542701
-17.343882636791722,-9.555879702507294,-23.565222298909188,-19.39706915205108,-16.510853002702802,-14.54273113659707,-11.660480710192587,-6.361193844452197
-16.908460061319968,-14.744647016178856,-27.290274439163593,-19.3139831986786,-17.983782249448446,-12.245095893241597,-10.81292605772926,-7.956200629991758
-16.479605084629387,-21.137525047066546,-31.62489213519662,-19.35863517606938,-20.077568471096075,-11.208958047282186,-11.598442467568145,-10.581324327764865
-15.71355775015441,-23.34401269207644,-32.382289231741886,-19.305819024471244,-20.42902151609924,-10.911976344041765,-12.961329512363333,-13.217056855298145
-14.575453443419134,-17.663693491288544,-27.133383795073993,-19.235056854968498,-17.44020815154705,-10.570668712314658,-13.93279787694313,-15.04674053951747
-13.431985049409231,-5.099877049890739,-17.152371657326,-19.36644912529738,-11.579863865941414,-9.780175991166383,-14.232551636071767,-15.72422516219683
-12.944161951721428,7.154243976075344,-8.054396777139758,-19.766922351299097,-6.031552259068916,-9.0500236264406,-14.591428881690335,-15.423755301782197
-13.729002077544372,7.451552770209852,-8.133304231097197,-20.089856737366702,-5.911922852350599,-9.781812690243994,-16.480803760276228,-14.630267765908213
-15.925948985369995,-14.905869072995166,-24.382116047988912,-19.57605407029637,-15.850770664745063,-13.489554606510602,-21.209920731495938,-13.784889275514828
-18.948138098706107,-62.80102669357793,-57.942850324401505,-17.43359103053453,-36.9460212913687,-20.63260856924695,-28.84329175017205,-13.017372547247914
-21.636040462291067,-127.13008475405331,-101.78193033779759,-13.420612087225006,-64.97540323928921,-29.846188029503832,-37.665650733988045,-12.13978824521529
-22.77779815394672,-188.69416774198916,-142.53835362193388,-8.223482219547412,-91.34426895267411,-38.21300477590725,-44.678179997799965,-10.878605576705151
-21.718737038340944,-226.1118862291995,-166.11383224940394,-3.3039473781737785,-106.68265520831862,-42.576260034669716,-46.97924394245924,-9.15600227442408
-18.724652540392974,-225.92253051964587,-164.25679720328134,-0.24636255791991604,-105.32375640254361,-41.198711668862934,-43.29985983901982,-7.220352907770719
-14.894956015045748,-189.4358143686805,-138.6334559795752,0.028906559064021873,-88.22549219561638,-34.7963248277318,-34.80907737449907,-5.546192706746785
-11.641430447768965,-132.46645276724604,-100.11423267637544,-2.2418935852225825,-62.657952892563436,-26.29159065916015,-24.67097394523652,-4.5681722199087025
-9.963509707026812,-77.86905738284732,-63.50993046054949,-5.705300215608037,-38.70734732738392,-19.34379198179147,-16.51544299437042,-4.402715194892346
-9.894072015478383,-44.58980094971019,-40.420119790205575,-8.45597863818461,-24.36379105399023,-16.409622883425186,-12.606324414042403,-4.724225463024899
-10.473576702411155,-38.81388370760497,-33.947362227534235,-8.9390981520437,-21.76036829965485,-17.390968616023933,-12.71094282671331,-4.898619168838678
-10.361600408268503,-51.82905711130057,-38.14911749642716,-6.846919200010717,-26.59013495616206,-19.668509638434813,-14.345990672699628,-4.342663600090109
-8.784355556175113,-65.80103132029652,-42.52813973040267,-3.5487475314252626,-31.043911703542673,-19.592775457877174,-14.321942991819498,-2.92483280422672
-6.213303201640002,-64.3366421769015,-38.9042134621869,-1.671816191580109,-28.611522168230493,-14.660661148458496,-10.726599567725483,-1.1544669554849545
-4.258528421909106,-41.913364608881636,-26.51541819147799,-3.84862575811049,-17.960527694385885,-5.14534288545931,-4.173427625970766,0.002695753443550511
-4.752589028404245,-6.881460431648393,-12.30511170509509,-11.19427461947645,-3.656262299178607,5.789353225959055,2.45076659624992,-0.3720473186791737
-8.561625231284953,23.443329525404533,-6.401927975802668,-22.37443518710073,6.584108905902354,13.596277196434018,5.602696203293769,-2.5896034227941453
-14.875622815952342,32.51563669052558,-15.72560800947348,-33.89127742890791,6.370443425253339,14.654880892281689,3.1151684383430642,-6.059345371631405
-21.446221330655877,13.51388512594195,-39.60689373591324,-41.55158407011774,-5.773825230677724,8.131204399957456,-4.527478731818962,-9.460741518743491
-25.662524129547275,-27.348095660464473,-69.92203029385283,-42.39319521660556,-25.683279368786437,-3.5957290915937095,-14.385403108488886,-11.328197757606661
-25.857875495096845,-74.6768440236263,-95.53186720174841,-36.053215707335255,-45.95049351084267,-16.14220646359577,-22.603912169898607,-10.756907309978116
-22.113072351014765,-112.43839480523002,-108.34915579038193,-24.845509283298373,-59.9661508800305,-25.289907863660225,-26.41856705100251,-7.847098233903035
-16.118127637625825,-132.1348375887308,-107.4434330683134,-12.522768134393123,-65.21858145405525,-28.928893298345663,-25.481436042359437,-3.6300025706981227
-10.191994757820105,-135.8628747032264,-98.72895125244106,-2.427869993099292,-63.93063263312854,-27.714322540245995,-21.747608356535665,0.4934340005700615
-6.031817833723127,-132.59952435221848,-90.40712222774101,3.9349731535003447,-60.71591217023269,-24.123697344333383,-18.007535065239868,3.4799201632043957
-3.906065486387335,-130.31810438054222,-87.01391636820878,7.1581763798018,-58.815234918211694,-20.56911675751113,-15.990914891247625,5.106918374985954
-2.7318303180983587,-129.34332900183534,-85.97803289998554,8.996242079046983,-57.460009320839085,-17.807388053493863,-15.262931841080698,5.905942893798979
-0.9359399115910124,-121.63069464291777,-79.11275458489524,10.945011375446674,-52.22630733363929,-14.667664812583139,-13.62786431163731,6.650934467408089
2.475064350283335,-96.57117786196935,-58.190585844160076,13.284583554592455,-38.20284477715625,-9.192745136025469,-8.741252546124388,7.77912041346635
7.305338349502236,-49.273882960452596,-20.91915526505389,15.132809041969978,-13.804521314899889,-0.31909915836289765,0.17921091044640886,9.136205950557526
12.347232430601506,14.470322170698898,26.649293290714226,15.31975792629365,17.39341504064529,11.093305503922133,11.674048123820784,10.171688033380232
16.149678276865686,79.92825423152259,72.78409134473885,13.371696709164482,48.02465711981713,22.540132012559887,22.772958029538508,10.385001228826997
17.841766588804376,130.6172570534379,105.97995884778518,9.923650098445274,70.56065115304014,31.191666662321115,30.578721285741462,9.683491444459747
17.516912477398336,156.25485527087264,120.37345339876177,6.359741023822029,80.87765929060343,35.33612782524923,33.67404881637902,8.428016100766685
16.026897504725238,156.72606438712748,117.62694619994159,4.018152954001398,79.6993991508875,35.06540171128367,32.56402684045878,7.187835376015892
14.419860282171992,140.34233956441298,104.7548699484398,3.5289041037786704,71.39646371905717,31.921495450220792,29.06923659577756,6.4139794168134925
13.42323510091527,118.36689520435048,89.8532814753157,4.667055662626018,61.281131246316434,27.905051416217223,25.221630688871635,6.250896755843367
13.242340965316464,99.5957837638073,78.49979893226379,6.688689538091585,53.18680554415851,24.53707482456411,22.375729051623402,6.562248018709516
13.669777687634605,87.79908220344129,72.47124497685147,8.81036100777074,48.498334962620575,22.442251666414347,20.92027447702173,7.084212184865066
14.320889925278907,82.32657122383814,70.59217775902178,10.509081330726062,46.613017999673495,21.47089871062306,20.509759464721157,7.5692808040662465
14.831672542067407,80.32147261022031,70.45611564098151,11.569160584641349,46.042049055986126,21.08260035398132,20.496936308224726,7.854274031932802
14.975382054849172,78.82509287373317,69.89852457104557,12.007586129360012,45.38563070289485,20.716543235655656,20.305268672171646,7.87493928500884
14.717025594219368,75.94784745814952,67.7699927472654,12.007852005209521,43.84938563438114,20.019110515649,19.638252695383443,7.666437259454071
14.203670167027424,71.05234096685248,63.9947506618991,11.873533165049059,41.292026598616545,18.900587148104904,18.508044932934506,7.3504476813875135
13.675914469450328,64.18947937054303,59.052387881019726,11.956584387012503,37.91128725934004,17.434752002194777,17.09977237313693,7.091119677636249
13.335705569819101,55.260016335719975,53.23621671857844,12.558609854762924,33.79787160709134,15.681202350712242,15.560284310614238,7.029437340760955
