FZ,C3,CZ,C4,PZ,PO7,OZ,PO8
-5.397876181964824,-36.02344504342828,-28.491379213194453,-3.5024425048853307,-17.06613613170858,-7.37453316666262,-7.37690520616163,-2.8725091374548044
10.167064215188411,6.397691691716599,25.599510155898493,13.939443237149735,12.577703209556738,7.0928187602675,7.588229107063567,2.1762321034655145
21.425189666187208,39.143499200281894,67.22471778096579,26.73899449542365,35.184129950888256,17.948982824721966,18.92205740771993,6.047268110440573
25.9732924338134,56.52360033098391,89.2236659021863,32.29511109328059,46.71494494417868,23.256921065252495,24.666645746526704,8.138359815683296
24.201143691496686,58.904731903725015,92.26234565463723,30.947757447274483,47.580953506398124,23.518867413834663,25.266567749316067,8.625543831033141
18.777847620990595,51.90737336584804,83.42905355253222,25.35893784264448,41.87652120553072,21.157222732190093,23.006314163087694,8.204346167011762
13.150851197151095,43.104718432035156,71.9187957643512,18.94160636044689,34.906622144625494,19.0401521482185,20.56336504591364,7.611026193219355
9.958443798662985,38.21916311371447,64.52285344232335,14.335045911627663,30.54269536639423,18.957231055605718,19.615692644679463,7.282922174110791
10.131328284004915,39.09425429399377,63.44264216234981,12.6390380729222,29.92077517895762,20.926531429671364,20.30839846200977,7.335666205123728
12.92215878179743,44.241438167097606,67.02630857326014,13.497452190725436,31.908663337679688,23.601383498473027,21.70613179344816,7.746082470610961
16.60529865069116,50.83282948521761,72.06070456872983,15.698119379645007,34.550453472982376,25.33042040025538,22.70331181980889,8.502236445009347
19.406990841496413,56.42854409988763,75.82121046911944,17.904146629740158,36.35125761943028,25.143816496478617,22.727652835412155,9.592764782285293
20.28380597019238,59.72512368619095,77.07754274356624,19.243329809739123,36.84052646043023,23.182774420410766,21.923178689571035,10.895871857292596
19.276438936225787,60.718328491730276,76.25425988525748,19.559203836817055,36.52897266349658,20.511680255278,20.907184158016076,12.106566206111413
17.301879616653284,60.66054186610214,75.0377764046985,19.22551195148863,36.52116313001778,18.514584805852852,20.345087100427396,12.782324964514327
15.49294185146845,61.54576852741686,75.41968504380881,18.65595739629654,37.876113585065625,18.158970301369987,20.541418442279195,12.493855412065406
14.481612664811593,64.87915884178456,78.3730304910192,17.879273197078888,40.8643964564722,19.449689742470287,21.21146189881455,11.015786052072126
14.095501453766888,70.3752071814704,82.95785928792363,16.52373489577402,44.56008143686747,21.38504836863671,21.58823324729819,8.475971342277578
13.648092294698069,75.76065972767104,86.68272993655461,14.2145346962296,47.20471364756553,22.520900164298133,20.88422976962059,5.382832754967058
12.55962209162084,78.11203547088061,87.04453986562892,11.03605002424991,47.24956217253178,21.866566840820802,18.86647750365579,2.4888058190505244
10.833788034494235,75.83175162844645,83.19961113628185,7.684058088266576,44.405045176216234,19.568420761891517,16.158828971737602,0.5357948808632415
9.094699652128893,69.90409252581547,76.70734610362457,5.21574868907394,40.02420295123464,16.95086864769896,14.0495234380053,0.007268808937308368
8.237307087117312,63.806839698200186,71.10016463105332,4.582001424800183,36.6750225801895,15.898366862109153,13.92092385074719,0.9985357064432376
8.941618535467333,62.31317275187856,70.64085895857106,6.175425335809615,37.18835896292408,17.921518600206845,16.61140608445463,3.2145248012225687
11.270427852872,69.51936175993094,78.5508384980799,9.541311330636644,43.45399119305658,23.321901116728334,21.94665618121289,6.024309035516077
14.480555865078381,86.28749715606249,94.89421591597254,13.368750505759003,55.13658577034679,30.751780458292995,28.537600947673624,8.53890338368197
17.151689103841584,107.88068669784424,114.88358360917952,15.886465217353622,68.75756730323374,37.36237383945531,33.939166475558224,9.778334187495734
17.68897725928081,123.58532747982632,129.1033797686784,15.64354938856692,77.99203883476035,39.64323910179626,35.30190737152943,8.995120978237878
15.065607900581263,119.96421406031403,126.70984728315472,12.337162655560084,75.78286493565876,34.8062770227102,30.474145256976254,6.063759164187188
9.431713517894408,87.21565953607599,100.71729697747132,7.144987433491332,57.71260304072926,22.172391929659124,19.12669931024097,1.680755598165539
2.1823896769960687,25.339506413267173,52.46478872994894,2.2301864720596125,24.829925434462638,3.8009666207262107,3.232681294023925,-2.842183630873044
-4.631976651874541,-53.99926007582396,-7.779252337094422,-0.3650384101156378,-15.988471343067351,-16.12366555401252,-13.52741653652531,-6.148100745301575
-9.246287847126037,-131.73160772348373,-64.9202134808031,0.22989998296591116,-54.703866122505296,-32.952685841042054,-27.240187854741787,-7.453116796497221
-10.936528722074481,-189.71676559468926,-105.70376721368511,3.361033372472926,-82.46688702861422,-43.45315177798026,-35.358127642492846,-6.849954525903105
-10.186946174993734,-218.46240905290475,-124.19551916870789,7.358691140489227,-95.24177585211213,-46.94275711036734,-37.579788173945026,-5.142309945759346
-8.24598221838321,-220.02014449250683,-123.1885341094419,10.51491756493228,-94.79689785077971,-45.15666042045394,-35.60561479950561,-3.353235585555612
-6.406089938864246,-204.99655706573523,-111.2884042995544,11.896302087847785,-86.83735622146214,-41.05591172210089,-32.02610300747767,-2.224826289572355
-5.444813112616826,-186.18110546090642,-97.94879343539831,11.567940061660208,-77.7230467273045,-37.341123280519554,-29.05197037411452,-1.9769133463910256
-5.474727486715546,-172.81101006688857,-89.46159631976259,10.256721688923442,-71.75543477995626,-35.47138154751123,-27.759930298763102,-2.3839276965415888
-6.146049877277102,-168.18788292744034,-87.61360462771707,8.81367924688717,-70.21865714605414,-35.53451524198061,-28.081668408463294,-3.030371696267517
-6.967653931487091,-170.67151602871476,-90.71828672246419,7.829002332177055,-72.0357837476222,-36.75198324866015,-29.285251952469405,-3.552278935074148
-7.550960399601688,-176.25979519945918,-95.61049935025378,7.51209087049164,-75.1085876420684,-38.140950381321396,-30.53084263207777,-3.760137292964634
-7.722845610593867,-181.00537448395625,-99.40460738958808,7.7479892874311735,-77.50863351375645,-38.98448403298779,-31.239941971744837,-3.6508935237513898
-7.53677123486971,-182.54060016111598,-100.56049931632843,8.224858711994385,-78.19090120508389,-39.026794905616846,-31.24078167729174,-3.3571143276635285
-7.204649504283595,-180.64496896564168,-99.20075220046091,8.596968870257696,-77.20307412692459,-38.449432974712785,-30.736485899766592,-3.0629605142837044
-6.964532989458139,-176.84933602174448,-96.67053262205626,8.652027990229952,-75.40623803232927,-37.68490668103856,-30.12901955992155,-2.908507047716408
-6.942886950934886,-173.2255220804977,-94.53434664929277,8.398702355542937,-73.83027022754851,-37.13867267740833,-29.764114666506543,-2.924464375622357
-7.101772539189205,-171.0445588656891,-93.610075737705,8.007510571280427,-73.03632994415294,-36.96367338060932,-29.741252383804753,-3.0393632309053764
-7.30531154188579,-170.23905783499757,-93.70267745021019,7.658131774614772,-72.91908726918722,-37.03635404923402,-29.919315471345477,-3.150346391148892
-7.436057669238561,-169.9747366364764,-94.12189173223248,7.434066841859006,-73.03078657203193,-37.13484721224736,-30.09244471122625,-3.193959678604377
-7.458153832017034,-169.62975726381504,-94.38045768390484,7.340388635048698,-73.05117265630682,-37.14437955146478,-30.16263519868204,-3.1621913144917073
-7.3995424704930235,-169.21358952011707,-94.43347906654189,7.373604772939273,-72.96597997482903,-37.1105442791669,-30.16668638898833,-3.0740717261562844
-7.312573151560373,-169.0146535571959,-94.43528172389523,7.527894994010996,-72.9030334411726,-37.13560210575733,-30.185425471768408,-2.954806552443503
-7.264538077763743,-169.09759312716415,-94.4770245904114,7.732484714735352,-72.9252007635959,-37.26057530082498,-30.265567985724193,-2.844015139087344
-7.333256638190718,-169.21789893957603,-94.5839891536535,7.829522753787143,-73.00118387088692,-37.4387460182631,-30.413735755060948,-2.799446244816946
-7.557794884492738,-169.0338775990396,-94.77405385547333,7.66498738618534,-73.06140447108768,-37.57016790714401,-30.60457478872948,-2.8618599623302896
-7.865400011593245,-168.19975468864496,-94.93191560914093,7.223720955696205,-72.9703780795136,-37.527622311598165,-30.75336727442235,-3.0039232936860936
-8.065537295950353,-166.36264760685754,-94.67856227756593,6.677274612661528,-72.48983096174946,-37.19231006953099,-30.713027000187534,-3.1229822468701163
-7.9618274639689925,-163.47035308099782,-93.62186208608432,6.303460239035787,-71.45306636484051,-36.56375725808192,-30.38101992269935,-3.1006343567791013
-7.513787550294908,-160.38496224754167,-91.94092954399642,6.352716970271998,-70.12046912453344,-35.90033647760159,-29.868254325492178,-2.8843333665030055
-6.9185826119956975,-159.04790412068795,-90.68677001197557,6.936634074819584,-69.32326175174603,-35.712582749438795,-29.548726287842506,-2.5292671599262335
-6.544873517794079,-161.47874088514493,-91.26895675792049,7.937809164761309,-70.04966965118656,-36.48436564757897,-29.867559661664306,-2.183594761972636
-6.755523242221135,-167.95033740275798,-94.34818391426805,8.938609062965316,-72.63028011332653,-38.23883345509004,-30.999391721884294,-2.039100381574412
-7.695343679090397,-175.66845916975706,-98.93316541156464,9.262555264634091,-76.10187584084595,-40.25363884638578,-32.58947049543397,-2.257224294568458
-9.102186244469017,-179.07555271028647,-102.27566397098991,8.24934775691368,-78.21570954185992,-41.16070657575666,-33.74074422792731,-2.8605180307801175
-10.211733113417466,-171.7186304559289,-100.52089641336995,5.71234448790732,-76.07921994112897,-39.41220777060237,-33.241873037756285,-3.616372731590369
-9.874506218208001,-148.6763933453147,-89.76134055667502,2.2801608981278934,-67.10125465404147,-33.8927485062619,-29.94455692466155,-4.010041606422371
-6.971799285064901,-108.52128214322995,-67.29705112494052,-0.7174403476719173,-49.94141314918654,-24.425961686651437,-23.205358713536402,-3.4046750523132716
-1.0292663363398442,-54.26551700666664,-32.97799695019803,-1.8785295112647262,-25.265226604686386,-11.989298620201719,-13.282655898395056,-1.3658320736807252
7.299735087508346,6.945033568304009,9.820264954799521,-0.5319939661424732,3.9525565309907127,1.4671608590105034,-1.4982465234141034,2.026880488649998
16.245982363282906,65.45932303677976,54.33480331237995,2.810405296993464,32.887558748494094,13.582295559264756,10.024305098934805,6.100056303130048
23.546841689978645,111.79475758399674,92.12726738200959,6.6815864071941276,56.18188721985022,22.34442009367915,19.04665809221787,9.828901109083944
27.408603775053397,139.5877878249812,115.98629855625623,9.44773558192453,69.76228492726393,26.752439582575505,24.06182964327,12.28118694010353
27.28776121933447,147.72910489286238,122.7781593059331,10.157780855619803,72.4075548166215,27.1008295969452,24.881174937788327,13.003838840001286
24.044682620274184,140.64929216134303,114.71505338677039,8.922912513444219,66.23588124949312,24.755807755817617,22.629586482607586,12.132916707805391
19.398707864182505,126.33436616088655,98.1624730461517,6.650496886540176,55.70260821672902,21.50520826546034,19.128173223966744,10.205114495161991
15.046947862347182,112.83279105692998,80.54273975091725,4.414852798432245,45.541310074159036,18.794324093223032,16.024109788626834,7.853657981427507
11.981293222975175,105.10569315190992,67.16861809591828,2.9286788083787485,38.81488571424525,17.26384850140239,14.197960425455259,5.609520861838868
10.32064075337217,103.97140226859852,59.81862053513261,2.3716151445530578,36.181478181227675,16.82431272553524,13.74965050467027,3.8726682854979133
9.577179718607185,107.37196301327415,57.45390946403996,2.5003789923539035,36.554645305726886,17.104655152048345,14.395151518494881,2.93644431945109
9.05203028066704,112.53558076253651,57.95762660209978,2.8395298999701866,38.355968956588384,17.846894734070773,15.82788271650716,2.9332995573679814
8.142404981290355,117.37952262225585,59.493267572087845,2.866883061749055,40.398901734118574,18.954672680808194,17.767684103126104,3.7205929304142464
6.542371335978521,120.71652469773665,60.98067935642885,2.220752209150086,42.09015251254122,20.29476732108985,19.819027481199953,4.85300250277813
4.375731718103778,122.00006608827167,62.063808884146134,0.9010962599963641,43.276430869369726,21.578242822214733,21.447331396928423,5.742781034269087
2.2046509956713374,121.29950256404653,62.96989572518024,-0.6736046470938004,44.09957087615898,22.49678076866333,22.19514788673528,5.943584850978416
0.8159491473142287,119.38501715558775,64.2423760080917,-1.8553187744160657,44.8824060997722,22.973014030453054,21.960926850597268,5.381901877586159
0.8193110465119066,117.47098098451596,66.2833303706214,-2.11890369495396,45.93407964977916,23.259506496340936,21.088158760851567,4.396460198606669
2.2754498056557964,116.65730410944215,68.99500402196841,-1.360456252924119,47.3554335531378,23.782003915334208,20.192966685579265,3.5713022660620934
4.598913462813472,117.553913041982,71.8798334789156,0.02913683619406473,49.035888850716816,24.845143053614326,19.85316315583064,3.4524241286237247
6.806479545033688,120.25480986960277,74.4581633913618,1.3340598426637051,50.80664729679973,26.378704109808016,20.31422702353027,4.276944657746943
7.96766561423857,124.2394728310337,76.41771458546249,1.8405291577585678,52.459844985079975,27.82651571690579,21.305683220528103,5.8381943398060026
7.627997505709504,127.91162783697354,77.21847417747964,1.2079543237775197,53.4973291922768,28.232273727269963,22.04719412075089,7.569941930084829
6.030174513592447,128.3311278477463,75.67293554469903,-0.2547547063563169,52.92867475346173,26.581127679959916,21.532871612874732,8.838179243962577
4.055433785071843,122.09183385438484,70.29879245491412,-1.583749275993008,49.59848051379539,22.37032868942346,19.070632945952994,9.295443194867966
2.892803474963105,107.43158365220357,60.527697347049106,-1.538101437531722,43.06648410165127,16.157729371440457,14.820181367741073,9.074912079427055
3.5394134129868946,86.25177161531856,47.865181637329215,0.7524159437073648,34.4150596221588,9.675897012438453,9.94435161880627,8.676799184413671
6.335453809471307,64.30518545836286,35.911454579861264,5.224039081333234,26.226218951433076,5.252222095316863,6.166250061187545,8.605083412428815
10.760553913056349,48.9666970985972,28.974882710791352,10.768018258836928,21.53682072056744,4.717483282496357,4.918663936004817,8.994007573828126
15.602266456033556,45.739332579627096,30.03510908930404,15.665310490408023,22.331783424669027,8.38621996417103,6.5648010879245025,9.47295607085326
19.414861946725967,55.51033452415913,39.19814919323016,18.316887701154567,28.44940150474247,14.720114426498533,10.134409420058141,9.354800963094684
21.057155449335202,74.03806370239833,53.429366294062135,17.884138063096408,37.50115472472621,20.90977981988063,13.71732027068368,8.032678565910736
20.100096611374465,93.85151377523094,67.69871372305525,14.580201092085156,45.854002880159335,24.101393068686107,15.320256870386888,5.365522440970097
16.973533567833357,107.59261762244267,77.08854598762213,9.560573180993023,50.232969983338094,22.669088025575718,13.794191373022288,1.8506462138403785
12.801400739551596,111.2509593028496,78.97074838344207,4.485259736293869,49.21908066580548,16.929462844468812,9.410078529697868,-1.520196246853585
8.95910560231568,105.74810724379783,74.15833016911097,0.886962011658298,43.89238381250204,8.963522268312738,3.7869748320037173,-3.6809524909719316
6.509550786497454,95.9968139871386,66.28532591411812,-0.4338487798724676,37.2059597549329,1.6337373054419506,-0.8402649552407944,-3.9922000549848913
5.782137943313672,87.889774757807,59.66450747377206,0.2946740549599526,32.36638949765094,-2.7055945801037034,-2.66496349747924,-2.5472050922031784
6.32614191113734,85.00976392087496,56.918044431776636,2.0045508094487565,31.155162105252785,-3.136804107941005,-1.1035796880311115,-0.09594711605323542
7.258315622823854,87.07319849612104,57.84546160550914,3.3689331332106764,33.188628653769904,-0.30844518457167563,3.074465889338747,2.3665539523005017
7.78140045383191,90.8394218781606,60.05666415789158,3.4547146178731047,36.4506611816287,4.167872551503073,8.272346186599595,4.091872838676561
7.576974185657912,92.49878888460816,60.6992598898748,2.12936564307544,38.59790988937599,8.589375874109031,12.869510440144746,4.873591983049885
6.910118293069756,89.88337440793858,58.159616435063725,0.09016068143445029,38.21782650163816,11.829996593044886,15.881788801940617,5.0333887797730625
6.465804470332411,83.5129236127529,52.99853416630348,-1.4486448476796574,35.50186553448296,13.617384416979384,17.262877890988662,5.171622964554269
7.012692556995056,76.41925635290417,47.8709719681189,-1.315379036055749,32.19214717363495,14.476919951384648,17.820544434447385,5.829927558553483
8.982386963772525,72.94336028684054,46.347891156761484,0.9605959423939529,30.814145140640097,15.423745780793553,18.774888410178207,7.186605971666687
12.08666476965701,76.60399186074615,50.7914660562611,4.6666218734715414,33.31419903252535,17.432595442560785,21.045655249229092,8.878980524757651
15.184260419981817,87.57936817613202,60.13945347255345,7.951096119201057,39.589330201743536,20.811009460997486,24.54632812713939,10.051292327653558
16.599395199159897,101.23668583721984,69.13318694772894,8.557419764070254,46.81851996310552,24.802834583016335,27.934910795228532,9.683241679536039
14.867412827652554,109.27533191393027,70.1473174594818,4.972084349740583,50.363106548384614,27.773820374492033,29.13595713913491,7.104755044111299
9.553433884667598,103.61965089516801,57.12824401076444,-2.6581028643358686,46.07398716274757,28.01565837027756,26.465190821326935,2.4331139175511582
1.6393550493622706,81.06839034413966,29.396634362448907,-12.440113730405526,32.74404933172196,24.745461750821512,19.7040604051951,-3.353987404152042
-6.821459352438247,45.72396248622822,-7.230223215975175,-21.594733036174862,13.123119881471894,18.664291948516208,10.412493265607896,-8.805059180084738
-13.634079526773641,7.395386557001042,-42.960898063203096,-27.78006468265986,-7.267079858887059,11.679968535092367,1.228936243583618,-12.649201492362408
-17.449909647938085,-23.255379056442468,-68.79660556196063,-30.10710394156112,-22.870343855669947,5.939913268431778,-5.4336777021579215,-14.347043784400338
-18.249711672718682,-39.901130832868226,-80.67860716100375,-29.295303135914374,-30.73370752506245,2.773509079518411,-8.499411653527828,-14.22820165646827
-17.095000244660906,-42.95219296996852,-80.6185172213573,-26.98708319289314,-31.49850338158685,2.1846267111779447,-8.50672040813331,-13.170503951908367
-15.388770070485894,-37.99569287038701,-74.47453752021134,-24.75257980044155,-28.34016952348704,3.1343141528180816,-6.99032725432476,-12.061121912957391
-14.148755091180895,-31.767698116627827,-68.19146288959996,-23.409511955577745,-24.797832907619345,4.317426698128033,-5.4794945027990005,-11.382394691868749
-13.687656674891695,-28.53275459008923,-64.99690084292098,-22.94487247564152,-22.984463477376654,4.876495754086001,-4.7742426552533495,-11.128018575717403
-13.754516691767979,-28.88789468444783,-64.90620067257416,-22.88655660963997,-23.099467679379707,4.6701633052370894,-4.835183152690015,-11.012021382251852
-13.915763711388239,-30.9441662930288,-66.11062336217422,-22.77647367912883,-24.111633920822356,4.094772747362075,-5.16007626953777,-10.776828217417242
-13.909733295535814,-32.4526206985419,-66.88222366798948,-22.484222819276336,-24.858449933391867,3.6951689357332147,-5.294175896235103,-10.412092459614396
-13.81778970036568,-32.52480685814502,-66.88238725043115,-22.264644217800097,-24.904329384603013,3.7854125547024142,-5.189800249403017,-10.187414923733543
-14.001199014920664,-32.34325755852869,-67.426635325614,-22.552679261771626,-24.86603419568262,4.20422736949252,-5.282642740948522,-10.485258351160159
-14.82086492521848,-34.65582091356535,-70.64102378025724,-23.56082537644206,-26.101191290155203,4.309443556090154,-6.240820837350385,-11.490522015247896
-16.2571825225879,-42.00509618323897,-77.72267883979671,-24.88511427532725,-29.77045821169537,3.29650540504177,-8.441905895823263,-12.885552818787838
-17.673255843674077,-54.28686340717331,-87.11510531825952,-25.437645885403775,-35.643172640757726,0.7582724438864002,-11.433770381730001,-13.7725883732802
-17.97194306080401,-67.23135629314523,-93.99431837897903,-23.903846110220172,-41.472465186994775,-2.8507427494367743,-13.800409591084076,-12.98618438021539
-16.17471265454705,-73.53021547868674,-92.10387225806242,-19.551233359579243,-43.713530568099365,-6.247172834766083,-13.720499414692048,-9.725167526550612
-12.10947938653072,-66.76057368420351,-77.40001474440109,-12.869212836207476,-39.50263090444773,-7.956456493633782,-10.034283021418975,-4.162242395931621
-6.7162552625181275,-45.894873967244855,-51.253599364885694,-5.526240600145587,-28.707985699362492,-7.1918493610943095,-3.155086220795386,2.3952943977620174
-1.6578971844020998,-17.07360455417767,-20.679016120667207,0.45126237129032365,-14.488426511618117,-4.354729079545768,4.890248283604081,8.003066184218287
1.6224008298030275,9.290012413265405,5.224275846250366,3.826094967561453,-1.6292575746508273,-0.740321066888861,11.500854187526828,11.03529919430171
2.833407747544146,24.841508252472146,20.78147430886546,4.891438239269809,6.523094211374155,2.41516896231335,15.0761009661003,11.065473795126222
3.123494437176012,29.09208155486781,27.677792195354765,5.2883975744313885,10.539186114242622,4.899867368253574,16.11652456319915,9.1266434768291
4.466333438812311,30.565057041952425,34.44608524247119,6.980661722153846,14.961061201624318,7.783316738340883,17.05401850872942,7.160069941001147
8.48606888111187,42.005505884323846,51.444680200127564,11.04342668349484,25.632033609495053,12.712596918391142,20.823299257084376,6.967133512959562
15.461148596278202,72.47979228847488,84.39262278545175,17.0516921686632,45.92488850650674,20.697844697711076,29.05451261192408,9.292834101177604
24.139851646115126,121.52782195509582,130.66440892050278,23.428776952875296,74.3715747465864,31.244536013850926,41.05333633465826,13.566371578970456
32.45726326686538,179.21470869321868,180.7245535308132,28.457048081441986,105.2916238307558,42.46503544509483,54.205803473216754,18.38257626052689
38.65198278999993,231.85593403089513,223.57375363802706,31.23789114935604,131.94615747719527,52.09714298741065,65.4770867994494,22.34451710475728
42.05310666438825,269.3560797906331,252.422858748043,31.98778614884,150.02673966767216,58.70124582673844,72.96430220889634,24.71499194093726
43.08567093168217,289.2429896862036,266.87740688393484,31.56826610947166,159.1575652695337,62.192929527178165,76.50474283738507,25.530729894134993
42.611555160822576,295.111415105936,270.58783188275817,30.691160985635225,161.6086106433499,63.38213384105826,77.07517798772255,25.23939035524767
41.16801389690473,291.3396079573734,266.63263979817214,29.425374232904137,159.46604285974948,62.94958604790537,75.5939688485293,24.223207503002094
38.67083604044173,278.54554161678186,254.4219172035765,27.33478558629265,152.57283612612903,60.71531464418267,72.11004946194194,22.5718584370917
34.737752057515344,253.36913945520226,230.52106859686836,24.054336396847038,138.84148020055252,55.806676507080425,65.97362437685771,20.205010030420663
29.303847177017104,212.5504866013242,192.61804482957606,19.793362015966686,116.6225292064173,47.607207569579856,56.768541309482885,17.159718297837006
23.017382922772082,157.83246481324238,143.39788478524358,15.375303809920574,87.20296885127212,36.73929827437634,45.199634701955645,13.769781409155781
17.122772368025007,97.63599344338103,91.20882338346672,11.833543173764953,55.43585780516974,25.288146039615235,33.203345382985965,10.602695200627181
12.940624338780138,44.03522156882745,46.874045979822945,9.921464345866378,27.9428197827474,16.02471927840292,23.174868779806193,8.233526906754651
11.31716569102199,7.13738021968532,18.819551088171693,9.898925309134873,10.110797830954684,11.100289277776044,16.862421735517817,7.0409763470065165
12.359428818398026,-9.236508761211494,9.716754570275992,11.654021188625892,3.872401615989763,11.039207161724029,14.671007722864298,7.139543171465371
15.489830406596113,-7.9495203910741035,16.4227959500921,14.890694998561022,7.502998457766789,14.609814380703778,15.734394434748777,8.401874649170775
19.62148419953275,4.422953329120001,32.4386469467186,19.078399778018163,17.086614852351246,19.522031230652228,18.50794843073108,10.447250354578193
23.289478198011953,21.032708420869007,50.587440150053546,23.182303946961056,28.24719082922928,23.3958835734872,21.334753030498295,12.566645388136104
24.805590397698854,36.18742516008834,64.30751720654675,25.560276465014077,37.042060172011446,24.44442156732616,22.6731458466133,13.723093247484993
22.63527513644736,44.82664518552678,67.89415770559341,24.407341001936878,40.10008952350622,21.718471714240867,21.148273744505584,12.802829361749936
16.02204908521713,42.106222361391914,57.113139439532915,18.674199572085406,34.87218875951295,15.121417980318848,15.783179981185084,9.109432480737643
5.549175891129954,24.69285678792018,30.805769569805562,8.882165606882076,20.489819351358722,5.403969739097684,6.484741224103897,2.836170094374258
-6.809247824742585,-6.854374837899535,-7.564865779848036,-2.808095515984097,-1.2863870918342122,-5.896064609538541,-5.567204043463501,-4.830956452731279
-18.342959756976448,-46.84305321194613,-50.14975154006716,-13.446635919443073,-26.06055312944182,-16.7523066232956,-18.081659127704707,-12.129165357057744
-26.69287669604434,-86.01394536270072,-87.39065872446973,-20.60387587250321,-48.237934815902165,-25.244340785670154,-28.473200524305195,-17.462874969541808
-30.784988438820857,-115.45076169686062,-111.94729683434042,-23.373398662705455,-63.31109500265806,-30.23588012667617,-34.93831552609066,-20.060070152762556
-31.1059813799506,-130.52355367920126,-121.6234513230375,-22.52624760738757,-69.68989259470034,-31.768981098043113,-37.16544216502294,-20.18310230155806
-29.226745942963205,-132.44419406314987,-119.60651285764048,-19.839841852121587,-69.00349432243112,-30.921433582844095,-36.27302664796881,-18.82694891123404
-26.924727497321246,-126.6721575146583,-112.0889399437288,-17.110234464324673,-64.80388980446556,-29.199569593037165,-34.07252359842072,-17.14552778479601
-25.431123790315752,-119.53033948976905,-104.9599568916289,-15.436136540116625,-60.61143399151328,-27.836191367112978,-32.16055717185741,-15.95772636309087
-25.14563046751402,-115.32169554350932,-101.54840854413447,-15.048665773504403,-58.50524649715884,-27.392251127355834,-31.362067360341232,-15.55335712887912
-25.80600355179723,-115.37538655306285,-102.28746100659171,-15.564791568195393,-58.84795772510363,-27.79923839320342,-31.707161251889197,-15.787486575671613
-26.859614981758988,-118.78739951385545,-105.75184187515674,-16.371983130064454,-60.86407400220759,-28.666160296927327,-32.75146183912021,-16.307174648650932
-27.79051603379316,-123.69837025116917,-109.96250820821103,-16.938535717120327,-63.40858319004268,-29.577075394816408,-33.93686405171339,-16.76345233090632
-28.301774391650834,-128.27861462965234,-113.29380919803425,-16.99186343951876,-65.50692696857064,-30.245115347408166,-34.830013630295994,-16.94378306926205
-28.361066777715752,-131.32932738667932,-114.93850272302863,-16.56198634294094,-66.63751265359852,-30.557253875240786,-35.23684093884899,-16.81550131056363
-28.13699601056214,-132.6149602009265,-115.02901200952948,-15.888159284994783,-66.82670205580465,-30.570387718990094,-35.21932052153731,-16.48586542900536
-27.86093274236502,-132.7942186272674,-114.37072888384893,-15.23579820497283,-66.52281362799754,-30.4553468388097,-35.00731411901401,-16.106041557977143
-27.690851521386644,-132.84442645188946,-113.84482731096638,-14.747074751500017,-66.25502457995499,-30.382904934788556,-34.83536702114664,-15.781916340042446
-27.668557401116733,-133.351950781423,-113.87645006948867,-14.431761933654792,-66.29847566840404,-30.42273992780064,-34.81676711925431,-15.553039708293284
-27.786097762403173,-134.2995013529178,-114.40323327426829,-14.269725630377051,-66.62720823519577,-30.54935103538364,-34.95408899399781,-15.436901974611986
-28.06769152254002,-135.50325667290784,-115.2930501077815,-14.28364606752728,-67.15878023487679,-30.744001910815356,-35.24596308002062,-15.467925683932947
-28.557918223832218,-137.1172100890366,-116.66683955400474,-14.488220838515833,-67.96904288861538,-31.06364021072461,-35.74009394263739,-15.669595229533845
-29.217262050285946,-139.54801168196926,-118.71076826918744,-14.779379552462322,-69.19649979948359,-31.576864638719723,-36.449468441792504,-15.980696205132096
-29.842894651273863,-142.84375356670503,-121.19383005917165,-14.908558520799259,-70.73867161614237,-32.225865358120565,-37.224393304560955,-16.220948401618
-30.12451509631808,-146.26476057369828,-123.28695009471404,-14.602999093900427,-72.10937336742104,-32.77428116797006,-37.74791754508182,-16.156006816603682
-29.82537029677003,-148.55403877761088,-123.97017424480251,-13.751847041536962,-72.66402780269044,-32.92313728192224,-37.707429048513255,-15.637708187969295
-28.976659230673555,-148.70007345457958,-122.72533526247668,-12.533549468389236,-72.02855416231392,-32.5160055656994,-37.02730952573037,-14.738110464877627
-27.970152874496623,-146.6156017430047,-120.01763561348868,-11.42011968021155,-70.4189500557868,-31.689153441654568,-36.00376876693541,-13.80034813021827
-27.485052926986587,-143.42562924855878,-117.34316091773206,-11.045724409587214,-68.69770110264253,-30.887609665225753,-35.26547323868122,-13.359456601349613
-28.223833806076748,-141.37395218194953,-116.85579386472048,-11.927321809107035,-68.17365265383536,-30.741583302656892,-35.55921661610162,-13.913835616144919
-30.482108941204405,-143.23419899191404,-120.52629769469003,-14.066136979660556,-70.11944189343915,-31.80237792439598,-37.377102296399414,-15.582873553723086
-33.701309649835345,-150.95219857392533,-128.81259361419433,-16.60576695024239,-74.97289177131016,-34.15606390823736,-40.49837083832981,-17.79355885863552
-36.29886203709978,-163.75008007252487,-139.3268075050946,-17.852644266240397,-81.48030792194082,-37.063243628615766,-43.674564010567615,-19.23037232563974
-36.05907557878644,-176.89646336696936,-146.5920924630202,-15.86336127240671,-86.44090961975755,-38.92191895684209,-44.793160421913825,-18.228051676711832
-31.083747387072698,-182.63801260830803,-143.79559991127135,-9.436935337311464,-85.66289125968304,-37.78959186916719,-41.68516710282404,-13.541342156333164
-20.880335935559987,-173.60741852026513,-126.16812197050793,1.025418570839935,-75.9966747997411,-32.35086017643168,-33.29748433233133,-5.127318222120588
-6.9350249441479805,-147.06525467328078,-94.14845090337961,13.37826370408736,-57.367979958956894,-22.81241139226919,-20.558047862490255,5.539300100895094
7.679470142628668,-107.27012623364969,-54.16233991649299,24.510602988526415,-33.43869587622224,-11.114589086860976,-6.301322568176271,15.892957816921793
19.550661714683773,-64.17931454037526,-16.166633489604244,31.674550774337412,-10.262977277091926,-0.2170825463235478,5.842943313183427,23.294035214919536
26.36750731911439,-29.050478215689925,10.76738355673351,33.632439801781246,6.380950858421643,7.181423008111287,13.014175360976305,26.114645392676945
27.760151491466527,-9.620278182944732,22.197037176544036,31.012341750495523,13.384614320264514,9.736571636456372,14.23595271589196,24.32729371570153
25.139096768601654,-7.714742216814597,19.252502848327108,25.784134440580765,11.052261635840372,7.748729291287847,10.489406760542574,19.34542471794983
20.774934724055957,-20.148202756283123,6.7408241322216105,20.290389866450838,2.071244569178293,2.624811396981133,3.880791937638145,13.303961143898192
16.75834946872944,-41.23458077137291,-9.64521533831282,16.393665510195174,-10.135687501863707,-3.9396767683419545,-3.3881527883083518,8.213067992679063
14.371735407098601,-64.47141486523105,-24.89923597070499,15.01382438757517,-22.34507758524257,-10.438654736748354,-9.583351390935663,5.344793055886998
13.973309829147178,-82.6499534105131,-34.65522966107878,15.989486522933758,-31.472530603008508,-15.543912727149449,-13.44418254831798,4.973593760508984
15.167992508049426,-87.92932098180161,-34.91845817458439,18.14327737810829,-34.409374471766995,-17.983631299442663,-14.062702924253365,6.427365927391375
17.04770970117064,-73.73327390593565,-22.992859906852264,19.599192369251988,-28.717118081030957,-16.752693962202876,-11.046011698535825,8.389458435900556
18.47483350334479,-38.243257833047245,0.643142487115522,18.44887493407423,-14.059351932197906,-11.65866786917821,-4.897197986237295,9.404111693585277
18.46089105747722,13.038609585897964,31.261707761503956,13.622864261105086,6.814547733518661,-3.7428098828516334,2.83716432572074,8.461687151327657
16.571763039138048,68.24975452984657,61.10671737314001,5.522356010769479,28.658060472201747,4.903992375714323,10.002020870633956,5.4272853868832165
13.14821996807477,113.86941177696484,82.64688109448622,-4.032531349502901,45.86894064244202,11.969153693587659,14.722016012787533,1.0808872862559802
9.164542762135456,140.60998142241382,91.95056064718023,-12.599038654165591,54.963744542334986,15.926578932460691,16.21431716898269,-3.277901543148562
5.760801998480677,147.02190945821985,90.097731820648,-18.230437145166924,55.88817346981562,16.61263948389554,15.016407989995786,-6.454773074825377
3.7062105500443967,138.88767306789128,81.89786102917839,-20.283212902995896,51.4726081292095,15.059811181846886,12.520894987583919,-7.874554882466594
3.1037224024291508,125.24650343549436,72.97061513677102,-19.491702582629358,45.5734834855644,12.77819707702758,10.167244463603927,-7.724248504995224
3.4814429848764683,113.8117462865267,67.12957256222097,-17.365005296361097,41.173187254927605,10.988994155135305,8.809303492271058,-6.704023558074775
4.155014198739934,108.33552402195382,65.42253569548393,-15.355444180905437,39.46538931816998,10.231138982703712,8.560071884481149,-5.593492256217412
4.591293768718312,108.62940255903241,66.78549671239114,-14.29181916695592,40.06864587882866,10.413345550283342,9.035000133059162,-4.905185948220886
4.569962703939021,112.19406417922275,69.31445023087569,-14.283621798821281,41.802769271940065,11.098874606173641,9.703383247675749,-4.775270707037121
4.136998013434087,116.02693090304699,71.27488692599502,-14.963593226042887,43.421062516945995,11.789490874555572,10.133556542144753,-5.0572021345315505
3.476530271021865,117.8940220632889,71.64180092984557,-15.811011886958116,44.07579012291503,12.120968561611162,10.106521367308332,-5.488109159050473
2.8032463839035495,117.00976738008794,70.32013065377735,-16.397148208933636,43.55168614300918,11.975904791908071,9.649294258916758,-5.82799484288095
2.2860749033549452,114.10925191595572,68.0553626510227,-16.525411548880186,42.25821579668466,11.49733609298101,8.989646400056621,-5.944041077689364
1.9869246830316947,110.81712014461048,65.94389722373332,-16.267008588852356,40.92408090401937,10.972640686318563,8.414142256875603,-5.840887202005417
1.8405496120295857,108.56734820179463,64.74068249006471,-15.874812854801378,40.12105064925592,10.640277664094958,8.093503063037636,-5.630177546979614
1.7114821355497434,107.79356487007257,64.46591166022438,-15.604496488646225,39.95213024356859,10.559612123280397,8.005670613727254,-5.447253570091971
1.4970737899182838,107.96115421370519,64.60662356314455,-15.559207678340782,40.1299898197194,10.636613524783161,8.011584008563734,-5.365984893889537
1.1864459299283778,108.23957222966487,64.63281845937699,-15.673032020203774,40.3001618829451,10.74482253135885,7.987911732334233,-5.37467648551102
0.8264562221880511,108.07686628734463,64.29096817686084,-15.822602779488667,40.26143272361848,10.802487935858203,7.880280833828734,-5.422135392580098
0.4488778545403449,107.26030987357056,63.51442372084789,-15.938639461814926,39.94235782016146,10.75666890177166,7.6618747532819285,-5.475965869360009
0.04932404481559174,105.75799299857425,62.288410519541344,-16.01777977006879,39.320341166931236,10.558076086524906,7.304459695545692,-5.533700641903183
-0.3683292465093988,103.79004086781417,60.767154764914494,-16.067305273040006,38.483457031919635,10.207477509217343,6.830586868909394,-5.591647255327628
-0.7564769341748713,102.0266704383772,59.45007262320693,-16.081186341862864,37.74096381483945,9.82495699798825,6.374357221239587,-5.624726580656646
-1.0561361417949762,101.3948532278334,58.99957163572525,-16.072427590155097,37.52232379606744,9.6224735048635,6.133306061156289,-5.605910697337407
-1.2616263740758502,102.35925848374849,59.685501441855465,-16.090309775669507,38.031227903808855,9.756404740902244,6.216095276932459,-5.536378410537385
-1.437800090257072,104.2783568476177,60.968405673168306,-16.17171384302609,38.96244970585925,10.182618199588749,6.524632236241478,-5.446414016496614
-1.672123262214627,105.54825161383013,61.688928319931996,-16.282210205785212,39.59357382597153,10.646913145411107,6.7837421925768355,-5.372009247510427
-2.0223395091694294,104.54104296534234,60.754437385856534,-16.337883005854682,39.21128015481543,10.812465090299954,6.686556644589704,-5.343837300096642
-2.5079025756395357,100.6548855352044,57.80819254886223,-16.30177436295256,37.550976585282,10.423912724753295,6.045271662730502,-5.396699303963525
-3.1161824424511497,94.85023605479549,53.53666390104335,-16.24474603524483,35.010126399055814,9.44006322333535,4.89593187961474,-5.562736780229458
-3.7737284152387556,89.5532268432854,49.62494149730606,-16.29222299121771,32.62712132164871,8.13513076624921,3.570723510941483,-5.824127833407678
-4.308064787921661,87.98602301020115,48.362788766302195,-16.50869634322964,31.839417650236857,7.13187729418071,2.6970447048392554,-6.065487913704512
-4.488588738433045,92.78506830368107,51.68694973983409,-16.832429127828146,33.89929356946852,7.23860704709791,2.9981646542957643,-6.096875464131514
-4.175215931527507,103.95465487827319,59.67039012522494,-17.092595907050534,38.93632860702191,9.011915152456845,4.8523491766030915,-5.7612796667727055
-3.469022333105713,117.11448186828325,69.25002295415815,-17.04115781855741,45.12865466570771,12.21646553215736,7.8251398129344025,-5.051020974294319
-2.712651965150925,123.7253231679464,74.47900344841393,-16.353706765155547,48.78710000372601,15.579540370066985,10.565465300374475,-4.135834329627523
-2.3039235910905966,114.26453092806415,68.91409799744203,-14.660103395616229,45.78623327316481,17.159377190937445,11.302114317698333,-3.274962520565698
-2.45366649354296,83.22956307204771,49.15296680167636,-11.6915597669713,33.78912184215859,15.251325097118624,8.756774216121766,-2.672034331640062
-3.071695830951203,33.03593498587047,17.349863105892513,-7.51157785736019,13.919463779086524,9.347125893086378,2.941874523719584,-2.359216728328291
-3.8591528082987567,-25.92684454653795,-19.103045507221502,-2.661487803583611,-9.309232911011577,0.5712373906631638,-4.672467097182714,-2.1657163062467877
-4.522844406941384,-79.50809193688401,-50.77582510678458,1.9420876486483925,-29.918703372607226,-8.682023296206806,-11.75911840544836,-1.7797794928761852
-4.942027356242381,-115.93155021604579,-70.4396013289512,5.356272354563873,-43.1381902949819,-15.712274469768039,-16.165374596116774,-0.8793946320081021
-5.174243435237186,-130.32395076055533,-75.88359112174493,7.012953638912437,-47.26399363001329,-18.55981474281666,-16.800675632039688,0.7132522826450521
-5.3367578820815025,-125.38835378201335,-69.95792182984505,6.912856695331251,-43.79521899242302,-16.657789797428446,-13.962223095212147,2.9065232301691974
-5.504968491172809,-108.70560483191765,-58.431590943037286,5.4977828029159745,-36.163330989458565,-10.932223773102056,-9.078976071685442,5.297935368155402
-5.713993134381371,-89.12117097762497,-47.43862174327006,3.355288118510883,-28.170341762878984,-3.4848477695834634,-4.14839424221932,7.269743124676887
-5.988845441944932,-74.35998358120105,-41.83389390535956,1.062702467150307,-23.00212925488014,2.9716087924615606,-1.1213451729240052,8.243798134835568
-6.26254790176879,-70.05350281587577,-44.423480220432346,-0.6802979538220225,-22.79677977270609,5.8789420151505,-1.3089544907290906,8.024464870115027
-6.184395891549827,-78.96938503111421,-55.342094627247896,-0.8386133595781168,-28.241226465949804,3.736832899333937,-4.85084568015068,7.039622272085889
-5.028555017970932,-99.81518702409059,-71.48064272806111,1.8594498247790547,-38.052679266952865,-3.1621915418366595,-10.458943243307184,6.269168132013711
-1.9239346528441739,-126.63306758651761,-86.84779425154578,8.355541719973603,-48.914256882760924,-12.65449006322626,-15.7492007965103,6.81363288198695
3.6291437165800007,-150.38604364968552,-94.6684758951698,18.544978648238814,-56.5199301218393,-21.552007122572252,-18.224123919283684,9.315936848507915
11.283143904680669,-162.92743890219555,-90.68895189725939,30.981388423727825,-57.59059432073195,-27.104330822516136,-16.49017484003283,13.591699403220332
19.776303991650874,-161.35962690633505,-75.80731608196358,43.33092228812727,-51.76284162853953,-28.27752936781813,-11.010023134213636,18.707591838129648
27.373708187119146,-149.86071376313208,-56.11991619912685,53.34932235571199,-42.03808696719214,-26.080684565414945,-3.895686740509317,23.449006880738548
32.557565256786425,-137.3558066233494,-39.96664859651914,59.74596739951067,-33.28397569599546,-22.7453410731768,2.169518784716681,26.86329956229676
34.543848700874676,-132.13796941726616,-33.55261222520493,62.37566278646721,-29.566709031619823,-20.297071560875516,5.2434214725564745,28.540716346589296
33.35201379500536,-136.77963955388879,-37.7922541356831,61.713959589141425,-31.946436622160274,-19.445141359163046,4.902139257207776,28.51415185851751
29.493087646754613,-146.68925170774332,-48.31693090185729,58.1243170250266,-38.12603983865352,-19.473656282432856,2.0912484069756303,26.951951401466832
23.596480153549262,-153.26604741036746,-58.51564397055012,51.56307439585867,-44.11602431823282,-19.103107162399823,-1.716348434653901,23.954684450213904
16.26477074205804,-149.4841367932207,-63.52376742524369,41.964779478968325,-46.74595101445402,-17.622371878819898,-5.410091032774766,19.636884055618108
8.179693180361179,-134.20099245161938,-62.636620486921984,29.943969909692807,-45.384316083046386,-15.456918720623698,-8.61397534120456,14.392525767338977
0.23973946637145815,-112.55769239185686,-58.885052228760955,17.158359987067904,-41.88978101574945,-13.808313469893319,-11.433817051719307,9.055301159378073
-6.501790542343012,-92.57388883846829,-56.435068472142014,5.934581895888067,-39.046530984861036,-13.692640818665634,-13.92561413978339,4.729862846821806
-11.13526070504922,-80.46259186753782,-57.75075320750069,-1.674692905841033,-38.674943923898155,-15.115084636219905,-15.768892029602926,2.3280645177376225
-13.252461397554672,-77.71414176912296,-62.346508896397104,-4.8080690690893535,-40.67286142783186,-16.976013277915797,-16.401617960622655,2.0895126562673965
-13.115827378260727,-81.40767590295077,-67.63312044800715,-4.107554315404462,-43.445958544266,-17.742146611976054,-15.474228184534882,3.4169647924097695
-11.510039941685996,-86.82138539627437,-70.8586928460127,-1.2621347022576952,-45.15912469629387,-16.369642225573,-13.216536109008542,5.172730305335583
-9.37185615596697,-90.13776266485617,-70.63384257009477,1.8775835501300056,-44.80197973371936,-12.84942258613305,-10.396847092274687,6.281725333570189
-7.449312305283802,-89.70508082498773,-67.27804880285895,4.052276091815299,-42.48428362939084,-8.107511891814902,-7.909721287770655,6.2795185974241425
-6.186720904961058,-85.90167911832968,-62.30963472537407,4.849955091299992,-39.116194863072245,-3.4771149057613133,-6.326476890381762,5.481363174104969
-5.815024253613257,-80.47726416702396,-57.75083275153417,4.503014848823092,-35.93855865080411,-0.15465609736351937,-5.71817903175738,4.69910362742282
-6.462331071875848,-75.84167307660968,-55.49186606866286,3.515585762950318,-34.12557738630187,1.1152239842037994,-5.7881829654711545,4.706747627726373
-8.141937413468417,-74.15853568879737,-56.6054514874125,2.3649140333749212,-34.40051685136427,0.14342546861776329,-6.128827689226984,5.77078757916567
-10.650577041227766,-76.26454312061718,-60.74067729849541,1.342200648827426,-36.68423965829896,-2.7014690419451277,-6.419968758351215,7.484377685233997
-13.516296372445682,-81.04676747540893,-66.08670629214016,0.509761768572003,-40.026551572549195,-6.563080149941943,-6.516904718736902,8.96799219496564
-16.084695049239578,-85.92751758145214,-70.1851800784303,-0.2331012248290167,-43.01039890320963,-10.284893462541204,-6.453679277348811,9.323455105824198
-17.72111639084175,-88.29360442665946,-71.19229304661017,-1.0018688117800447,-44.45601623202345,-12.732799723874662,-6.3900414086775434,8.104940978393747
-18.05379610789767,-86.96526558840127,-68.82853286923185,-1.8080531055248452,-44.014684571841066,-13.19446849658358,-6.545370400753547,5.5442361594107155
-17.179820450169597,-82.91509628436465,-64.58390532656811,-2.5913375156774925,-42.384866854634566,-11.745456104026255,-7.191213602201807,2.3901890425039833
-15.72968135246646,-79.06729689971036,-61.25388514408312,-3.367390097574144,-41.1457401938002,-9.42236073346483,-8.708477751190575,-0.5318020318449327
-14.662981713473872,-79.27205747512473,-61.94510741992202,-4.2851743979704775,-42.22818844293873,-7.991989622560448,-11.554828441574866,-2.7306567088483864
-14.76735213809571,-86.41674737767912,-68.51142281499217,-5.4419605820441594,-46.94714457061726,-9.183348046956322,-15.94285847763274,-4.1502601229325595
-16.075755242063533,-99.92933991840444,-79.68093542883778,-6.58424352990995,-54.73978892476358,-13.582191719254206,-21.2808824106342,-4.944252520437093
-17.609326314504706,-113.94730643714449,-89.96521016442823,-7.030224679119319,-62.32498862732088,-19.815986957401222,-25.8126220096615,-5.17881457513593
-17.747039285320188,-118.08223647020895,-90.79257147448915,-6.014930313914943,-64.27269329839646,-24.74522269048475,-26.97805959437156,-4.744528961943464
-15.112163329559198,-101.64863514995547,-74.23346071572261,-3.2710529272412763,-55.311425565760935,-24.850069516483885,-22.57413281456513,-3.5337113307288246
-9.452058507656808,-59.67721880851632,-37.654229740242194,0.6088091859870165,-33.36978421985205,-18.144659402262445,-12.117075254696315,-1.6890259711414082
-1.9263694389411437,2.9507086964464215,13.637002342881779,4.361107267894493,-1.4508519443504289,-5.449281996805825,2.5094389065622225,0.3246202663216186
5.413484778802638,72.3547955818953,67.860320393486,6.711057703570313,33.10832046227636,9.832495491102723,17.6673752987712,1.909817588713414
10.63993034187887,131.57411298587604,111.90327609245112,7.0641926786581735,61.822250994049,23.342452269480834,29.57271748184688,2.6529754475105847
12.837166406666453,168.28045740686886,137.23442498414437,5.767269032873013,78.89610748877298,31.826476569740635,35.97289521370554,2.534360150881363
12.360774077737112,179.79663493609783,143.16559388397727,3.7960517948696384,83.49270199675031,34.43351391947209,36.934269989973295,1.8885918951506935
10.414295051504856,172.7527753440512,135.83138914109077,2.13791974956993,79.27246688255254,32.631448498825584,34.387016974667894,1.1673222250166944
8.316784050184435,158.24769871526038,124.04755195801518,1.3137263402960164,71.83443713373569,29.022588191243383,30.868026729168243,0.6922927409279631
6.937886858171475,146.00708400178468,114.92416592685368,1.2984851775146051,65.86163618883201,25.933247372940986,28.3052831936595,0.5558053591233815
6.532873434265851,140.90393591582003,111.60355523629076,1.751846856776584,63.54986131039166,24.56523733153225,27.459012351629276,0.6762096863180114
6.887775051798371,142.84864734012208,113.53184535324958,2.2883818570678107,64.67938450972257,24.9322164165284,28.064544236643414,0.9046392436623172
7.559894400036738,148.7634060678555,118.1026438047771,2.62251670055441,67.63395062000743,26.296984901240343,29.323749284630818,1.097983567782538
8.088912109489142,154.86026226206434,122.38740707417124,2.617527727107498,70.522188314912,27.719478107545388,30.398714658500918,1.1577930535603147
8.164510769443636,158.35158986713876,124.4086448133258,2.3126236967336085,72.014515322803,28.500964111175374,30.767894733006763,1.0648104128766633
7.73533974997791,158.46769108632498,123.854315559076,1.906078175579667,71.82484032667422,28.449562575973808,30.4082302552744,0.894761838898375
7.002526919069788,156.58655261431426,122.02606553327954,1.635913231182745,70.71847731906152,27.89618811882767,29.74138842095586,0.7742074004830574
6.2848710704127475,155.20103100402025,120.87259944319095,1.608439004983812,69.93981856740724,27.424968094844196,29.326575599750978,0.7862415559196615
5.847909232584615,156.119588227706,121.57724959659144,1.7260743380929306,70.31934159332617,27.45474843337384,29.463477800173045,0.9035094855405588
5.81242426862806,159.13450671096217,123.70901967386162,1.791433272562575,71.68403269989683,27.959017878307144,29.988297869712454,1.0124724385731698
6.154479276452521,162.21629109809624,125.59967848051588,1.682652447886884,73.02668103189062,28.52414527403825,30.413047057006075,1.0036199704396649
6.713904732551187,163.04310161651455,125.59320177848488,1.4302814316706907,73.26336230890084,28.669474261612176,30.279221344765908,0.8442316464245581
7.175766006575399,160.64067190720897,123.19211895297684,1.1565317435455493,71.97828842218189,28.17144445537316,29.461587674960665,0.5884574776551977
7.11546446799071,156.1080446718929,119.45800281173737,0.9867062011044123,69.72373423450087,27.20957524919825,28.271463526502316,0.35158142433026024
6.209882601899983,152.3189317523383,116.69871103186402,1.0213007884152352,67.87110497104918,26.330682233268654,27.375622624964432,0.28251046771014066
4.5523651114902,152.9002566753831,117.63949608397017,1.3222774214269484,68.13887534389956,26.274065138649252,27.56315354438492,0.5158506297195969
2.8397518628708704,160.5216457558748,124.04119400809388,1.8349395073281385,71.77060889075914,27.63247039227416,29.33531965407676,1.0728782249539535
2.2297862502718426,174.61112769293993,134.93561019783374,2.3008713666054534,78.42759611704892,30.369719948458922,32.38889359206382,1.7558151274627023
3.887797434103919,189.59049382762802,145.47891598770664,2.3238038488904333,85.37462594969432,33.445402325365315,35.30976912782398,2.1524793456811366
8.448985135542333,195.51454379344375,147.8522079385181,1.6392292133555033,87.87255469565369,34.94583272359838,35.87843948750287,1.8205106407331235
15.659268393470105,182.06115838666622,134.6347283575728,0.3996054035206555,81.15160984534035,32.891548563816905,32.062408807542575,0.5666149152285314
24.35095122740391,144.29551106846324,103.09758432105892,-0.800313902086412,63.11367961131621,26.367923657968497,23.214228877270212,-1.3751506134618534
32.76787342482336,86.64812230247955,57.6634176706399,-1.2421029512140163,36.061848154687816,16.25834090539369,10.699326253817294,-3.4130401662681487
39.12792089573486,22.126661979128585,8.627654599979703,-0.5376854118503676,6.154671006112364,5.021492697467527,-2.542266543549832,-4.888974542349471
42.211950228488874,-33.24621302907289,-32.369194240215315,1.1106619305282124,-19.27621068368551,-4.4337718070684,-13.316695233614908,-5.409614895554559
41.745430005840525,-67.63505153540828,-57.50272911814608,3.0298169811836,-35.00905031016447,-10.11819889218658,-19.617150866165805,-5.011129453900348
38.42704100453636,-78.09731011202341,-65.62577128208316,4.48188199213893,-39.93954541791748,-11.767408508334878,-21.35808656087712,-4.070372439395769
33.60751195686422,-70.41718438871216,-61.5156749877572,5.0634989011974945,-36.84136393818912,-10.673581862360715,-20.05819862050374,-3.0504447031450197
28.752444374679406,-54.84628872005882,-52.499477620267164,4.830089929770266,-30.353368374202947,-8.776623624807453,-17.798111044631696,-2.2701182329278318
24.903249786700062,-40.79879457496937,-44.78924902494975,4.109030937291089,-24.612274963791318,-7.65566179081177,-16.156140099510054,-1.834291511523584
22.365600073077985,-33.4700395586471,-41.44640974901528,3.210896993313502,-21.809031641449412,-7.971182814730982,-15.680830668509728,-1.7080887096782766
20.76421460983556,-33.396700746448,-42.37570315183845,2.287808749650077,-22.036984409484813,-9.478921262274183,-15.99389208852727,-1.8082260041174247
19.40818083602646,-38.009466951107605,-45.52091601315914,1.40102325854203,-23.98276293826735,-11.375393212469982,-16.248574079411934,-2.0178238389032863
17.729250356955504,-43.66575835833656,-48.28052892784523,0.6519849535290021,-25.84381860029843,-12.693721709162237,-15.623490151790024,-2.1497829713796848
15.53709951014322,-47.2840974477318,-48.67237968142192,0.20848714800386062,-26.142976517253235,-12.640121660605406,-13.687955901186875,-1.9530615822717357
12.99755122125571,-47.366764513194525,-46.10626714238396,0.2052076363833374,-24.317982785755518,-10.87393874276704,-10.58987296882467,-1.2117887011363802
10.433140367516698,-44.298781976327085,-41.563092365557544,0.6269166428971877,-20.92540874177355,-7.685418941677679,-7.027443083960587,0.10901637418152993
8.113254798606848,-39.796740139730204,-37.01285301447633,1.2709449420577372,-17.310175960494163,-3.9589092513304083,-3.9917673839063736,1.7677635172640722
6.1356104989165905,-35.76941965120902,-34.33106476308279,1.7977711695128045,-14.87388196287135,-0.8774767823222624,-2.377990177657359,3.2719816609682084
4.413273693174605,-33.337396000805754,-34.392162683511984,1.8371075383565851,-14.389767409768153,0.5189431632926919,-2.6551738349237155,4.033845074178139
2.7474971800678567,-32.63828244013206,-36.8736549786302,1.1298067493970771,-15.771330371293649,-0.2707221669696428,-4.734843201189449,3.6036989625392772
0.9569462362228381,-33.29711653959159,-40.690009490838314,-0.32865098299932566,-18.30962608102895,-2.9993641326645566,-8.029241520411976,1.8849158260403576
-0.9989551976303356,-34.88401032128111,-44.55544633210725,-2.232239241885661,-21.069015647973934,-6.699665225298839,-11.608235706441487,-0.7816452122640045
-2.9901262510894555,-36.93607024465417,-47.33836342772639,-4.083005757173688,-23.177973067527965,-9.957710152599446,-14.413340449816744,-3.7306326833094534
-4.817902922531695,-38.79670334657753,-48.27066861513928,-5.4524712303776095,-24.00567367370797,-11.401948688659461,-15.548674483555578,-6.243031962736746
-6.379446459246092,-39.73835707322623,-47.15672933821372,-6.218131196483821,-23.311718871808147,-10.270552792780803,-14.612831782737581,-7.832689045587351
-7.766402493889693,-39.37018132032495,-44.47621100780186,-6.612013369646171,-21.328777014784205,-6.800029503225862,-11.91588229904192,-8.398083576454228
-9.232005349373775,-37.88292183018644,-41.17421518678462,-7.074357724770497,-18.659645541021728,-2.196396123327281,-8.414936312316682,-8.188319467003144
-11.077413633047582,-35.86762843360554,-38.21527129201812,-8.047856823872982,-16.017255752951424,1.8379605334204914,-5.359027041221051,-7.648465872020572
-13.55155909710532,-33.972853868329096,-36.268433712427424,-9.835310650337355,-14.01345190111054,3.789672980046277,-3.8180797990538475,-7.244104525499547
-16.7978539967152,-32.78455716019987,-35.737742368006685,-12.528140580806284,-13.128773136143554,2.902605557291642,-4.312428269119148,-7.319185951602955
-20.81098973611586,-32.879651625758115,-36.90725810989054,-15.956640123168814,-13.73584704606885,-0.5859871703823856,-6.659056196240118,-7.996151323447366
-25.37870243293817,-34.677277661537474,-39.82942205017454,-19.669807085668985,-15.962070723040455,-5.571092909438108,-10.045710311744115,-9.13269551633441
-30.049540403159753,-38.008633569456585,-43.97890718088491,-23.013027170561895,-19.422734305880606,-10.487144863648874,-13.311456360541916,-10.36972533090426
-34.19064072763745,-41.863709936380616,-48.129472452025304,-25.325902221644,-23.13816183974081,-13.8760251676154,-15.386925242228276,-11.28080567999395
-37.14383374175155,-44.7710325327041,-50.79611845850615,-26.173226464408813,-25.876654726228296,-14.940592806188727,-15.75750931157705,-11.567852289382316
-38.418514614401495,-45.630279493385785,-51.010515199566505,-25.483025597899818,-26.769349108216257,-13.853318159998166,-14.724159257451703,-11.204323238747248
-37.84517067383189,-44.30750509739698,-48.835781449251364,-23.53956001944591,-25.759673790610183,-11.647912642735411,-13.28656285127573,-10.450161331445669
-35.64379298770654,-41.54253128880988,-45.275071994651874,-20.869961474438465,-23.585239629487834,-9.728552546300364,-12.677586949489976,-9.729559488676495
-32.38426355231054,-38.39002595724936,-41.74398726817315,-18.077821266359933,-21.364749267612588,-9.245089171344468,-13.78021762341943,-9.422355505615469
-28.826445240815428,-35.71356215671283,-39.479718875093184,-15.650009517629986,-20.077970976637,-10.628310055022796,-16.702272755269213,-9.654014072946204
-25.669201677599922,-33.941312395088005,-39.076892387789634,-13.783883613518922,-20.159166391431338,-13.446989918508173,-20.676063250580565,-10.186621051036333
-23.312333045254988,-32.93701036325209,-40.187933904902025,-12.338835753356792,-21.295117757867207,-16.586886362789564,-24.31116399440073,-10.500274954619718
-21.76724304816466,-31.94303833346012,-41.532720787355856,-10.993914913160445,-22.508875600475463,-18.67439416875908,-26.127268696712033,-10.074081737240634
-20.772434611770564,-29.846871192777687,-41.42999276720936,-9.545525170492459,-22.601528302105052,-18.63497106781836,-25.19876387231594,-8.739117287503996
-20.02353101168835,-25.899308699302804,-38.749423473974495,-8.13212149988768,-20.83035058051919,-16.204986883991705,-21.64084933770449,-6.880151533750601
-19.34893120277894,-20.46471408601718,-33.70285553352241,-7.198109883568888,-17.43063429735256,-12.146514201182843,-16.656152816483498,-5.318473077759135
-18.729800202580606,-15.10433120312101,-27.839345348922407,-7.211527206076349,-13.57902213169946,-7.988985951935639,-12.045901687031913,-4.908207171073145
-18.204815005906784,-11.759138747811136,-23.178782949793543,-8.343257089591427,-10.76922732617186,-5.374432433144444,-9.405546607376628,-6.076934332098352
-17.774285565330896,-11.576451091448154,-21.08737041029593,-10.327058784018904,-10.008353116825424,-5.3378597177347205,-9.436161973240361,-8.583594896199735
-17.374718697383706,-14.186091908329884,-21.617642334508783,-12.571606204887125,-11.330368400501186,-7.891323324903058,-11.72801201785557,-11.631399251803167
-16.915568977932793,-17.78950712259871,-23.594412458388202,-14.445390094438617,-13.836241864354582,-12.080590443782116,-15.076018316941482,-14.26987987685419
-16.344661731914677,-19.8927828040287,-25.274049962581717,-15.595884673195512,-16.154633484073425,-16.435865610213312,-18.107522333771264,-15.871148062488643
-15.720115766248037,-18.40741975556631,-25.284333442354875,-16.15507395557004,-17.118816125894078,-19.605728045396983,-19.90510311751413,-16.427534329921656
-15.243735830758201,-12.909606104852067,-23.544200737502976,-16.680979346535345,-16.45094797117618,-20.93144828088596,-20.360862305504142,-16.49560076436341
-15.169179549492016,-5.590484980053611,-21.689292231514795,-17.75568291208661,-15.139418320017306,-20.714211896403956,-20.106661358796604,-16.787110315009837
-15.544557411948366,-1.0363777129131582,-22.440862422042397,-19.378302841380354,-15.121611795331873,-19.99195640720054,-20.019001215731688,-17.620795932138453
-15.91781012897401,-4.252980339047772,-27.849123693773823,-20.548281898155178,-18.169127130898513,-19.868043877535747,-20.523123774395994,-18.576609576630016
-15.277924519889277,-17.578767107039194,-37.32456034200994,-19.462457680167596,-24.502411514091914,-20.74951302721848,-21.116232435379967,-18.615353194370805
-12.427757815939412,-38.40182527975879,-46.963176548497344,-14.40128316341207,-32.107084236495496,-21.997420367440714,-20.487200716522157,-16.647043895136083
-6.674372788317387,-59.568451547690884,-51.078922827162614,-4.8529060858233235,-37.44529298151423,-22.272995748247496,-17.25742231021448,-12.225458669705105
1.581911385595354,-72.73733445434243,-45.321576801962415,7.859288262531864,-37.32620080817092,-20.39511058486638,-10.92067802877299,-5.935495748552724
10.79955861677159,-72.82697860593868,-29.457311129875272,20.943373653849918,-30.81095295222062,-16.154545866951707,-2.366076442861149,0.7857160431725734
18.907866691608668,-60.74746211666579,-7.896994167105285,31.367374970160736,-19.886761184583335,-10.539708044743238,6.401839543239345,6.304622205748201
24.255388526873208,-42.61451204974021,12.529461338777038,37.2381479376045,-8.410128513248074,-5.216849119228887,13.220487213114364,9.541082416351106
26.331441233212352,-26.0164988816131,26.17844650338985,38.51882925785856,0.008668376502921498,-1.612656243352722,16.8274607186323,10.383330180150056
25.84548842737567,-15.940773207803158,31.232742587107573,36.73280751785926,3.774452654057499,-0.21344195544120287,17.36797425156787,9.56984108285737
24.184215133022125,-13.019946910145343,29.788591448114794,33.97437667386927,3.6340735262437556,-0.5115231332842013,16.080660529737866,8.183758590444718
22.65863059225973,-14.736205289455322,25.749808983240488,31.915648083759983,1.6082380801810843,-1.526884746913946,14.461627425796397,7.114043684122174
22.00549551001601,-17.937699225043477,22.378427175623028,31.32338470009192,-0.43254940257400987,-2.4327555064742303,13.515153382497605,6.773986515717468
22.321585950498285,-20.52704133971017,21.134706600547347,32.12081437378455,-1.519812436601508,-2.852637717668894,13.508179173315456,7.126071500436479
23.282301562121642,-21.612292704432093,21.973460868072298,33.708888898167125,-1.4854900514509013,-2.7748320893787426,14.18369050219261,7.869487728098973
24.405846815252165,-20.950142583688542,24.160918030410652,35.30079249343774,-0.5392834441189858,-2.332823199770081,15.108636042853451,8.634933280538585
25.254752247297574,-18.6187949203983,26.84600433889844,36.21685799265457,0.9976577926667742,-1.6692797587848835,15.920308651711117,9.129581686265688
25.587408573149997,-14.964081524092293,29.379930112476014,36.14489510798089,2.7985620464803445,-0.894455098118368,16.45570797047553,9.234106316189106
25.45080877020307,-10.450891884760681,31.584077575187777,35.28046064215839,4.640071703985237,-0.06880254943749334,16.803558687495176,9.034281488454097
25.14558861234483,-5.535579138710724,33.76082695935546,34.23600659656594,6.436684942733145,0.7741333239891853,17.228426059283333,8.757731175553486
25.045677505798906,-0.9850888470828885,36.152456401495314,33.744420989302306,8.022381847687596,1.517375110928542,17.927529449987624,8.64139744156234
25.381782983206136,1.5852356599993713,38.19360027333047,34.32258028599033,8.845867059584872,1.8535680759088455,18.76497287852751,8.81626416628971
26.13018420525804,-0.02782738726600803,38.45025697094499,36.03164930647745,8.073205925271756,1.3848026236990065,19.24664398709536,9.272958025766902
27.031785439750898,-6.999703569610923,35.64484295807336,38.3448902275751,5.2998100113466355,-0.015746913416026784,18.830475670451243,9.885439321322885
27.651277353425165,-17.540542253270516,29.978308901981563,40.1194001567351,1.3379576416402859,-1.8422431445603913,17.342323878128735,10.43238430235576
27.421748333110386,-26.605509124717376,23.440362471569294,39.786150918555975,-1.7766419848423831,-2.979542590439794,15.142301051494611,10.614997729759205
25.741957045714898,-28.175334436361066,18.646351922304454,35.889931538964866,-1.8354986361962957,-2.230560058298923,12.904626131566603,10.134693575151589
22.20730086722326,-18.82570895093838,17.10207284282822,27.862974377297554,2.1195502350811943,0.9597461809489148,11.201690573197174,8.853692947999583
16.906310362692786,-0.05420244801259838,18.293869126839873,16.591467234773074,9.075838931437506,6.0774298012340005,10.203675819445262,6.943456908320975
10.571125358970768,22.33267120070626,20.25051817216535,4.307309769526151,16.58121626395774,11.701312673439563,9.664904107602517,4.874954640786986
4.413761788199403,41.3603661362672,21.041892035378705,-6.268412097919815,22.149638496816355,16.15770930002647,9.153540693151069,3.206661547136429
-0.31154384193787044,52.468394004984944,20.06102747810122,-13.083298824780842,24.591655105705076,18.298238174439472,8.361187059141734,2.299511958197387
-2.7872647032323403,55.34120393294811,18.23448442205837,-15.542645459454176,24.46389803316288,18.014485187825734,7.331960465029668,2.169782940448059
-2.892479730271152,53.17339320742402,17.18737544032434,-14.502812448370602,23.50470441054147,16.292697941956767,6.526039562492534,2.5977493751004856
-1.131003450400905,50.306250348012895,18.148188711538758,-11.563930395064174,23.591809728079916,14.844685712663566,6.712083307801553,3.4073085522029607
1.6692946316291144,49.97214022540637,21.40789199387787,-8.184420834103035,25.921506108278287,15.479914890872747,8.712845788208954,4.677477833819612
4.653856092539265,53.27356769154808,26.482195491349323,-5.180655978450678,30.71671380500583,19.39061988075056,13.02584612426904,6.67376493532798
7.061133192761436,59.325268805096364,32.485327386419364,-2.822134434041012,37.288032304871436,26.518484375540307,19.391487724251665,9.498219110577677
8.18503844741788,65.89887710538872,38.26223089861279,-1.2766802542086673,44.18414176626917,35.239514685427885,26.511783168492176,12.70203466117339
7.3545486055102645,70.2099011442349,42.37773227305751,-0.9555403765824557,49.44397649563471,42.64734688751083,32.20337788039586,15.187058484913956
4.077013579201842,69.89804983520395,43.37079055040377,-2.4713125218089242,51.13362303789185,45.5444558842971,34.12067486000618,15.560586750111971
-1.6812865414777973,64.08625826800011,40.36574639504208,-6.259176543751314,48.12751704092425,41.84256439993543,30.81823411095347,12.80937076307089
-9.255266969688813,53.95883168194445,33.62972423928858,-12.142092401656104,40.73387374228797,31.69739101869311,22.602118691793162,6.9333705502898795
-17.26970436988198,42.356817540604304,24.620415165396533,-19.128207229750814,30.728434528936432,17.70802748147075,11.640149216343685,-0.828396277940695
-23.93357533871396,32.574051392390096,15.503327012255836,-25.590113522500655,20.72933976477141,3.974445151347351,1.1877516098246013,-8.349378187976914
-27.57590699594748,27.11531344927397,8.477882830972627,-29.798272784316374,13.24926870966635,-5.567538416187205,-5.727321342032709,-13.428447173603368
-27.243002279805534,27.029409777411892,5.1866728187358975,-30.608052610874235,9.857017059825912,-8.733651818441443,-7.540168331243002,-14.709400763412201
-23.108939132929414,31.841603627617605,6.257176276926933,-27.975580105248262,10.720951617882593,-5.862874818040088,-4.732793405578571,-12.265062951919083
-16.47588907851573,39.82338296827569,11.044729077035843,-23.00350732662104,14.648234632280372,0.5474355971798693,0.4971480264781721,-7.533728960137038
-9.303032984894422,48.5314500692337,17.819417940878193,-17.452964379260646,19.639338437136526,7.123488029416916,5.325145214215948,-2.6180640570055105
-3.4542061967844977,55.67651073429353,24.523050038596832,-12.982043227743835,23.79747139378111,11.168714910770849,7.613831670721963,0.6886734429467812
-0.030796341231920182,60.06127102761935,29.73770742712567,-10.534767654710123,26.162133686804285,11.72667350984715,6.785220456572222,1.6290697193837125
0.8928198086626756,61.96837032265776,33.189179908930704,-10.167006061171682,26.964593701086084,9.670852659786476,3.823788648639423,0.6090210060305624
0.06572124415337305,62.635566371377344,35.44045144784413,-11.283786691439182,27.156365307049043,6.89208982240685,0.5002235629085638,-1.2475902511321963
-1.4172484277722228,63.23032015589913,37.1420383903951,-13.044467711977589,27.605966929133583,5.145790724474285,-1.6436128670220331,-2.7764898855929867
-2.5880079359030943,64.17889802461987,38.531870417857085,-14.70355483971169,28.574952442640647,5.2299098956061805,-1.9500793681694744,-3.2909686693799474
-2.8888697395787015,65.27992442108906,39.49427924203818,-15.794612301607307,29.762433752079268,6.853908423894184,-0.6819906021436977,-2.7340255326514833
-2.2278813296026123,66.23700366370964,39.90093677573743,-16.164276400843193,30.707521428552283,9.100914791781957,1.3977049485928408,-1.5006010773003313
-0.855570164252925,66.99241716913836,39.83007442390164,-15.88689818788079,31.159298672073767,11.101171601979509,3.547739161099255,-0.11116789308149354
0.848324949286346,67.7072942680199,39.59408035509541,-15.114781401417938,31.230023957921368,12.532132894672253,5.395775148519051,1.0662408296990453
2.564913787805639,68.69029387303286,39.73786334704607,-13.966355625649559,31.378843280521522,13.728344043760815,7.009072626983631,1.9203199118237426
4.101584189639685,70.43192589328537,41.00309448700718,-12.542242156125305,32.26779869021204,15.383312746466817,8.711161492007173,2.5144893162797306
5.319674095030894,73.48090556352791,44.04242245102594,-11.040291600382867,34.44260044291168,18.009040515771137,10.750683977451846,2.916059463198706
6.03227465476288,77.93688458642514,48.86234665958313,-9.818035323449777,37.894557787163166,21.46454927819304,13.01351904816571,3.085155755110781
6.0137250023534214,82.89143165203858,54.416206111594974,-9.276554298840733,41.79953153093484,24.878619777560857,14.99106590080696,2.9193509657521663
5.1512795701048795,86.48117486163325,58.855855091449776,-9.615686647710179,44.752107106037954,27.08012454873404,16.073653028941994,2.4157190000201654
3.6134062948706016,86.787426957832,60.45418536210575,-10.658785028398212,45.46953424637213,27.295495340783557,15.982464517454984,1.7977364947069814
1.8708426181445836,83.05398913744008,58.629188614113595,-11.905878157841986,43.54363188692077,25.650972744341434,15.014048621438967,1.4653842833098516
0.5257250149387943,76.43718135474305,54.437243404399794,-12.790867319087532,39.7784001275701,23.141041254939623,13.907084927272535,1.7661385400125313
0.0526567185594166,69.90586019868414,50.31637622794105,-12.978159366972228,35.9617287046239,21.1006457066704,13.433833172838343,2.7363743653575714
0.5923947476750132,67.34160106703429,49.20229491000558,-12.543197744026045,34.20421493617879,20.522204602445125,13.990637059526028,3.998934861139533
1.8676084529805903,71.92685370040279,53.16785251539733,-11.969521432814533,36.01517926224904,21.567963214382548,15.386253932626857,4.901723522320455
3.2251836384838732,83.97241950891876,61.820750348228245,-11.9526824463016,41.28395284486378,23.432064183589247,16.847764617910745,4.832808367372161
3.8102580902201177,98.97457471720591,71.15754697328107,-13.036640080060202,47.5566510564813,24.543492819979786,17.189283384271445,3.5514070016228634
2.8771198167410232,107.4833832997275,73.98817008061172,-15.199438419417634,50.25933762389555,23.061667393914657,15.13652905341983,1.3689710141369156
0.16184776481093746,98.08774869773774,62.585217689661604,-17.628133683187716,44.302193424218274,17.58521111678972,9.811193029192086,-0.9179159186910905
-3.8739709000418516,62.952379718047226,32.74378058782111,-18.922296850309483,26.638435445822,7.865719729188466,1.2502331901648123,-2.333022168875075
-8.129683232468732,3.0490976932545157,-13.00344400742326,-17.739857632791647,-1.5825511322610375,-4.823420170623657,-9.328606227213921,-2.1409937261096954
-11.317797990176155,-70.45579036710556,-65.32449291344541,-13.569887719257457,-34.76622598254774,-17.97177947803286,-19.793205080238558,-0.18909042907528703
-12.571450311403233,-140.2702187216076,-111.77578844628628,-7.150642411147856,-65.03403225763572,-28.771931844272594,-27.90220788995687,3.004568846189149
-11.856944285399964,-190.66684651580238,-142.4086764077777,-0.2158740536465469,-85.76008837152585,-35.29837838798438,-32.276354431430526,6.47572117145127
-9.932262040850722,-214.4237520331989,-154.06066324382928,5.334125870847808,-94.45728927855069,-37.28212314212688,-32.971592763852854,9.24992099349022
-7.876539536011607,-214.9725049907855,-150.84570903083883,8.353765625029828,-93.33521793874267,-36.02488835783806,-31.288774364201267,10.766124225447454
-6.501223706996948,-202.8376163716166,-140.84744217136904,8.905468041972467,-87.37526092284703,-33.52922257784046,-28.95211642439774,11.061499311604285
-6.018460660791766,-189.13654135581774,-131.43933692935607,8.001182494906677,-81.36361504786352,-31.42468034163474,-27.210553284710805,10.630989058870261
-6.124922551388694,-180.39495955528847,-126.18235675406031,6.878304111574143,-77.78677667567337,-30.34748418161316,-26.41209807186796,10.080271534475497
-6.347475462573333,-177.29451552882352,-124.66014509029345,6.333481271020654,-76.57554116775538,-30.032641301822505,-26.19206891112445,9.810352446505684
-6.3620766655160566,-176.92153108769807,-124.46492948068548,6.493196876466516,-76.2995405463104,-29.869654000158025,-25.987294474201367,9.909316953866446
-6.11616074549464,-176.19455509625567,-123.5768507341812,7.014079717280197,-75.70147543327552,-29.468177618455776,-25.48692310264056,10.246896829656608
-5.778127133802305,-174.34808493997204,-121.84077385538593,7.449789768614888,-74.6835874182995,-28.93357197911589,-24.821186206794682,10.638878436364868
-5.605033023600626,-173.51534477464597,-121.08798094803434,7.55448227219792,-74.40642567681684,-28.792829331228006,-24.48078848524846,10.963919183616538
-5.771312737921962,-177.27878466552858,-123.8915390915308,7.442012744552727,-76.49114565069002,-29.627667371029787,-25.00428512095337,11.206410923926216
-6.192177180079871,-187.60211905761562,-131.29248824311838,7.56758031616008,-81.55901387460919,-31.532890768567878,-26.50394564834443,11.444725418158583
-6.452604341598855,-201.5180839007802,-140.58586583630156,8.475511302419982,-87.80522696867189,-33.66101282191012,-28.256057978451718,11.786282724624332
-5.97591493847958,-209.9441976728345,-144.9082730563804,10.34988696212621,-90.71661752615583,-34.23824193464298,-28.71569244591292,12.251879733654658
-4.412433962943646,-200.55641506086133,-135.78937243240233,12.62631170054243,-84.70084356141622,-31.277272214375856,-26.155734211839572,12.672387447024171
-2.0013499837822253,-164.1432713193672,-107.83554737345241,14.024505126706039,-66.13527413111134,-23.726261797558255,-19.671173964752157,12.704857026148202
0.40019232496021795,-100.90056001054201,-62.75674765335914,13.132976869704127,-36.04940155036991,-12.341148894449027,-9.905531116435188,12.009885935491521
1.7156406907467652,-22.345495447162936,-9.850060547467434,9.248855754496603,-0.5227234333270661,0.39765851956829,1.060593937438705,10.488872637821682
1.2514980780796048,53.00689056182262,37.82472151920024,2.92115128601373,31.77641981684978,11.410676671768408,10.67202514503019,8.397456804744598
-0.8845207718316835,108.00731980295382,69.5070028630024,-4.197357636369605,53.59811955778531,18.54144101926398,17.128332518925962,6.223457993122987
-3.82487618894464,134.4110246800048,81.48823874004452,-10.131240122122465,62.310298871979406,21.521860111916048,20.10771221292787,4.392761628269199
-6.416795322941471,135.35128521892494,77.91282896686536,-13.52793104023594,60.48595597667083,21.7921626707888,20.575601626374166,3.003596572392622
-7.8264756932748005,121.88442706281708,67.56181614867938,-14.215495599688381,53.7898232469079,21.365303170575462,19.907206206713255,1.7794265482623337
-7.908285495577348,106.38555833076093,58.945209991296814,-13.103599686764829,47.71193824885267,21.54317824792921,18.98688463257941,0.2755839034306578
-7.1640860643657085,96.94696176500372,56.61377124875974,-11.587138881878703,45.12976049267645,22.302087470534705,17.862643101515847,-1.8091225858192885
-6.395623193328133,95.40544861945783,60.253641842917574,-10.86587328104541,45.780602169212635,22.611356708118453,16.050049174673298,-4.429488351565688
-6.297071576780075,98.84823277509587,66.20088504633168,-11.518827418680123,47.38150471681481,21.311847646329014,13.12994209881153,-7.210339234340304
-7.17603231512428,102.67652895151423,69.97651535460791,-13.412930521046068,47.373393623918936,17.93010958204942,9.198053305880112,-9.626289943105755
-8.857181207351518,103.35934791044123,68.57618243803753,-15.849758663503238,44.35716264113723,13.005510983395732,4.950580054755201,-11.209417580332985
-10.757468283318365,99.96241049483919,61.79218058214611,-17.85709608176889,38.74768352588766,7.87290422336987,1.4436356765105691,-11.696691384379731
-12.117593867388978,94.23498377282863,52.2022946312121,-18.57343040685391,32.5226040425613,4.091158894392039,-0.32588838516478363,-11.108265116073005
-12.33163690529776,89.37390511507675,43.81109483967787,-17.61820312169203,28.199536041130774,2.7912694562196663,0.14822565973572327,-9.762551658270274
-11.22637236127193,88.06779411666302,39.97663222519478,-15.261020761713374,27.518277028385235,4.218613635199621,2.6224328546797873,-8.200678638029059
-9.121687391674087,90.97598902467145,41.82121393604786,-12.268100433523994,30.569796623040293,7.678042926011883,6.176954498343884,-6.999835050072421
-6.631907511424793,96.65467343320063,48.079447476720205,-9.517798457377818,35.90838747674686,11.910092188011271,9.626586141269344,-6.531662720427435
-4.349706685558246,102.8444867352824,56.26098033123951,-7.6355124345089935,41.4968430752064,15.680254763980212,12.047699835077236,-6.791483898473871
-2.614492334287545,107.91591848454115,64.06170931265966,-6.836133672503184,45.74278411807266,18.23813089588015,13.110632405061235,-7.399435803361782
-1.4593745459972087,111.31079687251972,70.05153053729218,-6.962592234403969,47.957046573109814,19.43418907484518,13.06571369381035,-7.769654399660866
-0.688253652520573,112.97122988317257,73.5789700066127,-7.597238853915731,48.18597389597046,19.557153807735553,12.492281409962871,-7.356177221857666
0.0031981823418284535,112.71809380076432,74.50725337478856,-8.183041376095613,46.86211591008323,19.107661759049925,12.028948716111092,-5.8745740811361085
0.8989846572376892,110.3374371014409,73.2187968682507,-8.182474758251004,44.64090692135193,18.637299353352777,12.196579068422775,-3.4311856933834943
2.1403030780987478,106.19612533663565,70.75212446950785,-7.274511628752747,42.397453662804686,18.62251165507484,13.287159540106018,-0.5132409483260785
3.6591308413321597,101.7037619950234,68.74326807736497,-5.4957233806626595,41.17325128960643,19.328305131174474,15.293442034770896,2.1819776246751394
5.222668099880243,99.23580260530242,69.10202528927088,-3.231859839017406,41.99796674385447,20.72525298973397,17.9302178435913,4.026697499097951
6.557368912291761,101.5290552493501,73.50411445076104,-1.0845804734173152,45.62816686075474,22.542389150970703,20.766967112237015,4.705181186976413
7.433477707297523,110.50989978045004,82.60875020833852,0.28379781860063485,52.15393484149298,24.391499311974655,23.35027676378808,4.2669942108993055
7.634368723581015,125.50137111842682,94.92920963118343,0.2949810363266919,60.40527245599851,25.783745541431163,25.15638005480934,2.9707065660368914
6.889735199863484,141.46537213516308,105.89668122129035,-1.3405975830544676,67.43166175347791,25.986831258658096,25.410447382034437,1.0681647881562777
4.934801749749137,148.9006206965538,108.29646047528868,-4.344349985318909,68.74258195065947,23.942018858338187,23.05590667364373,-1.2785124665231935
1.7412610813107985,136.80529586808478,94.85812027238005,-7.69803438403922,59.82661084154136,18.54163819631495,17.133320305465006,-3.894001902933323
-2.2482098274738633,98.12920640010289,62.19033464517618,-9.849709679746677,38.53786676165322,9.286867910867487,7.470188265847483,-6.437791862302928
-6.129055255534224,34.759821111495846,13.730383029673863,-9.358179614630668,6.966776796427143,-3.0720630738076005,-4.795098292100051,-8.397283970555046
-8.875592641643507,-41.460441518346705,-40.547702609743446,-5.668473874680888,-28.635511540740886,-16.453099742780164,-17.345554403603,-9.290107133228231
-9.83741972810578,-113.04045895984103,-88.02840500883516,0.4796859371589975,-60.20394293974816,-28.140537364806594,-27.54881017152521,-8.94442464425429
-9.072926115686014,-164.4024537271246,-118.94101247087283,7.324792768183803,-81.30972680290017,-35.938818708072304,-33.59788519758828,-7.640084678556823
-7.294838668978777,-188.44050846066105,-130.32305230788805,12.917891442934495,-89.77203350491015,-39.10605086548944,-35.25034581704881,-5.98820706009443
-5.462486532397488,-188.455626596052,-126.32332280717635,16.03029171265009,-88.00875186905682,-38.51742810042461,-33.74050716844028,-4.62084139123571
-4.291753158683062,-174.8522804966076,-115.06233968947033,16.60608221375171,-81.1515946198981,-36.02133324508808,-30.98525742602419,-3.898039857957684
-3.988455564970945,-159.17429652942903,-104.30405852848222,15.548010529486147,-74.2850530670279,-33.4596372169571,-28.63165818062786,-3.811145324069749
-4.318765547395548,-149.17878649954784,-98.48461845388393,14.068695703350096,-70.44926786459766,-31.949580907236566,-27.493887351733807,-4.10090370563942
-4.879801055503243,-147.156870999696,-98.20617999882104,13.072600613553021,-70.20064014529046,-31.72153652293587,-27.55321984723158,-4.460832045401291
-5.3404475027821965,-151.1814555694922,-101.53374420144185,12.8988838370181,-72.38361410295342,-32.388026494027805,-28.306232986083852,-4.6804469210276345
-5.534141783926565,-157.50859443456733,-105.73183102663272,13.421010898479881,-75.25086958897714,-33.33449132132226,-29.14591114488167,-4.681683374224286
-5.444759569697328,-162.65118580775135,-108.56623129513345,14.285278592142443,-77.33059469597036,-34.02471838641261,-29.616832754951375,-4.493542906386441
-5.1681162355726595,-164.63759343990213,-109.01177892399463,15.112426900243761,-77.90587571800914,-34.18096659004262,-29.54427299654504,-4.214031939825052
-4.8651836046010555,-163.4570625266306,-107.4108616930648,15.633348460629797,-77.13694227141097,-33.84470842180558,-29.051843964932157,-3.963947839011121
-4.683885048132784,-160.65307363076863,-105.04115202893169,15.77830720845972,-75.8097408690712,-33.2964539393189,-28.448566140974656,-3.827287068334674
-4.674462383761108,-158.18830872354192,-103.23526948169165,15.685572374540428,-74.7895427713113,-32.85460503919813,-28.02112412337948,-3.807319218251072
-4.771253219863515,-157.2323205732114,-102.59478524200847,15.590340457184643,-74.5049777656798,-32.67869149493905,-27.86738462898647,-3.839071373434747
-4.866463960212461,-157.71090281577744,-102.8577495244018,15.655254277638706,-74.82579420460435,-32.721387769704066,-27.895257952252027,-3.8516682593075644
-4.903628436605101,-158.82308739771264,-103.40396971947393,15.881743834456817,-75.35953854567836,-32.84050270994894,-27.958789395610886,-3.820909301648972
-4.897968205180168,-159.8616455245458,-103.81016683769475,16.169863255615248,-75.81585913368549,-32.93448408616215,-27.97854529052351,-3.765118977308564
-4.880663951047144,-160.5506852934309,-103.96079077055687,16.440867668892317,-76.10617634145686,-32.97487710426838,-27.944083666048954,-3.7039515488866965
-4.850865711045104,-160.83160360602673,-103.82557002385744,16.686683149303537,-76.21394746897744,-32.95400764457723,-27.851007238734777,-3.6370532555040636
-4.793906674480842,-160.6499303155058,-103.35409678505204,16.920588664382027,-76.11326951010462,-32.85718608009575,-27.685460106398686,-3.5628572913660297
-4.72725400663248,-160.08585362900322,-102.63286264763627,17.12561410948741,-75.85371158390359,-32.70084282967189,-27.471927812053632,-3.5004112357796386
-4.699906163518212,-159.53307184737486,-101.99139818789028,17.276878043008736,-75.63419230176048,-32.562210737745325,-27.29375021409908,-3.4763164607110664
-4.74035589315012,-159.4968778756569,-101.78606663353574,17.39415461642453,-75.68227883149382,-32.529012811158246,-27.22970098866294,-3.491853709120962
-4.822416153085603,-160.1275174065792,-102.05730044691933,17.53443908587548,-76.03707770151286,-32.612466744933755,-27.272544465068155,-3.516205014710788
-4.894169597138849,-161.0391382257224,-102.4767680675259,17.723698272334946,-76.49766378957806,-32.72938086379678,-27.331567569963436,-3.517415635578471
-4.929165302694201,-161.6575633929094,-102.65507679552015,17.921739234292737,-76.80735187045852,-32.778735861936745,-27.3179728987744,-3.4918522294744023
-4.932605013683782,-161.69735272510158,-102.44019722323024,18.076094261864146,-76.85644027585708,-32.72317678575408,-27.2108498179066,-3.456491145664515
-4.904706457437127,-161.25862904038564,-101.89996970976142,18.19850109322801,-76.69224414211968,-32.59106559931609,-27.038952054958738,-3.4208210890006394
-4.828527777015097,-160.58025324423105,-101.13960371051193,18.360091128770662,-76.40285096065479,-32.426906285409274,-26.832217264501796,-3.3822846010693497
-4.714420546009329,-159.9061147084932,-100.29986040827224,18.604551860508128,-76.09170026683908,-32.276906704295165,-26.627441219021826,-3.3521119499199945
-4.642651141776874,-159.63106498962745,-99.73534299545662,18.886100291564645,-75.97157042525751,-32.22098334849699,-26.512190494009822,-3.368800461412659
-4.726866342424079,-160.33173608057757,-99.98739827685267,19.108027293116216,-76.3562274089747,-32.365713272868625,-26.60646682917379,-3.466046504237474
-5.009600094962264,-162.31220062454943,-101.33566130882335,19.21185754998857,-77.40116334757428,-32.74489637340187,-26.94566098704491,-3.6225640509078127
-5.389078823867788,-164.9699595014334,-103.2828846180728,19.214939351270665,-78.79027107920854,-33.20937589624105,-27.370826132447647,-3.7536639234083626
-5.654519438225896,-166.7450447041604,-104.57020070529357,19.17685814615315,-79.73986498811743,-33.448611504192435,-27.566570205636157,-3.7642375089620503
-5.605388909924204,-165.99094758567105,-103.88525230862338,19.16733888168534,-79.44112354287947,-33.178950810316,-27.25637901622279,-3.619151140123959
-5.1709109957354835,-162.22666826250347,-100.79528297415867,19.278555689599276,-77.6550937245768,-32.372139936641254,-26.417086656901258,-3.3757837309097583
-4.477580782335201,-156.8571545716248,-96.28110742714506,19.622223679441607,-75.04754481888716,-31.357176787283148,-25.36525007894547,-3.1672895678859803
-3.857138298153827,-152.8733461030539,-92.59042583099243,20.238699037221533,-73.06470780919591,-30.72734981821586,-24.672407838370223,-3.1582925241867614
-3.772191296869357,-153.64250710803745,-92.44905673390213,20.964422440077428,-73.38824894721087,-31.088992925099078,-24.941300793509537,-3.4809870239693805
-4.612534027697242,-161.12034152936462,-97.72322562505505,21.404891866097586,-77.07298228404505,-32.71659300444498,-26.477856205698465,-4.143525417357964
-6.386619961680127,-173.9051277274633,-107.77327317184867,21.09317978250491,-83.54680580032243,-35.19993069211409,-28.927866775979545,-4.938237239636623
-8.484187461384787,-185.98580592028267,-118.26622872372563,19.734628631870933,-89.93391060341911,-37.2588099339483,-31.070967006285134,-5.434844897996406
-9.752457922397719,-187.48878034702108,-121.64194633321468,17.34773935799031,-91.40192429063998,-36.96710568450134,-31.03934966565243,-5.131681563358431
-8.974883092694224,-168.21205568334773,-109.9009875173246,14.209511871161991,-82.92266194194688,-32.486096922591535,-27.058663916096343,-3.7234872362672484
-5.542326853819651,-122.93781375843992,-78.8158752521798,10.688957513694406,-61.89414805866879,-23.04759642945541,-18.422084157974734,-1.3185634672288205
0.09728482675632191,-55.64313437116237,-31.18968286273483,7.128735665063884,-30.16580326312766,-9.620686980151081,-6.114105281627301,1.5679908451795341
6.54304121904478,20.42044397254823,23.195311068191195,3.858198597914686,5.990098632683183,5.2408149677935745,7.3938225430213675,4.271795961101636
12.09068095383554,87.64395233194433,71.46198943436552,1.2747689598779528,38.29516995257379,18.40552198126644,19.158210736013004,6.322967102682946
15.550548415367867,131.68475645260827,103.39591511977235,-0.16200884988719022,60.07247896301742,27.502275554561475,27.031840993374125,7.634223282257817
16.732402482342543,147.58506717229005,115.7686466318682,-0.12678085780067566,69.00416048364606,31.822149282440225,30.447929815843064,8.404941194546373
16.328173453109596,140.94815261734584,112.77476698540133,1.2718718924517594,67.50111389943726,32.28781420549041,30.310650678705677,8.839127127437347
15.346029086174767,123.81379651936719,102.67198731766024,3.343616929558889,60.695377763192944,30.608592603718105,28.19075535811473,8.927609597817117
14.525506553005103,108.11649891368549,93.08075283506578,5.0244404447801925,53.53920455056396,28.259444388971822,25.45309977443709,8.482884431816805
14.087715202853417,100.64257101026475,87.82158764442079,5.3752201782586475,48.79400361186656,25.947383645657307,22.860391937624453,7.3877791079616735
13.864041453550422,101.66849338567044,86.54953028608752,4.068630963873585,46.71517626463731,23.760445493277196,20.716809317733535,5.834638135543813
13.60242487794849,106.77960763738297,86.4366694406701,1.5830606167029457,45.984842415268496,21.666933764292864,19.20333270144437,4.354405826762614
13.234650215789431,110.04479987990433,84.41764501303251,-0.9618831873009086,44.97770649852444,19.89460084757013,18.560836592285497,3.6190143098487697
12.99897469277982,107.18621972838649,79.07145416178048,-2.2280889056755875,42.820240793108525,18.98515248961636,19.074031109279208,4.153741385847416
13.38027780324111,98.12445743301242,71.8104415185623,-1.223683364313201,40.114109724347,19.62047479465948,21.002549127571804,6.099516869035986
14.851016477759275,88.11078829386958,66.95532327791541,2.1158866906218328,39.11488051684795,22.372230935164783,24.521330490254925,9.084301907998762
17.486107090036807,86.29274150654254,70.15733692416616,6.577372570678525,42.980862029897764,27.428267635822,29.589614433324062,12.229081427484855
20.68147878565703,101.4630547756024,85.40201699286001,9.881949057626041,54.09078104801367,34.34099539439222,35.73085221205291,14.340579500123615
23.246746819785834,136.85056057641143,112.15088140634442,9.586414042824709,72.26618141230777,41.95023479883164,41.911841099437446,14.315882634712516
23.93164399569829,187.20208783945267,144.64348741380678,4.322738155849221,94.15569111936618,48.651520943360204,46.759621351103654,11.640998241913373
22.11099223929553,240.40386253884563,174.19429356769135,-5.339491688176295,114.43692704258524,52.987908079160064,49.11885671903448,6.71771487838214
18.187097458637922,282.9972270149539,193.2883878179491,-16.99775257855179,128.25798979767188,54.28118933794651,48.63989017774609,0.7786902639889368
13.430889417175237,306.37414095358406,199.03114932543295,-27.494237996385145,133.46761128314554,52.9307873379288,46.000227330140525,-4.618844659492962
9.351101164835924,310.0851040783834,193.9666448272888,-34.35631247636726,131.3299944391873,50.184763283106044,42.5836522262179,-8.260418305833825
6.97914856283089,300.68711117471264,184.03293321812916,-36.7849859680858,125.43314892594512,47.506278028142255,39.79820740661969,-9.73822946963001
6.484073615869034,287.3931944193272,175.18795172634236,-35.70341513564269,119.6305839421075,45.9055174574546,38.4471130144559,-9.480839891338684
7.2862964201387275,277.4806823007199,170.81534590631816,-32.98190250706958,116.3236760801673,45.6113473373563,38.51002052735948,-8.38930686746195
8.509361708396973,273.9377872320286,171.12149978231975,-30.41273517838679,115.92994176205337,46.20789591739788,39.38894523473325,-7.341132631077551
9.437548923422995,275.8529382813465,174.21798852568276,-29.02671577318977,117.45058396044845,47.04723497325119,40.36493322090408,-6.849297610612575
9.737730143323942,280.3255739802275,177.70041929116388,-28.98183238258377,119.43514882985389,47.62202661752946,40.94399053877853,-7.001414075220761
9.433173940159538,284.3851219069872,179.77895299785493,-29.853236025376074,120.72244265896025,47.716671205285,40.9581816693053,-7.603274556994213
8.76570421909936,286.192563614392,179.76810749193393,-31.01312890481209,120.79034012833961,47.37599267723388,40.50523855311413,-8.367288033084643
8.059238303570735,285.5008226384249,178.1257582095206,-31.9115730611702,119.81631182448663,46.81486272671988,39.85237843846256,-9.042322188882407
7.603796858375273,283.43871920145955,176.1102091091712,-32.232266591892476,118.49869061457862,46.31855550071892,39.330792540398235,-9.47445312436272
7.551366284264061,281.6454467174613,175.0503242198576,-31.94353760460318,117.6334336351374,46.114856764210536,39.19257830128489,-9.623624252460921
7.85693214333528,281.1277162690891,175.51581365298446,-31.245128436906036,117.60793845091223,46.243084925663,39.46886371701834,-9.547117388112818
8.30929590184631,281.6116002654603,176.94826810292562,-30.43963283084785,118.15375378440092,46.51760689947842,39.936857408232896,-9.358423616386407
8.635755788934903,281.9214984422187,178.06543694316048,-29.81684642851579,118.56843137418709,46.64498396020429,40.24554314966286,-9.190758449958125
8.610381079798685,281.06542607613625,177.73342632544288,-29.617185607434564,118.23312677723975,46.42024372459093,40.11619075734275,-9.189462240938495
8.123804284379192,279.10422431278306,175.67582997856303,-30.02516515312565,117.02713718354677,45.85605850870755,39.4856213106442,-9.507964040717441
7.237630082274096,277.1677771477765,172.6599719659734,-31.081085174362297,115.40155095924375,45.172979721389595,38.54238257182664,-10.248190492783923
6.241532066311023,276.75208696256317,170.23690878745074,-32.50284099148572,114.17620469982752,44.69697346666751,37.68989830005215,-11.334134341690687
5.649118079697414,278.80871077012245,170.18167427266624,-33.58311568464047,114.2025221281833,44.729516850942986,37.445179827450175,-12.406189156564091
6.034636668235022,282.9193832543075,173.60193074923376,-33.352275790657885,115.90837569376914,45.39173685126367,38.22146518667161,-12.862380932723646
7.722612268985897,286.66297335383183,179.8169080299707,-31.001157471430513,118.754225091404,46.442069976875736,40.00492735907291,-12.085976779002412
10.51633780989289,285.56429011724515,185.65451644209892,-26.316971192571213,120.90658230340878,47.17610555004594,42.113968341807485,-9.751918279030596
13.699568154638364,274.2731920156521,186.09381931337313,-19.83550070587381,119.61722387933996,46.59063323655411,43.313753807976944,-6.02723702942934
16.380702102753883,249.08805640830744,176.53036215418444,-12.602296382869351,112.47336612493551,43.86694677162982,42.37567401084432,-1.5378692009712633
17.988362302461642,210.7360360616124,155.64966845340913,-5.701781961952408,98.97359251214087,38.95307010775042,38.81970256718509,2.8832321361919253
18.587095128084414,165.5485945907617,127.05866902370268,0.14671526414567307,81.40346596598118,32.84898692447496,33.35815925104472,6.526852352912399
18.785485708554905,123.73361001979788,98.29745148274013,4.703757123970386,64.23406330038733,27.31475606360226,27.68728563034708,9.045797935301767
19.29144002868618,95.14447049939582,77.44801628928998,8.042251432084235,52.15628294040747,24.077290981352576,23.684291019762163,10.501386859962716
20.422257115831812,84.67928859864169,69.19994681446123,10.301877585771924,47.800114476240715,23.96186882727613,22.473325052953385,11.236314150614767
21.8992140666756,89.98922772538636,72.7251245715862,11.565452678066151,50.49551558030514,26.46096972359487,23.92062948446529,11.667738118414634
23.027619162911723,102.94541977561141,82.57937296086754,11.875332936840667,56.81031266140061,29.9866806803886,26.81729656381809,12.089756283754031
23.086113543677957,113.95708722133938,91.85077114092023,11.267859326193674,62.44133217462328,32.615329946883605,29.541288166734013,12.537898130593426
21.66256799366789,116.49293457354017,95.4764661014155,9.7608536210667,64.23790289900127,32.87240183001426,30.7478528728322,12.763064148282519
18.805956080536,109.42979419687518,92.01641478292566,7.369028574685555,61.316505849113696,30.214894190635587,29.78488015801266,12.36538801014328
15.017920784644165,96.67004926922061,83.56967196180271,4.216972292541752,55.053083401367445,25.164863876326613,26.826575922536676,11.068781282702465
11.120415966541684,84.95800613171002,74.465001551553,0.6556912298663308,48.31924965770932,19.180888727732125,22.810978648446365,8.98100880265966
7.976022241546533,80.88760543817556,69.26730209944763,-2.7934257189621428,44.26604575234302,14.241827862266364,19.13115860150041,6.626264582303485
6.087674192669822,87.59386841343947,70.36845951505978,-5.67983126865075,44.772201766655776,12.058214006496337,16.993246914052577,4.678324756687636
5.27742831477135,101.95738991205185,75.89203496949169,-7.821758691524722,48.9775905226477,13.091695604638632,16.630831810027995,3.5742162021704686
4.7226695783408195,114.09911188060474,79.36699140599798,-9.229145915316895,52.85965641825153,15.96222298985017,16.903515129675572,3.3064430002744305
3.432001644429622,110.73968454242241,72.25343802676149,-9.808132098892514,50.67503432853101,17.842652660251037,15.740914754753204,3.5413736895974735
0.8903772058187518,81.73164968716694,48.55295606897773,-9.174290644095088,37.93048678132944,15.854940181037403,11.322672832116059,3.931904339386492
-2.576190436036321,26.29210484006675,8.833285779758622,-6.836235347645937,14.218552876160436,8.704276131944823,3.270241117985455,4.351434919329921
-5.981802602608859,-45.17050530891803,-39.095577231385676,-2.656550008467257,-15.981155196249853,-2.494328073082598,-6.965198239328747,4.885041215628647
-8.276352764747333,-115.24763322698861,-83.56230610786396,2.7921946144859477,-45.21177479143968,-14.745456830096288,-16.797529583190506,5.638654159346054
-8.943348423531994,-167.48827014805343,-114.5181188421041,8.308400825633775,-66.56431982852095,-24.712141336006187,-23.828708597330007,6.560005539990681
-8.223111384949027,-193.51815180800787,-127.88325546017272,12.579422340506214,-76.7252858928236,-30.300892347987052,-26.967906506409324,7.4204111491203095
-6.874550485701852,-195.4766537740067,-126.43422492313381,14.807206298981008,-76.89171621586667,-31.400531379945924,-26.72647855884627,7.954260575330222
-5.69894760877421,-183.07053184628938,-117.23449509632702,15.036223186350977,-71.35660495099614,-29.51483333490601,-24.659372181197114,8.02764425593384
-5.159253075681301,-167.75025706029018,-107.63474463184615,13.999859609847098,-64.95900814178069,-26.720331497346976,-22.439874328146065,7.702414833706836
-5.28788060248652,-157.6455667323693,-102.25997842646373,12.641322247756927,-60.98946246939936,-24.659170965145144,-21.151751829392403,7.166280847860424
-5.835265234412935,-155.5413362793549,-102.17971499749761,11.654712442489881,-60.45156145545146,-24.047131281647605,-21.080511864090685,6.6098789759888685
-6.480182378760782,-159.80455204014822,-105.85528343648403,11.297644408699563,-62.53927212679282,-24.73480769087128,-21.906682079041108,6.149200977039873
-6.971884817060769,-166.69647160151848,-110.7156366071213,11.473026608371065,-65.62720198880078,-26.075727674438205,-23.045950151502424,5.820140171576209
-7.191185709617283,-172.5809112422853,-114.5000878272053,11.912670484107407,-68.18125589229376,-27.34487774060144,-23.95657224228103,5.604039609992497
-7.163749056329419,-175.35166224224952,-116.07275815080662,12.328773805239015,-69.34816221553109,-28.062379367020405,-24.348909455035617,5.446491577630497
-7.027868039190249,-174.92898234264936,-115.64500702927323,12.514986245969984,-69.15719414998705,-28.14631033698853,-24.260217362184424,5.275458259289219
-6.947348997688149,-172.8115102625036,-114.37102701939891,12.415573108127212,-68.30232687690643,-27.853505022599048,-23.963493648159762,5.03594765629453
-7.009771968100893,-170.9221646635406,-113.50710027577534,12.135344093330401,-67.6137835520752,-27.552597360167592,-23.75732139926424,4.7244772114519655
-7.18835661163814,-170.43407032083527,-113.66638878950388,11.855795220735928,-67.55142354406831,-27.484465793567733,-23.782726731600512,4.3861355768845645
-7.397085162279294,-171.34282405903616,-114.67473477539676,11.70282993195239,-68.06204825293472,-27.672553293834078,-23.996280575552653,4.070491409693039
-7.576354831825615,-172.93571427151883,-116.00600864502739,11.676424444411495,-68.82547006401722,-28.00662423005958,-24.281556819836325,3.7906284618607278
-7.722757379394862,-174.5431813348528,-117.27628296399068,11.697757700179885,-69.57793843246162,-28.374190995151853,-24.560481500027173,3.526547337564743
-7.851937724046417,-175.87101098161094,-118.36119140723875,11.706261352769296,-70.21668219275483,-28.713033684247755,-24.806671038035333,3.2605290660411885
-7.961111081046501,-176.8439540725031,-119.22234700005747,11.69773813176452,-70.70615958904536,-28.98622724547013,-25.00023814911329,2.9966042966290445
-8.041342256560421,-177.42546539837136,-119.81863545265975,11.683414490164731,-71.01538253736403,-29.167340810584612,-25.119404947298374,2.7437517627918635
-8.110342506606809,-177.70098353079388,-120.22225150190887,11.648856447148159,-71.18264692221246,-29.270965658393656,-25.181368607886277,2.493325947335144
-8.206865524365025,-177.98622789340985,-120.68284734426513,11.574252093244377,-71.36207367733967,-29.368318752059814,-25.254703571318853,2.226327126156054
-8.34644262107786,-178.63467788361655,-121.43607167198847,11.478381732679315,-71.71311572682735,-29.534773012672368,-25.400006563346118,1.9409199112649713
-8.49918216502586,-179.68299041193617,-122.44861429434735,11.410818900917352,-72.23466182818498,-29.776382737587802,-25.60401963148168,1.659749507957622
-8.624957848482047,-180.79453047420034,-123.44529179056936,11.392628082922123,-72.76341046103077,-30.02812905868693,-25.796212195763935,1.4036696068080363
-8.722754263046117,-181.63366431327748,-124.2239245032321,11.385778368455414,-73.16283961356666,-30.233014906228618,-25.9339116824338,1.1657798246497735
-8.828789750333366,-182.24088915777165,-124.87959727124517,11.33937053178569,-73.47675133847066,-30.406261433298297,-26.05008795087351,0.9209015848864914
-8.965515286309264,-182.95479867437209,-125.66452794767581,11.256987148183507,-73.859110595919,-30.60669777368814,-26.20483968660262,0.6581702639911425
-9.109756809448617,-183.99740271521404,-126.67619194921079,11.196817836447096,-74.37848668858719,-30.857404201456994,-26.406994693589365,0.3933156793803702
-9.22242883404757,-185.2484446525526,-127.77081030136685,11.202274949978646,-74.94824351466697,-31.119567805347845,-26.607449733971666,0.14532109560434378
-9.299307924149845,-186.4451251545934,-128.77518590321998,11.25072274082687,-75.45179479336845,-31.346277820065442,-26.765317910268386,-0.08922747012744595
-9.37543124238734,-187.4730282771256,-129.67315080546783,11.281284650115945,-75.87197088014011,-31.53558603254348,-26.891562633510887,-0.32867433562652637
-9.480485315053858,-188.35043524650993,-130.51916123683142,11.258383076385364,-76.25251349017425,-31.712239300969603,-27.014413073611834,-0.5773205758763164
-9.60840367786185,-189.0145042868016,-131.25789052664842,11.188934385150114,-76.58063030759456,-31.876582268020854,-27.127451630841527,-0.8171846237116388
-9.740217407286263,-189.34578243357842,-131.78509853459002,11.086823149731826,-76.80309932262671,-32.009030544787514,-27.20734973538675,-1.0338992184260498
-9.880360296902143,-189.51331300578966,-132.22642651509818,10.95618106410069,-76.98685024458082,-32.1340047028986,-27.283038352966884,-1.2413643135304695
-10.046031705459155,-190.15933974416438,-133.02860994665744,10.830466692380911,-77.38554826388625,-32.345552107980936,-27.448741527246646,-1.469074548188323
-10.219011753886754,-191.99277587455882,-134.6142187228444,10.80433372332001,-78.24319522776996,-32.72813173771005,-27.77289809226518,-1.7257629373664964
-10.332946436156618,-195.05075211540364,-136.89152557309643,10.97726395407189,-79.49586816786098,-33.24169681170857,-28.194210977954064,-1.9857236956217488
-10.333058358420015,-198.36632034713378,-139.14568491729221,11.334029696083658,-80.70033939951473,-33.70406910258726,-28.530896132918176,-2.215123192788034
-10.250547759347775,-200.43502877022047,-140.45940592655325,11.687062858045069,-81.29879694924688,-33.907383766268865,-28.608924602434122,-2.4043743082373608
-10.204691577436629,-200.12952148189683,-140.29875084962333,11.765953018828991,-80.99466930259608,-33.767685897410054,-28.390983491552944,-2.568613440277871
-10.322217802216663,-197.4345337447096,-138.85520746987302,11.399663686287568,-79.96195289286253,-33.39215910083755,-28.0082572294583,-2.7248037877867843
-10.648704342919473,-193.7170517309226,-137.08489840213701,10.657632067354617,-78.83344095867126,-33.049452742612566,-27.7112175881298,-2.8841033634921676
-11.118353775039436,-191.54574195660683,-136.5494260211783,9.867669446954922,-78.5528617374053,-33.09140052267101,-27.797430158734713,-3.06885035663898
-11.57507448410717,-193.915792974671,-138.94221583084166,9.516548460008991,-80.06544090750882,-33.82847227412791,-28.50588134626051,-3.317411789432508
-11.809639254482146,-202.6293930297255,-145.08795801240998,10.056469241042517,-83.74232375370356,-35.323010760891236,-29.833899706283532,-3.6472344714692246
-11.623640970363226,-216.20708997990238,-153.69293623177833,11.62642309349135,-88.69178146308043,-37.15887580858438,-31.3433285337814,-4.0046115305659775
-10.954337640982178,-228.72025190279066,-160.807800764319,13.765380029650716,-92.50649754830796,-38.39274921386019,-32.160092904400415,-4.262297913581232
-10.017706701857966,-231.08748950523736,-160.919787171317,15.326318346681688,-91.97642163395204,-37.870124096512626,-31.316185734355173,-4.283822815788881
-9.325792917154244,-214.97768228044654,-149.51825861763766,14.811093747589798,-84.65071677800502,-34.82577441195246,-28.309585865610035,-4.002866575166411
-9.462976344879523,-177.41318912544395,-125.71104808335086,11.106288444778924,-70.35865312645913,-29.398778564316334,-23.511688501501535,-3.451516863979401
-10.694949986733013,-123.2209371874322,-93.16977278653705,4.246546907619266,-51.632762883709546,-22.669159866907407,-18.093413083758254,-2.726573913019499
-12.673569780552798,-63.55556250453421,-58.672349743885924,-4.318004838668693,-32.636071495128924,-16.12854103165697,-13.463140545727102,-1.9392119323147357
-14.49806882858733,-11.12286603398967,-29.04973645548244,-12.23202270492444,-17.192568284608964,-10.901437829202218,-10.555444392184837,-1.1905273108028347
-15.169771949194008,25.18939734267275,-8.347504094281982,-17.30918414075753,-7.127019318616653,-7.229185651481979,-9.420041893661987,-0.5712672025775601
-14.191026067908433,43.24395676188467,3.188410912077659,-18.563719451520246,-1.9035320268307887,-4.561710051761117,-9.360870037335077,-0.15568541261393695
-11.92141980323512,46.83630262876698,7.984124691778868,-16.59710601330895,0.36214685562506055,-2.171493253626357,-9.498794398584586,0.026230611067699167
-9.433655755711454,42.33898432105541,9.005980133340769,-13.152533925351158,1.3956436616500545,0.1819949837621885,-9.345172707061385,0.015418701221083804
-7.940489812396947,35.367434210642465,8.214568213359112,-10.178865185938273,1.866495581078941,2.0326620367421144,-9.006444865017402,-0.09685822234008885
-8.154837825633024,29.230145981793275,6.333241162612448,-8.993270940337915,1.5304886499967882,2.556943971161043,-8.962146072946371,-0.25506005355434785
-9.964840386766237,25.072251687272548,3.4521642225442077,-9.935942839228021,-0.04770054182848965,1.1814259254753234,-9.667823284051048,-0.5335270483587644
-12.553089160808105,22.623752709611793,-0.3757330950783706,-12.500629005735343,-2.9179830880257867,-1.9823683648423092,-11.26419567926103,-1.1299408733895757
-14.805098460640844,20.902297187376455,-4.851027626960337,-15.683615298963346,-6.606063813480677,-6.083064126984895,-13.482615125022287,-2.205773026453665
-15.761724321370115,18.955823019796483,-9.267413141628221,-18.3551238929476,-10.2309749623628,-9.78941167144066,-15.69449882095153,-3.668785104217679
-14.95998244846024,16.64845145976609,-12.440004926531794,-19.613708034094216,-12.694791995836866,-11.721694764390458,-17.080470496020776,-5.09203689050909
-12.603690388947335,14.941712515862893,-13.022055936670668,-19.10028830563629,-13.00599767898741,-10.959105570474845,-16.943367499483575,-5.891696440219706
-9.524841128454725,15.201599519713804,-10.309684412833962,-17.154639205260985,-10.784751510159431,-7.503874247017385,-15.095180769700285,-5.683168675654874
-6.9174432077992485,17.931342969398422,-5.036496599292744,-14.69643767796161,-6.696490630583668,-2.4811503962930144,-12.096647072005462,-4.581091026728159
-5.921654750587024,21.94849327341958,0.5286623087637781,-12.8672470157183,-2.4320703009471196,2.1281868066923084,-9.145913542766195,-3.237670572966705
-7.233640751382354,24.61332272787416,3.332722452292364,-12.612115398239508,-0.1518373530832403,4.189664820037336,-7.639316449365698,-2.583967125325842
-10.889320135482592,22.838434521469146,0.6777568730484702,-14.356018993198544,-1.6946376275103057,2.253356807115929,-8.632511258417185,-3.4004522529720886
-16.233693925905904,14.345369542969387,-8.699965226549011,-17.81545924992055,-7.866258107821726,-3.820127341038505,-12.410357173706439,-5.905612114851669
-22.00508763335817,-0.971530626155338,-23.6676965087508,-21.963380499078546,-17.863036552718413,-12.631621258351085,-18.22659827177573,-9.538671394102508
-26.530146616438714,-19.667669536087942,-39.95569285249899,-25.24663356057913,-28.867348625295122,-21.453560650166057,-24.250204574652543,-13.066185229718108
-28.117290337017977,-34.208009380881784,-50.34448332698301,-26.138519300930593,-36.20274214215161,-26.897976754956805,-27.87519392385448,-15.038607527854609
-25.657438065229556,-34.634249544009656,-46.67043581767253,-23.872785575279945,-34.58864300182536,-26.004541938514365,-26.539049566410256,-14.439573491034535
-19.19895423516675,-12.778097201428142,-23.484380827232883,-18.937865291551976,-20.43029863242723,-17.45790575248079,-18.865322962031197,-11.199652628870318
-10.111364944602924,32.87896530946801,18.4809597653989,-12.93596885736247,5.964695167889069,-2.3520484242047286,-5.532175345046573,-6.256391358145869
-0.6128988819600989,94.98376599237628,71.51580410536363,-7.803878795012027,39.80430007624038,16.047340243834356,10.772500656454037,-1.092509129342424
7.158339634180441,159.84571321858087,123.90873282687839,-4.852727577244474,73.61599959806634,33.588214260545854,26.444441347193678,2.9819615290477937
12.012259012291798,213.66379660727534,165.21692007846062,-4.2310232530351275,100.577714126713,46.93611909467266,38.52494765169857,5.36958130968294
14.001344864129601,248.61220733426433,190.57861299590095,-5.127942799247178,117.34562303592003,54.73546941110276,45.78589987629751,6.239057527569789
13.997520312867898,264.8561148674805,201.32960193618973,-6.521607770005344,124.59637402834885,57.577552878289175,48.693718639841386,6.117036634862758
12.892122452793375,267.41616770590974,201.77585796083608,-7.903498531298289,125.08821787679247,56.911450646933645,48.39544852099526,5.354554817345705
11.010259715369651,260.5616869642467,194.77443595783657,-9.45223105706118,120.83794871086495,53.75266269662523,45.57083764237992,3.8756793187748206
8.139801949434572,244.18392882295706,179.58731782522636,-11.57628298408131,111.61580257591751,48.145245907736935,40.05228082427545,1.3853885110095787
4.072923288470861,214.88133816929195,153.55365795794597,-14.259465105544885,95.8406818758884,39.70140083766489,31.451547340442445,-2.1551731356456445
-0.8545069929162431,170.59248681976237,115.97208964062918,-16.80239071990822,72.97715189401112,28.65430528997781,20.173135122264092,-6.19982238888419
-5.720487102212709,114.72459590713954,70.7859485441672,-18.215836629782977,45.31338343559057,16.43897385204839,7.858669256191042,-9.74125631458654
-9.531555501554417,56.197015653247355,25.686875525943428,-17.96451634388276,17.534130135225393,5.219824296077814,-3.2150384562776306,-11.836264050345578
-11.868172793428121,5.186557079808842,-11.788964725616193,-16.440935891542523,-5.669015082907439,-3.316791811625563,-11.368264097547566,-12.153656275135049
-13.098137278898962,-32.14313341765611,-38.12222297892202,-14.732553127328154,-22.080767707520852,-8.933180043760412,-16.399690378676972,-11.131119899353788
-13.931238702342819,-55.79546567820355,-54.56440467538193,-13.80216456305088,-32.54599209748528,-12.736348818773545,-19.370498011339862,-9.618584838163008
-14.64011926998276,-69.32381938087244,-64.20234548503691,-13.700246407953983,-39.16331854086589,-15.998097220512632,-21.40934705465789,-8.277938905598111
-14.590684023151312,-74.68974925046369,-67.79100588974646,-13.450772835722693,-42.56406972839477,-18.78745093807947,-22.468814702003808,-7.188113699938847
-12.524548853935343,-69.02581184637208,-61.93248295862389,-11.744732128034357,-40.58745463101721,-19.52781819847433,-21.059685611660132,-5.927896337728797
-7.453815079209463,-46.291322448905085,-41.365592943172395,-7.9387153076342045,-29.614123574827747,-15.931110418383978,-15.260412132145989,-4.030257850848746
0.46666338802366186,-2.808708483456721,-3.795216208074932,-2.617522540380446,-7.684083483753766,-6.708171507305602,-4.307998745214593,-1.434921106997234
9.733470411707524,57.60650192766492,46.447620281532096,2.678484584182062,22.961226222161997,7.164072833920005,10.393743304135784,1.3933308076479842
18.128098122294297,123.0744796958214,98.85846869762672,6.3445881629139755,55.91490374062192,22.542616972939847,25.60655830996112,3.734547289076819
23.785483501633408,178.43637377511033,141.27892226276524,7.598852964166914,83.34887586841913,35.54857411690627,37.7431834376596,5.0473574308023865
26.027286983697834,212.33593263557108,165.5733692134422,6.806467315716838,99.69362708414191,43.40158591214495,44.54837347367137,5.259158300709224
25.492331631785945,222.0702127071478,170.9006869503189,5.1127867741435,103.93764771119285,45.538213757750825,45.95422651604349,4.744032852770139
23.589202804837115,213.496318917984,162.88799837099359,3.719496076972839,99.33166161440874,43.464680186859646,43.717306844041865,4.053947076359568
21.708968358100048,196.77904053204804,149.83950616447234,3.309849693602387,91.08624283488818,39.65159618495185,40.258475525008286,3.6206173281018823
20.685022932551067,181.21265981418946,138.7280955016051,3.9191575974917634,83.77221626713647,36.28659473544904,37.52266045703974,3.613480160742638
20.696442854388774,172.09585407258746,133.11479533859398,5.172305806641398,79.85869314336675,34.561028183838275,36.43665962608033,3.9790937797438453
21.476022279806898,170.42224849854782,133.25140485172975,6.601442653036657,79.65991249267762,34.62691706901991,36.987841592067646,4.557349419484693
22.575840911386955,174.20606040092343,137.26675492601495,7.840631637581233,82.04925863366157,35.934810979557994,38.58861298305544,5.17177671971807
23.559997125369286,180.032161342561,142.39305538557267,8.694890706996212,85.25836251180303,37.629091375430754,40.43477363610955,5.676050742121043
24.12778364422426,184.33495156217074,145.95339949536918,9.159987443149081,87.53819568234006,38.87531970006948,41.78413895850244,5.987648302381198
24.183732702160338,184.50834816736202,146.18688161079467,9.402581805971932,87.71077403362305,39.117422835501,42.17404246064509,6.113175015485528
23.8309193109788,179.74135213387567,142.7724387151003,9.66448209470931,85.5277084522874,38.233746916589205,41.54227951400332,6.137588402918249
23.290521843681937,171.22137403667563,136.81286197876992,10.124460160265587,81.67916829184568,36.539662301324356,40.20440439476067,6.17426550344295
22.82043767887211,161.6659378056305,130.38425269347474,10.827551123456391,77.50042781908661,34.66446517087175,38.735616237440006,6.31907138392607
22.693151603506973,154.5633556936634,126.01508171699314,11.73508093918036,74.60610424422039,33.39230844922384,37.85136147845865,6.642732645609306
23.179854348707483,153.29887682540226,126.13876854545595,12.8080890144214,74.51593149772694,33.47766561781529,38.26729479682874,7.194267327477277
24.425781841396997,159.8181891714385,132.11419742212345,13.999599317227235,78.0532875932478,35.336063097264976,40.40318771288594,7.9622074346287794
26.215574600739856,172.69831949569698,142.71184255279158,15.16233944942612,84.44274412105452,38.59693722212337,43.915557657205255,8.80115674451961
27.81870221525696,185.67095114132033,152.99391120135635,16.014021005456616,90.64028372047191,41.783956410471916,47.35425495555694,9.409867653013418
28.140015565622743,188.45254300312268,155.0691748925886,16.25641371357673,91.79072457046477,42.54025683413769,48.379538343319524,9.433377913825876
26.19222962512253,170.74582099609262,141.2557895054036,15.759986011992522,83.16341479941818,38.55735503505611,44.68199696530498,8.649175670284343
21.635129866710436,127.83522120722357,108.26547469135505,14.62926493605444,62.73984410197579,28.82232635903296,35.197623808912994,7.102168049449541
15.043249140709541,64.3824354127597,59.82462801956155,13.079939739190458,32.85223313193013,14.430910035447164,20.883301844334362,5.080703261643361
7.73379970610905,-6.3838074428158045,5.832048348877305,11.257374184538788,-0.3354230626626665,-1.6235506151499715,4.517799771457574,2.9524034236760754
1.2559540137381644,-68.1277246365587,-41.72925769138804,9.18830465891683,-29.38773050888364,-15.666586720952182,-10.417151325812426,0.9866659267918302
-3.1820983661815796,-108.58624130586215,-73.88929846019252,6.922876543854503,-48.79048657987267,-24.91495240888876,-21.161510486155578,-0.7080086172251091
-5.0783811087286015,-124.42842683715061,-87.99747773316707,4.7282584878163,-56.99765633890581,-28.534683325208213,-26.634607643337144,-2.1035951763349496
-4.679823798669053,-121.27277793754776,-87.65943679269441,3.1162312862383783,-56.34091196755872,-27.656499064411975,-27.489649475205592,-3.1237829404216604
-2.774148273614606,-109.44564780157872,-79.86416159707748,2.6049390204010576,-51.18863555865165,-24.488250803525986,-25.41531626296176,-3.608680563178096
-0.3893631880404036,-98.53615251019558,-71.39099318206999,3.352583034951558,-45.71389656761737,-21.175372864382616,-22.237581067187893,-3.433178730085989
1.488147202610492,-93.89634460437458,-66.4762594146592,4.954930183806608,-42.52270198847305,-19.05770079009739,-19.319926082113437,-2.6868734895306727
2.1487559558634937,-96.20779758653828,-66.3480780072211,6.601558187794092,-42.46134679064702,-18.537219051241703,-17.385016958718957,-1.7415562990976587
1.3311480582685453,-103.07987742213898,-69.97795960436898,7.502121240930329,-45.09404323885498,-19.334696158071235,-16.577971390045413,-1.1076926317496987
-0.7260310983448267,-111.05453060738225,-75.17651591811862,7.290068322178583,-49.25960647500169,-20.813725435803374,-16.58831410201843,-1.1488462347074726
-3.397356796061033,-117.1808136976712,-79.64300064909865,6.1692904867343845,-53.53995229591286,-22.235312705764198,-16.811128041221757,-1.8346991395250025
-5.907050067563355,-120.07134526995772,-81.87111447766473,4.786294659463377,-56.730795245503906,-22.9729269859423,-16.593074107315488,-2.6910497466738117
-7.578303124173845,-120.31330069713927,-81.66246616022318,3.9490775774427442,-58.25269154163363,-22.699420697473368,-15.514119226072372,-2.992694441911644
-8.010384021755566,-119.90763493670407,-79.93770737166575,4.2988461864408185,-58.25676805296286,-21.47118594990635,-13.568720378222075,-2.124446349174459
-7.169438334064345,-120.85702013702523,-77.94834741257299,6.006712332981689,-57.33854600637006,-19.657787849259808,-11.163461482756924,0.05256202580086123
-5.398315449761304,-123.80381317758598,-76.48903227260627,8.615927077965653,-56.11238164046248,-17.775736794356508,-8.967420429135684,3.027977347854384
-3.317494525702888,-127.71194555814563,-75.66104794423289,11.180897384565574,-54.97659739595055,-16.326017731133497,-7.691892705710468,5.804118935958135
-1.5982337037800287,-130.72221270893684,-75.17096355956893,12.71937926750403,-54.12788120654498,-15.666537645499359,-7.837890868070858,7.364648685648763
-0.6808988872603229,-131.4106056811772,-74.73376874288321,12.753561627603341,-53.63914958175242,-15.902072829929299,-9.454428798572343,7.221325685507728
-0.591842012522822,-129.65529148344098,-74.30154864143351,11.611177097345275,-53.493099529276485,-16.828480030388693,-12.026679674902084,5.730241840400734
-0.9693844625618484,-126.91118320423915,-74.19151813271526,10.314367234030732,-53.667719627512795,-18.020127602959832,-14.627566072790243,3.988315507761981
-1.2701286319026972,-125.95676738146207,-75.16866318348066,10.141923523744584,-54.32069239945718,-19.063789522038874,-16.317060339356978,3.352912841762305
-1.0292976811277694,-129.89906560161805,-78.21770089295617,12.068788628233587,-55.84189287815791,-19.77663391477482,-16.56883510539945,4.806610544489566
