FZ,C3,CZ,C4,PZ,PO7,OZ,PO8
1.9349509007352808,-1.8886093105180595,-5.298894785433635,-1.2467390204486573,-2.8502194867693493,-3.224389665465558,-5.547120250153262,-0.5798146668255834
-0.013908273589828827,86.2400468691747,31.05694847394841,-11.1569964096344,18.804099318064036,9.60226707379485,2.3644017648646574,-3.768435358912493
-1.261230382504074,152.77039578988214,57.95669755578064,-18.50312825599385,34.91430673137156,19.143079026573226,8.056227378172235,-6.030564027279166
-1.3544192045299481,185.7140154614925,70.47211948995165,-21.776964908840533,42.50788554280251,23.351359930798747,10.291117870160932,-6.7049164581621
-0.27483363883275075,186.76749905616782,69.96923749384571,-21.052918293105648,42.23411599136808,22.058771858202963,9.234699922889128,-5.5876397729155585
1.5412318477200244,168.05761970732888,62.30541821814863,-17.75002557114856,37.430430718748916,16.792956955182063,6.1664800363522065,-2.9759984702488516
3.3977787363537697,144.54673082633641,54.100652356056635,-13.820547758034907,32.04860448993625,10.004127117821376,2.7606656618231558,0.4394860299024713
4.677554008403358,127.1320209828436,49.60835288051467,-10.857136290629498,28.81108292133171,4.142365414078359,0.3908235262945294,3.7875258651148997
5.134513145033284,119.7823943783046,49.685662335617344,-9.578687581146973,28.476918643250592,0.9271752659918768,-0.2503135219357885,6.264884708814393
4.971361122459556,120.66610377647545,52.639986060479956,-9.838559419194148,30.188146067110694,0.9405564096914056,0.8063267190455273,7.364061504874167
4.682938866467796,125.10301607663735,55.80533078240523,-10.973403889409129,32.32635306060508,3.56609636160697,2.9800243445896055,7.025281849093985
4.788169665392367,128.37233317931134,56.924790200206424,-12.213373724389088,33.36077414302016,7.288359532702042,5.419276509563377,5.646349707696761
5.597250671553735,127.60236558643693,55.00483785825039,-12.984832776726991,32.44821277178549,10.307446263121896,7.308551876323888,3.9103521019019296
7.093003966586248,122.58491531402477,50.55604380228309,-13.063406272488042,29.682701373744102,11.260382997175759,8.111045601053949,2.4853386631315657
8.942757397030975,115.35367366763815,45.16136486124795,-12.571589696627974,25.92571975587817,9.726104797983714,7.6573442422520115,1.746402043048636
10.633796183687926,108.66812260009938,40.55409643036512,-11.829084915568187,22.29525006415019,6.291367650779996,6.078757972596797,1.67019179725779
11.694046201883317,104.30159918827165,37.76238673917797,-11.13571655714172,19.620147606256875,2.215733794784564,3.6929939678103127,1.9397998138775507
11.898433060843836,102.29483033112908,36.8639785123223,-10.633988843498685,18.19464982802388,-1.0773606000941456,0.9441087106934304,2.1665750344934023
11.336775449188057,101.50578357231619,37.351763668773714,-10.338721290148934,17.893641785433477,-2.4705374173148487,-1.6228246625719753,2.0924051141109796
10.299954248214197,100.65512681716838,38.59827358762851,-10.254828207564806,18.41193963444745,-1.4833288822937567,-3.449587765058664,1.6972708606839058
9.079450319090977,98.88907336463159,39.99874091009138,-10.414972835787506,19.392062460403647,1.5848086688101937,-4.139023026111358,1.2161841064780792
7.834889236450487,95.73619482142958,40.89519356351406,-10.77929094095358,20.448894334814984,5.755906371316685,-3.6117709468707107,1.0833818823821344
6.6019422524129885,91.04359491225911,40.64925562804044,-11.129612341554072,21.24108704339372,9.724796052071659,-2.128244566778169,1.790573435398871
5.383070247327694,85.19562112965863,38.94315780395788,-11.12554111547461,21.61386291734241,12.334733470062224,-0.17232452121563724,3.6592537447893787
4.222813435366132,79.20913371077432,35.996988115420244,-10.516219850063177,21.662594139519765,12.966403390692388,1.7094854362181204,6.609769444559532
3.2305943954475977,74.26420090444807,32.43798518279044,-9.324835593678591,21.610539441666987,11.685760307870193,3.0357533418332827,10.073759216169963
2.570868150936448,70.94947217686797,28.94901391367333,-7.849623393127977,21.602381402128493,9.132286302214629,3.4757312241584644,13.14599154267429
2.4263929565501026,68.95690297459468,26.009632495310505,-6.507460522807345,21.6023358360878,6.224636200843771,2.903826477356311,14.927428514898297
2.9137204815747877,67.48488662994393,23.817683885216123,-5.660221498870731,21.445229889462464,3.792318373735567,1.4089035295085255,14.89418359265292
3.9695747340071357,65.82422009737016,22.240053444631993,-5.504648660351358,20.931434498942117,2.2655377477119094,-0.7491467581061757,13.123890273850222
5.298339464920077,63.540518272400305,20.76496137429469,-6.00140686963749,19.891516162380395,1.569329188012375,-3.1961717327239363,10.29414405199732
6.463621255137141,60.34086562899181,18.685503723407717,-6.8277759860106215,18.27883140013799,1.2953431919889196,-5.4675845216069625,7.455893549868517
7.093448488634222,56.12828361060096,15.630024763094891,-7.426377720169027,16.330574983861226,1.050121764977658,-7.025180483107808,5.647975366369185
7.062160702385219,51.32465965648051,12.079446682319462,-7.218879982506183,14.657841525518363,0.7358522707607293,-7.355404607049744,5.482059117244219
6.532055366165222,46.931454695627785,9.293405618530977,-5.906613079207039,14.0579394634097,0.5681118337309925,-6.177647352518464,6.881523710980488
5.859043860101596,43.95269225642845,8.52266390492202,-3.6509721237719783,15.064591608335938,0.8576078994661331,-3.642559884502152,9.129072447896867
5.450596594653988,42.611520008495106,10.097851148639139,-0.9910067517602364,17.55179232582109,1.7648582271034587,-0.34019645524916864,11.220139846733082
5.635820762290987,42.171080528684335,13.148734525930212,1.4299162272262702,20.717368434071997,3.1958261345951064,2.9254410131755395,12.319452022173328
6.5431243459801,41.550483963424945,16.12236344926243,3.1159257776344513,23.447322541951575,4.816438388406167,5.431378536685915,12.052028122561273
7.992667703218229,40.06031272426675,17.592910455983898,3.8089341083737174,24.762279858065092,6.076296339491142,6.696566780537103,10.507046170989595
9.48329466434129,37.56383461634466,16.795142078869876,3.458544489919465,24.09280978441513,6.2563953378690496,6.489061589118805,8.063106282383751
10.359579342536064,34.17092149636621,13.777084905054346,2.1937866558994945,21.399955200998704,4.698303625026848,4.845313126654122,5.2376289354597
10.12316196530732,30.09186175592757,9.380692845327642,0.33779578097200336,17.266053360680637,1.2701077833041217,2.212241063842023,2.6488358615051357
8.710060268140506,25.851414341232868,5.094721460320809,-1.6026349397799218,12.902360159290604,-3.1935064860033324,-0.42883586251107436,0.9994415896974853
6.548346909023027,22.353674311489886,2.5881246392185044,-3.0402023467760158,9.854553787509449,-6.927414099757538,-1.7432834109234816,0.9375434209699106
4.357220430025655,20.354148560098174,2.918745224093055,-3.4838882734057384,9.349766285052969,-7.968993145292486,-0.6372526465045975,2.7673063366498534
2.8121229466954882,19.713214706734917,5.860703824165023,-2.714578555771063,11.605694721565378,-5.2810035701175115,3.008443059371264,6.154465224188177
2.2526087815106886,19.2791317350712,9.893596453887321,-0.8980526144371331,15.586862538780345,0.4254968308879792,7.969962247856458,10.050516519957359
2.555737840621989,17.686666746279442,12.92951440532658,1.405804175552215,19.426416193194953,6.758256213127172,12.0320556974922,12.976089578993342
3.2184835929555513,14.398554644071114,13.299915834603707,3.3806753263766076,21.277561504029887,10.671283336967653,12.975190565518208,13.600215102965699
3.619061379081415,10.084569567690082,10.43258284037633,4.244498075864961,20.11715386802663,9.945946253650078,9.701104515790139,11.35119054355776
3.341017725870975,6.103567610576632,4.97548120725388,3.589054643437885,16.119486594956307,4.3360322197281755,2.8817457364194814,6.732991741929096
2.3769608722731315,3.5585305884258984,-1.5810745459697695,1.575902414156174,10.47071909420518,-4.257912287343772,-5.248081247208445,1.1568379996578777
1.0715962088451365,2.4666190690654286,-7.647854789223456,-1.1437613139844172,4.7269417893018995,-12.70724335568498,-11.88173972339061,-3.643143062432913
-0.1603519300982009,1.3473306282929307,-12.38613874061197,-3.7316057788975185,0.0194799695171321,-18.176372563295956,-14.909999597359862,-6.318260117874843
-1.1244328489912347,-2.4323273653870765,-16.127845815208705,-5.496129418859216,-3.435381763955041,-19.388470643021957,-13.787344146809062,-6.3925851102043865
-1.916720466779363,-11.130169316245818,-19.80118158847122,-6.103084723056002,-6.130012006305743,-16.915181634965627,-9.525939537784934,-4.322208197650799
-2.735971876011278,-24.122990868867706,-23.43477374927761,-5.64430577535398,-8.396432354617506,-12.381836768680314,-3.8640664424794475,-1.1559979464102694
-3.624945642389713,-35.92764810916867,-24.799216363426865,-4.617900864276664,-9.490241871670314,-7.190559096853408,1.8296650591739239,1.9778419031588945
-4.381481203483713,-36.88654826102145,-19.587537641655686,-3.825868890162184,-7.461416074973128,-1.6675837107022116,7.2017587953147535,4.287549426120834
-4.7176244929898825,-17.35787063780621,-3.605373435940651,-4.141290575805408,-0.16447282122769857,4.808878310677019,12.737038775597709,5.473953277589528
-4.522259522964488,26.44290304421513,24.192967524245027,-6.152589271072974,13.140053549021749,12.894165902654082,18.98613330452247,5.642810953326347
-3.9961638844064686,88.68687260649168,59.9472729614913,-9.827449156197972,30.72666794638314,22.3415322912154,25.828238929085693,5.109561634408547
-3.541277722151109,155.21526251119278,95.90463525986614,-14.411707939046762,48.76023132629548,31.776203369318267,32.3178161912468,4.2307745162693635
-3.4930303147058646,209.66465374139597,123.8509291400818,-18.689477302024272,62.981958343811925,39.335241886836826,37.189264496468304,3.311060760674873
-3.9119812523437507,240.97337215760967,138.92093720091182,-21.517355460845106,70.70838205171155,43.68536892003583,39.60889545531914,2.5588551226144287
-4.592787279260203,247.84375909673227,141.48061688513917,-22.348759363675338,71.9128205318169,44.699071640205894,39.62714659005108,2.0584496786037665
-5.255596734466496,237.79531233993842,136.12624517651847,-21.434621108970802,68.81776447149704,43.38143353206323,38.06383905810239,1.7665242354659898
-5.7356097738223255,222.00829155929318,128.77144063626062,-19.580624817698492,64.43843090788303,41.204773437349736,35.99559406504265,1.559983047957645
-6.021992890883249,209.5694248524386,123.81852342733993,-17.642792767881456,61.10156778924362,39.36661063922186,34.24640286756702,1.3248594366337691
-6.167581795608772,204.34184522008587,122.87998225676714,-16.11311324812332,59.735952156467405,38.403497834092576,33.16552503272709,1.0271258712549978
-6.204792416332124,205.24964475268808,125.14505268004052,-15.034658293271843,60.02615756192564,38.237148918996475,32.69262538960428,0.7120530444216608
-6.150267677183642,208.60137672297418,128.562676949448,-14.202350202002368,61.01011254890339,38.45751744665572,32.54430940176086,0.4416470141462469
-6.053559701530082,210.67909329471783,131.06876997258027,-13.420129493003293,61.699731868411035,38.63163673531936,32.3963692133652,0.2312440631248452
-6.006628947253121,209.63582947548653,131.55172654563188,-12.634681035516271,61.548664236693426,38.537145472865724,32.032549398515506,0.03312955565969247
-6.105174957461354,206.34164816660078,130.38999451900332,-11.927800380348803,60.69288460739336,38.26572499509179,31.437244536289093,-0.23645158503510047
-6.414635601002759,203.8160921508339,129.2569033493637,-11.428905482940236,59.8393639724626,38.12969305068118,30.769946919474325,-0.6553671194999562
-6.957829080263566,205.14390720763913,130.05932826149677,-11.18247588430548,59.760081096410836,38.37531024891626,30.205121865568287,-1.2502781626694135
-7.680902049475889,210.79131450497363,133.49862874605884,-11.002768214392624,60.64455827481614,38.874983114400095,29.748655974368514,-1.9483099814078182
-8.385401442397828,217.129793742413,138.1897472514189,-10.423655219986884,61.767469462083206,39.05490347030286,29.19269779388696,-2.5529990374446334
-8.712671787917559,217.4857198956744,140.9556812703526,-8.877659992071896,61.73874278408033,38.16374041697437,28.24899274740674,-2.797250927411642
-8.282937569099985,205.28005090519284,138.07975189996856,-6.087859146955072,59.15660349110052,35.70684149519429,26.72464997729309,-2.4886091591121446
-6.955443096290959,177.33447249822828,126.75311400518714,-2.420743992857893,53.21672595806046,31.72706768791532,24.572622730100335,-1.671466962913752
-5.016186708320448,135.45569574023753,106.0888897007683,1.1204707976671242,43.965011963456575,26.74043487234792,21.796351273534192,-0.6760945981245744
-3.1053362695031272,85.69532807936366,77.509050517508,3.357991133725252,32.20317490807694,21.401628150622525,18.347163990370493,0.021822605170112697
-1.8915710761482345,36.01691602497172,44.53917012857953,3.599242883717576,19.23506945165097,16.15770322948141,14.161767008165612,0.07372148411157876
-1.7099798846045682,-6.3218509811410275,12.05183440920718,2.055578447409854,6.601067988535869,11.13910767286966,9.353146789477659,-0.5031093771692083
-2.4152390210658874,-36.58526140276988,-14.949310859106458,-0.2716884209445696,-4.170701740214068,6.361236028633476,4.415438291226809,-1.2850856901811663
-3.53948367195255,-53.19292479794952,-32.745884266106515,-2.167792302730429,-11.840855241099929,2.0646307911933612,0.24160390981013308,-1.651668454603024
-4.624120904616667,-57.48851135853162,-40.10241431093615,-2.8691278292838973,-15.78950098291513,-1.1301752116750987,-2.164605138962375,-1.1419383997574708
-5.486250292043364,-53.12326167481711,-38.75665545255748,-2.412055819255661,-16.310049805211705,-2.476359991846072,-2.1934059181339363,0.24279581097988154
-6.254868753366866,-45.148813180906835,-32.82865104113492,-1.5084387965642658,-14.651031390260108,-1.6593469028416794,-0.06145383885111204,1.9678608057919436
-7.19593913391994,-38.66592822467572,-27.205178915489384,-1.0997648891584222,-12.640594513273122,0.7341397844984645,3.130644433012492,3.1720162857454497
-8.481432456336503,-37.244464402574344,-25.567787936664274,-1.877385700031137,-11.98723675083089,3.228895244844108,5.806358388708183,3.053471426917145
-10.046671110748175,-41.830968247383254,-29.02597901854231,-3.975554123797892,-13.591498845375968,4.056253586682593,6.601872546591937,1.2625399253194218
-11.574876426328348,-50.70160791813544,-35.95176726399932,-6.902771997356998,-17.191381602648903,2.067993111293171,5.003681589016017,-1.868462874154058
-12.579043272194983,-60.29636087256848,-42.902946658865275,-9.715226368491361,-21.453670103763127,-2.516887398024927,1.632470368001535,-5.380865953062043
-12.567270572862729,-66.39353901787787,-46.116121040594415,-11.416169518826313,-24.461298347477687,-8.002433918124847,-1.990530173459371,-8.06048121609361
-11.293607696805397,-65.45140532091,-43.1314517832585,-11.471057769545492,-24.514564607835883,-11.942178489350129,-4.159242634359261,-8.999979720348627
-9.024499097905926,-56.29482631787796,-34.22711465104561,-10.179331761986685,-21.08438922142222,-12.444978044506485,-3.9063423853745163,-8.079562599437455
-6.642056241580071,-41.80230107548261,-23.124976438832913,-8.619248865732311,-15.518313653041213,-9.378941943195308,-1.6699352876066127,-6.077283803120213
-5.41170777843816,-29.2809218164962,-16.225446205536322,-8.104658103797567,-10.93865851818021,-4.709384262098143,0.7370114585363768,-4.304291180116915
-6.43274905056249,-28.227506138307014,-20.10570294885883,-9.43809005443887,-11.049497421613026,-1.6334077407243837,0.9608847298069707,-3.9462620459742745
-10.043755975016566,-45.8053946859346,-38.18728552793113,-12.427865506550104,-18.27625103314735,-2.9132732731019266,-2.646235958440946,-5.481160586553118
-15.554866875195177,-82.4387450523136,-68.4332944572768,-15.986402843219704,-32.27776778679735,-9.366711552982329,-10.07873741963486,-8.496712491211671
-21.51426396907374,-130.49536344599673,-103.68058891631067,-18.745575376580067,-49.81711595196369,-19.41801906529555,-19.607999342237843,-11.981288851635012
-26.382202990330725,-177.331453672894,-134.7053154167581,-19.79121391378705,-66.18799657428873,-29.955743223117693,-28.641338667067878,-14.880903271470357
-29.217382998491424,-211.15175433322875,-154.37862143445494,-19.06358857929014,-77.4057796226529,-37.935192970252594,-34.98721151481229,-16.584453780853707
-29.98011598667071,-226.25462215645075,-160.55308556886493,-17.2236731643615,-81.89320303155294,-41.759024627828445,-37.78465534835881,-17.08981612527472
-29.3337105910079,-224.67354206668438,-156.17075430266095,-15.157538227782698,-80.76255475247866,-41.7111739652933,-37.62749441558288,-16.833849747388168
-28.165325784046328,-213.70220057234084,-146.90575943021207,-13.501152410202755,-76.74308511871143,-39.38939629890062,-35.962645007948794,-16.368538686932286
-27.17930982601874,-201.44756480862335,-138.10860652384895,-12.464696604748132,-72.61958777740328,-36.67725033788496,-34.25788008384911,-16.10250377532659
-26.75876968220321,-193.3662518893765,-132.86091909573955,-11.945693967078542,-70.14741587670484,-34.91890606152445,-33.4396052779367,-16.212363670829973
-27.029125619995508,-191.28470771933527,-131.74210842518556,-11.725397123461722,-69.82373003052524,-34.622209116853625,-33.77338145006701,-16.687608943566108
-27.942028747546253,-194.2816450068847,-133.6528519642601,-11.586769034740753,-71.22973603585739,-35.58849153109708,-35.033448982317765,-17.417189661186068
-29.28918655464847,-199.96763935750727,-136.7537010618429,-11.35151851658964,-73.47152615127727,-37.201262099713524,-36.73353293043044,-18.25797700865798
-30.69689446421539,-205.42817144798423,-139.13638242539136,-10.902247298407344,-75.51458796251191,-38.712537090744604,-38.31963810145232,-19.072299517630135
-31.68563585229202,-208.04056094737348,-139.3520587037025,-10.19981266964557,-76.47396522098023,-39.502049752634974,-39.33574134058575,-19.73934218440868
-31.81617882388203,-206.3781623647405,-136.86485758781666,-9.263131810476285,-75.90053035141479,-39.288625967931026,-39.56079012646054,-20.152309512026182
-30.891152549267897,-200.83697943123605,-132.23700486032388,-8.131917071475932,-73.95665743899609,-38.22245972709818,-39.07276892430864,-20.23189747379101
-29.165316389497164,-193.5265357661943,-126.91314473362365,-6.887121060860272,-71.38306645375755,-36.81995470459305,-38.22507004724588,-19.9890657746345
-27.46993256281156,-187.52421537747472,-122.76575919396699,-5.7366739455014315,-69.29983729809211,-35.79339956312708,-37.57324607827964,-19.618726790973223
-27.074179849690253,-185.93243937996635,-121.5962172342574,-5.04031531498074,-68.91277498369926,-35.839972019763536,-37.76081834830242,-19.529758329305594
-29.130229948485752,-190.82015064051254,-124.49701057220176,-5.135193706987406,-71.07141346590087,-37.37649732122821,-39.29438539332557,-20.20539192568936
-33.798567848690894,-201.8066032512494,-130.92430586695176,-6.0032280548133246,-75.62511948916213,-40.19955799178344,-42.171016861511234,-21.89133782548906
-39.508759863617726,-214.63668445029782,-137.8551609897983,-7.022446950233864,-80.83044416848153,-43.21217396920721,-45.517782531847324,-24.262790314580517
-42.957168506109994,-221.12624212168538,-139.97513231338488,-7.044310461319879,-83.39016326554885,-44.52303727664816,-47.5742322779326,-26.297610865377973
-40.15070582032699,-211.78198919619436,-131.5544644223744,-4.821633521432681,-79.55016424900279,-42.1174389921506,-46.24447708245509,-26.509634509759167
-28.189304509618132,-180.57600775893246,-109.42196842002515,0.42280875667435547,-66.95803963266331,-34.88956936934338,-40.06344369354262,-23.513837494159237
-6.931654046004807,-129.17289907536016,-75.2718108085302,8.568349245967832,-46.2512431948364,-23.437500528920815,-29.05801817380707,-16.70693356988021
20.408643462156366,-67.54687727406655,-35.617756058447284,18.50243436000975,-21.2864245062982,-10.038069923173515,-14.959016670629392,-6.74466658514194
48.21224001283518,-10.067563005106045,0.8477109996840543,28.411409510944402,2.3038738069349085,2.300130494541095,-0.5834848271525497,4.463167506496072
70.59359989392478,30.79979938525677,27.006956645398745,36.36890445793444,19.479011100324435,11.195707790042002,11.294317618858871,14.326131542052082
83.67900126063415,49.447529496051736,40.00796378795554,41.01425326768948,27.76264187764811,15.86847379677846,18.97543669163273,20.523942144347195
86.88247914120142,48.09538861110419,41.548972385953164,42.05177589524374,27.821928500192328,17.191250156155807,22.271854798085393,21.928238007057978
82.63899228906584,34.01282662191537,36.09496181313257,40.34538397430041,22.60383727515644,16.903096612093027,22.249792091383323,19.06709813541983
74.91421752635415,15.604427325160117,28.576343121894816,37.52297797431728,15.819393930060016,16.58520659427846,20.575151569567893,13.896660283632917
67.35817658090792,0.018710632664644344,22.97141564850402,35.20032699354522,10.69598860011221,17.036314734157862,18.86053841017005,8.961403253129975
61.960380065304406,-7.135694591255646,21.988148703755932,34.14085615125356,9.377743801355056,18.265740067953093,18.235578200671817,6.32251176003093
58.667197380915546,-1.4872921186508057,27.07109226130796,33.791424813730586,12.755875623255708,19.848805306079754,19.1398944361378,6.760271538366011
55.94478742130515,19.328072713267925,38.07500233442551,32.53061704215191,20.401164156810335,21.2513992755599,21.277594731549197,9.619249067979855
51.909498538593795,53.92501315212832,52.857448294879966,28.594598072660652,30.603305554452263,21.956966125570307,23.749551186825,13.320544708717673
45.4727222611425,96.25645272888684,67.63323121354536,21.202825222996452,40.79435982223775,21.51730947064445,25.415622364094276,16.218364030777508
36.98559905481534,137.1871823853159,78.50037982676551,11.218182891474692,48.474948958914965,19.705896606630898,25.427670771255265,17.338910577897654
28.112592648165393,168.28511150157038,83.4660413710169,0.9181183454846331,52.299056480497235,16.76564097627433,23.69903149562455,16.6669446140815
21.02526360681657,185.55080288322713,83.57889485724883,-7.0160371104623716,52.65651053802368,13.532845824697665,21.0147126367181,14.927452460351883
17.333317071038778,190.47248173221433,82.13905860922318,-10.715029277185963,51.27047475041096,11.20847780761964,18.64342779376009,13.071630909968247
17.30387774389811,187.59348594380387,82.27859980953521,-9.863024965504662,49.96118218739916,10.783553135139089,17.62409502564672,11.787056836284908
19.776951383575465,180.4392832477803,84.53862194569531,-5.606744021139157,49.37729682659585,12.435902699669345,18.154100333646184,11.273010281449269
22.809544599502974,168.99408082430298,86.27935490025558,0.2026999813523459,48.60879944547447,15.32520798258428,19.4835993757546,11.319605668664456
24.6700260171599,150.66313438998824,83.49629195513862,5.908252956381429,45.983403109362094,17.980871215143978,20.39092978737861,11.545510233421497
24.615630404394185,123.77252251352984,73.79322871175454,10.582625746083709,40.45553146192027,19.064460187847367,19.916035458588883,11.605571592649282
23.04705630871667,90.6191843928873,58.36491859990382,14.029075711742635,32.556576419516354,18.03371939246054,17.874704641811064,11.278408871842549
21.03148564185991,57.55466196930131,41.58757582026188,16.432287659311825,24.23691552304721,15.334709494063599,14.870695661862138,10.472302749570876
19.55322132808269,31.985253873747997,28.5624633184914,17.996766309696206,17.763964253307613,12.090839289313758,11.884778779385144,9.232205116482621
18.96367901376943,18.46933784838339,22.347264764072882,18.81249056739003,14.483008248459463,9.55685417448427,9.766162937854695,7.7740579215264365
18.911434118959765,16.61362481274956,22.67054070296145,18.949761507680837,14.253982977646702,8.65334000597747,8.924766553254479,6.4862861528564775
18.689111413509444,21.997016160031055,26.71938044867571,18.590072204477327,15.806201118601644,9.711747981530166,9.289350072924227,5.812641116379776
17.68787328492576,29.11323401080272,31.109243630357952,17.99970554661553,17.584119532640962,12.360212731906978,10.387151250019459,6.009390164853995
15.665674510681447,34.089617692567245,33.54116513598916,17.341408798166754,18.423908369519662,15.4837707215477,11.410459449152693,6.906139040652783
12.751311926391057,35.59955556183076,33.28001515735455,16.509440637891927,17.737394751139572,17.373995833605328,11.32156990627524,7.866867736367026
9.30469574510273,34.12354808341838,30.701096892392655,15.172496495239177,15.39030473859681,16.264596234594496,9.154338575898146,8.04917794204277
5.781041955645655,30.81996220304382,26.685105079117925,13.02555845644092,11.626252558475574,11.210045856356214,4.516524213485866,6.8475460461517175
2.6457732071233306,26.919918131372857,22.298975218304044,10.0742521093598,7.117600569767919,2.8533398417585003,-1.9887586463898381,4.254518993884482
0.3051277926120801,23.561975015374063,18.6278719074325,6.756333929427007,2.9191359443767317,-6.5204041211276556,-8.79608538867025,0.9127174597665154
-0.9739876506919297,21.601773699347483,16.51939394369586,3.820521649164772,0.14459390125754723,-13.875494908876243,-13.975944825458312,-2.172275205619487
-1.1369890589385456,21.369048508553547,16.315849863215682,2.013278843171494,-0.5001564449243687,-16.84152117785342,-16.095602519105277,-4.085642625198232
-0.38000348923333654,22.712332617637134,17.818132545610126,1.705346834976781,0.9906646911844876,-14.843469006807373,-14.844568884587947,-4.379253031448872
0.857902374554103,25.360922880111335,20.495161507154222,2.6327133422295446,3.973336314710313,-9.319102249447525,-11.099836679572679,-3.2042791797467403
1.9647369127204806,29.13621677503545,23.684863445013402,3.9219636158101094,7.44234585483592,-2.9607508838735455,-6.45982242432828,-1.1826823726783506
2.3152823622996093,33.67234537057322,26.624920282838186,4.46062908679562,10.358035038373597,1.5709224919935758,-2.528056932309484,0.8816857499785076
1.5069402974409276,37.9828077598869,28.466248438677027,3.4618288691575354,11.926035380615087,2.8230301646448397,-0.2756945207980247,2.307862577530633
-0.43098303176515845,40.544981595669135,28.499593231057307,0.9018810341123565,11.826797927601154,1.0970391054312936,0.2715971387658335,2.739963606455174
-2.9971260829294364,40.08920248433893,26.547612633814587,-2.4470820585617736,10.345688069389398,-1.8420628259527894,-0.0805031402953029,2.1980470677360415
-5.405416503536994,36.55773770452061,23.225418035558686,-5.409938031476859,8.308658626013525,-3.708926062035788,-0.15488259774549593,1.0040870790128684
-6.908673509598964,31.57519153239961,19.879326550478687,-6.982802402760075,6.823125489739799,-2.7899856658867446,1.0401067418605923,-0.35418722342247944
-7.090972475815687,28.218872687884726,18.28014224322501,-6.779756541341064,6.9573165474063625,1.3648268195599502,3.932626486046934,-1.376440360972302
-6.01710626478702,30.166044533870142,20.16305920635966,-5.176620131701892,9.46368405959725,7.909068316311497,8.303097192515978,-1.7064640606468484
-4.229544030547057,40.163275271475115,26.50242451903339,-3.1408210333010116,14.49120325523931,15.160139755398824,13.395669671466473,-1.2705267027339069
-2.616809992510446,57.85804377426005,36.478860284081875,-1.817067214843285,21.21150269230377,21.16813746962594,18.06803205126942,-0.33050082045198886
-2.1483053179441387,77.87277313511204,46.64938505342955,-1.9806535449661322,27.541528393199155,24.138263081140387,20.95679841107885,0.6248992114387149
-3.4909069397702073,89.88154227396689,51.299403090928564,-3.5554004713219203,30.40373416877991,22.734955407331547,20.774465819204003,1.145610287524676
-6.639517638679275,81.98411577943662,44.54346435544504,-5.471035061011344,26.800283524399077,16.408784295320654,16.78971165661014,1.1054568023785045
-10.793006193050083,46.53448117899575,23.457396756686073,-6.052621304877658,15.362035233188246,5.728235297471156,9.305983183996291,0.8097227020644413
-14.634554105799129,-14.709802938191146,-9.605036754176284,-3.844204019818434,-2.5300225748605847,-7.522235111470235,-0.2032316023175685,0.8219162451652009
-16.931842160091133,-89.60804227670484,-47.230199445001006,1.5531948515508804,-22.900635696985745,-20.7239839696043,-9.51873323209863,1.6023586744584062
-17.136941673441473,-160.08294352906188,-79.93517634040839,9.135588147577055,-40.73145962747814,-31.266762115295776,-16.530050324217562,3.193765350824035
-15.630212619407853,-209.8615096592015,-100.36044719500735,16.890977076634073,-52.12001495529188,-37.49215681609618,-20.084420490656857,5.161875893946426
-13.459384692153261,-231.23241839405262,-106.27557390760923,22.73831001392466,-55.8381316766187,-39.23912429824759,-20.362611091715834,6.825101689707203
-11.741877412804541,-227.19956005537526,-100.79570326216823,25.482111244481203,-53.46502265802449,-37.69825849561192,-18.595460002034898,7.619151963212681
-11.107809569549218,-208.43199231369113,-90.04359232385343,25.26751730828126,-48.19647886393891,-34.71081783567553,-16.34458535464935,7.372820377653007
-11.507113029799617,-187.5568154186308,-80.00588780664083,23.36135943278964,-43.215197743179594,-31.975850830563385,-14.809865860495652,6.35508368482063
-12.426503472659448,-174.27420134415408,-74.41047292500758,21.486614185858187,-40.56705645263456,-30.585645528735263,-14.515394294153348,5.110948494274198
-13.28932789696362,-173.10905728534266,-74.24232858634541,21.09918187764088,-40.87460918887402,-30.9572400559865,-15.38436295606151,4.208141640920365
-13.759020354396878,-183.28628487639483,-78.27878076590827,22.862604862200207,-43.57300559284412,-32.92180541835926,-16.963985437870974,4.0096149481355345
-13.826359503077462,-199.44881067210886,-83.8203048940964,26.377722741379685,-47.24226774431634,-35.758493624332864,-18.601089418252194,4.523092218255094
-13.73060796732168,-212.90756790445138,-87.42067534497086,30.19077045292624,-49.95043406857045,-38.22346905448937,-19.57188529992724,5.350913034304003
-13.796953150375419,-214.0179340498392,-85.84605544808667,32.183739359997,-49.76483968042464,-38.78398158841586,-19.261966712995555,5.784057283105101
-14.22663305597125,-195.67500069393526,-77.18191579181087,30.391343163487985,-45.41854841818045,-36.127895288061026,-17.3846478409863,5.075021075759407
-14.892756718458784,-156.45111564129905,-61.49608499997389,23.99048457713729,-36.800565884628455,-29.738804080333416,-14.091564009098795,2.827115569026062
-15.276509345602426,-101.39211725993943,-40.55429781231075,13.912785511779845,-24.924707034351563,-20.20198098360871,-9.862543550524096,-0.6898052528693716
-14.6773528699115,-39.76538099868863,-16.794933751125967,2.592342064437933,-11.393600068604961,-9.047051864873591,-5.238317756447456,-4.51613280193313
-12.659213942841285,18.892268855644602,7.620331109106533,-7.144863880088923,2.2434686452543184,1.7955507866138956,-0.593314701947092,-7.355111855148564
-9.470033530423498,67.93044799114774,30.95228943438522,-13.442177608323318,14.788486314150298,10.641327911133818,3.8879551693851595,-8.15688488299595
-6.108441895932429,104.10182226322208,51.21111882015134,-16.17872718754075,25.20676314408338,16.48717168656428,8.030105724391495,-6.626343501499083
-3.90027162619231,125.62321055974074,65.42253497487758,-16.650210497936357,32.2356575452171,19.07085987337358,11.446022777258886,-3.368318313019596
-3.774444768863808,129.90950415891822,69.81592545528812,-16.403704887884388,34.28987776152127,18.630920910396487,13.49140352245546,0.4142175502477198
-5.666778786622262,113.3937922091373,61.313590859919174,-16.049788521842807,29.970690886234852,15.611720274208494,13.498211151317793,3.496916141485705
-8.452960021844378,74.07759286197954,39.610031083082276,-14.876207016026404,18.98114765065728,10.531439261572304,11.177529112918215,5.166237833622805
-10.51005633305986,15.00394481253815,8.406806665834296,-11.506845231545663,2.8239317456658073,4.043853768357621,6.92345324177099,5.433480724884056
-10.612888045643857,-54.22820867966879,-25.306520367964282,-5.122912380472643,-15.309799426257356,-2.955071513668456,1.779274003965168,4.854366931017495
-8.644194652103709,-119.56981446221744,-53.80035034947848,3.5968240941660334,-31.54526736017638,-9.351187921334594,-2.9569765322272406,4.102367847670994
-5.685428224988432,-167.35359638730475,-71.59046548120465,12.443710689461884,-42.691379534730366,-14.008620175040502,-6.2554697209555385,3.5679010642749254
-3.408683350525891,-189.03429503820294,-77.10865498097961,18.584240412888885,-47.17844410552762,-16.0214131882608,-7.673976045015498,3.2101533443852386
-3.10634550931058,-183.1816877150423,-72.17862095792253,19.863753376990015,-45.08942583128212,-14.876756226562156,-7.29649881732758,2.7060921172222985
-4.927500953257383,-154.15859343339258,-59.95295936290055,15.775580559696614,-37.482874208522254,-10.5134279755203,-5.420544789943536,1.749640511652442
-7.778771899961204,-109.18958723834716,-42.99290177980659,7.61871451141351,-25.690731701871986,-3.376705687970645,-2.3176426005582975,0.287237487669587
-9.937265772872871,-56.08148114702963,-22.81747387028645,-2.1389038821700317,-11.133445864166958,5.492739243345245,1.7192881863567906,-1.4356105627491476
-9.97732098769674,-2.4270106340809376,-0.8165831494943478,-10.873284613943726,4.4367003365924855,14.489262952396164,6.152422989315104,-2.9910480987427457
-7.4387721174224595,44.6603305956082,20.78637657934044,-16.676490377861,18.848128422985443,21.80782115583785,10.12947924091571,-3.9309924608128726
-2.879080824992915,79.59755742091939,39.15952247302008,-18.762185032858273,30.030904504819073,26.142371019070673,12.786465286974032,-3.8939856431072117
2.6086554328090106,100.26804476581248,52.29703790506842,-17.396928459219975,36.97042384673128,27.372675017149263,13.786910150164415,-2.6437426755292193
7.984179589022271,109.43845440257424,60.430797421479696,-13.589809411150814,40.36784782432536,26.743760046264853,13.6727284098054,-0.10325337866648014
12.52384489646385,113.87015527405254,65.9498854225838,-8.78767174868088,42.29805828277731,26.25647428320443,13.638231220407267,3.554702390813383
15.661520747396285,120.5885350421207,71.40645344648439,-4.633012976865983,44.79833336874307,27.473020677636676,14.723099459610944,7.791908524152887
16.702422886477734,131.98804274886834,76.81158574670435,-2.657659497133168,48.18064207624611,30.39988919554034,16.903805741416054,11.69805320177933
14.81999189553751,143.0013784307677,78.34429247960108,-3.823534679726955,50.280535482438765,33.20102291334456,18.763969442052367,14.220496464345063
9.47482500815791,142.90783721775318,69.89893278574829,-8.062381581817181,47.398067806629406,33.064997106949896,18.11770440480866,14.601348167011862
0.9783647561298505,121.51310031009358,46.92590608220599,-14.150258415916708,36.57056763093757,27.824634987073367,13.315166012350566,12.79835762421958
-9.266502185035119,76.31169274778784,10.239390274323384,-20.146734222204817,17.838710994598003,17.402005644831416,4.445855946742321,9.609258283923467
-19.115577760008172,16.176121383967335,-32.74927418342099,-24.26705147530163,-4.94095721866692,4.209917741621962,-6.340746321637321,6.368718170218393
-26.470624146252383,-41.04852387742955,-70.39437123698296,-25.71409399456337,-25.34220824753012,-7.756870424139271,-15.657888081683005,4.342182573866602
-30.044225648967124,-76.10936196918436,-91.6147288473754,-24.960060756476004,-37.066528759626806,-14.665013701874198,-20.426680960538633,4.12555515762209
-29.677950389964117,-77.08777517298327,-90.55626410863172,-23.301445235346176,-36.66703544734076,-14.509646260946996,-19.307179485832744,5.359105419306521
-26.118763655323583,-44.6497232834932,-68.73386770720319,-21.994915340072584,-24.91248615093462,-7.884255504832856,-13.260995481711982,6.893127462416339
-20.511349026148245,8.7967726738503,-33.82193167970653,-21.55327671275852,-6.214783489140666,2.449784254735827,-4.990391711005956,7.318462888812725
-13.971680061287557,65.1660857524272,3.904245479893061,-21.626535495980548,13.41642847359147,12.87748362994878,2.402227069050533,5.620928320145936
-7.430693517729484,108.45470352896588,35.494749722627276,-21.448748671056435,28.77699669855225,20.433348460249007,6.8260930102739374,1.68216822424585
-1.67809231630736,130.32574348138553,55.896387928091336,-20.46265783612299,37.135015577535356,23.812387226879153,7.997856652921762,-3.5931189475422634
2.581909668645192,131.45327622424992,64.49453371295735,-18.700857908156387,38.61001328366009,23.531665470548134,7.282113023567524,-8.616761572862229
4.783905427459993,119.10005468219688,64.03804304629065,-16.757146157777512,35.40657733325664,21.31507293736641,6.731197231971638,-11.825916984920884
4.643353145422368,103.0615613593497,58.906810120252416,-15.47452722020653,30.514909653101785,19.101696346798082,7.878079325143677,-12.45731742623854
2.2750824090452415,92.04328497111248,53.5005689234311,-15.592448812044061,26.519731922099467,18.161827127239125,10.920901040387825,-10.983746081932999
-1.8119976907856106,91.2360723705868,50.95437084274911,-17.50286819140024,24.831436391646584,18.643218661876176,14.662275471684294,-8.928452378855258
-6.849871115829565,100.79090891172828,52.08707203169496,-21.104310165064074,25.330072033136975,19.61348046877744,17.13089585505411,-8.09258742607158
-11.988949499311001,115.11319142939331,54.78951262099229,-25.696236693290246,26.381758315742307,19.485736101880793,16.502651078956056,-9.580880463695365
-16.425646354221453,123.82891239885421,54.487478304952376,-29.9646539546587,25.33902755524793,16.66020324004828,11.889412155075052,-13.16834737739625
-19.470313256651927,115.32534964585477,46.08690756492624,-32.21936717037216,19.60492780912293,10.203255527033374,3.708344982870718,-17.386607604394104
-20.622200016513784,82.20337925079069,26.798993672823354,-30.964196241096843,7.975076787474232,0.34887891430055723,-6.455621257025764,-20.295157930164205
-19.699919306202197,25.958583575062736,-1.7303465280632637,-25.616402997437216,-8.431308804291874,-11.410587589404486,-16.409611616646767,-20.496729514218696
-16.97933904635705,-42.258523401665826,-33.508577366635606,-16.96576282604687,-26.326809199762312,-22.7743155771388,-24.124704590382223,-17.82499406241789
-13.215576323785328,-105.9928339152812,-60.763054100336355,-7.012977652645127,-41.60489847589958,-31.505492632946225,-28.437098201551173,-13.354183971207247
-9.452794393062076,-150.9061175534676,-77.61167589913016,1.8303800534491963,-51.21322189657065,-36.33849645945864,-29.400353609819003,-8.78758506001691
-6.650831826214451,-171.0526813337475,-82.65285936894081,7.785986207887766,-54.46903636320869,-37.44116455299433,-28.12490123031448,-5.6103288941410705
-5.301815271363296,-170.39002801232024,-78.9676797634421,10.414409133388281,-53.04784165083131,-36.16470841013535,-26.166736228179733,-4.467134381286983
-5.262735378412651,-159.02158384031551,-71.77034942462572,10.589701664923583,-49.74744892002411,-34.240559730623616,-24.776616970343397,-5.044792222762639
-5.920215289237702,-147.05494796139686,-65.452905512496,9.811582139908955,-46.91918283377832,-32.928596506735325,-24.41916265515749,-6.433701430101479
-6.583132398130666,-140.0595003139261,-61.8880267604984,9.33424657270649,-45.5510639919455,-32.60639408904508,-24.798298844791223,-7.694071998513461
-6.841957458260397,-138.28886610563117,-60.62436529836456,9.646418719012729,-45.36526726069538,-32.93028212561062,-25.284346583775562,-8.296120448204006
-6.68419452124822,-138.95179502128377,-60.231902787878354,10.519937345675904,-45.555476830266514,-33.316075932478654,-25.4045585960148,-8.245922412231177
-6.361444525403008,-139.2874189686719,-59.640526094904914,11.445235294665341,-45.538452830117954,-33.38295790439673,-25.107691478458776,-7.921806661586737
-6.163494471017709,-138.64684284001777,-58.8186905642702,12.10262004094068,-45.342663704869935,-33.16501125451502,-24.736649376787962,-7.777535579384626
-6.243038628813289,-138.9079484778027,-58.70463922263201,12.61654080603851,-45.567720476866896,-33.07296195714852,-24.801149579057103,-8.070008068323832
-6.53076454249852,-143.1613016440029,-60.46121079711599,13.509439376994514,-46.952813577335554,-33.63771471261972,-25.652605134153255,-8.709796681809511
-6.7368779607353995,-152.9830384133082,-64.23995735903986,15.36993459247245,-49.661017040443355,-35.089487522873064,-27.154619991467317,-9.287337781449462
-6.466936636928483,-165.52206791176127,-68.09327076826662,18.334707578447436,-52.62924847708954,-36.95120220450739,-28.514723873029826,-9.28759784932314
-5.463472351360813,-172.5978941867582,-68.04894185690183,21.637670212997314,-53.54939384935695,-37.95390233278459,-28.484225668899192,-8.423215525875886
-3.861484492979426,-163.50744538453586,-59.878818520985035,23.593680909457824,-49.81072757700472,-36.48058481151435,-25.964231894052627,-6.9092737368659565
-2.2420855277785923,-130.78610694892106,-41.77426703017303,22.23595476212833,-40.02156478466925,-31.3785898306701,-20.720455952856558,-5.473558525234749
-1.3537695362328954,-75.50798356271763,-16.10647825218458,16.394364046995918,-25.117870534269805,-22.642635982074104,-13.707146085349383,-5.0199238157483075
-1.628166148791538,-8.344353663263472,11.189123331767409,6.592538060915281,-8.190554603013236,-11.499969600326578,-6.684495615012104,-6.087046694159202
-2.825565552095151,54.799849929817185,33.43596447236103,-4.8674831339728435,6.9783217019475865,0.15673435107061273,-1.299588704029291,-8.41726708513848
-4.099596585606076,100.10627228855661,46.48468322893458,-14.799711542260058,17.75823546811866,10.583256393705998,1.785944308713873,-10.935856428517113
-4.483529089055604,121.74432457468015,50.37383037209512,-20.554221564737496,23.725604771423242,18.712365763299776,3.138716492488433,-12.220397993295505
-3.489439358348756,123.12218727293117,48.51539866563416,-21.174490696296356,26.358032778326447,24.158046191180286,4.021669448869162,-11.230109306966883
-1.4136693688417945,113.44012941554256,45.23819125631445,-17.67514674117934,27.75230340381764,26.902806580051664,5.496445608243977,-7.869493573479652
0.862800673972822,102.31813480949373,43.45980688055107,-12.362454477997842,29.342503444851893,27.08604207127907,7.810452255824717,-3.0402688001697102
2.4401276492429003,95.81364359421389,43.827221003738444,-7.657070900499819,31.41068324280513,25.111631947527986,10.455957070451149,1.8411557722542093
2.946028549112866,95.42266178533752,45.380220150618264,-5.079495383638281,33.4603051696278,21.888623882394718,12.746973816181674,5.547561329919195
2.7145976783585524,99.41270112458571,46.79236824456474,-4.849558220222849,34.9139076819359,18.814012971400317,14.396608321876796,7.547463474806846
2.522693620786566,104.8429788006339,47.2399494757864,-6.141593497201219,35.55808967340921,17.310760302514986,15.666688313551365,8.069373815978519
3.0924898587823053,109.12855732569884,46.62732452596345,-7.720463212732246,35.56330018556831,18.15059211609098,17.060814916921412,7.7721633674304185
4.666587304367514,110.89148067088063,45.42455549472508,-8.60103796207404,35.270189049709316,21.021628944723233,18.865747202743922,7.2759500754925845
6.863795639069068,110.17336312809934,44.36767078117612,-8.46172077233646,34.973899467439885,24.647224609322024,20.880676125393244,6.83125704932171
8.854770922736465,108.02256901334438,44.07537203849796,-7.681976545012602,34.79025609182151,27.3893989623421,22.479913412299304,6.283792607552836
9.760894688547197,105.63703945207615,44.670920282549744,-7.022756151513444,34.61372642935164,27.99329440132046,22.94165026971627,5.319607930933211
9.09568421353015,103.63085529068827,45.66653537437852,-7.1251989334551284,34.20376587300957,26.109841993848317,21.863202226609083,3.827434845239241
7.038184385467864,101.98092385514306,46.28181712571217,-8.103907081083058,33.403377127428996,22.402082969329186,19.461409385771265,2.149008368014095
4.389309400792393,100.5798352202024,45.9923025480574,-9.459997974701286,32.358131666210426,18.243269585397123,16.596007250584776,1.0416403744630167
2.2242944232982285,99.71799408447525,44.86371885391057,-10.341556847177808,31.534620380742282,15.1654220196375,14.464313711264065,1.336366356375456
1.428268678712171,99.9676237155372,43.43746371572466,-9.978625585300506,31.475696827442935,14.297936346180386,14.08701415651872,3.458695914612366
2.356590415836154,101.66965602905469,42.36182080937598,-8.058982358108326,32.46521949403183,16.024775095802372,15.843036279232713,7.079985719069587
4.7590810156286825,104.6443081045316,42.12198174580832,-4.890759158635423,34.35517091521416,19.96073374505112,19.297980937150477,11.12020445663646
7.945262527544832,108.38734230946116,42.982913458877974,-1.3117910479499426,36.648782084789836,25.160802916496287,23.395477571234533,14.145705804458052
11.073448406024088,112.40599995759162,44.98835569106053,1.6176326668861614,38.723303519631585,30.38289363467383,26.878498236886013,14.990757417973136
13.45127834396033,116.28444734449594,47.903386458313676,3.041994739494547,40.0369814167298,34.3135500138722,28.727688415221056,13.295428707362952
14.770909213378852,119.55179115578386,51.21714105728462,2.6917396711022326,40.27842150888185,35.82469979699639,28.463626159594437,9.676682058356413
15.209196789715344,121.72110892736497,54.34415626493451,1.0243177291765382,39.48043197514164,34.336945001501164,26.256312016555277,5.435176220894903
15.329748387161798,122.55997016907291,56.90503475826757,-0.9780500794187622,38.049859662841826,30.171059521774964,22.8369282140364,1.953099805116896
15.793793603185074,122.2249736729873,58.80150644566193,-2.2653091138109698,36.612944190290094,24.598359549479845,19.236135613375893,0.10848948965238747
17.007413964215278,121.01687076373607,60.01409476423669,-2.188357559554412,35.695069810972946,19.40475789059295,16.429666723639855,0.006443744319458072
18.89727608232434,119.0572082627269,60.4011082399809,-0.7469217814280171,35.44165507989852,16.125147228273132,15.029214121821946,1.1213088621281389
20.935273799337093,116.36309923075756,59.78999983569731,1.4627889287464186,35.59521168474471,15.373441854126877,15.140380881879315,2.699973882614294
22.376713451841493,113.27225797712185,58.27120806895923,3.5237412479551335,35.72064346008059,16.643923502584357,16.412553650907476,4.159836468100394
22.56976229638017,110.60111872982891,56.30658801308514,4.56225561425587,35.4566312301921,18.655838995621696,18.21146862587131,5.278418877318372
21.201328872987236,109.10902280847054,54.44440956760337,4.079752524907203,34.60077861543157,20.014696572364713,19.826364020204096,6.130898535114456
18.412532635566944,108.64934698200376,52.884182837041145,2.1463739324096434,33.049974548182284,19.850124643653203,20.6628479149636,6.870013321752697
14.769540189069383,107.86589844662791,51.319871133075374,-0.6277275624045542,30.75661726854487,18.15739560390483,20.40581989552718,7.507758477641122
11.106622352008442,104.87873504051015,49.22425143662108,-3.3453721640023706,27.79913272766588,15.73053783613536,19.136774882974724,7.849217000325009
8.294875920415532,98.57965072213084,46.36636396216669,-5.178869107396929,24.52294098558837,13.758511145128875,17.377103817340362,7.640847433309682
7.015359245377726,89.75588161608978,43.24504135780547,-5.6576466776377945,21.644292282200247,13.298829304581192,16.020671016307233,6.839989056256183
7.59114044983688,81.44285029845165,41.219879495044154,-4.7924607026501125,20.219472913488318,14.87051001497906,16.114081212021798,5.781655147874896
9.882049468869345,78.19080632165863,42.17023676866116,-3.0549937115624886,21.383318229793666,18.29685795057505,18.4654434307727,5.053104408705082
13.24439819896364,84.09284163694906,47.54234115733551,-1.2459447113547975,25.79196654028435,22.767521032521174,23.159636805256483,5.116887395844954
16.619509307794726,99.86554079111175,56.94830647893115,-0.21589536490506664,32.89036128085974,27.014845052525448,29.20924411877079,5.971115621424812
18.83875325421286,120.2475379316078,67.06855069466373,-0.4149629309023017,40.425707082486014,29.55270217830385,34.635798370838884,7.152299521812898
19.118194618647244,133.7714475239874,71.93315881839834,-1.4258633120486135,44.751196199787756,29.008768510966878,37.11744884667475,8.117632585087225
17.516186599187936,126.37797079954208,65.12408739791204,-1.8267766921461686,42.13982624523508,24.568833437358997,34.998939017757884,8.716600253776155
15.03418622541851,88.12682285048402,43.166899579389806,0.32436284490540157,30.658724414668313,16.426818205212175,28.17099356067425,9.368447319633594
13.193164599121065,19.774373398202748,8.275040043602344,6.460891422578607,11.612714600915282,6.004949743255455,18.31947789840427,10.782993200565178
13.244486078293084,-64.79724088013968,-31.389320048291147,16.44918192843662,-10.391576322095489,-4.288282351428125,8.350770825084608,13.409537805095294
15.444414841692371,-142.49712282842384,-64.50831595427725,28.172255092647987,-29.027127607890986,-11.806273859456159,1.23336276926112,16.999172934250936
18.835492528688583,-190.00159030464624,-81.24996226702252,38.1389161954027,-38.80833337265714,-14.667114954735833,-1.1956366068733693,20.58636802787791
21.70914077842312,-193.48468523125135,-77.39673442555828,42.926548845815354,-37.361577412188254,-12.536912702637178,1.1104109510850608,22.917973197484756
22.523680205436808,-154.1809411009817,-55.83108149861561,40.75349169286472,-26.24898612634002,-6.751542370579831,6.576707064401423,23.081432548309266
20.761530242677004,-87.09289766609051,-24.74757290611452,32.350031677915176,-9.984679642605672,0.3376070583957692,12.868649688655358,20.976129431360157
17.223818962216267,-13.852838469682014,6.245216096760889,20.651769506597066,6.137252427748878,6.466492567792495,17.96643801171375,17.376846790795845
13.591053126806884,46.36084592725628,30.00772788459085,9.476015598170344,18.22508215119428,10.419330024698349,20.909966932470656,13.57414964822306
11.517884276015065,83.4133636252565,43.92864245263944,1.8821701832498234,24.946748243495783,12.346593849537998,21.903488958175465,10.797211005080573
11.79373185087745,97.67679929940071,49.553418285704346,-0.954205673643239,27.295563172780334,13.31953141850893,21.83751691644119,9.714034482273146
14.03183936699093,96.67155134879667,50.49563160468863,0.1378076324936939,27.371157756983358,14.444722555245592,21.585965816368237,10.236707177418793
17.01092637933961,89.58775394863443,50.09199749454575,3.12086420370277,27.037106186198226,16.11071275822464,21.51946255193025,11.690341348666168
19.410030463798286,82.91781827534359,50.074686697451114,5.914232049753143,27.208092320350378,17.828385193931226,21.490996535141573,13.222444060319212
20.487303213661217,78.98517325751938,50.626022483589196,7.296970253863124,27.959862808962146,18.715486011888018,21.206672660771094,14.222470978679926
20.356464725869646,77.05151505858679,51.283616076135814,7.201436113724383,29.094735472351605,18.25002340905974,20.64115638508642,14.545742689178624
19.798935866838434,75.50510317142222,51.896642125353296,6.435505786577947,30.64094456168957,16.77881607435365,20.1852972698194,14.4716433330446
19.790423409759963,73.75024775895486,53.116657333843435,6.096137097387142,32.994324941209626,15.470871193175253,20.456967444701398,14.470878092508599
20.981595289549045,73.00407078746302,56.222111087978995,6.94636489011332,36.68359787990338,15.74276881636353,21.91977713805576,14.913563752156682
23.30863888361789,75.59526012903854,62.22967580841707,8.960648148153702,41.85582765838485,18.430365784076187,24.4962914994864,15.82413344576946
25.855529196332476,82.8409235488813,70.53589208406565,11.209621783368569,47.66421796612741,23.08724391350125,27.31952468897145,16.759515796349238
27.07219882299059,92.56335165202243,77.88799407087599,12.19919081541478,51.92707087966217,27.794681752957377,28.765544530899284,16.885205245686297
25.368318803082733,98.19283056057223,78.77371770371765,10.593790691018807,51.52183342705072,29.72956461408408,26.90082536076317,15.288429525857929
19.89422774532823,90.94657328766863,67.68541543972886,5.989205057430526,43.66349104535547,26.386118798566855,20.309714201393298,11.443210281292481
11.116063025029453,64.52139449702022,42.32208568569176,-0.7235365024553861,27.546340586250057,16.903164902495163,8.957541922553402,5.591933828232414
0.8049815465851548,19.55327077191343,5.748521154401692,-7.676454571125943,5.336911370442865,2.7404844123333993,-5.44424307531232,-1.2172616581839946
-8.640862497964054,-35.281145433467096,-34.13925582061669,-12.886305991071659,-18.287541409818207,-12.774180078078944,-19.9220304819837,-7.521008465464391
-15.215106084886918,-86.67855752734472,-67.86397526394452,-15.168424440940568,-37.998025542714245,-25.859558009160736,-31.424150578822566,-12.067869401803229
-18.10959353894771,-122.84557106787221,-88.57331376672991,-14.578096880590264,-50.09661915787294,-33.904106829719396,-38.08908887663899,-14.32817553802247
-17.88298830047626,-138.74481011198765,-94.79266019788629,-12.171574641585938,-53.94321946157509,-36.42536192079001,-39.901052954317066,-14.612178733684987
-15.966751610734558,-137.4479613965265,-90.26411901999946,-9.318432066786135,-51.779201762509516,-34.91499181408472,-38.413074861659155,-13.780496190570068
-13.873452861155926,-127.21761201783549,-81.29144838655061,-7.036460623883,-47.20927670282157,-31.794979492285538,-35.78960978949149,-12.77003663337176
-12.579726646620093,-116.6577621635546,-73.46613701720504,-5.701125345618467,-43.37461445210897,-29.184913556485945,-33.784822960297966,-12.215176962008508
-12.341282794481932,-111.05884084377958,-69.66176847779737,-5.1502644487943,-41.849488529068694,-28.153090128628612,-33.192700727877096,-12.315317628602541
-12.876156373993682,-111.5311264850193,-69.93268775662183,-4.965355410684021,-42.60986880109315,-28.680033842543356,-33.89854478317938,-12.921665439910804
-13.68345139977215,-116.28891846576438,-72.63201501937402,-4.7208047759483796,-44.68971638955849,-30.094900464139805,-35.28592615091106,-13.722924655871179
-14.312645296466208,-122.47206715746371,-75.69477419685144,-4.1379956574729775,-46.922646526261275,-31.59155519280527,-36.66950767586898,-14.423937626417116
-14.523213937364057,-127.50948264247009,-77.53115681683961,-3.160835381196907,-48.44091227288763,-32.58578560460262,-37.57984197847667,-14.863584067934072
-14.333085703582162,-129.9609910757945,-77.50134254387955,-1.9441289219003546,-48.916520824688114,-32.87632933466121,-37.88498567652478,-15.050502191593962
-13.95372553734587,-129.92304816402623,-76.00180969169978,-0.7357546544736608,-48.58523867375218,-32.63724280037017,-37.76905208306755,-15.11497592712554
-13.637374944230599,-128.7705205918732,-74.0909880805231,0.2911204235021544,-48.03512595532623,-32.258085862075134,-37.579522009631035,-15.209270105554035
-13.526706625272013,-128.17172010533258,-72.77500797127347,1.130920015811901,-47.82265586999018,-32.09510441044176,-37.60854056869219,-15.420826011100807
-13.608902882008525,-128.99495309801054,-72.41969248243774,1.8943207006747191,-48.15426728164891,-32.279963309725304,-37.94297095430115,-15.750640456352013
-13.787307508436943,-130.97393668105207,-72.72122498522057,2.6825245194632097,-48.86371921480542,-32.71222176000353,-38.48031849424511,-16.151594387621806
-13.979212618857407,-133.29393829002774,-73.15526773637932,3.518007862736448,-49.65268299857006,-33.20704944722849,-39.063585127590905,-16.574763495847517
-14.146857853407147,-135.35884811319548,-73.39535841866027,4.375399074565424,-50.32635150232789,-33.63910516500532,-39.59191986395514,-16.98392151408476
-14.266085926177785,-136.98994598124634,-73.35195981381885,5.237350737114812,-50.826837750445875,-33.96748739803134,-40.0265657801984,-17.34802643497517
-14.308028668786992,-138.1436647229912,-72.99803056436492,6.097939689053882,-51.14093127243052,-34.183238447272124,-40.34816643087235,-17.644895928011756
-14.27044167145935,-138.7910189277938,-72.34477918347828,6.934673463301908,-51.27970222623311,-34.291715749216536,-40.55895697197198,-17.88237930688223
-14.21092895898317,-139.18524222532307,-71.59883840533685,7.720794939203223,-51.36018864091595,-34.35232886348908,-40.7274561714931,-18.10880261380342
-14.223007015061336,-140.0137870467276,-71.17840334205673,8.480323892563948,-51.62061481503163,-34.48830695785887,-40.98769264452002,-18.3908737679772
-14.369793548276263,-141.9583336431759,-71.4073830725868,9.30289774069209,-52.25926378749518,-34.807208619521504,-41.45189519827774,-18.774350204956434
-14.644100977387529,-144.9753621700638,-72.1585359021311,10.266035899595513,-53.22908792881864,-35.29897889213975,-42.1111429406562,-19.25972853578054
-14.985465037184657,-148.0934001258447,-72.85579187100669,11.331325059767583,-54.214851827651984,-35.825522024087036,-42.82536797287513,-19.802773261185244
-15.313540450687494,-150.02708114094364,-72.86963571138779,12.332962051185536,-54.834342575903946,-36.21672873686387,-43.408156745448935,-20.324756588574743
-15.536610018206813,-150.05845428894332,-71.93388802764176,13.088104337089966,-54.87985185102617,-36.37520030204124,-43.72321222238294,-20.72671671821922
-15.561035712157944,-148.48290750424246,-70.27596903565711,13.535376058121576,-54.42642461029505,-36.3101695141854,-43.736493558896505,-20.926741299106677
-15.354348309444775,-146.517322635171,-68.52488135483382,13.794304913115885,-53.81828168756712,-36.12711332839596,-43.54818763410904,-20.92958998324075
-15.04200211719824,-145.9890898985998,-67.5853307560863,14.12788217113788,-53.615786990404644,-36.03002736790952,-43.4256765680576,-20.887970671845597
-14.929422116609489,-148.8308334928178,-68.4063312014987,14.851460346769498,-54.455848953467545,-36.30418274145948,-43.76951463543127,-21.08194491993671
-15.362675520721366,-156.04642166793138,-71.41908185126702,16.202178111997494,-56.700410638459154,-37.18482690686807,-44.91848209934378,-21.780744732008696
-16.474485336171274,-166.26262994232047,-75.77284780105272,18.15671371673626,-59.9451875398731,-38.613727871469756,-46.831530687351155,-23.039780779753613
-17.97468733917287,-174.9422803041069,-79.01841621362506,20.25966873109571,-62.764647424757285,-40.05610673204845,-48.85921527032264,-24.549066985172416
-19.127397629358967,-175.51447186700125,-77.84844033103371,21.631746699099477,-63.075864868598806,-40.58066274635954,-49.82945023949071,-25.636652563420707
-18.944857671132873,-162.4245458620834,-69.73174623969291,21.29080048644022,-59.08538862604518,-39.22261178451995,-48.47369841659916,-25.45800018861638
-16.528495681866826,-134.40734066001622,-54.461049302365424,18.692539580752502,-50.28961790784595,-35.42539415133654,-43.98106784255745,-23.316431830500942
-11.444471693976192,-95.78726461571321,-34.57012871651339,14.165557202504555,-37.89051118838976,-29.307338390536504,-36.38806786286898,-18.99018397212188
-3.998078536432481,-54.855535872981356,-14.329725361014484,8.915721553675306,-24.359146800380948,-21.64794323974951,-26.623899148643282,-12.907384209435383
4.738759296861308,-20.33569478496494,2.0501301579491225,4.545055841114121,-12.415845195185677,-13.67059924750665,-16.219704139282072,-6.046717768746397
13.23118432367892,1.909246042925258,11.976113512186137,2.3616703013347347,-4.008603772354648,-6.759122696848651,-6.830868070335032,0.431473235904734
20.043122900381558,10.227335507448007,15.060706767356667,2.8882217968296784,0.21847446126129208,-2.1704235510286276,0.24467922273856552,5.6586865508099375
24.415102124481503,6.499271395466047,12.759213978983185,5.808295329541012,0.8680964099940446,-0.7061024843996843,4.42886053515353,9.390453420253094
26.557773269213733,-5.22002956526685,7.649798766918463,10.259092111859854,-0.5815891730821535,-2.3250653115666315,6.051647687317396,12.013038504728689
27.466764869178668,-19.41070806518431,2.8785962589167857,15.157326307354632,-2.1560183238250317,-5.855237354163338,6.3049933946454155,14.20980194089474
28.305375916584453,-29.24408046114134,1.695913761206226,19.326474192346314,-1.753006180199832,-9.122401320005208,6.874114511172566,16.463161349990376
29.673736297224995,-27.51781041116105,6.643296386027326,21.49645624514066,2.3062504329599607,-9.695067755624322,9.256569705465854,18.68357561628549
31.21162783259517,-9.206334017003021,18.354586537073757,20.455054988461583,10.540725043563576,-6.015603654367589,14.023960910519952,20.208816740966416
31.82013157343427,25.434473619445626,34.7035432756996,15.501190693531763,21.78761291723317,1.7139276996005628,20.452866566543506,20.19672567931149
30.38993958997577,69.59066444569731,51.22544073380671,6.988552494416829,33.41047562924068,11.495584239162747,26.819018353016745,18.174990046515042
26.571343927074597,112.06016904718811,62.980058231825595,-3.482769637047101,42.35257237108121,20.451751320484096,31.249408920633385,14.402331627569792
21.088341364640417,142.13616094411168,66.92136917120025,-13.516171395824028,46.53740556244098,26.18873565986006,32.656936657319235,9.817993820071132
15.409566325694879,154.44458224956705,63.34350425682026,-20.864358890953095,45.806989906847456,27.832107619081498,31.221881341412878,5.617681290452555
11.006138134683468,150.863411209404,55.49987397207612,-24.355266371579564,41.83769879809193,26.19288697523329,28.17315875111694,2.714438369007345
8.664387988571322,138.54853283261681,47.672821832902116,-24.266260332158303,37.11849755614804,23.07921946676816,25.05713516135236,1.3887131263265213
8.241689497526558,125.62502649820672,42.966684048579744,-21.967661582738142,33.666807872633356,20.264870938211565,22.972247949785125,1.291411328950208
8.934431992644786,117.39833313769374,42.16914030003671,-19.117924635156005,32.261105927547796,18.740767480178302,22.204024107124553,1.7412212413547992
9.80331094561627,115.07723062953511,44.12261204556738,-16.923968324050225,32.513044746761416,18.569313811941434,22.36807508782923,2.1013889298645623
10.20088968054825,116.88837520372961,46.94912732316146,-15.83305291337676,33.48331957401053,19.21500039862694,22.828354488738363,2.0239591489203876
9.909530339549018,120.02092254203806,49.11527059783085,-15.664362747566187,34.29201316275522,19.996929942620984,23.06592053964475,1.4820805656500475
9.043728879910818,122.07236790138556,49.85786058167073,-15.936296984480498,34.41687025254342,20.405085052658528,22.83968591453347,0.6531915685360403
7.88244092982799,121.76029152661637,49.17269845441978,-16.15741651780234,33.74307472885925,20.237309226743644,22.181596653097003,-0.2329184743760994
6.734005189425477,119.19705834763592,47.684009285201896,-16.004165737488005,32.52425583825229,19.607979416549156,21.316369208132176,-1.00584862372313
5.83745392738275,115.71692047533989,46.385990592032,-15.399913209284813,31.262096561037257,18.843569379609395,20.532054913714074,-1.6059550465261165
5.290482486482222,113.040125955649,46.13368555439173,-14.494079885060245,30.44434964826209,18.27615989206646,20.01341307586442,-2.0774473278819046
5.032815924237145,112.08092276101303,47.083242042405374,-13.535809280696098,30.23932527480282,18.035522193991973,19.721443167719155,-2.5118610752264967
4.902144423961341,112.30620215686552,48.54608410368905,-12.710497001121873,30.3883512400539,17.99252983642839,19.42838796381325,-2.9729476280769567
4.714363989250362,112.24520821568834,49.450692561524946,-12.063617277895005,30.408036808658036,17.89975617299321,18.905995365329517,-3.4569153075130736
4.3013749517557915,110.69661888892493,49.052104653998775,-11.56232395290314,29.926266783689446,17.597929795323804,18.117651685429156,-3.9224497799853686
3.5147572760899854,107.57988163394154,47.3551979564377,-11.198995131941976,28.87890653963585,17.112186771784856,17.25677317037075,-4.363042597078476
2.2756960380818234,103.89840193795666,45.091597184654546,-10.99865441602315,27.493331666195992,16.597626703291116,16.618288268948724,-4.849424826359581
0.703101593814371,101.17007937787199,43.46814656859081,-10.915687650243614,26.195409342676047,16.23483105182276,16.418672106221607,-5.4929167516732145
-0.781579920431482,100.8208157574096,43.8136839181637,-10.746205902963869,25.523909013089494,16.15965031822178,16.665449188555574,-6.348241656380358
-1.5258683491411127,103.48737328913259,46.96768069734275,-10.167382378294379,25.946695717118953,16.402423620703196,17.092535536624656,-7.317451350861421
-0.9245543388534788,108.02917743767486,52.40153379282855,-8.86935785676011,27.496636533765177,16.79967376228977,17.171675551861743,-8.10341212744289
1.251965403933677,110.7809475051119,57.64670530058209,-6.655843148054236,29.439010586531275,16.95986477677573,16.275617757764135,-8.227619741209214
4.697812794308017,106.20809193645513,58.854476817837416,-3.4590836876666162,30.372728443462847,16.426854706443816,14.041930455347234,-7.116912038844345
8.677356780454181,89.44966827070303,52.641861123255666,0.6623401340268078,28.915846487072525,15.037315133454179,10.793840172915678,-4.2675649192342116
12.311201220160713,59.53822322378113,38.234580726625644,5.461146248668764,24.5974308472515,13.226478126477138,7.688729519924375,0.5287299100372662
14.867134705177241,21.03208980545534,18.401984901281832,10.403329897784554,18.297723034925323,11.9725065804041,6.334024521842874,6.971312602515449
15.927236094250295,-17.427144356927283,-1.6273965929701604,14.666148428834564,11.852612034900423,12.296546624110558,7.957720399790157,14.169800327872197
15.416296669580376,-47.04760206967227,-16.69844341176716,17.341667339504884,7.045090428932492,14.579176249809864,12.58637270600291,20.79537914888193
13.556672009039842,-62.99028231458233,-24.15461537021843,17.809503715211644,4.648068719100477,18.134662055464567,18.763376308307176,25.464266681519874
10.804604631594245,-66.19121610789274,-24.730857126737224,16.07706136473837,4.129817935835634,21.35846772109354,24.049993037937185,27.220916982110033
7.757047041431446,-61.989728556613684,-21.587321026502355,12.842299914952362,4.1461897459490595,22.410150968746308,26.079349224961557,25.902916591966363
4.99313191557865,-56.749809304893716,-18.367743738169903,9.1890432202761,3.403328012229174,20.054247596088057,23.59950462756437,22.201329496847364
2.8824064847180657,-54.7723067470812,-17.58226833272976,6.087812248604475,1.2981455895646896,14.201947640834279,16.973309112906133,17.3807369071048
1.4794590971386903,-57.13465850783924,-20.028472423156916,4.025571540747388,-1.9639831736506486,5.9285354704385504,7.960127031550604,12.80360974923064
0.6048982462015763,-62.413253625777585,-25.05365504651368,2.9789148140751163,-5.632867609988756,-2.924877161432518,-0.9964166809194419,9.49283324679638
0.06701216664621976,-68.11830001457903,-31.087225024382892,2.6698879049272324,-8.747330375860551,-10.301340066126595,-7.5908686927217115,7.907287358761321
-0.15643339100437828,-71.87510876243684,-36.17967101898159,2.851285357750516,-10.405627742875692,-14.452908391665098,-10.314305325603021,7.9542882457684065
0.06629958149494651,-72.20503827179058,-38.649377714939455,3.411340763133507,-10.044050754551304,-14.400221541482273,-8.847057037935802,9.140877979091758
0.8191722755006011,-69.06486781931667,-37.81876604054599,4.283352423925845,-7.740048892951402,-10.279002892564916,-4.139247738658237,10.754656670993588
1.9148808545695017,-63.964925967476844,-34.43619594012673,5.295603562917964,-4.347855999697935,-3.4176979703047237,1.8872512217326864,12.036815087298848
2.821258319970621,-59.333095551554734,-30.362391934493232,6.101484026148556,-1.2525211802493867,4.008583979301855,7.008167878811652,12.366716025993401
2.7941019711545287,-57.30792024588241,-27.61702975077156,6.246868637373844,0.20303008208201223,9.702201167855184,9.527296807493313,11.455581721428132
1.1528728786360247,-58.74705670168651,-27.398200115194413,5.3526939863819205,-0.7169624498535386,12.054146962227657,8.90005323064567,9.480891548763447
-2.4219912255491596,-63.09973948945365,-29.656622573157748,3.332841711767026,-3.9047148299271317,10.680125468310662,5.849793973653588,7.066861019536244
-7.702129223088296,-69.01131509209546,-33.32832529824571,0.5196010707535675,-8.555402303599857,6.468520663714679,1.9424895801003885,5.070102793388087
-13.943624738076739,-75.01398241369428,-36.94388290770208,-2.424201416868255,-13.530124490253316,1.15996148019021,-1.1474402423089347,4.230642995831701
-20.162674951168682,-79.92185479439416,-39.30931167873131,-4.810045052565688,-17.759359266992952,-3.348941176037744,-2.33767090021874,4.8345316714275475
-25.53756634831577,-83.07627867398831,-40.06520664933434,-6.2772431157571855,-20.59250996824322,-5.711957412986325,-1.5210660511935723,6.554831882917157
-29.720303330172232,-84.6190074366482,-39.91864410240686,-6.960705960012539,-22.00732848979877,-5.595090755919901,0.49620351873671054,8.568501220948951
-32.889116368015564,-85.56099489740407,-40.33233523355202,-7.36758136876375,-22.567003527094922,-3.7351899069935177,2.4356893867334923,9.907755364502332
-35.54856443442527,-87.30506984525822,-42.71668561674567,-8.074162329766018,-23.10360641205688,-1.6065504902763734,3.128787125420394,9.872586123027286
-38.237140633478994,-90.79120271081561,-47.598768770472226,-9.457604973246408,-24.30301578857507,-0.8689358658696191,1.9427370051939716,8.296629003645279
-41.307510063305884,-95.94360411278201,-54.36195638388968,-11.591905117212702,-26.455305970216354,-2.815635226846642,-1.1256426532724217,5.54640076282834
-44.83392503288741,-101.87742515752876,-61.714455673219206,-14.285903794302046,-29.479164502031814,-7.9595193715549515,-5.631345965303245,2.279649682095933
-48.613243105933066,-107.5640239147099,-68.44075709920153,-17.180428109016084,-33.08264966871294,-15.808566246995793,-10.923710241299936,-0.8965490165533705
-52.23193162067155,-112.27042368562667,-73.83789545730338,-19.86369646321683,-36.8596715995919,-24.887229417516117,-16.284009939048897,-3.6878246830875248
-55.20420710879687,-115.51195564093024,-77.65361076295143,-21.997232350242847,-40.29003598292859,-33.08742726386886,-20.966977201171094,-6.153498819256204
-57.15640399293391,-116.88051759701749,-79.81214007410661,-23.410751401771076,-42.774143664915655,-38.334566147450076,-24.258912710433,-8.495733401030586
-57.96581185696874,-116.1302529290544,-80.24959084813149,-24.09865360995317,-43.784688730793064,-39.3323030882385,-25.606286344155727,-10.719635431890977
-57.76608750971122,-113.39092316963955,-78.89549262370107,-24.116586568625802,-43.04619312365318,-36.01349172480611,-24.752852044685223,-12.403625424532766
-56.83633215283385,-109.13043649084781,-75.69225192642583,-23.483102101637947,-40.606616835895984,-29.459235171050345,-21.800379790975096,-12.793799437149477
-55.489068013340145,-103.87162297007113,-70.68138481574752,-22.201899234608174,-36.802462814095406,-21.375728595122578,-17.184383568198427,-11.234897594461977
-54.04580522230031,-98.10106107870064,-64.2686742081705,-20.395779152445208,-32.2318024145105,-13.459566970282978,-11.610128115432552,-7.6867389615688895
-52.86436044001651,-92.58333954924224,-57.54611976778946,-18.412703863429016,-27.762382518008913,-6.950608557396834,-5.957777389082778,-2.956786220710556
-52.30667193514343,-88.62657343202498,-52.25859173577221,-16.77471178161989,-24.431909378438338,-2.458686621577018,-1.1171959969724445,1.563154823270311
-52.599718703273915,-87.65653311550261,-50.13376230622036,-15.979708079765922,-23.110869148871807,0.008891468661707008,2.2431813151749598,4.528630607760217
-53.67239689403494,-90.14681611555962,-51.861137743374584,-16.28376341449102,-24.043457945086075,0.8923354322590193,3.8650447296228005,5.257500289591865
-55.105638759416884,-94.79434014773004,-56.45247690854543,-17.58555008160523,-26.59697108531544,0.8166229337536094,3.9137242515969657,3.9688765009864433
-56.264021111954214,-98.82957263070249,-61.54534125250027,-19.454033748188625,-29.473545124619438,0.26803704187516064,2.797729829897733,1.5537802897399617
-56.5618747634433,-99.46275780487566,-64.56478171846635,-21.283199839724112,-31.324791382168705,-0.6586812220704623,0.9174953993792836,-0.9318061672624646
-55.7446991695532,-95.59863889267196,-64.1141593637406,-22.53135698248524,-31.447813321241256,-2.3021083276078986,-1.5060919575892024,-2.7488820651155694
-54.05249326673473,-88.83132201982762,-60.87636757991841,-22.95458064526712,-30.210428034746418,-5.234617258321397,-4.459668933063034,-3.705485475937287
-52.15633014069073,-83.17170419447568,-57.53729201700626,-22.693748717763203,-28.980895569772137,-9.914850493359344,-8.03806708409634,-4.074331718491205
-50.838655875343434,-83.40141423507602,-57.56392692417039,-22.124126537116652,-29.495611401580422,-16.317313566712347,-12.242872318660092,-4.2979439577684175
-50.537512761799086,-92.33689737977117,-63.11309524759817,-21.55369546779414,-32.80441015447551,-23.640885193579294,-16.71539424506604,-4.676676650870167
-51.0201038233054,-107.9643867297427,-72.96975110423041,-21.015728461834986,-38.233865981587584,-30.218856602245374,-20.530167997325325,-5.226838504926563
-51.44278147940508,-122.18443089698877,-81.85569945076907,-20.353481317550187,-43.03772171336613,-33.79536732213006,-22.264567270648637,-5.777457765915334
-50.82918518329084,-122.82327188028185,-82.08467314680897,-19.53856447582962,-43.237178447299094,-32.247504793280825,-20.480555477097514,-6.206985433902182
-48.69405382035391,-98.94776967416075,-67.22129322635614,-18.927721607890447,-35.49477316093805,-24.55837025671272,-14.475796571423631,-6.621824972599246
-45.401254175059236,-47.10537623118004,-35.90131891593627,-19.180982634848316,-19.0914319542356,-11.559609276733386,-4.885568038687734,-7.32842205132114
-41.9990445420164,25.229045176250104,6.528582301560292,-20.8383000765839,3.20188892897601,4.061788898987475,6.298777187084591,-8.614270442668902
-39.622716578281285,101.60625481098765,49.820117946600824,-23.849781044035566,26.033788735352218,18.653753834875687,16.420909662061593,-10.501630509962443
-38.85210782743272,163.43837988810358,83.29611024286451,-27.429597715214566,43.78112584417951,29.022405875387065,23.24616940509252,-12.660691917792569
-39.450721870796336,198.11465221737797,100.53510864013572,-30.392145813613453,52.99611855598328,33.66830023655006,25.85928267384128,-14.558966433784322
-40.65366627394646,203.93635775852204,101.71150958209904,-31.783853253827438,53.653659591176535,33.19630481350696,24.88949092152841,-15.763318043177454
-41.780987716709916,189.47221401866256,92.58689523848328,-31.402973680926358,48.65634755460336,29.75339264975451,22.002100482943543,-16.205326556294892
-42.717144572061564,168.43786009587657,81.2108683524017,-29.878015076054172,42.1399318432286,25.91590314471996,19.03926389151883,-16.237229831902642
-43.904231391408,153.50855918274888,74.42592424046049,-28.288627303847203,37.682200126878556,23.672553606350306,17.32092096104499,-16.434608585412
-45.85866593315253,152.0366064397469,75.6922838720369,-27.593666654279414,37.214781181663696,23.903359158243617,17.3632550025443,-17.254698647057396
-48.54600053985198,164.45844993700806,84.44048670480835,-28.166913979493536,40.71977575939044,26.329344845373722,18.92004204238756,-18.73354251593615
-51.01379612757917,184.6456749013972,96.48003448169258,-29.585850658389386,46.405267897577005,29.713768653946868,21.13921329445478,-20.371165578396795
-51.512201420019856,201.70766045514935,105.27451804942606,-30.693490790713508,51.222272187099065,32.222713274679876,22.78057555649228,-21.263697005611004
-48.09333262571317,203.52428026735154,104.2131093216037,-29.947849551073695,51.835615979344965,32.00661473432931,22.58037315050278,-20.4521278449859
-39.478289419989345,181.74212192174886,89.49273198353487,-26.04863065855409,45.97554944733493,27.95683641032912,19.751173538125606,-17.37499277589692
-25.827871808655356,136.20980414733137,62.25747963431504,-18.652462217715595,33.594358227744834,20.30963016673125,14.380881699293475,-12.23201278690579
-9.003142640419732,75.9332895219862,28.459701609415287,-8.77753808669479,17.054768241466782,10.67306261612634,7.438416886176385,-6.040710105770519
7.932303498548731,15.209238560011283,-3.8766684015739297,1.4649361179334353,0.06497780055212693,1.3435812365763702,0.32605930879968537,-0.27865696861439615
21.838024144855645,-33.17695268790265,-28.492440159842047,9.798028140100184,-14.063449232733591,-5.735366860033177,-5.749978612159445,3.760847209733534
30.746873493528106,-63.50464079423775,-43.403479922485815,14.884306129037792,-23.731136952992255,-9.740607838129993,-10.179322389321158,5.563783679542836
34.629711247547256,-77.86821617756186,-50.47118427796025,16.947552012763456,-29.104133906689984,-10.998699761287444,-12.877516944706732,5.598332828924789
35.29485274816817,-81.8553663076989,-52.47500990767416,17.51525407867086,-30.976384087222435,-10.322372871544992,-13.860879544170068,5.005547694644034
35.466282777539575,-78.49794972513686,-49.9479960487506,18.42766552493392,-29.401556195443437,-8.180892502432886,-12.85511731569592,4.959669719775644
37.48504659333812,-65.09307727369793,-40.231165888587995,20.719075575643306,-23.237472444883707,-4.330924589636025,-9.307327902768114,6.061324386839228
42.26573104858837,-35.356525092383805,-19.555477576498294,24.05347494470876,-11.043504574765308,1.8268767182563839,-2.8532296291919503,8.085595314559297
49.009602301678825,14.627316146711586,13.328743701530827,27.036917032233962,7.302250092740242,10.453803650683232,6.091940840915725,10.188103261970461
55.77693719878503,81.07202530207263,54.665115522022845,28.170316398461143,29.514850389850725,20.663972425799045,16.09857027090632,11.416757077808557
60.56797712259649,151.8239600475844,96.2800208087502,26.81984483383252,51.27331537138156,30.598396408518035,25.11021348156342,11.229810406149062
62.31407210874761,211.15368597012295,129.04621012300586,23.6102036099175,67.96605998340932,38.19542166795973,31.29175717528154,9.750164960757454
61.275213969618314,247.04698561622288,147.0725542299372,20.045535922194873,76.76385918389542,42.174771273257086,33.839930781269366,7.654161696744585
58.712491819595336,256.4820345596932,150.08337896122623,17.654782494409716,77.75853120532804,42.6052365385243,33.26370700166526,5.794039636423357
56.12381968302093,245.81960567633786,142.82680887450877,17.218793093618217,73.58024101335494,40.73614593551739,30.998915733159517,4.776868843828354
54.532135351283785,226.84937885265572,132.35324626890934,18.507888351700316,67.9281163192998,38.2885978857037,28.65866490043275,4.711260425975794
54.18008627875481,211.4674748880061,125.0472924411326,20.57021997604279,64.0064930322573,36.70073872641831,27.39011906037131,5.212044409574018
54.65686444375579,207.70749648068778,124.74557562930109,22.28622584165294,63.589139926023705,36.69495090734014,27.604561204776445,5.616182816202324
55.24474487108157,217.8316318857186,132.01422755034963,22.869810187587472,66.75907535467277,38.19265646686662,29.020871069515092,5.297438953829457
55.27416310746094,237.8302341483426,144.0840974322004,22.17350184840406,72.02179073072767,40.42136140822596,30.84034114028249,3.9760147857852264
54.40344097241568,258.1272648086329,155.39247113412327,20.784596000036796,76.68753713939923,42.150786368384956,31.993655931967574,1.9357110872897316
52.792356391382285,266.2280984175801,159.1767993115306,19.872622906082324,77.68687843599758,42.11359227643572,31.510570342698152,0.04755293383911904
51.088791402696714,251.53307979521486,150.12854414904584,20.722684381226408,72.80524380339585,39.561641713866145,28.958216122194678,-0.4920626228733398
50.14952527906663,210.5812126767858,127.02757770565098,24.044771921629444,61.8156290149605,34.67250629007252,24.69797554485389,1.3081314596171716
50.571281167291495,149.6501552591093,93.75418043732627,29.405875017095003,46.76653300516862,28.47665394849212,19.711133018613644,5.640309659159195
52.29949808756129,82.65856850763264,57.838443133823546,35.20261451996174,31.106625267843484,22.267679312372888,15.023596723625866,11.572778230836409
54.59790225476562,25.172375140521066,27.224589942941122,39.31685496807875,18.0953730069189,16.859474077411353,11.08691273576905,17.252662468190884
56.44145193349864,-12.193610052249406,7.028144116925502,40.1454271672427,9.429060854061648,12.204254806905855,7.54843989414568,20.62105757454138
57.100606166796425,-27.395279871202803,-2.012530659739261,37.41658158602912,4.842312552727324,7.640815503282603,3.591351849006096,20.320259714614018
56.5437255491522,-26.030234981978086,-2.8193483419706515,32.31512399913834,2.7782401541002604,2.5853292016764833,-1.3712584474617444,16.33934638544682
55.40148241163111,-17.111233190163656,0.20500355297206563,26.857294009430657,1.5468367970261796,-2.848825669126661,-7.122358388609178,10.06880981018447
54.530038826542,-8.456732853636874,3.3417984813159536,22.89795896700203,0.18378953082127272,-7.761426241641636,-12.593164173940036,3.734261013621731
54.47396800282565,-4.1267431788261435,4.638437265137084,21.332284794886043,-1.4085613519190807,-10.967044019274766,-16.390202079938955,-0.5204478722665853
55.17973036349193,-4.427680395281216,3.8334260165420835,21.880361016185205,-2.8628862170586005,-11.719641723579036,-17.557988019361037,-1.4791882610548357
56.117299242375815,-7.405867691657377,1.7235408943640689,23.466831119978647,-3.808821520973378,-10.166636478937905,-16.10646146053813,0.7362575162162718
56.68597777485454,-10.505421833253834,-0.484752263378976,24.892568117515594,-4.0767037338767445,-7.279840622497165,-13.023787942093488,4.837717825726878
56.61938900106638,-11.759316927006036,-1.7007516695374179,25.416393840162442,-3.675307132013087,-4.372850006456703,-9.816624435392038,9.006718710914852
56.152445892371865,-10.43810599447866,-1.3785506862177752,25.001446765443642,-2.7268610096154178,-2.513450416605506,-7.836811083364407,11.69212084776596
55.88801390673905,-7.110534508857664,0.267330272728586,24.188184271098137,-1.4331191533275693,-2.1102518805917057,-7.700480813436988,12.219619403147277
56.46194188984914,-3.065622844123581,2.4378384893843896,23.714387815615947,-0.023249890801587833,-2.824159954403709,-9.052609964933911,10.956280231858848
58.181219310650874,0.6003696929001567,4.254242897310005,24.08386400699349,1.3285853434993258,-3.8326285669080593,-10.81040622963264,8.974984955196975
60.809830432988356,3.5833442885908577,5.252032513362725,25.29627715086451,2.5396725086783625,-4.34067158839452,-11.801729652495544,7.409128959062627
63.61574472288954,6.239928429102688,5.560164792979894,26.87252091278914,3.5704238106420534,-4.077651101065212,-11.455649822759446,6.858406979415822
65.67073200885321,8.98274469398775,5.752749724629354,28.1431034354536,4.374570041234212,-3.462694190951504,-10.105902123712404,7.17696045289245
66.25104103076063,11.82891962376729,6.546394562184639,28.60043584534452,4.940274806009128,-3.298896333104934,-8.694932674247303,7.729063375341995
65.11789302727277,14.405376590514988,8.454119826996992,28.085727530968672,5.366852603761469,-4.19621943374326,-8.09601547319548,7.8892585558364
62.535512062603054,16.1800557704649,11.430621500324172,26.727626842657415,5.820974790908688,-6.143324694146378,-8.551229670193491,7.42239890581326
59.06495551330138,16.619443210644143,14.659517622476672,24.74910975288162,6.337815514989573,-8.53049308753241,-9.604121230152696,6.510799486680115
55.308257168647835,15.332489451060592,16.75831710294307,22.334859532246927,6.655533698679895,-10.562699774330822,-10.499924507043302,5.482032585319202
51.760850683330354,12.406803565583285,16.483303813629174,19.651642985588293,6.307198664857676,-11.720390032685936,-10.695180593302917,4.498381837576136
48.798247222297924,8.786847498177467,13.560425226762371,16.955621802355402,4.962322544171032,-11.95123986418941,-10.113404515259125,3.4568770936223445
46.71057356264718,6.1987745676223795,9.031720760867026,14.65205546543059,2.7583648629768787,-11.527157980523718,-9.035890020880839,2.1613775141271754
45.69128674027533,6.3923643496941285,4.819167614642787,13.22459449708546,0.3620438124432552,-10.729295784377763,-7.778505603548878,0.6177426315015004
45.751992914864616,10.14903956468247,2.7958623325173813,13.042522414667433,-1.2783126231849247,-9.591407270988295,-6.4108972712428685,-0.7924034803776171
46.60129337574604,16.79993440447078,3.9474021120494185,14.120122021538656,-1.3362981379806813,-7.874036029605371,-4.719781193448387,-1.4284525764604001
47.56881110416872,24.55111279066555,8.008113888253284,15.947957419671276,0.5113669001546157,-5.320029104664932,-2.459554816433939,-0.7656401726063509
47.67805717771238,31.261830968272573,13.60308060740196,17.537436676367882,3.857547059467053,-2.0660234936149915,0.2697269567074539,1.2023908950384585
45.93636956823356,35.17208968579009,18.772808622097752,17.754852721812263,7.611339511499767,1.0858621759676472,2.8177856999694137,3.8135603163053617
41.77860596465898,35.40969488806082,21.74850165137431,15.8422622692646,10.394564498107245,2.8345676420121655,4.1904462781847505,5.971582258414526
35.43754172497427,32.32279902367801,21.736486889283672,11.842607982130204,11.178866937835693,2.016215504066946,3.6123935082105687,6.646078100679542
27.974610434504523,27.504166652060594,19.2984285443933,6.643005289551434,9.820084576645685,-1.644109839921199,1.0738228810509187,5.348791945569403
20.878467192411765,23.225393908643984,16.00385470063567,1.5706967596674304,7.121270530257894,-7.190358370626786,-2.5622100169306132,2.3254747426990523
15.420929492253865,21.34781576784482,13.500082364148955,-2.2366815681363326,4.352165193288621,-12.790914737647887,-6.006932306809939,-1.6005890153828997
12.128286221877806,22.362519383284287,12.61661666981041,-4.3298077890728655,2.5490989282414875,-16.59395644950907,-8.236635773896642,-5.389157231985592
10.648006162069546,25.293513726665058,13.103345074977236,-5.058257258646594,2.0595112429204696,-17.543679964268954,-8.937842010323306,-8.128719232559177
10.037659042490834,28.528574361583956,14.077699230566095,-5.273881696555421,2.5648567630881103,-15.683486795811051,-8.433157477917911,-9.232398108819828
9.267175225186994,30.87320024155117,14.734615440178024,-5.82514183737922,3.451170448886519,-11.858832463465232,-7.22425461174948,-8.494738279327322
7.650116307566384,32.05207045241223,14.812229474643038,-7.1321575525960945,4.213821332372366,-7.120120926908187,-5.5525400806673755,-6.1003794900651975
5.009399914852693,32.497768459794564,14.62988693580298,-9.06994077734332,4.6624229287783585,-2.250844751313249,-3.315381470668566,-2.6377486091533595
1.5514306339703288,32.82546317774912,14.807074911875016,-11.20008681999538,4.874476023618116,2.3225265879242474,-0.3755782505677361,0.9305351343624845
-2.422528489082042,33.38713506952589,15.82850642514721,-13.170822408844414,4.975938351491661,6.284236364902997,2.998947178163972,3.442645531451835
-6.76298208212587,34.006635457425205,17.611691922563722,-14.993737044954223,4.8928417288398185,9.12338815588328,5.932378478424106,3.8927605965984977
-11.514177467639396,33.93552406075112,19.31912993594358,-17.001553214418042,4.253581126162438,10.076351213014973,7.1962309969244975,1.8485000215241065
-16.737152404148922,32.206961732079385,19.675581522041718,-19.538580954844246,2.5754864262802677,8.443498762209835,5.839863689375865,-2.2963394022055836
-22.26384685499719,28.42124591634585,17.759633966716898,-22.636900106479636,-0.320176028389614,4.117754760131668,1.836405356013008,-7.411367891146316
-27.587696380826223,23.477828603827746,13.77354062071065,-25.919416122127323,-3.9551178889934517,-2.047769603349247,-3.681439569553332,-12.046705529210437
-31.99331214963601,19.486259454352144,9.146521846929453,-28.77178378221622,-7.236989198612173,-8.369341151260238,-8.80623630215963,-14.971363543558246
-34.85244209941593,18.605147170899937,5.769836761557812,-30.630086487630646,-8.97243722726595,-12.995006118304977,-11.696611217305477,-15.580310708631542
-35.909757680495105,21.53322756364312,4.854929802320282,-31.197939176549504,-8.550100972520001,-14.761582851967535,-11.42318342344536,-14.02858477300143
-35.4127546566752,26.8245686132323,6.212672739951251,-30.512386316707058,-6.334186126493111,-13.737994194444576,-8.364655183920338,-11.101210490398394
-34.04151497426044,31.62288492590726,8.424926931938291,-28.88391792320214,-3.4958838843544253,-11.114331864041842,-3.9614895659194205,-7.902995075045777
-32.673136075475846,33.37212298424108,9.772374822187224,-26.764839023392764,-1.3640646736750008,-8.481169234964815,0.02625651361029293,-5.455422336152013
-32.05577943065784,31.48568579491694,9.379934325707108,-24.59616427901025,-0.6366013681712882,-6.892163521435534,2.3848158628564824,-4.30164830330328
-32.50859942188141,28.09879252264731,7.969658809459413,-22.69973483418674,-0.8632035487046209,-6.229346964900275,3.02118496938773,-4.271894429969056
-33.79940734828577,27.437990076881746,7.726830516725025,-21.28083430950306,-0.5346809526840955,-5.2560867077726305,2.9498101965790666,-4.566793004801585
-35.30372723496709,33.721940819524384,11.074136311079696,-20.521664539779977,2.102809488821585,-2.4056777738784048,3.646526422992796,-4.185313750704896
-36.38073200727619,48.11265147890012,18.739074394040465,-20.624828796072812,7.781333015251788,3.0653498919757713,6.05822392906428,-2.499423522574502
-36.72341083359811,66.18233036565123,28.21753750882714,-21.663200173544933,15.194038876977414,10.227488484069308,9.821848419222828,0.36423248139310904
-36.43333188215166,77.91145847293905,33.94254293260405,-23.281505403737686,21.026414721218664,16.542322116665535,13.224048142437379,3.5849904559020507
-35.78301161531875,71.34078722440807,29.640375603637928,-24.523367929855596,21.32843465305524,18.964024858229113,14.033586460891998,6.115703415561362
-34.88765744051237,38.68438302120185,11.838882762759809,-24.067162948979608,13.6251440832515,15.535379443407507,10.771176338391385,7.254334024470663
-33.575875873186845,-18.45791197030931,-17.582889845353655,-20.866109573213755,-1.4711962665232332,6.549359326930721,3.6493379161440527,6.968483568865888
-31.565755345516816,-88.27711372025414,-51.58648729104488,-14.825100282192675,-20.214251753292544,-5.445497444170329,-5.412851579885762,5.812299794783263
-28.788044560652448,-153.41317490087928,-81.04820151043477,-7.034014251869636,-37.38170423519753,-16.827584766984664,-13.719996754026887,4.546157829975259
-25.57709120331751,-198.74409773256835,-99.00306171410924,0.6629867259836145,-48.708697427970066,-24.58834253085241,-19.109243217966622,3.729484692527206
-22.560283457358043,-217.85827844478945,-103.57690102589355,6.535178658463138,-52.68592868063428,-27.564499714705335,-20.865562798982083,3.5195449453437138
-20.32028107831881,-214.594431933032,-98.01449235900247,9.742260515564302,-50.759408364953906,-26.59546302806407,-19.772746017041946,3.7321202838317857
-19.083862841727004,-199.3130790225879,-88.15391531398812,10.56694490978173,-46.0374463721416,-23.68834147443022,-17.413045307285113,4.049199103065924
-18.657570895965275,-182.883753579826,-79.24997120169928,10.043031749456432,-41.515405528606664,-20.844836338337316,-15.265527406124523,4.211696945315925
-18.615327122259195,-172.2259929994855,-74.06260570625874,9.318801791632215,-38.910408870406805,-19.256176293823916,-14.14292204474831,4.110460364361114
-18.54991715710893,-169.2524900727108,-72.79004529934097,9.18573956934191,-38.50735561418022,-19.148707677255977,-14.13437567258863,3.785507580682041
-18.20643799563007,-172.327239899812,-74.07869434008921,9.955295508428893,-39.65634941827968,-20.085067188475186,-14.860624728814326,3.3762176299309434
-17.48186386608952,-178.2630415773171,-76.08069735241817,11.561928366530903,-41.35763921238207,-21.370373622154382,-15.776048733750331,3.0450611642446144
-16.39653075575963,-183.75100506850842,-77.16014309146482,13.691510671557465,-42.67544239198443,-22.36775013106488,-16.401054102063068,2.8895592827859384
-15.099393346257843,-186.29280159039027,-76.36608271270943,15.874340349984065,-43.01588615601189,-22.7032717714421,-16.484307698669834,2.8814193433405983
-13.854993670350186,-184.8582562792707,-73.70031008228028,17.60847581323931,-42.28836332714681,-22.358562124017144,-16.073259327867095,2.8807271961707097
-12.943953950196875,-180.0362085499471,-69.97994544350604,18.543380129536967,-40.856564323776176,-21.610665940733785,-15.440878447787997,2.728617759138372
-12.508315448195958,-173.51752495528936,-66.29591400819953,18.64791152726588,-39.277919060496,-20.84088039760752,-14.89798354318434,2.3585312183604796
-12.449435785848072,-167.3767469168131,-63.48461176777814,18.270834563314306,-38.04084593339742,-20.349600341892916,-14.631168385073218,1.8511308174093324
-12.44430399088487,-163.7453385172759,-62.0056682417353,18.074922735341406,-37.5002074350511,-20.303018340005217,-14.67958598191625,1.4040165525171724
-12.056531907881599,-164.67134216851153,-62.077960698099695,18.858422017584026,-37.92804190354364,-20.773716647321535,-15.00584910479431,1.239694246683536
-10.898692939156803,-171.30342316483473,-63.578408839671525,21.23963471786968,-39.407299902606205,-21.72302501520426,-15.522595654483442,1.4881241350268717
-8.840058135347151,-182.2003583160227,-65.59185106034693,25.20727307439164,-41.50443530388932,-22.874636918368026,-16.031546509497076,2.0740470358360854
-6.229243772509263,-192.05676794526022,-66.17586823940799,29.71989286279839,-43.047051283457506,-23.631951733353212,-16.19002394575304,2.657355708410499
-3.988479501670338,-192.63254332799696,-62.95568518196149,32.7155249178031,-42.399763261343,-23.226116173802396,-15.621718731615799,2.7021891752232947
-3.385526839564547,-176.23382567259497,-54.392848717633086,31.792630827432138,-38.220762603147755,-21.06929953319897,-14.114057256684639,1.7179325399087466
-5.452235045125422,-139.91686045272954,-40.80490024399638,25.391914919114235,-30.20857982528264,-17.0553511255101,-11.708534980579596,-0.4038757938064983
-10.32316240076267,-87.73405614811192,-24.315829983894936,13.849387472893381,-19.311165079464075,-11.561682727121136,-8.572168778443029,-3.157459652214421
-16.941886395707026,-29.550998515736573,-7.78598861933069,-0.38793980503691905,-7.288438406911435,-5.158889697217945,-4.760835277766982,-5.4995773072709495
-23.423238327312568,22.87861798311856,6.464703104432335,-13.659073919494476,4.0235301083706565,1.71694848898322,-0.11528647665819099,-6.277758254270948
-27.9448633366288,60.4129384320286,17.308721055170366,-22.697466941681157,13.276066600030411,8.846354694638617,5.559999902171649,-4.822018810987913
-29.670223409203548,79.4334036254682,24.622323893639475,-26.09033745635206,19.763263335230896,15.98501443427581,12.117724690364305,-1.373863933481708
-29.15107147067296,82.21599092755876,28.709764168366178,-24.802399943727643,23.285301460933212,22.50391946127522,18.766200255439262,2.9144688394992215
-27.968139311032594,75.24402361856657,29.980043953368316,-21.53350652249105,24.01425072360396,27.26362489832822,24.129993237663115,6.444275808318395
-27.83872176618726,66.57253741001377,29.073442610204797,-19.335581298590746,22.508450238295826,28.938128983623336,26.736544578172435,7.863832166766229
-29.729956410940865,62.997641969079154,26.981379396851732,-20.242225556650087,19.695985054636154,26.6464126806644,25.676015155211836,6.627376932938405
-33.460782288721894,67.34589920873269,24.56779682734605,-24.51527764635768,16.534262569011837,20.466007250099338,21.023994829727663,3.1531043876930624
-37.92121624052268,76.5497350341746,21.572932996160784,-30.693979248834047,13.370720916346746,11.46546658489352,13.774114043584985,-1.4392461593793406
-41.66794738842787,81.8736906290585,16.02684175801664,-36.27306590543045,9.49387960271161,1.2556759408229359,5.374966777159737,-5.816485246040271
-43.52305076932275,72.32261640979074,5.020551927039138,-38.69078965771213,3.426175800360871,-8.60817814366321,-2.796668841765403,-8.898828952902177
-42.92938759712605,40.36716413561555,-13.266972549616508,-36.30187495165067,-6.0211596948882935,-17.01601023921734,-9.74327451731164,-10.146743251524432
-40.026312056230715,-13.022321164844149,-37.62088559676772,-29.0283904932712,-18.604059983644515,-23.36987158246965,-14.890794643432839,-9.628123619649262
-35.528698118936134,-77.39721727106087,-63.50079719398736,-18.432781566273405,-32.2961704059184,-27.47274807840227,-18.01953566139375,-7.9003338849744775
-30.489929125638618,-137.09146486472224,-84.92063979811097,-7.128041743312506,-44.111085998534804,-29.44336437578202,-19.234263595528123,-5.769496901449396
-25.990274101110636,-178.5449956886616,-97.4284692799918,2.2686145906148414,-51.624518633702365,-29.71803595633576,-18.979633651115474,-4.001462972094548
-22.801509872544038,-196.38881916795322,-100.25399224911021,8.167469781841946,-54.192114146303595,-29.0226558943683,-17.97747553985285,-3.071229940411689
-21.138603021770532,-194.74898036868217,-96.24798743818457,10.511427988662286,-53.06835629328266,-28.17620650211512,-16.992975146081875,-3.0390544458936257
-20.636267270758744,-183.43488628024915,-89.82176591247357,10.510727394864995,-50.43730333579096,-27.759612996151304,-16.513108493590597,-3.6056741095255322
-20.598005386866195,-171.98028113423112,-84.45614438113239,9.81028403588817,-48.12504200444205,-27.873379449649654,-16.560255037176265,-4.317882446675095
-20.387670082273022,-165.41691417952916,-81.40183736062839,9.620168094894472,-46.865110369672614,-28.18973488617327,-16.794460231431753,-4.8112238803336975
-19.722767095168646,-163.73549302695758,-80.03046644232352,10.301430532513818,-46.41926270293261,-28.270560619675393,-16.826087201239186,-4.959016742999813
-18.707431278049185,-164.18711363266127,-79.0826764299986,11.53394805865167,-46.20218383991719,-27.909790544706205,-16.501119134448263,-4.869545386059945
-17.645795948861327,-164.22555179516607,-77.78978836707174,12.80944406547136,-45.87105387118496,-27.27820223323582,-15.985561084223923,-4.773661601341021
-16.80806496807956,-163.42484533959677,-76.3716825615781,13.876142704350308,-45.59114172885891,-26.83575461710688,-15.65751622958739,-4.887237207228178
-16.28108745476001,-163.77781093725986,-75.89163362651038,14.909850529656739,-45.94930265050897,-27.10313550907427,-15.90651261454549,-5.302864530079159
-15.92212678144203,-168.3128676347467,-77.51436391366123,16.382224017882223,-47.54313805218973,-28.36595116479611,-16.900147538137894,-5.926942348113586
-15.398075602009081,-178.35207045473672,-81.30851057001246,18.698076509837204,-50.33175591397001,-30.36567306123658,-18.358492773527765,-6.481531692229917
-14.330216578577868,-190.6936115236737,-85.21839409548711,21.73819068495923,-53.08638358751785,-32.12932952443397,-19.46399094160255,-6.6034512196233095
-12.545293485898151,-196.93385335785004,-85.21609016609779,24.55152426990439,-53.48458729780666,-32.17621320259228,-19.091152057825365,-6.03312321294801
-10.309291589440567,-186.5118837628774,-77.13462892222245,25.49245814777782,-49.12561842293464,-29.185574383212344,-16.380650790301274,-4.7992590894811284
-8.329702064814592,-152.52409912263352,-59.348640377098526,22.91432716582884,-39.02413123352286,-22.829412345615832,-11.364224167985393,-3.2615729809396607
-7.4177778517668145,-96.79394688115977,-34.46565201233162,16.133161204556995,-24.575071709519953,-14.203796218295366,-5.175585371194083,-1.9440063781955805
-7.966937176901323,-30.530593184878562,-8.598634954225764,6.072759380305737,-9.179095413083282,-5.45278161473195,0.41088743500784664,-1.238546930866485
-9.596733579505896,30.351873938237986,11.567727689521305,-4.894851998983821,3.384607950113292,1.283379287725226,3.9028022028655576,-1.1653671175008178
-11.244156552329244,72.59429177652855,22.122058248613147,-13.911017870790463,10.852197581412138,4.962542059743029,4.902366247783586,-1.3481866121118216
-11.691948444086165,91.24485234672295,23.59133617922036,-18.875468318722135,13.45169459681519,6.0842817034590135,4.278600359021165,-1.222435049259866
-10.225481249270905,90.52336897853357,20.009859322425694,-19.289711934260932,13.413652278579344,6.2268813588267795,3.5879459746542133,-0.3457944521904589
-7.01994057533075,80.04525055419037,16.220127888333085,-16.289708373595307,13.446849070705918,7.028346896629349,4.1254896376862495,1.3676968600118573
-3.037030316100146,69.30911296907601,15.271755764979456,-11.952232586336038,15.220673166949345,9.289711359128699,6.207686426477643,3.59804959033625
0.47477854031853345,63.789193192619784,17.42279535805819,-8.330328126638854,18.736660437853114,12.708004335179515,9.091678100404245,5.744417152104317
2.5560423341773597,64.16964600555517,20.91649831432542,-6.7137213382811405,22.748312142251322,16.254186924520532,11.494835918154045,7.13852112858828
2.878609824843111,67.98561463511096,23.561760937288632,-7.368152775585071,25.71729855842233,18.809368270548458,12.327157332085873,7.25705552679829
1.745099956918279,71.94721286888678,23.997478017945607,-9.710799434993142,26.646679618503896,19.64036487700855,11.212770731287252,5.883131740601505
-0.15868828848087502,73.72204329233016,22.160128814667374,-12.724486636448106,25.44874950250571,18.55578690667408,8.598817066151895,3.1959996355110905
-2.0891373146572505,72.82606071726008,19.093743724875726,-15.418105086147726,22.869662005749063,15.836320882078798,5.498741011371618,-0.23736778253991847
-3.516378426120615,70.61518882737668,16.385721466955335,-17.191604545649408,20.12479146678379,12.085108554686125,3.0373908186201692,-3.605051831393774
-4.263601446432468,69.37939887942623,15.41370813934883,-17.99007931356929,18.381180421197687,8.063398092897032,1.9849983530799067,-6.1223998410371125
-4.472316594123557,70.84053732967233,16.6297653098877,-18.179507475708476,18.253387754317277,4.5277980979335535,2.464348596519321,-7.334399862108112
-4.414119019257105,74.8867405019099,19.241674619902202,-18.204318337628447,19.54525400398662,2.1051315836336015,3.9733148407573387,-7.282136279031536
-4.261824213751337,79.43637980507575,21.5486858663878,-18.23280186937851,21.400900722120483,1.2383787133638104,5.724694065849877,-6.414349148179329
-3.972938864569676,81.60861483765268,21.800984165860577,-18.020922866694956,22.793396458310827,2.1739197909762145,7.115469706628113,-5.2760787532122375
-3.3583049666585265,79.49425747576119,19.1323579421985,-17.080422590256497,23.078664262841183,4.923284796117163,8.051191808157737,-4.154380850025056
-2.264946920163338,73.54756635691518,14.143211835770742,-15.038248263342414,22.34972101518222,9.196059030908183,8.952690255504411,-2.9013648832402743
-0.7289648863828037,66.96603755601653,8.931365356534613,-11.973299505323167,21.470283027459242,14.391584940577635,10.471208894680904,-1.0625117365619023
0.9918233427278162,64.80042851650376,6.478567471378869,-8.546249309211031,21.7622973993135,19.720013275022083,13.074026138030987,1.7373470716314263
2.4966999402802235,71.7210775235441,9.34693356110515,-5.825885619595051,24.354278362237316,24.393665829550457,16.678690299353555,5.369675062958871
3.385270077775288,88.82222578914491,17.95001980411559,-4.816369161139212,29.3285474656542,27.74168855833408,20.475826553696272,9.025433383370617
3.438756627815183,110.84839054827663,29.254599481009315,-5.829709495344276,35.07809687823728,29.180925825060964,23.047363804875218,11.462976340606593
2.807802797752843,126.02440499549402,37.07043950139745,-8.012898662499975,38.443208905185976,28.15963703542215,22.82747996275328,11.60411349426734
2.1130086130319743,120.01267896287547,34.48256855288006,-9.39764807216346,35.9262258093323,24.27918742268528,18.810726004371293,9.153082066377106
2.324848958968313,83.13767985498019,17.601705898665553,-7.649633167842915,25.60095874926287,17.663080295288772,11.220491060860478,4.84995123825406
4.366754104739235,17.32822726316553,-11.397353328800843,-1.2868513609607384,8.694015791570102,9.363914568798537,1.7528880003536398,0.1650508950529529
8.566861092042215,-61.642233156443986,-44.0058889711661,9.240253372005792,-10.245121567223231,1.417891554908304,-6.86204729834436,-3.4146367529196677
14.247571298609973,-129.01497097481607,-68.55755797779474,21.27554814790858,-24.98291908299796,-3.722829815134522,-11.90137340729133,-5.092338872784852
19.752777625986464,-161.41359673642333,-75.50018881738112,30.803430755405557,-30.377782537810127,-4.246626889127166,-11.842087776218342,-5.0503917422151625
23.020718082919505,-147.59291912674496,-62.001106562523105,34.121048480077235,-24.842675324725853,0.022134378662735543,-7.0944462266776025,-4.182593356728932
22.494289340029084,-93.74975525556144,-33.319072628812336,29.53364592555729,-11.110890763593297,7.3304701982418115,0.14564314432888653,-3.4848964688043047
17.909598723255463,-20.432638813794163,-0.17950513887287076,18.185565973021244,5.135680315910632,14.686332561676638,6.880278521011129,-3.5121613237288654
10.513135122288976,47.18106718024918,26.31725509285791,3.575695015457909,17.983783166834375,19.21420801909304,10.620828746293979,-4.218536830525772
2.5648564552492292,90.27485384242546,39.43609860076154,-9.975085731989163,23.844909352632797,19.446664107963876,10.357940837487613,-5.20611228333301
-3.604712887785883,103.01780492449626,38.848846730790065,-19.080716331430683,22.572541603377893,15.867234510833569,6.757586006324813,-6.128286947000895
-6.484794356284915,92.1661982959154,29.39386826791966,-22.398896725878117,16.80086036973238,10.471137182571324,1.6061102245941887,-6.922685708176889
-5.814323339071429,71.09546432052035,17.803018593252222,-20.677383661386592,10.162478234183784,5.660291279928025,-3.096333556130266,-7.716196966914965
-2.453703314157953,52.39141037310784,9.455580872646793,-15.950709983050277,5.505609339587278,3.1066865613960344,-5.906421982093208,-8.515640822388649
2.10783481443065,42.97044539500923,6.696602405856158,-10.484278429174962,3.9727294018789356,3.1477930342901095,-6.283619149127323,-8.971244456882832
6.3191104758904375,43.29864791727279,8.989068098761608,-6.006929136205085,5.114330884254952,4.9130272501171035,-4.52349193860875,-8.45155023139334
9.01342625568178,49.64130153884476,14.142095002651079,-3.4206761970920123,7.6205681977666115,6.978179075216959,-1.4745541086685883,-6.434145583278084
9.679609685872434,57.14645532071422,19.658488767746945,-2.8565853543190918,10.108754410220522,8.134677580730388,1.7798052310979438,-2.969141324469657
8.552608566859936,62.12621812640122,23.665676395326585,-3.8741350903240117,11.632352649778447,7.900881111965852,4.20778034295576,1.107597154713241
6.489627624583787,63.03149104110498,25.328979017266132,-5.713121360870055,11.853675215534036,6.598171029086445,5.082667036649302,4.393898399922259
4.611970509862942,60.3147587408903,24.800510490449646,-7.587699513599099,10.949852232550493,5.039807902010439,4.176861628358818,5.499344141561586
3.8141733732300893,55.59507028120878,22.816089988100135,-8.965448775187902,9.36036132289522,4.051564195610538,1.8349228128116573,3.7011394696169195
4.372589389038017,50.67624063209814,20.206002471773264,-9.7108617386386,7.5353710485444845,4.0994851333533795,-1.1112691570850846,-0.6532308702391134
5.866976203770107,47.00224447815031,17.659150008526773,-10.027148682988818,5.845029685265194,5.200273290215566,-3.569717348286148,-6.213745361004899
7.44027410142088,45.72334480065018,15.824756217926641,-10.265038203346704,4.656927477515152,7.077246798384409,-4.52034233268304,-11.163057744425508
8.224791655658406,47.844929371023824,15.424207997262432,-10.725545280088438,4.381932320166931,9.355425180211565,-3.4014873318074614,-13.980569777869988
7.721389635632594,53.7260913058902,16.981068253324302,-11.510746176501058,5.28360234439868,11.614829157267932,-0.43590889983060627,-14.06072507575635
6.017613061772828,61.95473692534615,20.240631533849662,-12.39747224246079,7.121200170687983,13.321766970651009,3.29996804035545,-11.873089598836442
3.8226610209002474,68.6835108428143,23.86300905890884,-12.75255579983563,8.980813310178979,13.83101194697171,6.220240870015998,-8.604986578546347
2.3008102664683268,68.63162843270784,25.903844511863408,-11.618857486127379,9.597409117140177,12.6079779182049,6.91876595519457,-5.521273720597722
2.679394470956921,57.758680208395944,24.926747226508017,-8.093605552154028,8.073129144430418,9.588399746716998,4.865001393185652,-3.4136856894299084
5.7029533068913,36.11040318816603,20.981542192043634,-1.9150422771245843,4.523450487723327,5.403366916713056,0.6968493903592641,-2.4067758927969667
11.169212370774936,8.900945847032043,15.736409274417728,6.078953077213391,0.19039309864316753,1.2457494117728276,-4.07086451113211,-2.128786486814606
17.844395174738764,-15.104888331549498,11.678974939050109,14.004401437130484,-3.0714140967681067,-1.5968092880619524,-7.739575684199138,-2.037794570530094
23.890580088083407,-27.246911176013903,10.89899679045732,19.616154248177388,-3.638512870588286,-2.2856506464077393,-9.121419512810263,-1.6647667196529543
27.625639972194303,-22.876084983136344,14.10617334187687,21.320880370152423,-0.8541464238916399,-0.7552599597428475,-7.9022052668456215,-0.6857296515208454
28.213089189505133,-3.581694147671048,20.30376781775345,18.947578608055718,4.671968128642415,2.3349710091527247,-4.58720504342899,1.0881308016152442
25.92478762675188,23.422987406018184,27.229992483040103,13.814693321459174,11.315127233563791,5.971389303838092,-0.162388682341066,3.668626153022157
21.88975512711608,48.57096311868912,32.406233512572605,8.055478270617133,17.132414149535197,9.271439592854811,4.316573372550117,6.771396265969124
17.522906872070728,64.29357928117605,34.344878775215236,3.597276488409767,20.691788898724788,11.814069065664242,8.027136491542336,9.734291628965806
13.944251843882757,68.19168555889756,33.27095013808832,1.3528755588448151,21.612829171907656,13.62124153172684,10.482277291005394,11.623231003752183
11.64187616897365,63.36153953699783,30.883679279586026,1.012322804078861,20.53020984817985,14.8229230001679,11.463738759469196,11.570110599886837
10.482918011711181,55.908008626788245,29.279864871767558,1.4640702540305657,18.552202504849994,15.298127134625219,10.928080118713343,9.216227902188077
10.00298678864802,51.338780823890694,29.73525451230323,1.5375428500638537,16.607465010592925,14.642001963312618,9.021061660936404,5.015045732414647
9.767041843199577,51.91987614046123,32.05886959949467,0.6263691107118561,15.066520221081888,12.537963471156361,6.17913851599648,0.17558524859887428
9.580707280492893,56.05729453014637,34.730925855013815,-1.1085705063014069,13.733176540022336,9.218532230744215,3.1399393019655806,-3.7820418785471337
9.47568817262626,59.47348000463609,35.58857603767752,-2.955527005829417,12.06704976354847,5.574183142410066,0.728311823890087,-5.643915618324734
9.583891473985984,57.44678811846355,32.811886968096076,-4.058722865304368,9.529628734846137,2.775495839037058,-0.4789516848508669,-4.964114509801891
10.067382270354978,47.523785688310745,26.087605938926377,-3.7856323352912145,6.057540031878136,1.7173845915633101,-0.33404470690561866,-2.1549804494807594
11.13749462485178,31.97846678320769,17.614980955631776,-1.97180443959969,2.5640784321425403,2.729992497728013,1.023739617075269,1.772916399387864
13.041147809322556,18.69066761823399,12.204337647667558,0.9509644753915826,1.1060829590995938,5.71272625925617,3.500488319481957,5.632246588729782
15.90793836466521,19.05971057810302,15.801175990291826,3.9851830124931786,4.316454695017234,10.450075223883005,7.244899807472708,8.445371786671936
19.5274110353629,42.97179752657827,32.68915722990539,5.848312754508696,14.12723915939216,16.747074851179622,12.493007256995838,9.685038705075112
23.261929127621652,93.07494604623884,62.7805428308015,5.493013662985264,30.423933851254144,24.258934037821223,19.159561104153674,9.339270217607206
26.23881633416293,161.81619414570864,100.74856749734698,2.6492935523397065,50.52870096004295,32.22936442440671,26.523016250860774,7.819948090422626
27.75323825361902,233.53697051439124,137.83378899988446,-1.9372964726110222,70.01215352254022,39.47659298364316,33.31706743613015,5.768907651726308
27.634941225873433,290.9455085798973,165.53002462456345,-6.769925766205732,84.51371568406573,44.7676594004854,38.243206485886866,3.8333972845172894
26.333133804487915,322.52106617267856,179.15215289038466,-10.269409202067694,91.58356977276316,47.377856199353914,40.589173981248415,2.477010154287976
24.658085762421408,326.8218745456823,179.36710688128616,-11.48800053112091,91.5317521955218,47.44824767154599,40.546870921213205,1.8743091085341903
23.352868441519544,311.71343081046166,171.10221749506658,-10.467636296513238,86.92016355259429,45.89624689680112,39.04838944838643,1.9162501396923919
22.77300876989899,289.71092274572646,160.85844575731946,-8.067722371176258,81.1810462064768,43.96887948341946,37.282613864481895,2.3168418935595234
22.840692837335588,272.55657803732146,154.12866591943808,-5.428285577389579,77.24047744813906,42.744079054429314,36.21835217302802,2.76045530686575
23.219245403611566,267.56365195415947,153.95992192001182,-3.430964183429966,76.72241676792754,42.81153329969331,36.337955536594365,3.0069575066204184
23.52829398614871,276.18989280943987,160.54360009604397,-2.4292931237071222,79.71358511695799,44.14665374822502,37.56415355444637,2.916948736564105
23.479554038154337,293.9878506480459,171.26095029685195,-2.2644074246105683,84.80586780649512,46.10071462937673,39.290989211581135,2.4380882967787785
22.94202961785802,311.52229076127276,181.10101974950675,-2.4233830020728613,89.3587008412634,47.52874157938152,40.527175110786196,1.6196890403758095
21.979708635566894,316.82862579700827,183.90708148330185,-2.2428987982238104,90.19334562440712,47.15424072394108,40.22137735023353,0.6604809901688646
20.836442764523735,299.705938229545,174.5987327454597,-1.1647584234663655,84.77366755468321,44.135923743946684,37.71871548849469,-0.08688645209281243
19.810420525133196,256.4755886587591,151.55430299642634,0.9746961781547472,72.43338380619534,38.55420871097827,33.11002402414914,-0.2298657500956592
19.05002943076513,192.54535991640932,117.76497270671166,3.7699158886358046,54.92154499838898,31.46360618940509,27.217626257326646,0.45533432956550685
18.424051216259457,120.83045367553466,79.89523724311618,6.372995583374954,35.83234439599308,24.403939386955418,21.18796223233324,1.850396663132843
17.614747239165524,56.54636272220798,45.664951215445775,7.938728693629069,19.177669498648623,18.653627126957474,15.953377706754473,3.4974029915227733
16.415598235532762,11.230201190221392,21.008044518233355,8.144370372822618,7.9048720776666395,14.712060131576825,11.927575126318995,4.813550654727071
15.01428595240965,-10.769576200682904,8.470878247806137,7.421165808163159,3.130191934170294,12.324716986799714,9.106949310077567,5.404473242268616
13.984613240888578,-11.997418619841026,7.293723740054728,6.682726481013136,4.274376497640044,10.92992198968412,7.40015198930582,5.272083585438506
13.886723858511884,0.8626230870537708,14.412499468252363,6.677275597707328,9.635706024665396,10.069771096113136,6.799747888179776,4.763172633234184
14.695809537771687,19.607790033666863,25.28558977593485,7.396763973418708,16.795946811343025,9.38980083011482,7.168606579564291,4.287224752312053
15.500083019703816,35.598247157909135,34.2614952824495,7.995553090040945,22.74230207551583,8.304924896496377,7.837866496003236,4.015096213813717
14.799454538014796,40.14877014921539,35.22695863386746,7.333691794512124,24.161302102775423,5.798567237159356,7.4967460442410285,3.789790919579983
11.31894652715637,25.99427938654937,23.291948802418638,4.792310456923853,18.34693202159099,0.7414320226908832,4.675755026827084,3.305122944925243
4.838218655733527,-9.785839818410416,-2.868011028438984,0.786692167415583,4.509555733115096,-7.376693707258193,-1.391112120061318,2.3909738636768205
-3.5250407049536507,-63.17628834574948,-39.53267158618495,-3.3859758540161464,-15.37153518283388,-17.84544303528324,-10.124961766494714,1.1744991705021488
-11.790247766374348,-123.43156650519037,-78.75080147173959,-6.254206608479947,-36.9578687309823,-28.78384269634695,-19.686545685503805,0.007326579884938936
-18.061402368990922,-176.9270197914726,-111.4733936429159,-6.955893524634637,-55.25126283310019,-37.90950891666818,-27.797514544080503,-0.7630047562172078
-21.374574178659344,-212.90949092347648,-131.41245441002854,-5.606071199294731,-66.71555341494387,-43.585925504122585,-32.8089921745613,-0.9975991801922375
-21.980872802022425,-227.8989819691221,-137.4543516171588,-3.0767658147697996,-70.63046219756879,-45.519278246648945,-34.38351127490496,-0.8127006156477099
-20.994811459640637,-226.2430910595529,-133.36120000466656,-0.41777170636270616,-68.97105274590474,-44.72275626534741,-33.44259497306761,-0.46895623454198176
-19.721870341094416,-216.80994381409096,-125.22025303343716,1.6634566187489528,-65.04025764286042,-42.850677459072685,-31.517861006356593,-0.2118738294297651
-19.092315444434355,-208.19540376927802,-118.38978002307063,2.9803207888379353,-61.79189208582483,-41.37247464050004,-29.972514828597877,-0.17324260802151747
-19.443666439253168,-205.3412345337748,-115.64554888927233,3.7249750122452774,-60.78112887838956,-41.05638919430321,-29.523361418027914,-0.36141426744307037
-20.615996752822156,-208.90543558060358,-117.06983604354402,4.2214886205197555,-62.06687146093145,-41.921195423970325,-30.18975439866478,-0.6972108141848552
-22.181087549140436,-216.65829416226427,-121.04540554166128,4.752183557716573,-64.74483043053289,-43.49421720154069,-31.518909463042363,-1.0531533986103025
-23.66541410061314,-225.35561557092126,-125.42043691732577,5.4864407580850205,-67.604480093111,-45.132649340291074,-32.882650250367135,-1.295475390845699
-24.7215222918654,-232.1800599353323,-128.38266208235584,6.467601231273388,-69.63873440588847,-46.288588551137025,-33.74485707677819,-1.341004672440785
-25.235777789498414,-235.70340098420613,-129.03914719975418,7.643002567469338,-70.3826093291847,-46.70953764445656,-33.87333929675921,-1.2095543048382633
-25.347527533869485,-236.404362767939,-127.69790989343296,8.93990865468421,-70.06775823989689,-46.54919270708014,-33.445886674766214,-1.0291018359548114
-25.371671327621442,-236.42579567804356,-125.6896316150521,10.336969909371277,-69.50186749735578,-46.31336249503916,-32.97779141649149,-0.976889932063548
-25.66822437199608,-238.39964987723502,-124.7032638360079,11.845204417425409,-69.66001466331858,-46.61702300982489,-33.07039543205873,-1.1879321304335213
-26.51901197111431,-243.8838637923986,-125.955702390203,13.389828054473995,-71.17571795759937,-47.855553484582806,-34.09379370202537,-1.6787368521321475
-28.027253891906128,-252.3566203064675,-129.61408416795226,14.712660369305599,-73.99284495984335,-49.95361114498193,-35.95144760498484,-2.3113875064741847
-30.02190713976065,-261.2369281346252,-134.6090136285765,15.431266781687471,-77.2930324991643,-52.2915484099969,-38.01150567111125,-2.804659434790478
-31.993461704784366,-266.6221247979089,-138.7225033376486,15.245965342491518,-79.64604403884644,-53.81865329076389,-39.224217711017936,-2.806737841802152
-33.16042337558512,-264.2720352001773,-138.9494647957979,14.127263084369698,-79.33971316648149,-53.34104780818355,-38.4318391685759,-2.0408597989709016
-32.73984765122113,-250.81655918248893,-132.36067457491467,12.322108954161552,-74.932832902395,-49.970590550914615,-34.845850992783234,-0.48067094266391724
-30.336112954823832,-225.32767778488184,-117.50550347858933,10.187389044498401,-65.98485508282505,-43.62965951011431,-28.540311847048827,1.5595192156168955
-26.202314000070636,-190.79530055248387,-95.7543970624223,8.020471498391828,-53.63398200891474,-35.35290858283207,-20.669296278432505,3.5317788323863
-21.145665533974796,-154.32708940950855,-71.53693742396808,6.052180002658325,-40.530683670368525,-27.094474334961866,-13.149231807941021,4.952047521131291
-16.07665923911552,-125.06509545047142,-50.80957544503495,4.5973234012790964,-29.875982078213763,-20.967185459785924,-7.829182859000216,5.720401140702431
-11.482584919297988,-110.11075839736078,-38.213626298924794,4.164561916498691,-23.891821263394473,-18.213684482788505,-5.5440002804389446,6.229050486900759
-7.2120374063219534,-110.40716919037763,-34.50203888161045,5.293136859434548,-22.570315644804264,-18.479940547517316,-5.628105507492292,7.126640664863289
-2.7717968457409126,-119.30406746200471,-36.02380677105769,8.094619551786286,-23.58207569926909,-19.901770423812764,-6.278553886047432,8.835574913224272
2.038936321310057,-125.46152248915587,-36.94759753697644,11.80266765953357,-23.608243365917502,-20.085174975801003,-5.649381146171424,11.124202166345032
6.626212448764516,-119.0355990517724,-33.02852635086313,14.771483918655836,-20.399644798439027,-17.4806480906759,-3.0393991408919323,13.055845930950362
9.6619284272542,-97.50550493131058,-24.435450314669563,15.116658934912628,-14.24536103429543,-12.317790872763936,0.6063226078141023,13.417187847684099
9.761289143480862,-67.24592784951265,-15.606663493548009,11.711646431912612,-7.812730999577323,-6.476435655896373,3.257967073368341,11.401735211522858
6.386047382420249,-39.58355394741125,-12.103821184678988,4.936801012795682,-4.385964340346423,-2.334547714832308,3.1067543291131976,7.134545045001847
