FZ,C3,CZ,C4,PZ,PO7,OZ,PO8
2.3106119984176883,-2.454265491048584,-3.2408654766977656,1.2175156134937561,-0.29737940387891376,1.9392342778910914,0.046214484325627976,-1.0444945168585351
10.189368581518812,115.0252905798692,74.58515556858251,-4.037565240279038,49.60194315178997,24.785040415691807,17.659612133596244,-5.9577046334237105
15.802168021776676,206.05993729428394,134.60496052108775,-8.375245602638657,88.24336463061708,43.11223794754102,31.596076556757453,-9.853321954217535
17.71474477555845,255.4913409331906,166.60454597087582,-11.417397663467346,109.22905724082685,54.20764916229776,39.66549115248594,-12.138590086731947
15.749539598544086,263.9604012509728,171.00029996671245,-13.472899579407398,112.9235738073697,57.89720495711518,41.75829751950539,-12.849698628473837
10.899897943326435,243.86081035157784,156.19322867855885,-15.14077053268032,104.67043184223806,55.95640958830206,39.36775291453018,-12.513093533526945
4.934140574956558,210.81030138749566,133.03310921513412,-16.59834941221622,91.15604321994,50.86907951686727,34.62577381504575,-11.730593197108973
-0.07981099415736809,176.8477190548255,110.42696473432191,-17.114147612591484,77.59715591003707,44.86611062543085,29.58807347493277,-10.749480973481049
-2.26606890353885,148.69488661718472,94.05772868339191,-15.254089856216027,67.07820436627006,39.65292734109236,26.006765830610615,-9.319451820735512
-0.46813263960461204,129.68499962226946,87.151878229907,-9.754742827888595,61.31559610415826,36.52438941004215,25.273733693385402,-6.946652614641921
5.297408280232281,121.67157775895167,91.07833923426651,-0.48464496066914814,61.27027053162028,36.34492641540977,28.165654522771188,-3.35644168276668
13.728775242202648,124.79169503807368,104.84508030200786,11.21004069496614,66.84465486995668,39.23623342779404,34.43261825703822,1.1848628674307957
22.66744396031553,136.0475572388621,124.45422197594716,23.04396104124787,76.24051057470072,44.28693556599216,42.63186404120115,5.925738612564872
29.949931197211484,149.13451471149583,143.58438413446595,32.84054269118083,86.04893314753112,49.69322925868736,50.524831789481965,10.007359076404608
34.25261140617355,156.77568685817045,155.91885660928742,39.374385546454896,92.48826789102701,53.41467857550848,55.92874404014979,12.873460939989211
35.46220194543843,154.4554311562435,157.89808347695458,42.49589204039108,93.15194722297474,54.01645304432827,57.5496152401063,14.419418060426713
34.396535510142314,142.98406274866858,150.11584307908578,42.591481530557836,88.10521507897701,51.21078542165508,55.32283317130139,14.806975007644708
32.11796499935564,127.88747275395237,136.4053884225656,39.92480942763974,79.5553712857127,45.80331596339115,50.127279251169995,14.137896807467355
29.324516764134884,115.75533579391859,121.21194166754917,34.451189840788736,70.29202226091434,39.131097370938434,43.145509315804986,12.287310365882764
26.19985127591608,109.87144052148189,106.99763303625818,26.26443567423506,61.945508755719146,32.37990985674053,35.32543457967432,9.060849428032716
22.741157967145323,108.1537615739805,93.40714193943062,16.265227615411995,54.26430404716687,26.20956362867295,27.264114887229958,4.565477249475989
19.23710981949395,105.08831319706891,78.77003912567781,6.39121166651071,45.961630938649435,20.893854032039826,19.511227511760417,-0.5133122346557896
16.472517466541735,96.65183211623852,62.90749169584885,-0.9725855906661859,36.59395173363948,16.821075132500034,12.984740192313447,-5.003631498649492
15.438170489283994,84.8337775666494,49.10618530691313,-4.177498564683943,28.06480193958494,14.898341860380148,9.069723054838054,-7.741615875193296
16.688145842255093,78.12219286125584,43.40341531022744,-3.364303842056766,24.38406054566261,16.395343058307592,9.141805173132777,-8.207161315188758
19.78279574320426,86.89695872385968,51.15285095127891,-0.6357524094196052,29.472967730394586,22.16341548723823,13.693328063713796,-6.894789855472862
23.266019862297977,116.49777223311253,73.05381822129499,0.8945116381902025,44.3672783368046,31.734238402847968,21.659328474163008,-5.1379572213495415
25.296414806146235,162.75752843652987,103.56529764899557,-1.3044070729554995,65.83748918518796,43.03781959841044,30.54332421902267,-4.442990479911412
24.593963745560213,213.20009370617376,133.07232087817678,-7.864231912295019,87.54174428225953,53.10143182883007,37.42970831030226,-5.7118199170770865
21.123633279051184,253.14246175351528,152.5218997889709,-17.232018301827292,103.04730721213745,59.377334781825525,40.32469694782288,-8.80488690825773
16.101287037985852,272.75272481824084,157.61411558357958,-26.524406776456516,108.82185570623726,60.885384795026084,39.017539493342746,-12.671096445212537
11.342880072384377,270.91048212975005,150.145706235977,-32.96849904874552,105.46682395685878,58.4956275049109,34.979005861836555,-15.9252047628169
8.364964162528214,254.22238771070582,136.139498541441,-35.12165934592991,96.7455531477114,54.26333847214348,30.437277395550897,-17.522762862572492
7.736275870808793,232.66640404299733,122.3579306937039,-33.312551512568426,87.32561532549354,50.30680018440081,27.23708958516621,-17.19121914903131
8.961033676911178,214.91040130758492,113.39124700987792,-29.259063289345242,80.68951484023098,47.899976027002225,26.11088777576552,-15.469364752782315
10.839277994240936,205.630502405795,110.57854595367841,-25.225210628510656,78.17120500870692,47.18319085089851,26.62755155954929,-13.4232508682254
12.041585452962963,205.1890701667577,112.55225010884743,-23.15115390768588,79.12782543685123,47.449822971854765,27.656534968160535,-12.20570575831215
11.650627833073255,210.6213011495602,116.4194071706847,-23.999173873629545,81.66963315706543,47.69424567683493,27.99930803865424,-12.599124272119349
9.54505533424293,216.9223450009896,118.87059056293258,-27.374059758937666,83.45858933017836,47.125915659465946,26.927875871286705,-14.633689034363456
6.557336238495253,218.45099857889565,117.14392818411234,-31.47775490787294,82.46028120642242,45.50543443157402,24.517542520329933,-17.39360625473381
4.303740624652967,210.62254632680674,109.93013301945284,-33.544028281438834,77.65031270314857,43.23949178259864,21.693768615493955,-19.167414748375776
4.609883992111716,191.58886848408494,97.95087451111512,-30.820717568650892,69.46849033290952,41.17861219607448,19.897767439333318,-18.03283961674654
8.652744519063498,163.06125108907577,83.73401849012824,-21.843501414840222,59.68337751168103,40.13637991761457,20.39188356110474,-12.739581905954928
16.206580853476094,129.6300292576617,70.47799738506534,-7.401980554334718,50.57836319766269,40.333723305329684,23.48439590718602,-3.492517970566356
25.463919205450782,96.80128895274278,60.542373448765545,9.424556420391134,43.82958761404078,41.10825018542424,28.130070458754155,7.834995317659515
33.653433484306134,68.77421974222726,54.41193623903405,24.357008721985576,39.70281482421581,41.13234019832751,32.23404710027658,18.290153060944828
38.211516221253305,47.12165458526741,50.69463456013212,33.673715879842156,37.02755331625112,39.068348597381174,33.57924162859441,25.01948389641588
37.897381764805374,30.913551716148177,47.047071609844174,35.73866306934537,33.920705486136576,34.27596256268548,30.883928290971387,26.45607499938302
33.248709183968224,17.84587171928074,41.3384878931404,31.517559350540136,28.75428198847218,27.12145734138473,24.38091388968234,22.90781061489946
26.176013772299687,5.400252757815876,32.33272108663496,23.90552182118778,20.765406392172075,18.703988843213228,15.606190343351555,16.288307548091762
19.009853241792502,-8.470467785527008,19.784075832127463,16.346564492905262,10.121008771283025,10.243744606120375,6.608112833982113,9.209218645965569
13.570051829249003,-24.69190551545779,4.499707032770541,11.475148085358887,-2.212070779196502,2.6269097574077436,-0.8585047338617362,3.9315993731709753
10.668093135688617,-41.919188212156364,-11.225243270221325,10.288953815615379,-14.403169540560024,-3.579832093124874,-5.70173765610234,1.6237285240453458
10.086296286243138,-55.5154506873373,-23.312530609102453,11.99011175285366,-23.671077136744987,-7.815121778353007,-7.435272813215893,2.126398968842572
10.840442571626085,-58.29207300936168,-26.80435248152723,14.417615677533751,-26.802994918272127,-9.392761777793766,-6.05232556325515,4.199485272008418
11.557018965293196,-43.82944204509412,-18.239689604223976,14.932204126079291,-21.552821674087085,-7.842474351457687,-2.0888108503155483,6.105171146994849
10.917826227131895,-10.863495141010667,1.7830877945378254,11.519382830106482,-8.239260548031556,-3.4833909941984262,3.2535057184999547,6.32414464579106
8.13082236432635,34.366551174821296,27.861929855902467,3.708244718011638,9.690591005916941,2.325434543140651,8.264771840473323,4.154876051688038
3.273613132754321,79.96443694751211,51.835579912041005,-7.144402353394481,26.841652474696758,7.6015239113298145,11.300284426416379,-0.043913623387096395
-2.69725592364893,113.69408435137035,66.5934468313027,-18.411263549985783,38.276373985958536,10.630119622204017,11.497559286635049,-5.078023315730683
-8.347233066866153,128.59146137334722,69.3344497504667,-27.352826804861337,41.72095088182714,10.756593772674494,9.16480879731078,-9.500252711747788
-12.405880414483814,125.53885944614919,62.34844030515245,-32.28374263512492,38.27122986141502,8.576367623299014,5.556801093229525,-12.256542044961598
-14.310637691689378,111.58518928052669,51.084862935819956,-33.148574173539835,31.312291395554695,5.448100801215968,2.1710867888559067,-13.075108018142512
-14.357503944243295,95.53833786032806,40.98656072806175,-31.264016187329613,24.501180572002312,2.702007678920974,0.015147494844848688,-12.433562894576701
-13.408845754055504,83.77102896560764,35.102721457339214,-28.473043497114464,20.111258256200212,1.054709492186423,-0.7242947331759574,-11.183890683514935
-12.384371283856439,78.42547904069414,33.592295596077285,-26.255258704901603,18.545233242911692,0.5056186517128535,-0.5048970512061185,-10.093640280261978
-11.862037570648278,78.16361798730047,34.76184269818357,-25.258410465959177,18.88950834230132,0.611451345314669,0.007254469905257563,-9.559486545025274
-11.974112835706112,80.08138255971262,36.482691027266284,-25.357891592069066,19.80605914004911,0.8393381479194952,0.29430762809322164,-9.586301218078503
-12.543553864591127,81.3927018910527,37.1397793960148,-26.02002592666199,20.18753189784795,0.7916755145547316,0.11408274855045997,-9.94406310413947
-13.281778729660193,80.40035874865153,36.015468324615824,-26.673069359055333,19.464687834714194,0.29302003246112474,-0.5278586798779378,-10.352166017725347
-13.927492039241194,76.87786569066664,33.33891255409993,-26.935968018520796,17.688637831371736,-0.5963442751153184,-1.4456408937851835,-10.601949423380239
-14.3220007670582,71.90975955697249,30.053333938906817,-26.70476679341892,15.416782876719237,-1.6338407632903373,-2.361234660652931,-10.610461126284752
-14.44836675242057,67.13121106416682,27.254190748541852,-26.126971621419194,13.365857995194844,-2.536128554851522,-3.0373584303541725,-10.421834235065173
-14.419684177243576,63.682280322081375,25.53292299172654,-25.475561420496952,11.973171043695581,-3.1494322769073846,-3.4042079650855,-10.159340014102302
-14.39684361719039,61.604285874342736,24.708036641498204,-24.972766500677203,11.18278672024655,-3.52022148095605,-3.5745413530313455,-9.942922795431317
-14.482566973087293,60.12810044328767,24.15247322839693,-24.676631689845895,10.620307228754065,-3.8110862179912486,-3.7270867491662454,-9.822991594995274
-14.681305754024006,58.47497309774895,23.35283277412709,-24.513062860227706,9.947340972308567,-4.158776246573262,-3.975303092881342,-9.780452598694646
-14.952372569571153,56.36049618420093,22.157999599776264,-24.4029105754772,9.041340172342702,-4.614185926936871,-4.344163966448872,-9.782382546600104
-15.279260571248297,53.87703596293956,20.620261693175483,-24.341727318344173,7.911126737876262,-5.182254790717375,-4.834389997510566,-9.825612623981863
-15.665521025306772,51.18449498357496,18.817425488810958,-24.35552042442847,6.58381107819582,-5.855570857020282,-5.44809660770803,-9.919284958317746
-16.069234276426442,48.49973747592674,16.94303782280338,-24.40482706138819,5.161865413929683,-6.5734807352586095,-6.124361139340114,-10.03383004113478
-16.375606334072923,46.24931553208447,15.443601832445138,-24.363210737384172,3.9257381386487826,-7.180057969724915,-6.686933334801234,-10.085815503807424
-16.466909667396358,44.8876424687472,14.809184933261017,-24.099669299321807,3.2197970653955177,-7.4944052892170365,-6.925199209486722,-9.986633318630389
-16.331784670315372,44.34695350156453,15.06931560350589,-23.579776332220455,3.126228881958438,-7.474762365201772,-6.775048886995981,-9.712798989731116
-16.108481171753194,43.75058718976121,15.527204834336633,-22.90415381236472,3.257925612641622,-7.319283717272278,-6.4311729800561555,-9.33998445647843
-16.02798484383684,41.9159779306433,15.114910863282383,-22.288659599616395,2.940181197164531,-7.384142112692433,-6.27564272821555,-9.02596236805051
-16.30954742602081,38.329394547817955,13.12321325245238,-22.01934530522799,1.6588507863700088,-7.971283112643548,-6.676016729214979,-8.96057041060548
-17.059871462893735,33.72040090762429,9.71882311877649,-22.356952127692907,-0.5887284137835562,-9.138431611602641,-7.785668171387019,-9.287630754055012
-18.177876385677646,29.76274677788354,5.95811691062347,-23.3476645384004,-3.2388163304413924,-10.622051538480074,-9.414988760014136,-9.993370397409077
-19.28135280343333,28.218007382548066,3.4470414011587085,-24.610138715044016,-5.321519567354495,-11.869041731771967,-10.983655773640061,-10.802664476007122
-19.750136969591047,30.053133801961746,3.799025497209031,-25.30337256997967,-5.74921037372162,-12.184739514791989,-11.618892856481287,-11.18877812713026
-18.984069185699532,34.6701295920858,7.791844991881316,-24.435134698999992,-3.820831314983601,-11.053849384743815,-10.511602384046414,-10.58051366270465
-16.814308382396668,39.24824176071006,14.284285915106366,-21.417735908771597,0.05198854906574501,-8.596976184528772,-7.4925517248260824,-8.710885128305943
-13.803198637488427,38.70630079723997,19.59751325209765,-16.53281267726124,3.8209366952214703,-5.894933435667682,-3.4981782427428714,-5.900736822633838
-11.148511990343408,27.128414665307123,18.355829318502202,-10.968297585196368,4.158557669124716,-4.812004679864934,-0.4779100434080342,-3.0573682740242294
-10.151844257192371,0.6948809962700578,5.974806921014295,-6.353292894122869,-2.0704831128758614,-7.204801185006662,-0.5859085621345408,-1.3289450326609304
-11.540577264804373,-39.39737194619428,-18.472188643288185,-4.034836193702427,-15.932088599609228,-13.886109956504795,-5.038997819787541,-1.5783527426121804
-15.072599694266172,-86.27476916551066,-51.02707326422256,-4.4903757708504175,-35.42558545727167,-24.007686326981386,-13.360471029300536,-3.964500661065702
-19.67439410174323,-130.08691555200767,-84.42776189760765,-7.1654569044049605,-56.2295323126733,-35.326520105584265,-23.54157284647044,-7.85642543242807
-23.98960952035335,-162.78450989731357,-111.70573766595685,-10.749973661692216,-73.84538442475747,-45.22764597004177,-33.03419647678468,-12.096297592447016
-26.932445626040618,-181.89340297992553,-129.4140132605741,-13.660955977127793,-85.70522839006405,-51.83252298667537,-39.894342241144216,-15.421181539994384
-27.882272704523633,-190.50116650407568,-138.1794463400711,-14.47218822581187,-91.73000628685472,-54.46184813952654,-43.30137560342905,-16.80688985598467
-26.498470618484237,-193.18852541266676,-140.1878329572904,-12.207994242825755,-92.95113480761763,-53.23005851230828,-43.195653398388615,-15.632875993068852
-22.477826545262985,-190.78424562935913,-135.65484502011634,-6.574945707630683,-89.37541603084827,-48.24615664830383,-39.508836939730635,-11.736399337966219
-15.601764071891406,-178.12917835133482,-121.32794794230792,1.8434941716996611,-79.0009347178929,-39.20344050201481,-31.784831968181674,-5.457268161470452
-6.102391585179648,-147.09547912810237,-92.58610572166772,11.573027090414078,-59.04981413191203,-25.778539147713484,-19.609800932847406,2.336985052355568
4.982820142537787,-93.1312880892829,-47.80399141786847,20.597003742309475,-28.66428543997725,-8.525589132183764,-3.514648747613039,10.359848545147548
15.864261631795237,-20.699074505025852,8.31881489487919,27.04860220050198,8.990564931334918,10.52828226072563,14.458653782375162,17.22513491279096
24.57166784188657,56.494036452984155,65.18393891883292,29.94741021213008,46.976358106312986,28.20397578628977,31.128889411610153,21.894659258887145
29.75468067089432,121.01876741954352,110.55114501430964,29.571980774432078,77.28834184136032,41.34773473262494,43.387163281974324,24.034316260001223
31.228022002851862,159.6669087306715,136.04456482830042,27.235312730828458,94.40699324299835,48.16732555900701,49.522162832517004,24.070381221130113
29.937030374540964,169.06374615426103,140.59287204412777,24.587231734834948,97.56263308719599,48.91473719212734,49.855020576191166,22.909971704630813
27.410951271117526,156.05990375045707,130.07433886562214,22.860586952488635,90.55896457553315,45.57214365413203,46.381479949427714,21.501613815236055
25.084446435019217,133.53862149088124,113.98326402633725,22.48267380974298,79.6372449155273,40.86020977236042,41.77577340519649,20.496966492752083
23.86097110120645,114.71190491777831,101.43672148784357,23.177883782793334,70.8683271240566,37.21678594321442,38.3969631981163,20.162142114699318
24.01609944629232,108.72881274163308,98.36389892108097,24.343717833856807,68.28949422873733,36.181434101948575,37.69265830608798,20.48096299703715
25.28688999987739,118.41456471951355,106.19615468649889,25.38432344032299,73.01495321227829,38.16621140284026,39.95917976532287,21.28100932444226
26.988476560104097,139.5699697114676,121.5366366182061,25.867722791076094,82.97256114646125,42.385205325476385,44.262478462264525,22.278493954593987
28.165087673794964,161.65691149511034,136.74577156215835,25.583841321650993,93.20701321321714,46.90594431114398,48.53490547923826,23.078023091899574
27.864643983363813,170.63205795667292,142.0375361239699,24.591073790633235,97.16137805710964,49.042667141700264,50.07136737137941,23.220177786778518
25.510307397182284,154.20399691841936,129.20230469612974,23.205680347271233,89.09043360653892,46.23417034964052,46.49874360857416,22.30637253560899
21.179701314702942,107.7588155641388,95.60118432837967,21.844537576757862,66.78954987617973,37.149592906810554,36.873840292699825,20.145101309243216
15.60143278057293,37.648698967894155,46.139766524720855,20.76566246867889,33.11945679855997,22.447452742244867,22.304205338388517,16.848036103208077
9.854539978019435,-40.62233708620771,-8.293538589606056,19.89585172264394,-4.787206014775785,4.713518645674568,5.669829313224557,12.843102669568808
4.942594847756364,-108.82645887835193,-55.361849581825304,18.898864984018676,-38.41534625678303,-12.440503465177203,-9.471253112888283,8.799946728578275
1.4653505663068909,-153.6628441693752,-86.38413059055269,17.44382184049986,-61.345261248523464,-25.672014750605754,-20.250213373971864,5.469248873692043
-0.4783363145017639,-171.50853480583564,-99.30366294411765,15.47163683387362,-71.48550405608447,-32.986190682434916,-25.45970692653324,3.458551827566966
-1.168492613398961,-168.06161710011258,-98.21001866933905,13.264499424212447,-71.05286334126913,-34.183121489013594,-25.72429239760711,3.0139437677688696
-1.0451110795770742,-153.8404465655654,-90.20490899985768,11.27778930707333,-64.67193580908814,-30.635391683638705,-22.921337430085025,3.9099430939439976
-0.526576235980234,-138.7011964128666,-81.75881704707467,9.870034707444741,-56.944972151432836,-24.648077385258556,-19.260365992243738,5.5261821785230625
0.07846163788702247,-128.37001518364454,-76.48657853164156,9.13167498290176,-50.81102742392034,-18.703119643846808,-16.480807957543004,7.102058292634561
0.5940496722223099,-123.99308643861593,-74.92677349708612,8.91626591307407,-47.190670751685055,-14.778328112430659,-15.430388754697105,8.050552544981516
0.976758577395583,-123.73411247690477,-75.66788079626156,9.005471820392463,-45.57456571052541,-13.849173546619829,-16.052595733145985,8.159581122170225
1.2962575744459541,-124.8442164078515,-76.81169172197492,9.254181340583562,-44.9196075274782,-15.69484427015327,-17.67786540405016,7.5770236413672825
1.6891160268214858,-125.19154855185366,-77.08360051474853,9.6350282522383,-44.3829441808718,-19.112951430874386,-19.451477443463514,6.631956661379069
2.313440309561241,-123.93013675647101,-76.268950123454,10.228438756076926,-43.66169837215987,-22.48286829628583,-20.690730316762373,5.658769790258681
3.344428766060535,-121.30221220296585,-74.8853765926153,11.228892856482599,-42.86230819220695,-24.404356109484038,-20.99834036678863,4.950719065656589
4.991705962209242,-117.81161972121919,-73.32773609894501,12.942495793475908,-42.02982737248549,-24.104632145293415,-20.13449047417576,4.80933130706288
7.452882786710831,-113.4087451355517,-71.14429247344903,15.677624197098279,-40.73641628870862,-21.516855348258407,-17.86802246241838,5.540362589537398
10.75263382003781,-107.4594405819068,-67.15576236573911,19.50287629943139,-38.17535508752002,-17.171313011546147,-14.05896707769232,7.304205401874027
14.551518468765428,-99.65800193135175,-60.4964702494069,24.008662478640908,-33.81889315401289,-12.062913489959938,-8.980348355243304,9.906816169348913
18.104679283486803,-91.07079774147229,-51.780743290864486,28.281817126363386,-28.140068693017863,-7.489561411806812,-3.581746162301233,12.730144802376378
20.48049914094881,-84.1895879633758,-43.34972792756202,31.188117258224924,-22.732128957902493,-4.74799936939451,0.6461705276102729,14.923585055706214
20.950569650937748,-81.69607616539531,-38.263827108327156,31.84256345699304,-19.614231504503167,-4.685877515514257,2.250658511352918,15.774903271746854
19.312095388929254,-84.825578374926,-38.72549684539564,30.008893901653146,-20.178324036571617,-7.315781412586696,0.5145065050742961,15.033518102554188
15.943827125417078,-92.56778142961866,-44.99240561799186,26.209399416575227,-24.481630609825793,-11.747509852338077,-4.1589202140860415,12.992734458972569
11.590066270498836,-102.17018731087671,-55.32897352567158,21.49896276815576,-31.24976612620257,-16.5105138660979,-10.378338405185055,10.308859290223054
7.039021922752841,-110.4036843787131,-66.78334587759814,17.034691017054758,-38.44112320036077,-20.09410190083718,-16.29623353034033,7.695908472871647
2.8803746645513515,-114.76101923264957,-76.26010409064037,13.654452504169852,-44.000463680705465,-21.44280098767055,-20.257675335427184,5.672556687619342
-0.5777416331008277,-114.16475518484981,-81.4985318628055,11.64685830463521,-46.52266986345946,-20.234219476616545,-21.318910262349146,4.46030870661929
-3.261061441358885,-109.15893237465188,-81.72814738167023,10.787015066878135,-45.67118200160651,-16.902062672331756,-19.492618017052965,4.024225185752053
-5.224858166441821,-101.60063903699015,-77.79047838820381,10.576845543643088,-42.22175594273051,-12.443292265666411,-15.666099685018859,4.181688286684834
-6.561547276931111,-93.86830537679784,-71.62682877962561,10.531611375080407,-37.675065599488256,-8.079277247857958,-11.232046823695264,4.6985973775457515
-7.360924901054397,-87.86157747947794,-65.36538300123233,10.357989755184985,-33.59687222835299,-4.874235038903848,-7.580085551963529,5.3303851444639925
-7.7239226785721025,-84.33065218591294,-60.51505623224373,9.970434647289718,-31.03203676521444,-3.4392235494776293,-5.656766858176172,5.820747150696335
-7.794482937973177,-82.90746491083318,-57.65651540655877,9.404576653909182,-30.274104555383616,-3.8175328534015005,-5.748536220212589,5.90970991192612
-7.7683182473253565,-82.67882503749499,-56.609425089108306,8.720524614477517,-30.996154589075473,-5.55750909148395,-7.510345261178557,5.394215177084979
-7.866226273777189,-82.78756949047381,-56.775856265796705,7.946258887951026,-32.53646158422536,-7.901371843711471,-10.158476131503848,4.231476771500149
-8.289161495758334,-82.71363950137544,-57.4364487743874,7.06453834985727,-34.157651524696405,-10.011815229137909,-12.732382792423593,2.621864564478753
-9.170043130262744,-82.29329669254892,-57.989025264222484,6.039727864675803,-35.2443426450284,-11.195828775623403,-14.367503811485479,1.0007401591726681
-10.518581663571311,-81.68279554037264,-58.155062518925014,4.882701290853373,-35.45919922523104,-11.097829855463633,-14.536277726657596,-0.08693538409458353
-12.163961388486115,-81.29237642316033,-58.05562347793219,3.7211544210845107,-34.81734987850382,-9.809707384288425,-13.197954365500124,-0.19273570181926714
-13.740149907718886,-81.58317370892655,-58.04843706222499,2.8050613423577464,-33.61972713655694,-7.841723811378247,-10.799682634490722,0.8303955423259565
-14.772891244486857,-82.76972912847518,-58.41513931119353,2.401172784269758,-32.28152965055347,-5.950603762161388,-8.11937699235134,2.7193152552274227
-14.868262099646604,-84.66619047641392,-59.149516719819296,2.625803842164555,-31.178526851896155,-4.886646488435266,-6.002006158754764,4.856568557587041
-13.909146333472325,-86.81763417532329,-59.990289149842084,3.3419560386888847,-30.58029944691653,-5.144396094983907,-5.0748030540805695,6.491752917341827
-12.13521032200867,-88.7514030557445,-60.58603939658982,4.210836872158325,-30.615401247649128,-6.788362900349676,-5.533817309581925,7.038232283864693
-10.055200725897006,-90.07502180736256,-60.596780012664304,4.8618532045535705,-31.19869509074111,-9.414361461895878,-7.085661425710607,6.298017237007019
-8.249529216793709,-90.39564271086289,-59.70999510993383,5.05506159979004,-31.973670415858972,-12.28990007164874,-9.086457864154362,4.5006892948061745
-7.1680697278587795,-89.3081976040634,-57.713687984389544,4.741356122507373,-32.40328303445443,-14.65031952338131,-10.829533985417626,2.154327317335678
-6.994449591203281,-86.6133027221216,-54.68105363403929,4.028463673671744,-32.03600239008382,-16.020206889049376,-11.838606639164247,-0.1869387965023419
-7.598049718573591,-82.57675038945544,-51.09763194613573,3.1191404632165702,-30.778120807565323,-16.374455976406512,-12.00914766142572,-2.111309844941844
-8.580870375099806,-77.8935891945996,-47.72369834041887,2.2582534871274302,-28.95343703759192,-16.036132477097468,-11.541128555944296,-3.4258706948330677
-9.427148430624628,-73.29562425798503,-45.22118310180998,1.6722174727609282,-27.10322084403847,-15.39319487384773,-10.74867098601384,-4.1302454401270445
-9.728877372671574,-69.12596287983347,-43.815029414709315,1.4842500461399035,-25.691876365082113,-14.650545391545462,-9.896590342374962,-4.335714033682049
-9.394603555909459,-65.24175701100174,-43.22278486957655,1.6363416802621222,-24.920436827467064,-13.793163600941458,-9.15350007009344,-4.179679502381965
-8.72074812208151,-61.270491846427966,-42.83681435530698,1.8756096667161517,-24.71170114119086,-12.756292254077788,-8.637882892534872,-3.774093258570139
-8.266542653788564,-56.94498346875409,-41.98421659014031,1.8315570438857582,-24.802406984826884,-11.64172634187216,-8.474560229324828,-3.2082891748858238
-8.590428550273364,-52.28415331785021,-40.15884838403819,1.155610497381919,-24.876270784021827,-10.806466684212324,-8.804250127016566,-2.5926236443862702
-9.984846491780333,-47.61910673119026,-37.23724781062319,-0.3334626288270399,-24.7191501326113,-10.756767000440837,-9.741781860782977,-2.092971435135832
-12.333532956757777,-43.54653425438422,-33.64562831227867,-2.548717345196865,-24.352938214868644,-11.900078958669473,-11.303863320603842,-1.9044996553186413
-15.14080210189616,-40.77728592736742,-30.314199201971427,-5.116594279189588,-24.040463671312533,-14.27578034741004,-13.331708876559786,-2.160491538328674
-17.708907363383577,-39.809741738491866,-28.295180164579097,-7.4655846860353385,-24.091768480212725,-17.406376740489243,-15.44876325557092,-2.8326495480317417
-19.393565704769657,-40.54772532304995,-28.190088945432898,-9.010760693045604,-24.570916757551096,-20.38299478251352,-17.10845286656856,-3.698637268006076
-19.83908422873576,-42.172447493148965,-29.761386416309428,-9.36365824234202,-25.133858744070793,-22.194866921863483,-17.754674424586895,-4.410002227638676
-19.0878958758897,-43.45800709602041,-32.01250704739029,-8.462718161256817,-25.150897026748556,-22.15558558571704,-17.033396247091265,-4.623395682284136
-17.504295045320873,-43.350279979049716,-33.66948565017569,-6.558308093275599,-24.033785528505298,-20.185035410876747,-14.931209915730639,-4.119971134152121
-15.551316059088968,-41.40637136087081,-33.728249569351,-4.079327412426558,-21.530148729141608,-16.78253820731895,-11.755794433596476,-2.8619324268772135
-13.55269004333045,-37.85783780101724,-31.77298545167444,-1.4773289246549355,-17.813524241191764,-12.736689839852582,-7.995118093372019,-0.9921318034782278
-11.580475936738134,-33.40039368778223,-28.006454904489512,0.8676709707434451,-13.386310184600113,-8.788916276999764,-4.180093355599056,1.186060234708932
-9.519718824304036,-28.940809418590316,-23.093646103156118,2.6650460283453477,-8.918321972158664,-5.458806362346472,-0.837877723882922,3.232476550124917
-7.245713862954723,-25.380038925285632,-17.91606606920797,3.697268851652398,-5.099519299705878,-3.075987930763977,1.49856797578267,4.623465319972675
-4.79353274985652,-23.369138686695997,-13.295249898188676,3.81613408903268,-2.5077299450797796,-1.9021320282446372,2.3316914165469464,4.870022801574064
-2.425711283507277,-23.055762133675586,-9.770219556252897,2.9702798286592103,-1.4904385188141516,-2.1911667845042446,1.3462743310520486,3.693005602924609
-0.5694089774051831,-23.993492629955174,-7.527990631688028,1.2575174917145924,-2.09899027738729,-4.116223355841423,-1.3996427244208813,1.1862972994094718
0.347724762833127,-25.337965092859033,-6.4924494157453445,-1.0229258373333863,-4.101874065701126,-7.598673874960311,-5.366937082549889,-2.12813506436019
0.0946051020853409,-26.211709348190837,-6.4500216727348505,-3.3647586149357456,-7.04627163901096,-12.144272841124394,-9.605813402268868,-5.416012003735762
-1.2246691559016203,-25.979258238816048,-7.094454118040783,-5.149551185641396,-10.323770212035678,-16.81151267752093,-13.013293391943904,-7.802559615916477
-3.173024839928644,-24.312439828429483,-8.017406802144533,-5.853832136198552,-13.252810775026163,-20.400433990216385,-14.70062959135649,-8.702829231510451
-5.144955708528837,-21.157061730219965,-8.769315911515196,-5.29165380628428,-15.224587778240894,-21.841668868327393,-14.327348146109863,-8.063845777939346
-6.6217370052793685,-16.740802109619928,-9.024590470905375,-3.750325421204592,-15.891993404614677,-20.619978973303553,-12.233384962230508,-6.3882873176867365
-7.384389143465929,-11.583814214152737,-8.71544640314369,-1.9092261459560074,-15.281501515794822,-16.9955564935791,-9.266040988895833,-4.504841047019725
-7.574148649214994,-6.371040982585516,-7.983017221722107,-0.5582343334061467,-13.721683949253206,-11.885922079693529,-6.36716684470505,-3.1905496274541756
-7.58143460790072,-1.686540527620813,-6.9811534681852825,-0.2604220607666973,-11.632317231644686,-6.489772165535016,-4.157476916594934,-2.847261761976056
-7.835569534580222,2.1913172516276735,-5.737872250375376,-1.134976217929339,-9.346569039216206,-1.8861989437305884,-2.771935412226082,-3.4066032153484724
-8.603320613308734,5.264307057647602,-4.215640830276056,-2.8561070838692943,-7.09067334142469,1.2044963857708237,-2.016495826350662,-4.4926765465324925
-9.882007395300334,7.631758314331231,-2.4822947495608836,-4.841309519584789,-5.068632901835763,2.4897791524903594,-1.6761942642095677,-5.710853975171992
-11.421734843735651,9.375800952348001,-0.7804347269663748,-6.517132057543797,-3.4955566882506104,2.1089153905386047,-1.7150422029504824,-6.867432588192268
-12.854734561821568,10.611842734441664,0.598716913471921,-7.533962940920944,-2.5053161811645994,0.6264017129813579,-2.2355357387414294,-7.99321095563333
-13.86182899139283,11.572595881481837,1.5240549925461786,-7.842225806005465,-2.020482239381559,-1.052321043214823,-3.27852495213552,-9.185803179207548
-14.289086132501566,12.561249125016353,2.137961133648782,-7.618467425369553,-1.729885851012029,-1.9367814449858023,-4.657848865285563,-10.404315183976905
-14.163589083947471,13.794211020187104,2.8021313585349485,-7.112321966698008,-1.2260702349714165,-1.357124328398739,-5.973008441291934,-11.377232129133654
-13.629911459541107,15.291847426242592,3.920260967104627,-6.527940280276809,-0.2296865278806181,0.6560236874508508,-6.802975353989813,-11.709798717597849
-12.878997941609063,16.892692740627776,5.705335872882417,-6.0148429782692485,1.2162702362247284,3.24905425992671,-6.962714605666706,-11.143484754910817
-12.121636765774799,18.309858542875094,7.957926555428083,-5.7405095292725425,2.673366705562098,5.01924097113256,-6.656655029151379,-9.803663574068288
-11.5912938568699,19.157721637922158,9.978509621240407,-5.936350220752059,3.415094357513125,4.627314630489296,-6.403897870111375,-8.252169283305061
-11.518645614445125,19.02821471456163,10.771584343026477,-6.829987886980864,2.7325770454699367,1.4881357849360117,-6.734581175342822,-7.2698586428086
-12.049830858300494,17.726505510658495,9.560375157241529,-8.486736512418913,0.3519239462442036,-3.817016369980775,-7.817172802303737,-7.469840331956738
-13.152990637888564,15.57032096034708,6.351471282459075,-10.681108870313556,-3.260019569225067,-9.668820794840196,-9.263948434239332,-8.961130809601293
-14.596820829508374,13.455618180761139,2.1376549915031458,-12.915382489000098,-6.946611159418272,-14.070473812025925,-10.280334758810433,-11.257480854620708
-16.045097840814503,12.500994028940678,-1.478394466001564,-14.601973279052713,-9.32306084840612,-15.52527460626657,-10.098493050134715,-13.479573358163165
-17.22394561660073,13.45506810714883,-3.0413357501686384,-15.315470258896468,-9.41305148769766,-13.673036565809163,-8.42674798027889,-14.737309608770916
-18.060163799934042,16.294455748801507,-1.916537392838932,-14.979518447422603,-7.086691723063182,-9.360943629198255,-5.623683531299314,-14.499884944951525
-18.705476716596124,20.2862981095125,1.4836384160412703,-13.896322507037267,-3.066220727225101,-4.156575410783497,-2.494099285199465,-12.78951817655038
-19.4334773678154,24.41338300669422,5.961661190052785,-12.610026976203182,1.450103158404804,0.3840286692906301,0.14296112243286846,-10.132719635031394
-20.469729926708798,27.848463514765104,10.083719267732539,-11.672647004011669,5.306283667520781,3.29816659473632,1.8351982855102167,-7.315688538730574
-21.851348833600852,30.252250568537775,12.767550826553546,-11.424640544733771,7.811126271899762,4.411167417738347,2.618081289062723,-5.070213234332214
-23.397140641650086,31.846943700343076,13.701597275597369,-11.893131645997427,8.929839725896638,4.158523691009731,2.8565598447435683,-3.8304924519661245
-24.807485717024132,33.27629483289352,13.42739905141906,-12.843518187249522,9.203860880190307,3.226180712347413,2.9552711448210744,-3.6459364986300145
-25.831649673143446,35.26306355302803,13.01460007200148,-13.927890274323394,9.437396506522632,2.2287501453419236,3.133710056238919,-4.2476437375031555
-26.392204963172677,38.17269518907,13.464411118609501,-14.824548720492805,10.283724596918672,1.558310001968108,3.38598925513535,-5.202862926802939
-26.585075918264376,41.736735903074624,15.168329431981036,-15.299236581349074,11.931167886694272,1.4064759876808288,3.6061080378240007,-6.080597330456771
-26.56175226856897,45.15642278838222,17.729575750633632,-15.202549716079268,14.044367063471809,1.8597143700958807,3.750885595808412,-6.576235227149114
-26.374012219404584,47.5380980316673,20.213040618415505,-14.463591095523586,15.965438319869243,2.943415475210634,3.9028499821643843,-6.5726668713689484
-25.865152918514518,48.35843272180252,21.63866491656245,-13.107765166431275,17.04079073413927,4.558684881561801,4.1868822125369345,-6.135857862882882
-24.643625238626747,47.68662952533044,21.46787586439242,-11.266486568122563,16.916902453070744,6.373819366819621,4.617880616209118,-5.456768280323911
-22.13743197618479,46.14105537896286,19.917910021464525,-9.135706784067299,15.713946700755,7.808164158841862,5.016614954844923,-4.762923014740249
-17.728186860628643,44.71756545206923,18.007305671236196,-6.891997692389638,14.034659392176879,8.202924677277826,5.078215072100775,-4.23127188778838
-10.964405819630441,44.550158661659964,17.2503484932019,-4.626213078485019,12.772385993779082,7.130595232461818,4.557081074808008,-3.9326447655799015
-1.8073482857583978,46.55696967004391,19.018509862561523,-2.3429217065169268,12.735500252779628,4.671809279988099,3.4489801868409797,-3.8203892182763273
9.20867182199501,51.027594041991435,23.83260845745642,-0.012553015688928117,14.248081175620754,1.4951257471069979,2.0681099770205997,-3.7516630027106603
21.02960743892165,57.417031795099405,31.02960144140812,2.3758561676332075,16.989047839050485,-1.3061211237325059,0.9904685787003122,-3.5245856880770328
32.37411770151763,64.58901001870436,39.08778895885297,4.791793565121925,20.221059313593138,-2.5498207746648047,0.8837020472907716,-2.932339023964823
42.138066968546966,71.40783417106991,46.43614869321896,7.1582494285712785,23.269819016047677,-1.36038695968649,2.2581103878533666,-1.8426496559882248
49.70746457541853,77.25436907817475,52.21106179365108,9.346428399929362,25.904803039770677,2.4924718582822085,5.206283769150523,-0.28255152442657727
55.03749266983507,82.11002948975214,56.49299149049722,11.179218809635055,28.35686970680234,8.430499334936721,9.254947281734252,1.5262440085556988
58.49773986823677,86.2480097466026,59.97103636752508,12.463412220537363,31.008890108975756,15.176639678061198,13.454996148065229,3.2251243355575756
60.6009892513903,89.86899700392816,63.3531130435279,13.046741138087226,34.02963463739098,21.146082116000194,16.726722386297514,4.454958407029645
61.76412563563089,92.94937814030837,66.89785209031237,12.871950958808352,37.20523034774309,24.994936400153097,18.31440790046991,5.003647999153517
62.20288105900344,95.30388406286949,70.270956014362,12.007623510057634,40.03438121152634,26.111757769801596,18.118101383604078,4.893477310055153
61.976003902937926,96.73175827064055,72.74592157821941,10.656124936407037,41.99084689444508,24.84691961852188,16.733105360905544,4.374474900789684
61.11014602175624,97.17451396622869,73.64944599076433,9.137481813300365,42.80680822869033,22.375584967633312,15.187039242055695,3.832932043583919
59.69683415183505,96.85242333493903,72.8322184852459,7.829467915909433,42.63972599072441,20.22919405218288,14.504000748337953,3.6485191381036706
57.887486478979895,96.26690085369154,70.85815905156562,7.050294868097924,42.01217971007163,19.65930179499573,15.275499650043276,4.040495654972562
55.803498040127764,95.9441437566297,68.71531348916535,6.9171736055832715,41.50743725737833,21.08229619327397,17.39463907380608,4.94705360527632
53.454194202839766,96.01742098560557,67.19648515791496,7.260215379455741,41.37966716395673,23.857661264291835,20.057502537787894,5.988175661838001
50.74844422390531,96.0102080279902,66.40764232358002,7.661529547766607,41.36359469943374,26.54114679751794,22.06002434852972,6.557975479639732
47.60166322001736,95.11808950855574,65.79933817317139,7.619819301582203,40.87125498187127,27.53940315987724,22.30450557554397,6.052872891817776
44.056254240267634,92.85076377764571,64.68694729383168,6.764263938160324,39.46566959039251,25.871105241724003,20.308977272588702,4.164604867737518
40.32334912598504,89.51823724590287,62.828803796525854,5.013391274650412,37.25992249128767,21.654291919311465,16.4728199860135,1.095836932342905
36.71737885664997,86.15512662156415,60.63675989417687,2.60545640211434,34.94187209181992,16.070159973309345,11.953735877992195,-2.4436466032983915
33.52897985089478,83.97042142060106,58.94181150531866,-0.011462601258356995,33.420943848518306,10.833497408978374,8.206987425279985,-5.504460366330347
30.907217412089725,83.7631257382677,58.546475159110514,-2.379619281100494,33.35217637055158,7.453750821362998,6.4025738987049134,-7.323331394932735
28.798623235510295,85.64006772316786,59.823102863309984,-4.227665865516006,34.811984097715175,6.648857155011854,6.977742551057095,-7.688811723164301
26.960334268550508,89.04463338129902,62.487931874849956,-5.558942176467963,37.24897001266758,8.159093178125504,9.505637249344602,-7.030984332284786
25.0507611777938,92.96887543949532,65.62220538163763,-6.575900665269522,39.70100778341983,10.995688196445787,12.924746777537216,-6.156967735580795
22.781462577600813,96.31497454493268,68.00867705339785,-7.485286731137689,41.209439433039236,13.96135708461001,16.02548146004206,-5.765659840696986
20.069170584936547,98.37991785715431,68.71762755581373,-8.321660518326134,41.284422893319594,16.172254475423003,17.96858216564078,-6.030955800235051
17.09402374870311,99.2305306558047,67.62364433645968,-8.926172976574469,40.17539459188609,17.334830708035557,18.579123975139662,-6.522318175489205
14.208880789882352,99.62506664658343,65.46306043717736,-9.101005516944943,38.731812791674294,17.685004955409315,18.2752706505553,-6.524799441342405
11.749130178588246,100.4327313137201,63.35244681581826,-8.815552066362132,37.89542447601305,17.700225902382254,17.711134406052548,-5.5572586724410495
9.870983028734905,101.98756168776298,62.13484034858713,-8.295763212966083,38.16482516160786,17.808596402826815,17.384295025341668,-3.7507037386815174
8.517730000036158,103.92442414814585,62.03663881694754,-7.92323744133554,39.40675772455833,18.258235037779876,17.44146349689045,-1.8364851819246184
7.506629355395999,105.59250885143555,62.78467388947386,-8.016388607659469,41.092959700214614,19.140619737413775,17.735047862220217,-0.7455459640352993
6.651860226276864,106.60778950968273,63.93817022821476,-8.638391229537072,42.709565599338866,20.450577461845857,18.01272168456962,-1.0634188195301986
5.850719388856013,107.07034839337986,65.14449406109804,-9.539512243758265,44.034866260598704,22.105976875943284,18.09834790465378,-2.665479114649593
5.113381905190037,107.39768796004826,66.2642268363983,-10.2570718891103,45.18743844014391,23.959559426110708,18.005492116731336,-4.737719183176029
4.538588773007254,108.04923773235308,67.43965172722665,-10.330375990475233,46.522377499521035,25.86146632538778,17.976930737744855,-6.162240012428524
4.230372523224715,109.31373781905721,69.05813278289423,-9.547357582278854,48.44013969388111,27.743697743125065,18.420921471436614,-6.054288888666372
4.169087579810137,111.09532140531994,71.47263583428347,-8.112890320871768,51.112382580656664,29.62378221376009,19.71126288073135,-4.176879384868123
4.1025315484565175,112.69340255874376,74.54386137196683,-6.641008173769542,54.20315944737034,31.48079897698035,21.909711233197843,-1.0438390666110215
3.547417200045323,112.8364395538214,77.366681532473,-5.954135330476072,56.79521251281587,33.09526291070865,24.581824633307242,2.307063442662
1.938746680996123,110.21315877854407,78.5152588091201,-6.782661153346818,57.68384388639175,34.00952508157296,26.866040912785323,4.730839188776042
-1.12809337173812,104.29438464273048,76.72423818597424,-9.503854637780398,55.93401046971091,33.68118367071929,27.7967995732335,5.382326774956255
-5.669457614143155,95.84306825553708,71.5507089434911,-14.001602513117753,51.36895023359559,31.75461697427114,26.71586708013817,3.9708406790334094
-11.191047260163995,86.69822822199335,63.630541424689795,-19.643427106213192,44.717956728266465,28.300573890683744,23.571829422818197,0.8241671382941465
-16.724032307793113,79.03230640955178,54.51641261798048,-25.35712892507055,37.41494869360759,23.905559013975534,18.994093399643653,-3.213372095230366
-21.045793260104784,74.6338077322512,46.29745208790402,-29.8352351845842,31.208235352355747,19.5624446873525,14.123019100619127,-7.020303424242144
-23.06543770265319,74.51675497027298,41.08738262902085,-31.891969062560378,27.692589370866934,16.369127404533987,10.233047552550035,-9.540785347786118
-22.257185921899033,78.73565070264115,40.35628682134412,-30.889887581892093,27.801429577757133,15.110474444957376,8.251906573171077,-10.142941411988923
-18.93169717001655,86.27764744345565,44.27315517888774,-27.035493687893034,31.396953375521512,15.901338963359468,8.37654893547157,-8.845401196961681
-14.161364904008808,95.23410434092338,51.50175530810297,-21.359444494378884,37.24195434998647,18.118951198328233,10.01431767668694,-6.286894783052678
-9.358252190619273,103.4918557013381,59.762138782884854,-15.367174022616192,43.52106595905998,20.72735915890293,12.12458154351818,-3.43951860312673
-5.7227827996578835,109.68124776568335,66.88705773701362,-10.530704973444204,48.673046901589125,22.82510392191461,13.766330033075548,-1.2105237833937181
-3.8561785546743073,113.65839390506493,71.64729780493829,-7.844977970729697,51.989647389770816,24.0604511088553,14.504431825331071,-0.12640208143915785
-3.699164273575572,116.07623450851914,73.83118247750838,-7.58781651674422,53.60349439189567,24.65797974749609,14.450749847402268,-0.21713821413954457
-4.7447594997981515,117.43944157568812,73.74595476402368,-9.313586785945157,54.00047547678406,25.10866595093062,14.005034208232871,-1.0966825814857446
-6.346414076442181,117.52790697249455,71.74045650346588,-12.054397890073671,53.53850383854578,25.800847562206904,13.545014147575811,-2.164695396588285
-7.961802772969464,115.67767554439561,68.14165186169924,-14.672482618907765,52.32721164845887,26.8293396013444,13.263411985644844,-2.850102154272937
-9.26397465464594,111.61464190285757,63.50371354478731,-16.257710964275006,50.440929198176576,28.020849440682195,13.180287478166514,-2.8258749759944846
-10.129456096922434,106.1836692374719,58.84641065405616,-16.425614051868795,48.212836767633064,29.077084525376716,13.253229415908558,-2.1211555399593585
-10.55912740088464,101.5480765022946,55.67647299313688,-15.40768652789674,46.395381996081966,29.732897341717837,13.497999701278326,-1.0788370208217237
-10.611820705469153,100.69946803201265,55.68648485219046,-13.924928557441111,46.055204280962755,29.858776442793552,14.036549626280081,-0.17928461031921486
-10.412015566477107,106.1318640132174,59.98867207961119,-12.909693496715795,48.08614451294034,29.439322286402916,14.989596989278828,0.17484850625340126
-10.213308782921445,117.75289397621316,67.90503327163468,-13.14603173260589,52.3558518563509,28.396127388048082,16.207592761307776,-0.18901070055137356
-10.41154536858762,130.93130276541686,75.91259108871054,-14.896326469223157,56.889798158172695,26.35520476678868,17.006508573492248,-1.165743773339575
-11.40633490121951,136.4008891372798,77.84522200893002,-17.63861087695658,57.84806087487876,22.5907000549966,16.193400230904402,-2.412440839559583
-13.337918995469883,123.31497378844604,67.07426982687792,-20.099540558865687,50.83812670016718,16.328797968956444,12.54592840200016,-3.4466465202457965
-15.87549433314732,84.72782357310106,40.022958128191,-20.697535881090005,33.22136383776561,7.330123466942485,5.56839822387447,-3.7882570626472822
-18.254822256022884,22.532690475969044,-0.9913689868843432,-18.274933935225366,6.12529216218689,-3.61883305203026,-3.95124381215679,-3.126093286556336
-19.611620302800542,-51.57266343308711,-47.67579391882864,-12.7528276858807,-25.27716379188374,-14.719285684453418,-14.032550517583163,-1.459005653982806
-19.43874579908037,-120.41702233457643,-88.99568225078643,-5.3043900802356845,-53.72057643635309,-23.80560956282824,-22.305094016799366,0.8624763083810122
-17.878027440320807,-168.92438449982998,-116.10675039174004,2.114840770575997,-73.08216705000684,-29.310308860923996,-27.097588387617364,3.2462228549979835
-15.64281147541568,-190.61193275096466,-126.1334771467364,7.657420195827117,-81.03291749017596,-30.969061406587553,-28.159914280482123,5.097855966391176
-13.612462129334979,-189.32092312390336,-122.63395968402206,10.399717841954619,-79.57778693082662,-29.8228871810735,-26.591261255642284,6.076777085401979
-12.371473066014723,-175.629532888267,-112.79441861787093,10.623378713587947,-73.36445761856578,-27.548534383920696,-24.086668055941924,6.221432465546589
-11.993702524594195,-160.76324333097685,-103.46397206341659,9.449350050823261,-67.06397463864981,-25.597719010571712,-22.051064812585413,5.867666825156095
-12.163575957953995,-151.87181727109933,-98.48861884866578,8.130038740824668,-63.47724250180395,-24.68216458811347,-21.118285554098264,5.425355283735416
-12.467262863904349,-150.74388830152398,-98.3561278794441,7.474749420948991,-63.148618804262725,-24.787807336903782,-21.208747232299856,5.172759908085063
-12.612436148714863,-155.30036114960666,-101.40909342797326,7.686551943632758,-65.09077766060702,-25.49947476818837,-21.869264421655128,5.188167520129449
-12.479680858622318,-161.91835831308939,-105.31112926661454,8.538732492424899,-67.76200076867333,-26.32014912835582,-22.58591551407628,5.40916493208221
-12.080526855768518,-167.26996152942567,-108.08391179332713,9.64001399266688,-69.79484061937525,-26.858207426058616,-22.96844407674993,5.723806995736753
-11.517780770677538,-169.46352240209586,-108.73294708664662,10.624825135558579,-70.44769462837189,-26.93110583714388,-22.857590518373083,6.024706566624821
-10.949494511678102,-168.54425615195237,-107.50273649188213,11.266464455291688,-69.80523602684154,-26.61416939987634,-22.365587148770206,6.233062309078087
-10.515100694148286,-166.13934164524838,-105.5665712798338,11.544724456872016,-68.60608977424639,-26.176682013525696,-21.787063579202062,6.322729010839593
-10.24915186887097,-164.25059357196662,-104.17939699982155,11.633368702369317,-67.70008755117924,-25.893164132420416,-21.39134179165093,6.334939230306162
-10.067751331489061,-163.9526494845864,-103.8702156092672,11.773492452547929,-67.49403867066525,-25.861332242719914,-21.25004584560745,6.351255345097362
-9.854974100671878,-165.00089386770634,-104.32524172238949,12.106312287200407,-67.82769077262664,-25.985678067369054,-21.248778634280303,6.431866576292871
-9.563500875802053,-166.5223615441445,-104.94929690870934,12.605555745013076,-68.31409807889477,-26.121758194618277,-21.245878234905188,6.5751869298714025
-9.226913004014198,-167.91860061212267,-105.43102444026815,13.158367033289945,-68.72486854785022,-26.210847761844406,-21.19439828648214,6.738319993966317
-8.889163048457839,-169.08666508689387,-105.77485536518029,13.689274955931525,-69.04418284742444,-26.27379794710494,-21.11707165042279,6.889622272520393
-8.551015450335171,-170.0275480708591,-105.98410335485731,14.194292309409413,-69.27295871662389,-26.319789159050107,-21.015632138209682,7.031341040576361
-8.194352329995139,-170.59744000659265,-105.94379779731284,14.6812569566622,-69.33665159772875,-26.315715917183947,-20.856427640192845,7.174707487800023
-7.833052351473832,-170.754342548343,-105.64570968140244,15.126020188891063,-69.21995405178112,-26.250656171536743,-20.64086103832618,7.311600063860301
-7.507758924501634,-170.8333444016622,-105.35117647162592,15.509439835296785,-69.08475189068932,-26.184878435268878,-20.439523786811154,7.42470155695551
-7.228758140074001,-171.31926825188586,-105.37101907764566,15.871874251978412,-69.14453059099567,-26.19605273272499,-20.322608336163004,7.519275211995707
-6.950405414636962,-172.33175294644394,-105.7126556995072,16.292190128701538,-69.42941548326725,-26.287221440699717,-20.273877567225686,7.627529711606602
-6.620170277069043,-173.50598104496174,-106.07555742134561,16.805476011471786,-69.75751808771174,-26.383377996433207,-20.208800506862865,7.774738593822274
-6.241873474001607,-174.45549138845354,-106.22512312173822,17.364328934442785,-69.96370532496508,-26.42617223284389,-20.07928703350786,7.950302741578238
-5.870419629430347,-175.21798683672088,-106.26066748994683,17.894425875446025,-70.08849678949731,-26.441697512549883,-19.928505291752735,8.121333800220608
-5.545740195686889,-176.1042393677458,-106.43164507398103,18.3708261809812,-70.28237237625308,-26.492157774615084,-19.82517750879693,8.269338043826027
-5.252636341723961,-177.18158556606997,-106.76504245702777,18.81911869232033,-70.56712009885906,-26.580574459325664,-19.768376106539357,8.401556589407797
-4.953589042413573,-178.11961328428026,-107.01528648848868,19.25451642430237,-70.78786289149612,-26.64128147916943,-19.690659708335012,8.527001835373541
-4.640670320921321,-178.62793024433887,-107.00094872303562,19.65850234526292,-70.82544735076699,-26.63078619356005,-19.551162118832522,8.638162077444612
-4.331171149433973,-178.9050081182069,-106.86683997505243,20.034130079671506,-70.7817846585365,-26.595943300385372,-19.389462037568148,8.730177503665589
-4.017818453865031,-179.49404543552905,-106.92063845103661,20.458106570561757,-70.88649916170607,-26.626742610829297,-19.269674929623868,8.831673859554899
-3.6555014653795928,-180.7232636599433,-107.27389844549704,21.03444691870258,-71.24601147077392,-26.755437818962946,-19.197181038274632,8.996297501911656
-3.219334215512987,-182.423696337757,-107.76373461560611,21.778040035935483,-71.75374902620038,-26.930528039170543,-19.124491439143323,9.25005875141996
-2.765009428889643,-184.1933250414627,-108.21782678674133,22.55678871504517,-72.24355767384866,-27.086448040446225,-19.032765505395158,9.548842529767985
-2.404812051261258,-185.74546033190947,-108.64656700231282,23.16579679268074,-72.64164046917207,-27.20238982482067,-18.965568248159,9.795552395513587
-2.2102477396729587,-186.87221477383096,-109.07957498745448,23.46771270545325,-72.91397179778414,-27.274112105768854,-18.95791743563649,9.903842130635134
-2.139836265955252,-187.24772297351063,-109.31936532448668,23.483045824457704,-72.94593205518726,-27.26314851174857,-18.95647977294418,9.85407680997726
-2.0586668613686143,-186.64536917390834,-109.0645070982875,23.39408069266173,-72.6278799763877,-27.13243343280946,-18.852462286071574,9.710375427444715
-1.8156359815319023,-185.56011672276082,-108.36547079513517,23.502618473250834,-72.1282603856293,-26.951709313194137,-18.605341844453477,9.609344408520442
-1.3086827856922185,-185.45263484918388,-107.85787196809393,24.150230489577236,-71.99735006368138,-26.92807718590688,-18.312509220822744,9.729045110908576
-0.5269120550337063,-187.97264984806714,-108.38327570884724,25.549864395864052,-72.84277540428641,-27.27139031805719,-18.140240838917574,10.216074323022204
0.39840263415063315,-193.53763005076132,-110.27407152192109,27.536464728740526,-74.7738565383696,-27.98789264057883,-18.191548359995668,11.061098571312053
1.1557665621275928,-200.36204402610872,-112.91248325070582,29.402560018362863,-77.07589118863778,-28.783212055839627,-18.435196003425016,11.986142887947775
1.3233178957319203,-204.6474991179975,-114.80787611287052,30.041069320145173,-78.34653562398067,-29.146134094008012,-18.709662947995774,12.458738463701977
0.5951608471847427,-201.70409376454984,-113.92696302472132,28.435930119962535,-76.92361921598909,-28.524880504911632,-18.72062377286981,11.891703478268973
-0.9505761087747922,-187.355736077489,-108.02678412090405,24.247740349945563,-71.33472363859943,-26.485088564820273,-18.014825980402605,9.947378085591708
-2.7638539826046435,-159.27610608816127,-95.13772160750358,18.110604690953096,-60.70736506555097,-22.83436901081726,-16.04113837573988,6.765522927767319
-4.042066958294117,-118.15157191667087,-74.41689878207731,11.421393550000019,-45.19050512906874,-17.74093738221817,-12.393853131800237,2.968898704770942
-4.147590966957665,-68.31253538644695,-47.104756590767686,5.732842278476857,-26.26160377499128,-11.79879780637426,-7.145449713875472,-0.5587768598845028
-2.946944903341151,-17.19728346677439,-16.845258490639985,2.106183855199484,-6.606913285019676,-5.926692992260528,-1.0169815670656315,-2.9944231939923123
-0.8431214890226537,26.65493673801577,11.204545399794778,0.7762474131188851,10.610679143521605,-1.0591172811625251,4.8097137770793355,-3.834965956733196
1.5038047045803713,56.53628548523197,32.29842593704056,1.2528944899900434,22.892090381789433,2.248048331641745,9.191899993699964,-3.005064401513897
3.549366638013304,70.12626316330103,44.10111642253144,2.7004314908113063,29.39487794470806,4.061665510528123,11.55106688393754,-0.8304741792876874
5.062539401661727,70.23526810162124,47.55445806857554,4.311724795160935,31.166476051158185,4.968517099486891,12.078151949149236,2.0550787410884
6.048362960719254,63.0773918779313,45.97167479515354,5.503378858197459,30.37059254362718,5.630380101765676,11.47087860625994,4.837780088533746
6.54064766632033,54.92703114698277,42.91516500279861,5.962289379728388,28.936603145477722,6.269859382381428,10.40306222339685,6.712316616603163
6.506269395761454,49.25711183793033,40.355818927632,5.656678669778508,27.568810019681987,6.483602398231347,9.147558868894693,7.1400498502727245
5.9539186222370875,46.17313845266872,38.36622815176748,4.837400469867985,25.834585541227106,5.581739791539129,7.637370108165797,6.0857351170332405
5.10398555375242,44.119326312663034,36.25912423116526,3.9579429220688835,23.15913009587634,3.231930364607382,5.8470287554950655,4.0710822488648235
4.4052104743292055,42.07690039928954,33.90976357961485,3.484218835000191,19.792689208955544,-0.08880007923258089,4.095757295376115,1.955745138027348
4.3436106322305,40.45603641934263,32.11214244300477,3.693449003825399,16.92876674031592,-3.187526933403908,2.9896148877200326,0.542854315047395
5.191861787369566,40.40297922188712,31.926029909673684,4.60005122045701,15.97365661759037,-4.721664199018647,3.082025808584683,0.24337859600479503
6.882690284711507,42.56341208047014,33.80557338244182,6.03909505641645,17.62865501504915,-3.859379841602974,4.550626529341926,0.989840216635956
9.062126751261705,46.308165101569145,37.1623734110856,7.815118849716601,21.397295531819616,-0.688045018255205,7.091369702678917,2.4062352261592475
11.25780267683228,49.65609051514429,40.45215511271396,9.816711691631731,25.680444171973303,3.760916818980285,10.019145743791984,4.081565616655379
13.081478681939968,49.83423675030268,41.7007903923668,12.065113629852082,28.367012198559912,7.86046129548844,12.4938951050279,5.770642647026249
14.404186598159239,44.637363097165846,39.52763895741321,14.682746969855293,27.827802164749574,10.044766401384955,13.841177546461367,7.428422470618584
15.416663000485881,34.474196191126076,34.484485853376384,17.73298159502224,24.064424979887225,9.581716809916946,13.905234173812783,9.084046684003603
16.478450092920866,23.920698192383337,29.834178512621257,20.928860966563946,19.361471401116297,7.070707962426848,13.231302852459324,10.636633446239442
17.776984544450404,20.985595784267456,30.66519801521553,23.382511891424723,17.68091732419418,4.2658825843259365,12.846439510618424,11.706124578091954
19.016135421146064,33.44893956136921,41.225480604227265,23.691152842165017,22.71198390103706,3.1836477768028737,13.655389841007409,11.672807655416422
19.420579626648486,64.03023187934969,61.94865700596814,20.50944531290814,35.583853909571566,4.971475278340918,15.81516990362775,9.945793779359759
18.14569036403958,107.61519575962193,88.31101447975007,13.376694922631962,53.763538566855225,9.245977555589457,18.54758713081414,6.338799954790077
14.85711014758123,152.76112062943048,112.59248182883188,3.270774216660148,72.00926219118601,14.323115498083832,20.56178206813059,1.3182304490334513
10.076179858827684,186.88144473655885,127.61498521120924,-7.554576301471685,84.88969891235942,18.176285780971533,20.820738363254836,-4.066680332043153
5.029898914993453,202.07776950501693,130.18995265681679,-16.45139897773535,89.36328581461137,19.509163590968328,19.148816592063472,-8.572674399589573
1.08355654750282,198.29214695619592,122.28698054262323,-21.508588290718443,85.95479788642459,18.315790886332152,16.305320347019627,-11.270480705614837
-0.8894706645131288,182.3475359550118,109.5187942834476,-22.30465848732359,78.05491332421656,15.687271772609336,13.525225022372704,-11.90030918956553
-0.8286619815814548,164.04179277293917,98.20343107062122,-19.911861631932943,70.03754484123633,13.110852228765344,11.868973756235823,-10.904110230321432
0.6350356831007512,151.87096216574358,92.81723549755218,-16.25192596115904,65.40225058259365,11.745185005507231,11.782226301174294,-9.161858354950743
2.5755653813018173,150.34577307289192,94.8457588440765,-13.23815866770142,65.73843574394166,12.018227193369015,13.030481014867025,-7.611932275243709
4.152329165541272,159.17161149200922,102.80777054531816,-12.120342768867838,70.50971055682835,13.580997928944585,14.888265728737188,-6.940954696007178
4.809331949882631,173.56199801224676,112.77782569178513,-13.178837428797884,77.27992806722969,15.478027670499303,16.3926134273801,-7.413480158198747
4.335734875554583,185.3645026991305,119.2651550609016,-15.696651941920965,82.27059686896729,16.4573367675789,16.6123619241944,-8.809659467997715
2.8988265351737623,185.42720386602784,116.83584366345505,-18.150080772878997,81.47590895240631,15.43404900612424,14.985789773797496,-10.447695093081546
1.05154091599964,167.26927300052017,102.45633753475165,-18.66791877549931,72.32806397254261,12.02950932090565,11.665832162346325,-11.340754456438843
-0.393589588525136,130.67345649549358,77.49065792940326,-15.76256694161207,55.21939218105446,6.905487544389143,7.623422569420336,-10.539795830794587
-0.6775550492779189,82.87629285643844,47.831879711645605,-9.09126185920321,33.82591583830153,1.5835177693597018,4.283259095808279,-7.586793063261161
0.5319131035294442,35.95053095024945,21.548889595299595,0.19231516335434953,13.69985582080591,-2.2746459728644957,2.7805113088248086,-2.8485541197210655
2.9496559001980045,1.3685711714198545,5.122781306250565,9.819517562346874,-0.2735606575299634,-3.739826956573093,3.2804617756063097,2.5160958564661122
5.8254019878921675,-15.20769249883056,0.48241366655094853,17.419030585520833,-6.099088679890462,-3.0771882837491478,4.8575306777609475,7.020390551268278
8.367046703679907,-15.818139684447548,4.6566940723239085,21.616742557726166,-5.239487894771869,-1.4750431124044114,6.081211839914301,9.532045484320314
10.15835286317848,-7.835817457828179,12.12452930892686,22.57015716467037,-1.28071650139481,-0.23326903926452436,5.938486643591884,9.789065665039923
11.288790748643727,0.7737367997877338,18.12561230625744,21.630185447120407,2.283930909844188,0.002584179878744465,4.443345605413898,8.44483792815535
12.131210821557978,5.335030242992004,20.728049680327807,20.40141456421778,3.664001524685052,-0.5635490209110754,2.5033749357067157,6.637076941647063
12.973646320115344,5.391898050428061,20.6717460764269,19.8468001321259,2.9643141263811614,-1.30022009223471,1.182869329876322,5.3731713384700015
13.79816466328361,3.0302132296915207,19.749509028123445,19.96620782261184,1.2873773324590079,-1.7574907209029322,0.9455951144246271,5.096678685490398
14.335970638910764,0.4869105698015765,19.213715914748246,20.107992300009954,-0.33767000373114875,-1.9744749999965427,1.4067009968860074,5.622526498559762
14.294000607256951,-1.3964361439594986,19.082929249867565,19.574242411061814,-1.5605668659685594,-2.3496072134089214,1.671319625609117,6.384480357520006
13.566425035931557,-3.511928303155883,18.304920392056083,18.127320024501003,-2.772189857914677,-3.30238830662416,0.9325035244728678,6.809351774739283
12.33327312551553,-7.842643347278441,15.467121847496621,16.18802192143269,-4.758167097385912,-4.9969636733073,-1.0471815830946214,6.636074151310024
11.042030178912029,-15.966401072680899,9.905510898219868,14.672859596768495,-8.014073616793588,-7.195210915068874,-3.7433946788072046,6.046975754724946
10.263240023015994,-27.06487086089382,2.863126500949103,14.491469653350167,-11.930946207367606,-9.190069855161212,-5.983620770495894,5.537082831460566
10.400108294771437,-36.65904885897304,-2.188868336084152,15.859707870791743,-14.432750475376322,-9.871686786465084,-6.362765745031847,5.556142855203197
11.339873416677186,-37.63243870152252,-0.8903244402670367,17.806819575798777,-12.675510400366717,-8.075590661188146,-3.9005225672795336,6.114780485362951
12.291912524168435,-23.81670194562361,9.354138016316313,18.324002366492074,-4.716392495133472,-3.200775942978815,1.3186683445936271,6.632033239328653
12.043520831335854,5.798655973971412,27.123545217324967,15.28202953303964,8.877250314710759,4.23717282266631,7.9381490771157175,6.188421565151809
9.592529261175716,45.22811318973442,46.962447988377704,7.677199975514651,24.733774574536913,12.569393304992161,13.814110148599722,4.070802267430144
4.7908362854765745,83.68174231544285,61.93925475329718,-3.5820647334285156,38.115379294107804,19.61554085386642,17.010372411542534,0.2628723879099754
-1.441379626851586,110.679104358533,67.24315445337899,-15.914422455134217,45.26658247698684,23.682405681314535,16.738024243296472,-4.452094327139235
-7.505656868087348,120.97819966492854,62.54432831368353,-26.239886306170423,45.21170709464517,24.323692665729265,13.679522746809399,-8.852895025636784
-11.894406996207618,116.42074302089739,51.73485956074236,-32.397149550145464,39.9439051403885,22.415677885105485,9.527529526365521,-11.878368582981443
-13.876913769331878,103.9181231889983,40.428770746645476,-33.991758921165186,33.033162668280916,19.55379282727768,6.056469657051036,-13.098759098805075
-13.718742513681034,91.25549313801385,32.96413696636229,-32.272000603553465,27.659217505660315,17.19471468259922,4.299208123146426,-12.808905621396974
-12.371230763763034,83.46876170544674,30.72324112674808,-29.248783349196295,25.289858650842607,16.06648395169467,4.268574260596412,-11.750219253042385
-10.89511196481068,81.62965429999548,32.42550311359093,-26.673254100913088,25.591226564571482,16.103643463906785,5.260039060294581,-10.685243279268878
-9.990156424109312,83.91280567087752,35.64587680264262,-25.427897100710343,27.242632379500936,16.777580609168897,6.409405308842657,-10.083764839738777
-9.84463615853471,87.50089144059926,38.2793001571319,-25.498607007268728,28.878627963216363,17.49905111745396,7.119132705477112,-10.04272921855123
-10.262580127871159,90.04048750824428,39.221727876158425,-26.325111713995383,29.629995161071506,17.867135757299206,7.18955255481033,-10.391049711771881
-10.8898324983215,90.31728033274723,38.376164642034915,-27.223567941752382,29.245705839205346,17.745124772794888,6.738685283783175,-10.856029154349718
-11.401381411905936,88.3946483895736,36.38547992517038,-27.69596745271899,28.0038012454978,17.237181298728867,6.057107591806569,-11.202587986609055
-11.614637569801046,85.34853538736718,34.25181352141492,-27.57967216338092,26.505114563177063,16.600330793285575,5.461093414772077,-11.316470921168102
-11.532787028598888,82.58054926128492,32.83374464294699,-27.03676091230263,25.346859464118864,16.097205665705925,5.153170368410608,-11.225128107373056
-11.307810839072635,80.97327555905031,32.39869171251588,-26.399535145803217,24.79350168790947,15.849265476211883,5.1361236271168975,-11.052716957872331
-11.128902795001563,80.47037715434169,32.56900744136178,-25.951529091709205,24.68168267163152,15.794212076836919,5.247955204367679,-10.930587169861322
-11.102335793670546,80.40027292845451,32.73609638014679,-25.781620501504037,24.64470977768244,15.780504052749139,5.303867131927143,-10.920249879700835
-11.21097956503652,80.1675689633563,32.558046831146754,-25.800228434639582,24.43635793201576,15.703068636586956,5.225683983348461,-11.000772125295107
-11.372940818609463,79.62309304345246,32.08583995511958,-25.86788246989498,24.0491143536953,15.55320586160577,5.051261777194205,-11.11592967254677
-11.526098518257276,78.88068746844964,31.503333391904526,-25.901034185337743,23.578163023050884,15.364636880529638,4.846876194524338,-11.225727119167882
-11.656189088529054,77.99339494565153,30.876482912487916,-25.879472869843212,23.061861958825855,15.15108039222129,4.638993402736653,-11.318063024137308
-11.766406627866216,76.93847486995374,30.192123562881132,-25.802147143162884,22.4922328290679,14.911972024864676,4.429204608577312,-11.390602477856861
-11.851456252713225,75.8258422457433,29.527638060401973,-25.67357577607053,21.91918461281957,14.672608153978983,4.23787313528008,-11.441192172837045
-11.911891489257187,74.9145240025183,29.036533158077457,-25.526443747018188,21.449128983034846,14.479053906385907,4.096359539634355,-11.4782321119702
-11.974696553578982,74.33506527514145,28.745457809594498,-25.41923496894383,21.116118605203823,14.343634257757573,3.997821568555839,-11.52553445581673
-12.075044797779235,73.89326665863587,28.46858997506657,-25.38564519275725,20.812650124303065,14.219387036371696,3.8870125138146716,-11.603077142295621
-12.214841773533875,73.27100953827323,28.004623486582037,-25.39475979963254,20.40266087655397,14.05012103624559,3.7184463298088435,-11.703935131630496
-12.355877620032382,72.40679721200898,27.383194480623544,-25.382684875686753,19.886703108082564,13.838463419564217,3.5122780932494466,-11.800249167273506
-12.464853509638651,71.57101564587282,26.833788486842987,-25.32670927922299,19.40324779663393,13.643502018849153,3.331454002536167,-11.87590879106086
-12.557081880379044,71.03327694997128,26.505286504088442,-25.272952578224185,19.058219571211296,13.508647433568065,3.2049292650489507,-11.947212081939428
-12.682691441894816,70.74385759795484,26.290594412038264,-25.283027965859034,18.798487760379693,13.410374913826878,3.0933859419980587,-12.045624051056983
-12.870523316692076,70.41476405800043,25.966710960663054,-25.36491271356779,18.482463370802144,13.288744619405177,2.93819576959022,-12.183279743943448
-13.096545354636998,69.85260111755136,25.44737631686427,-25.467522806769345,18.041518372112044,13.113586434123405,2.7271038791468634,-12.341186372536896
-13.3089532335891,69.09813196303966,24.824960265095065,-25.53330468529741,17.523284339452825,12.901586611212839,2.4955920351989445,-12.488762970785217
-13.47149551590409,68.25167125517663,24.197402292373475,-25.536861283354643,16.991289474009992,12.676800018286078,2.27581503317834,-12.605973503026709
-13.57528376841538,67.32408962177995,23.572538262088614,-25.475749050309737,16.45664093149962,12.446650138065106,2.072906305475266,-12.685419312748557
-13.625722001018538,66.38471705841532,22.99661702390449,-25.358198328890182,15.950365262830442,12.233466048761638,1.8976769227349461,-12.727624634568231
-13.64788982289165,65.7740721218302,22.67915166383947,-25.231847199061463,15.608158162663162,12.104807129882632,1.7911255111633149,-12.752554415372023
-13.713826626915434,65.94457164874929,22.833127426266792,-25.214597870761185,15.580635595424019,12.127583036107438,1.7785372345446966,-12.816991508716177
-13.936147404242751,66.93589498732116,23.332406115739857,-25.44658188988816,15.810612719183798,12.269768954340831,1.794705361762864,-12.999318908184891
-14.388683273654074,68.03650191577313,23.604970703784485,-25.95973985038853,15.939474405678922,12.363009601195952,1.6858654097434858,-13.338620373497719
-15.003455164093442,68.10013768685121,22.98497142358204,-26.57613060978462,15.510681817814971,12.195437042157955,1.3217313699486979,-13.772054664397878
-15.548424556413119,66.33913098125727,21.25470508177339,-26.95401827200624,14.326906734838081,11.671850045314777,0.7246767395573607,-14.134841205077713
-15.73764574958208,62.97006021514117,18.912740389460335,-26.78190909757984,12.661180910441601,10.913025943268028,0.09667026124179892,-14.242406275126097
-15.41640343135989,59.29627430343962,16.995228751759058,-26.001142008256544,11.179745482302062,10.229673857616442,-0.27732158482319835,-14.01007253456715
-14.707801708776927,57.27973749980072,16.63217376153993,-24.926126622376444,10.66659892256607,10.000772342421817,-0.17524893461650898,-13.54177207529412
-14.036862164720187,58.780746674311445,18.533611359237025,-24.19666289409627,11.67423922685326,10.5032240696272,0.43542724482279815,-13.139298476543324
-14.002335006499571,64.4995914135619,22.440723698463227,-24.546443072210955,14.134683599638686,11.713756889289709,1.3093236422438796,-13.209345042715563
-15.100039692565339,72.81813918469943,26.67835775401834,-26.403477506114122,17.02222527284294,13.141872577404653,1.906294604879375,-14.065917335159845
-17.352606770655427,79.30578695326356,28.27526017991176,-29.432065612370113,18.37264393948629,13.844949716930582,1.5366301148002472,-15.672796743789121
-20.007455390584774,77.85801486686724,24.097789597815684,-32.2786170289152,15.97677023550148,12.767873470718165,-0.2826328057789767,-17.45244158681175
-21.552269751332776,63.564770580302,12.72830189924272,-32.82964612220276,8.626643212037022,9.340289217667214,-3.4019077292255298,-18.334216846066063
-20.21572799430974,35.893107271299755,-4.071094800927489,-29.06565689274712,-2.8120125229293635,3.9895664784769904,-6.861102238392656,-17.13360776462228
-14.830752377430214,-0.003562001878905284,-21.577711946678196,-20.171385412693663,-15.37450009029347,-1.8395079672632626,-9.210507338073915,-13.147104577186138
-5.616629620292522,-35.11422068143448,-34.25103139098299,-7.258179051580287,-25.286658063366765,-6.295375472378122,-9.248833755571242,-6.650539669971223
5.638181803667111,-60.68885011086369,-38.58666446899296,6.834150135219372,-29.87171464044957,-8.053638207965083,-6.7421535535338295,1.0290416173448897
16.212205890121655,-72.10509048455711,-34.783369493210095,18.664367784402852,-28.828257822724,-6.991414786842223,-2.6187600929797137,7.982777093409144
23.61608823435636,-70.08325082526984,-26.082454984509283,25.656498171156596,-24.015084645216003,-4.156851180300745,1.5416624751354266,12.519719979165668
26.63099055773115,-58.88236795146412,-16.397685814175308,27.083453582896965,-17.995638071308548,-1.0835058163739573,4.3929652580475524,13.870381574604243
25.63144878089051,-43.4650426279808,-8.230686101594038,24.07481824282605,-12.58277857396818,1.0145931789755454,5.444376963257322,12.42290132364863
22.084626542116915,-28.186416243851603,-2.5578431119281686,18.815540085146726,-8.574583705286052,1.5771346059172457,4.979398839553531,9.416772349443205
17.65808901774405,-17.66744902457828,-0.46711775973610903,13.571694882578711,-6.71162964186114,0.4304516924042092,3.4206961908050353,6.340150712168745
13.546656179832269,-17.933496866235963,-4.543225446465972,10.098503690964368,-8.650963463614085,-2.6504602435843023,0.7643211027465968,4.389551446794727
10.332268543786835,-35.34136218938362,-18.161937149684174,9.503119757614005,-16.67982915839971,-8.003404636918026,-3.386447172378532,4.205622775038434
8.222361510860905,-73.04866590791849,-42.91343908931092,12.257624344484281,-32.124072512094344,-15.655293713010055,-9.241114161471865,5.864879740070406
7.289426120665021,-127.63980307510685,-76.34504917151662,18.120019873550753,-53.763349224003804,-24.848428009992418,-16.266662680639506,8.993017314955193
7.489371503939923,-189.10528231198117,-112.18361151047644,26.056857311973598,-77.73505098281218,-34.05974567895052,-23.202856339434536,12.91425713783509
8.542645025101272,-244.96810975656638,-143.20456249003348,34.440635692989865,-99.23367071426847,-41.636933643331,-28.68539220356761,16.836774910272574
9.913610627615931,-286.04019118524315,-164.75000123963207,41.61045426077164,-114.8485774055791,-46.627479996485505,-31.9979427856505,20.075520496486675
11.016574074137361,-309.88346764109156,-176.36307443836378,46.530623004032435,-123.85948833058906,-49.176481939424804,-33.37297477059703,22.24430416391592
11.542131755323169,-319.693684431699,-180.4714339075025,49.11190484866443,-127.61771816999129,-50.17441720622742,-33.62227848614952,23.31091562613161
11.649809652596119,-319.7445571727272,-179.33663436202343,49.95012074725713,-127.62540109835517,-50.4045595068217,-33.399056824223486,23.46891109665435
11.844037455342958,-311.0918674079471,-172.8047368778008,49.659448622504335,-123.92032456641377,-49.83058681554122,-32.66957966690015,22.907173259867047
12.593740103196978,-290.929309528835,-158.68875411214444,48.306051271017594,-115.08677335571181,-47.56819891517296,-30.7918079753255,21.651371056153668
13.971876690183311,-256.0091480537578,-135.42160980480426,45.39765484205426,-99.8589568503426,-42.56815138650463,-27.11079624831443,19.61437116637868
15.58903413128429,-207.2333704400333,-104.7089765578211,40.455953430468746,-78.95540474029374,-34.50548761971079,-21.584098768241354,16.82632557341167
16.866581745219307,-151.52389730146174,-71.84922601590895,33.71447655340167,-55.56237329180997,-24.231099819326495,-14.956154093046163,13.643922977735848
17.426325886146664,-99.20062650479726,-43.24216412184017,26.343697210083402,-33.955709940590715,-13.48626233882078,-8.381384456120045,10.717781563792455
17.2826197970671,-58.69054772493063,-22.920258991131416,19.944775461334785,-17.268207582218377,-4.129672389873803,-2.834865494184375,8.670008040783891
16.685207882713797,-32.63579376774783,-10.853961689310927,15.628798630219993,-6.161071282092672,2.5398172291957968,1.1997264089188209,7.678449799396612
15.758936993606042,-18.4760432512812,-4.460071124779408,13.367937390463378,0.5185466449144218,5.919748101307263,3.538769772570769,7.285679455697668
14.282738164509853,-12.956028293028101,-2.098780510842564,12.154653676165399,3.6591942275856235,5.755740558419816,3.8526289128057014,6.633217494513947
11.855759637916938,-16.651674514832248,-5.549328147368858,10.900754734090768,2.22304934499164,1.7966182211036237,1.4831022866182277,5.02270621259807
8.356065096460265,-34.4624648568641,-19.16726674724904,9.401373373539473,-6.4264657752954975,-6.099276580338902,-4.175043152643675,2.4376223458427684
4.300142541937403,-71.36369328753365,-46.16886579436108,8.59484353099019,-24.293110508034022,-17.445661342775193,-12.968441073749391,-0.355714662405313
0.750740126244731,-126.70962932350946,-84.91316235372047,9.88592118164234,-50.33296656186778,-30.701755625615423,-23.55681073700943,-2.228398609828763
-1.2182397785732935,-191.63808075884666,-128.1091716505945,14.034906406778674,-79.79054547312755,-43.43953446060266,-33.69954783179547,-2.3600134975719627
-1.1290875904058773,-251.7739671761129,-165.65961906496517,20.44165134629307,-105.90853178020417,-53.15314195959535,-41.157048007784326,-0.7191484455053936
0.6446361315805461,-293.5988171224781,-189.290964264586,27.334446394163894,-122.94699748556856,-58.266133649540514,-44.66076343137286,1.9377586300527962
3.126994542757772,-310.51512769526664,-196.11805702418903,32.70845744046865,-128.6629709141882,-58.74851754459327,-44.38298876923094,4.506496893472379
5.286338352188944,-305.201735904036,-189.30262123797817,35.36515230832927,-124.93176178818342,-56.022780812131444,-41.69880308392008,6.105877548431003
6.499642970855051,-287.483615400949,-175.96241571809148,35.40076158409176,-116.46569241585078,-52.27697703996552,-38.47557642459389,6.4371955004897785
6.668341933568165,-269.5189482301826,-163.94142347495767,33.916574608247146,-108.61893286717773,-49.592014675079945,-36.33470552902784,5.773438357441607
6.0091308253348785,-260.95407802199304,-159.08835774896227,32.236917518282944,-105.42047458938062,-49.26237664514341,-36.19983252247241,4.668708883558481
4.770407183736825,-265.7622966467216,-163.70248338704903,31.164892094267515,-108.40545121175654,-51.450470388643105,-38.15175845730364,3.6202397292860113
3.1143639763325925,-281.1274280561519,-175.96541569839013,30.665018284909788,-116.2299226634115,-55.13142547696094,-41.44713581980294,2.8750061652836196
1.1960040251239912,-298.2171402424231,-190.21315137936799,30.02229436244405,-124.96908893178376,-58.305765018708556,-44.644848241514886,2.4225390101706608
-0.7245964255911235,-304.89376153457596,-198.37288908208023,28.27610204602561,-129.2168747162544,-58.55279937895331,-45.94363213811735,2.0964936686277245
-2.3080934652617113,-290.21684410911035,-192.79293020811394,24.68813243977318,-124.0315597627158,-53.925271060758405,-43.804218225059685,1.695444645225249
-3.3124692294089244,-249.46542692250918,-169.72192477193377,19.085655515723463,-107.1927937009263,-43.904821486644686,-37.674344788522184,1.0859368174901505
-3.7729216752563794,-187.25116725162144,-131.6790895679412,11.99556078599781,-80.64317639836143,-29.9025187300345,-28.40536230278707,0.2825189285983817
-4.016745554868919,-116.55838321945632,-87.04622412951153,4.526751609064025,-50.09139343829454,-14.898073920727196,-18.020781817286174,-0.5190090994647959
-4.475992400455122,-53.62757907178803,-46.69499063254122,-1.9866111800033506,-22.725437212516926,-2.2865589227047347,-8.88576876758135,-1.0042212598607398
-5.4336715194888745,-11.232805181857225,-19.396852021910167,-6.480204852186755,-4.211129863516182,5.476053350887749,-2.749843812937264,-0.9204617345362709
-6.897591441504776,5.909783345457917,-8.64543895379809,-8.59223984810543,3.3196656672005838,7.67968234426884,-0.2340648464091214,-0.3033442608247156
-8.667286194877953,1.2645314229216784,-12.494728179089645,-8.785540699807909,1.278905245292784,5.244840632108883,-0.9805353270792795,0.41910472766728774
-10.462335901923895,-17.059120198021624,-25.769230703920257,-8.019616576332163,-6.917319150892701,-0.040585050567314734,-4.145112334765481,0.5990270870286678
-11.938732530901767,-40.27768183097654,-42.439778215081205,-7.12632730079994,-17.46015543444802,-6.26376892728728,-8.68628841367763,-0.209174999613073
-12.60205083979569,-60.56623612899748,-56.51187037875157,-6.323708528451981,-26.700176401615742,-11.645681056459106,-13.234010847491376,-1.8435445388070921
-11.822651857410321,-70.45849392933611,-61.8315147263395,-5.26200914949283,-30.877853367952294,-14.451375834939643,-15.897576312882098,-3.4830188953913934
-9.109489172405004,-62.56184406055843,-52.581135127926,-3.5746661250794833,-26.24786224605667,-13.07129833364002,-14.574035730157604,-4.06709824519452
-4.520733180944204,-31.647786415826882,-25.433830502886515,-1.4578881741744534,-10.365530471791024,-6.569638182686468,-7.878832644527628,-2.941357193590659
1.1241037373079263,21.710094003850532,17.791724126814923,0.23707364332563777,16.108748577043734,4.597744543512063,3.8581930379607217,-0.28672041734282816
6.473282618346325,89.07872610045811,69.3324353453251,0.49629787315601437,48.644235151964864,18.34139590461981,18.332546414937116,2.962171257661807
10.22980807067194,156.2035991915718,117.89253910902366,-1.1679171574532612,80.14552210831722,31.56363689920283,32.091809870370824,5.638268039331048
11.741718183546011,208.67583076998233,153.2866405085802,-4.354767648768068,103.85708247200793,41.41058505479589,42.03545866917078,6.9460833786147544
11.23826330485383,238.0173227740881,170.65635404737267,-7.983982564657969,116.20067034385333,46.43980442663653,46.71217990040524,6.7836029335712915
9.599091274498404,244.6282010728475,171.86158684345298,-10.8992564704952,117.91329027350007,47.0420116286434,46.702125966191176,5.648356346269775
7.842007180043575,236.18052882172887,163.52893045209487,-12.445320679815783,113.00218380689506,44.9517768254878,43.98686798031821,4.266491029727871
6.658787640021286,222.92884460791913,153.28486824594748,-12.674121937465415,106.388629915597,42.23870063930162,40.80987696372304,3.2121586345989988
6.235963919336989,212.96595032572853,146.48518859753378,-12.134598060765272,101.72040047397178,40.40073997527965,38.71846492469996,2.716551571553562
6.367926154763113,209.8118682987461,144.92896812467367,-11.475320267307842,100.39448505067578,39.97962802586991,38.203249741483944,2.6957716114430132
6.697131654331195,212.75593314344016,147.5123752844162,-11.13991245829605,101.86208707735891,40.71052113858468,38.90283566214784,2.899316652390335
6.9133167647266776,218.77221829132884,151.7840938312758,-11.275283086537897,104.59402101303549,41.93703031975508,40.06873216873926,3.0663151284049732
6.8515169532705364,224.56527362704168,155.3971266415846,-11.792725335074556,107.04042869387347,43.01342013794882,41.000945177671476,3.0314168448366847
6.510990561464027,227.96584681071394,157.01000400153802,-12.476000616220114,108.25589481100253,43.559801963867706,41.31776052857405,2.7674424757334126
6.019454887943532,228.50901366985377,156.57577684496772,-13.090551156750514,108.1273550498835,43.54738024897575,41.0315720592237,2.364406831215803
5.549469149576011,227.21560852468698,155.04729595894676,-13.48658920950733,107.21822704240772,43.22350921711849,40.442437767296276,1.9567897302486634
5.217054730461833,225.72292097894572,153.65018447952986,-13.661718009638884,106.31836897437358,42.919028608649015,39.911727112445114,1.6396729792742772
5.026507052877897,225.237644930916,153.13575253831263,-13.734021424556792,105.95294384232463,42.8459333893622,39.648803799000476,1.4276640980677147
4.901406545420243,225.97801183681278,153.49653903062853,-13.837243865671057,106.16459122602068,43.013495629966265,39.643149115568704,1.2772926659219257
4.765513544035122,227.4139667482859,154.2647045118235,-14.02684537145359,106.67326494398195,43.30029448309587,39.758276140258694,1.1390315587073525
4.59409501710117,228.93342951011596,155.01728383498838,-14.275254217177746,107.19765194014215,43.58874157680446,39.872172361594004,0.9875464527842684
4.399639420562839,230.27174968341976,155.61502305836248,-14.537550877517194,107.63026820544002,43.8356683700803,39.93912162424219,0.8152294944436413
4.191922066490369,231.44067744599968,156.08595464420844,-14.800471023480606,107.98168270575357,44.047453352447214,39.959429845169446,0.6169235119306729
3.968254963171936,232.4657826488901,156.44461946180405,-15.067963760503076,108.2627840070861,44.23096761025898,39.93699203446095,0.39229402571485533
3.734770682674363,233.31576142815783,156.68371589466142,-15.325137803673451,108.4673082988553,44.38593398588373,39.87921320725562,0.15703247156865727
3.5146260449429247,234.00654116722671,156.8495072076597,-15.541825997112209,108.61780788513497,44.5223161797831,39.80986560964235,-0.062107551722812286
3.3238869281884744,234.60781456285355,157.0026547124627,-15.710058988496598,108.74972910088152,44.65243653453361,39.74907223246998,-0.24913289301117333
3.1497300522900753,235.10568758510922,157.10095729637231,-15.856774365599572,108.84092251025652,44.763119732090296,39.68135120454439,-0.41081636709359776
2.967843637843122,235.3912967446464,157.03349292240418,-16.009147497679546,108.82538833626606,44.82481624259002,39.572812051666865,-0.5630325313024169
2.7806516509171044,235.52322939625864,156.85650835328093,-16.16135739425291,108.73617004468193,44.853068758123804,39.43927348753468,-0.7105991662786435
2.6229752967475024,235.96810082581592,156.94698611765625,-16.293657448198417,108.81042085661224,44.950902361705765,39.382281501325224,-0.8492046611216759
2.5197661609076305,237.39172556905984,157.7837259222636,-16.42026299810069,109.36424568081466,45.253638542324595,39.52310970447994,-0.9865841172470582
2.4442528216434902,240.02682499609492,159.46578504964745,-16.594717066159138,110.48530681821731,45.79888913088659,39.87641669177946,-1.1502150749379052
2.329503776204041,243.180022006707,161.4190080802798,-16.850952363608457,111.82335972188498,46.439045157157615,40.28403285871894,-1.36295237952164
2.1246482031186797,245.40935820887813,162.6095658386634,-17.14402999646182,112.70256310850489,46.88821856006539,40.48076962536588,-1.6099136716962121
1.8382314147105043,245.33258772608693,162.14084849228732,-17.36379236368369,112.50299203239706,46.88152692085983,40.24884742514623,-1.835289396488599
1.5338347758029993,242.55149848061,159.85125316656357,-17.414483020358603,111.0701646758737,46.34803795678004,39.56339842368492,-1.976734210273464
1.2984735230828974,238.20140520532735,156.63270508412396,-17.285952707668926,108.95224074921242,45.51474185837413,38.66659259889706,-2.0073574552936853
1.2155926783312168,234.89221070028273,154.3575727145465,-17.065432373832337,107.37212970079518,44.89984358290079,38.04549698687024,-1.9552957510320352
1.336231257036549,235.89426552643187,155.2886855612278,-16.906310239640188,107.84983398390186,45.15477146650435,38.27617279688463,-1.8990647629909314
1.6254504306054092,243.4728785322904,160.87147197444818,-16.985272652641207,111.41194125812612,46.72616755304859,39.70576400214338,-1.9492137291517133
1.9073361528019959,256.74837355529746,170.21634275486895,-17.43632129588929,117.57956127826145,49.42112158427969,42.06176711969903,-2.211237630546077
1.882341209220967,270.2777518175949,179.199474443803,-18.241554206631275,123.7273022748587,52.13001730953401,44.23899519537823,-2.7196159369624957
1.2592168697060855,274.85253091122377,181.23144417773747,-19.13199995241914,125.5132582758566,53.00510434194185,44.52854611137506,-3.367985616474935
-0.06227842256815352,261.0179566863605,169.9010861297518,-19.62125548063337,118.56782081889841,50.175098235198874,41.316784796817444,-3.9026763955425405
-1.8939210331356569,223.9227717123463,142.3412818435971,-19.23871102039207,100.73973532756071,42.70020909641984,33.93456314986009,-4.031485574046211
-3.8342796715515837,166.742170241685,101.356936459422,-17.857433935065355,73.61574287585957,31.22426123274832,23.15592786105487,-3.6138637337243784
-5.469598045975022,100.34374667982323,54.85736019256676,-15.881608411734957,42.28939439999522,17.885089459470436,11.00268287077722,-2.811018370467656
-6.552326231068685,39.044888444633486,12.727129275338484,-14.113935797782876,13.373033135350187,5.471427601300246,-0.07385985295129632,-2.0710460773477664
-7.031904713515873,-5.188779163583461,-17.112276723664422,-13.347076008780766,-7.646694247044838,-3.7120330551680056,-8.168468329414596,-1.9258611034959567
-6.946785303557275,-26.798037343448257,-31.25650189229164,-13.94640047335019,-18.233336909463613,-8.635677541813651,-12.510965916432202,-2.716213585098975
-6.323719190451155,-27.094860146398226,-30.952099483509592,-15.72241442853739,-19.02323393342159,-9.637570593043598,-13.443957232233988,-4.427536735678387
-5.230625411655814,-12.053822853839469,-20.598897511673535,-18.16457673587829,-12.875024502318936,-7.98062917088519,-12.0203129301813,-6.740147018954812
-3.9535676066797873,10.062686884942563,-6.232770874272082,-20.78430613261616,-3.806625689045881,-5.332412564355584,-9.624598694929881,-9.220213868550116
-3.0729000214348976,29.77169089689112,5.29746453199006,-23.206633261956576,3.6185018017538635,-3.4495762553045433,-7.773653327182372,-11.465072382446166
-3.2358167033399434,37.02911994117449,7.197895677175853,-24.921802021646617,4.854100926945996,-3.954724036455825,-7.907753173673611,-13.093929429977603
-4.702741759334789,23.31206375612555,-5.417713394715804,-25.02572455396466,-3.480180312328197,-7.957989305148637,-10.97077519404648,-13.672244573167278
-7.0218102585052105,-14.717255741385754,-33.10906972994811,-22.38687313549798,-22.028255372390024,-15.547325639657362,-16.910640400923988,-12.757176160681396
-9.153981390442382,-72.26528746069665,-70.88751985072926,-16.303062578881118,-47.78560946105115,-25.51168767457698,-24.50434851445211,-10.129658177067462
-10.026699971668751,-136.97446752127965,-109.66256940232122,-7.197834589549583,-74.86558523468857,-35.65450993241218,-31.784201891563516,-6.0573929719753625
-9.148091605991654,-193.61436180517066,-140.0181815185217,3.234881192813686,-96.8667570712315,-43.666407041845844,-36.90978162590687,-1.3456731449505943
-6.867917849874598,-230.52938245349262,-156.25422217102218,12.651302631539401,-109.59022528531055,-48.102654404961605,-38.98667588401756,2.9281586679632627
-4.1378156734067355,-244.18027886174124,-158.40009842213743,19.097660591111325,-112.5743893588262,-48.91074927327415,-38.35912423017602,5.864429111381738
-1.9647350113480775,-239.4003619299111,-151.2547313220516,21.838691944852446,-108.69268970607233,-47.24221780015916,-36.254841938469475,7.109042766530095
-0.919205604166082,-225.73743678491851,-141.35725536625387,21.51422204074049,-102.27051455899367,-44.73148794427489,-34.06279980278479,6.933042735841745
-0.9687224253008928,-212.45132849454308,-133.8537042555539,19.616266272195475,-96.96327439278923,-42.71182060297115,-32.70130705331623,6.007493952675728
-1.6567389744832117,-204.98830667616522,-130.88566592115083,17.67757528220325,-94.52590148714052,-41.78494826854525,-32.389545967872905,5.0373753877394245
-2.435006388056992,-204.22066117119644,-131.84264738290668,16.652412819970465,-94.814856878937,-41.854324831728654,-32.81782873091343,4.471381652346843
-2.9232160137050776,-207.85289826211977,-134.68172457077,16.743937409932613,-96.58352820639297,-42.439173902431385,-33.48304558518032,4.413312818704645
-2.995260887485005,-212.5313719189867,-137.28143213254444,17.610101909233844,-98.39678013041971,-43.01182002334167,-33.96032060030671,4.712977256513878
-2.7322707525766,-215.5415946174598,-138.28787058357372,18.708037158170832,-99.25687068615503,-43.216487960766536,-34.032633985871094,5.125890641888692
-2.3255688144831956,-215.7070076056429,-137.41841106128925,19.578967332805128,-98.867740444484,-42.95675787696482,-33.711314595850865,5.4444106206901015
-1.975508176900886,-213.4869468148776,-135.32182327885658,20.003317087089407,-97.58461004782284,-42.37389263741583,-33.181805176373906,5.5661337102262
-1.8034335827179193,-210.36909339307522,-133.07290498756473,20.028937277990345,-96.10106720091933,-41.7302185574698,-32.68533020897841,5.50604386630893
-1.8060569064918963,-207.86034004582223,-131.51611674100008,19.88680226385106,-95.01253157618683,-41.24500827294773,-32.379502882940116,5.3627506543767565
-1.8834632200783714,-206.6637062546261,-130.85029185031365,19.832321584325776,-94.51230956878102,-40.9813118069834,-32.26572859500809,5.25200237525778
-1.9244658996887796,-206.54680957031792,-130.71924718785417,20.00032013702123,-94.4102997400186,-40.85862295617042,-32.23539776313743,5.240513659947215
-1.8799990407000295,-206.84529678477566,-130.6463133076292,20.365412779999918,-94.39705534625901,-40.75918452384672,-32.18131423806783,5.321787595398255
-1.7678395457929537,-207.03376155628453,-130.37282880269922,20.8166315143094,-94.27812211001338,-40.61699151996589,-32.06509840528528,5.445494382229186
-1.6246189789888255,-206.89321475677727,-129.8555016400925,21.259419905097385,-94.00015811617669,-40.42041543307485,-31.895741970565243,5.566118417174625
-1.4692531917424008,-206.3529823462214,-129.09528152382651,21.65506862002617,-93.55329106378747,-40.16755291403777,-31.679130180851487,5.665953359826197
-1.3105399977738676,-205.3986400988431,-128.09626412521533,21.995708341388777,-92.93817349249267,-39.85340183230542,-31.41387259309704,5.743966904775922
-1.1677421803701864,-204.18276516719888,-126.97624671656516,22.280801007012187,-92.22990956844279,-39.50018943910582,-31.126209207862175,5.799955676465524
-1.061766721983876,-203.07918326184605,-125.98930162568232,22.53131502555337,-91.59701661169285,-39.16944262264263,-30.87538580976831,5.83794416978931
-0.9855002284959493,-202.45856609217628,-125.33926252644916,22.804754263526295,-91.18757203620797,-38.9182257839682,-30.70399935290611,5.877430897546675
-0.8991683031171234,-202.36928552905388,-124.97975338033068,23.16455611164623,-90.99253447951179,-38.74505206095864,-30.591076851096304,5.946937896409891
-0.7660322828608116,-202.4921894540853,-124.65260266718846,23.623385861303134,-90.85154589290225,-38.59313447394083,-30.469786054428294,6.059978771614729
-0.5877493247113293,-202.42331238349257,-124.12270296959342,24.125954570606098,-90.59500413804213,-38.406418062046754,-30.28930562386901,6.201314849331778
-0.39646233206321324,-201.94982380755357,-123.32803591150584,24.595108971343116,-90.15315161461827,-38.16739604133538,-30.04572186457624,6.3410642998603945
-0.21690288203653055,-201.05288606555635,-122.30884256761411,24.989937053186146,-89.53214577708349,-37.87808192008635,-29.755397656791114,6.459462148383686
-0.049272252575736766,-199.78418815723828,-121.09890645609102,25.317650796356915,-88.75458204188264,-37.53052519845236,-29.42627804150907,6.553913201242777
0.1094809514812055,-198.3177565597111,-119.79431253591402,25.6082024948637,-87.89977933176716,-37.128175936308864,-29.07990002909143,6.627415667408328
0.24544272241204582,-197.13546984378968,-118.70257235429746,25.904757028526117,-87.19400381241311,-36.73775508452658,-28.790294865890445,6.683884769470609
0.3475382974479952,-196.95143503559413,-118.26281658850519,26.281164212151758,-86.95665531746558,-36.48548829801615,-28.65913342384528,6.742537099011741
0.44604442291189916,-198.17675555502788,-118.65712200409376,26.83219655684666,-87.33854075798571,-36.46160113216963,-28.716210015673237,6.847925503792058
0.6114439986391998,-200.31045699163838,-119.45226136526516,27.59725329120032,-88.06182414993293,-36.61017714467762,-28.839511263375698,7.046301071319116
0.8968292823601928,-201.89679735468147,-119.68545757357,28.47031916857626,-88.44677360349122,-36.71704597146093,-28.793198055688205,7.337360689929482
1.2774239030151477,-201.26258280465947,-118.41925518572653,29.202196931552415,-87.77784113098313,-36.52133312332952,-28.3729902160433,7.647515839471812
1.6500635451324117,-197.59893095956522,-115.38401952022404,29.536025708319855,-85.77824938085386,-35.871983283401164,-27.553243519398112,7.858980330103558
1.8934161454374254,-191.73512261637734,-111.3157806503652,29.39662855136957,-82.91005171632999,-34.83917017956065,-26.54522655135964,7.880179193868383
1.936470218435221,-186.21299105781324,-107.85885607771951,29.00397302090212,-80.35946323520548,-33.74649702951343,-25.751323134425334,7.7113668471690895
1.7974943545494333,-184.540073192718,-107.0412360321915,28.835191812683558,-79.67172359474027,-33.11022700895989,-25.628780315153847,7.470679521646402
1.5988357457642346,-189.59097315603412,-110.3027259104382,29.43874599518016,-82.01919648355192,-33.44395321361172,-26.459783944273738,7.371170650759904
1.56112060668598,-201.41832832085765,-117.22503781851735,31.143385575676717,-87.22838604442218,-34.917481491122565,-28.063793379181085,7.646144471383944
1.940473831882252,-215.4668178823793,-124.61420394067576,33.738426702089036,-93.03983167265284,-37.00500050852005,-29.610748417676646,8.42372716679939
2.8789811058348347,-222.7541122296155,-126.9064977365451,36.28015725407654,-95.30518886662962,-38.395869760993286,-29.76055905171779,9.588680635583325
4.229067126071993,-212.99789735854895,-118.34995189924679,37.23672278952863,-89.493371595776,-37.374897096813754,-27.207830830230552,10.726595453704926
5.4996795207333316,-179.79403829033606,-96.1396233672328,35.07732347107856,-72.9999549333875,-32.5806549240686,-21.398623314256437,11.249199925304346
6.033090038959147,-125.04783335891584,-62.63967036875797,29.11417245797562,-46.966595819374405,-23.739612043266714,-12.968484930432046,10.697745125091373
5.34925745991613,-59.61953548026327,-25.027784357194324,20.11619315963243,-16.348229866716363,-11.92334752664384,-3.5588919926059446,9.065170337689752
3.4288546462961205,0.8517763549583599,7.775555988934936,10.211195173444976,12.044682514920227,0.8415723677820143,4.928755937408869,6.898146390951957
0.7039606915522872,42.90792199832462,29.189219895768627,1.970808868437108,32.484181641595136,12.360939386670742,11.174226667357438,5.036192152066282
-2.2774135110501055,61.003450833980914,37.57883506505796,-2.8828858039107366,42.5156072484917,20.96460964938254,14.820678556125653,4.0866245256848694
-5.27693497767824,58.71900882976894,35.89236095640761,-4.382090548697422,43.198983119517834,25.74634718687618,16.188606277415243,3.960386209172574
-8.52142587612021,45.22326254943132,28.94841487362954,-4.232327987018136,37.5905299339676,26.409974532715335,15.645627621069497,3.816526849746029
-12.399674867226059,29.826862730944423,20.56507179063473,-4.759401981370778,28.804533470897976,23.09602490076869,13.22422065180331,2.5203552948727097
-16.891034287339586,18.141296627273938,12.408697439050464,-7.532782568198333,18.962962098444237,16.463312044317377,8.816893619243395,-0.635766940972377
-21.18457659148632,11.378901079424935,4.6903456781819095,-12.49347355246099,9.287863920600252,7.891324373733585,2.719317171272119,-5.398080229175411
-23.83882430765573,7.871968797319821,-2.5656815473610934,-18.021859502501478,0.6423732502440682,-0.5840173062672829,-4.021445577593304,-10.536048915371579
-23.425136567630645,5.133301901217003,-8.802292730524238,-21.779289398906965,-6.1643389570825,-6.7844021685961176,-9.781418975196134,-14.3497828237089
-19.258480055765936,1.6460260065887327,-12.811528317619036,-21.817988257955935,-10.341160637166725,-9.100016754247681,-12.915721494521893,-15.418300433409655
-11.818057918719726,-1.7344134688989024,-12.787667900077727,-17.499202266996438,-11.052868252723028,-6.96427952454971,-12.323158447514901,-13.232174309618152
-2.711246317405567,-1.2930142168121903,-6.623857980556156,-9.943418809794554,-7.376120746641141,-0.9009003658455471,-7.794962230374589,-8.460509048077569
5.7440518642452405,8.165060170294183,7.070641053447267,-1.8430956962272085,1.3287930963218832,7.710287815037,-0.14996582620524793,-2.7627839415258753
11.180301289468614,30.079262114508044,27.38888897246444,3.421737801423505,14.557037197010532,16.94398805254677,8.833133473586456,1.797277428521016
11.931336347341379,62.92912599398245,50.208941114281714,3.137999326431121,29.974433169940475,24.70487250947597,16.797236377457747,3.5366156706439194
7.644369870526857,99.68055657038147,69.24078964428976,-3.510011366393887,43.799826737265754,29.262963550950435,21.56248208842308,1.8183083243872409
-0.5288086239836253,130.90602899137954,78.96597298893394,-15.018706678836748,52.42328869892399,29.881429469615824,22.026031792411185,-2.720338007167409
-10.315275099338217,149.82286509632834,77.74465787666752,-28.236238868573103,54.356129734842355,27.220824645167152,18.72374880047324,-8.50381615806167
-19.138416971438215,155.87511384530393,68.94201900927195,-39.749400696217265,51.16279883067035,23.172971804405613,13.65221499570518,-13.742579560027801
-24.979382656506626,154.35511116702364,59.13195519073414,-47.181560006734664,46.60896179661324,20.053975645342035,9.354231772271488,-17.154972925320322
-26.885038296445373,152.27212166332563,54.368945009384355,-49.72138321613765,44.4440811645501,19.490189179541304,7.719726632191436,-18.322365155981938
-24.961559953170195,153.29224838170416,56.82257463041712,-47.76778637704708,46.18345227334422,21.58570855009295,9.144957908757402,-17.558037190971945
-19.998639361118958,155.25044575716524,63.85967145068561,-42.156941528898166,50.3031767287042,24.87116915361215,12.498572310462867,-15.466033217371622
-13.035435245186045,151.94100100968356,70.05720888879935,-33.61927690075647,53.34847004352967,27.11092349977553,15.874562229718405,-12.520285265071365
-5.109596045424823,137.85731422152222,70.7170067991266,-22.798242483590574,52.18999896397145,26.528627200617382,17.65853984683775,-8.919617848269748
2.7900277804341855,112.46077425156008,64.54773950717812,-10.63261887839147,45.923885978498426,22.737103628090722,17.28058231750156,-4.743782099789386
9.723975291762649,80.94357250340741,53.883290177341905,1.4035375877527743,36.211797749439576,16.830466558905886,15.265160786393457,-0.22262785377475408
14.915652920567783,51.05773172265292,42.605884312643965,11.5669477615692,25.987956959430377,10.633220248208094,12.660214552387819,4.125513608138871
17.99080175484675,28.530771016218125,33.569093218062605,18.53007342233984,17.626914215041154,5.661108027508344,10.327713389002911,7.612462218790908
19.184309612735237,14.617833252560269,27.542026125699092,21.998880678328195,11.990131095332579,2.520700207028945,8.619783315931036,9.682189681334584
19.287371588548663,7.492743255348763,24.25138699835622,22.743173691689275,8.935724767414175,1.0862591895769202,7.589570246350193,10.175511466638659
19.230207390455885,5.852033066092311,24.145047909372565,21.9190454824334,8.541484534901368,1.1335657522714278,7.393066068072818,9.352666671342554
19.479135596909423,11.199125601157977,28.852441464486784,20.13548878959861,11.669291571747985,2.758859874282771,8.385463423722006,7.653845150090063
19.661063611393672,26.592773950706224,39.672340586773046,16.992869350191,19.209159365806343,6.190006118542563,10.76470617868801,5.393188584145067
18.75562574488547,52.97662923372117,55.47444980429899,11.503600807504027,30.697424298374862,11.223528297277454,14.116803599334384,2.6371048920627738
15.798993226719166,86.4343224736664,72.11730293400599,3.1083281430191803,43.675082993736744,16.88587706692311,17.361225746209634,-0.6472688338866682
10.635679223906935,118.90224619637846,84.2044108949512,-7.49025723871343,54.53178053951504,21.703910111787568,19.246902924483337,-4.3258063080179685
4.192201092025667,141.99363466836814,88.01464025582645,-18.32380531667584,60.32274815041256,24.428143169733925,19.064159427224563,-7.961666530047183
-1.9174025354131639,151.23572901917694,83.52506455572825,-27.01218218876242,60.284890263454976,24.684504000597624,17.056317107010084,-10.938579175008691
-6.188788173964005,147.9243620188468,74.19937888461558,-31.904158579867467,56.054815264387784,23.107321210626537,14.252563015554168,-12.757055389625375
-7.924324223007211,137.67988311838698,64.84678759737287,-32.787264573973,50.55493613383408,20.904012547581537,11.865240695114853,-13.2893590298488
-7.440349818717868,127.02866749621255,59.08418214281377,-30.794991619274906,46.38467237524099,19.185428565246692,10.670302734472425,-12.822840479627603
-5.73920210455148,120.33640395086492,57.95849528082668,-27.677479252795905,44.73736327709725,18.494584931544075,10.74253496214593,-11.882101135094153
-3.922566971444829,118.68143596899411,60.24942184558053,-24.947114350285915,45.324867924654605,18.75153352161824,11.62136065543202,-10.96629695673137
-2.715096983654313,120.63491463581794,63.78885943100654,-23.366575787410024,47.039749396703364,19.514777177865824,12.69139438448636,-10.364679413461312
-2.3077120099783657,123.8109277037466,66.71846877781404,-22.92420435186141,48.727504372399906,20.301256472870467,13.494408658918015,-10.123137704305838
-2.4843062486896654,126.13085407163722,68.08160542270733,-23.13217086949065,49.644085409390634,20.78439011184133,13.84288924353122,-10.12228911770535
-2.8602937401168043,126.47530965033431,67.83258479698563,-23.392312968201974,49.57448316004663,20.85441987703218,13.785069830549148,-10.184811673585829
-3.0899618038952856,124.85524237745032,66.58501257231305,-23.269448093733978,48.76332673677514,20.599180016755877,13.516890130247242,-10.160412400677998
-2.9913500883124464,122.18589639563868,65.24222843532503,-22.625490004664083,47.728967059500874,20.231838538858547,13.27776936782841,-9.977666312829538
-2.5843187507851155,119.67851476938213,64.53825949562949,-21.61014377471306,46.9746985497269,19.96987811150463,13.236346867074358,-9.659832846167255
-2.039899452706858,118.1088484403926,64.66460954250829,-20.523757159971577,46.71205480351232,19.91418006003975,13.410253548793653,-9.29668430114943
-1.5603571013095876,117.45443513749558,65.25585997571477,-19.62326537706024,46.791170230474656,20.012667638329283,13.682542746630515,-8.982039514411074
-1.2581525779933136,117.15237946723835,65.76482220485818,-18.989839236589525,46.89512340489795,20.135976905264997,13.90929207813474,-8.757059442988833
-1.1134231518214772,116.66660109650009,65.89002975290593,-18.535290489332443,46.80999114412101,20.188870242616996,14.024459254647642,-8.599334193447797
-1.0263499106331346,115.81137832082148,65.68486310409101,-18.109664779595253,46.52582811573616,20.155232856783133,14.054098662666245,-8.456746632269093
-0.9014786686361107,114.64343781803684,65.34504497114223,-17.60163543138448,46.13340815848476,20.060519917312302,14.053321318950934,-8.287035194711148
-0.6925298046773821,113.23572911667249,64.99312023253654,-16.968371966648792,45.69765439446298,19.92542714818983,14.053281321800856,-8.071867298120152
-0.3996462991194579,111.66621784455866,64.6772714620885,-16.22428655944165,45.25295517327279,19.769413088669687,14.066505752996175,-7.812638189513555
-0.06018151480622119,110.14025591593625,64.46136249632139,-15.43986206136816,44.8584019463175,19.635324441884052,14.110267860188442,-7.531445955010215
0.24911329846579305,108.92963486222207,64.38205450535446,-14.740028637428459,44.56973882895907,19.5721202325143,14.191903852134267,-7.27651466089688
0.43053142505030323,108.08527621087322,64.30490628724554,-14.250633139079278,44.33403393802073,19.5774530266262,14.27195177752915,-7.106809207994948
0.43034374321117624,107.26664840800366,63.934249381795695,-13.994459560928059,43.96822888859869,19.572230393987468,14.271991587858283,-7.04728244736963
0.3114269890802286,105.96703413666157,63.07634020762991,-13.822605794249329,43.308330904256245,19.45359284377447,14.145245659109746,-7.047854445845037
0.2563131983453777,103.95333936554712,61.90790986106401,-13.466924185571456,42.395944758338885,19.180930475630706,13.940858698504988,-6.991475922891707
0.47016905464303543,101.48005039338999,60.93131405107903,-12.7006526068395,41.49511254959216,18.81106412234267,13.785484914225137,-6.75896122974569
1.039857422458813,99.10599412924356,60.61696920058336,-11.503359814000685,40.90859430914955,18.45966169943653,13.792215471287712,-6.3106305443248285
1.8412690420427014,97.36379543564962,61.05055410082016,-10.130439193421473,40.76653034767887,18.240431059768458,13.97898373448386,-5.7347335492214775
2.549791523218664,96.5629579919127,61.84779257181621,-9.053265016229357,40.948327856608515,18.226852929950173,14.253426902045904,-5.237574945029441
2.7562596591231854,96.68699305789202,62.306184013445574,-8.778569898304955,41.12710164487323,18.420453263840738,14.44774542463685,-5.072649373402932
2.167026713905223,97.20937874772329,61.63986314405044,-9.56862805858052,40.8494194197323,18.699893512521637,14.368261172498347,-5.414150417102708
0.8422802882277883,96.94187630579077,59.28356807122315,-11.137680947473301,39.660687261756436,18.79224945525524,13.867773390964418,-6.202548096344867
-0.6361770713571877,94.29929102014357,55.31472838034122,-12.502983639067086,37.34931790245054,18.350437288401178,12.9590502021331,-7.03935096333685
-1.2284711920395244,88.08751536092555,50.790224076918626,-12.198395947746764,34.22889041401445,17.14606975475016,11.913638497793169,-7.236798897712484
0.17476773181964594,78.26981961147436,47.5201188179547,-8.889683875975813,31.158997991926427,15.25052091788863,11.219597690323038,-6.070047794614929
4.156672665454122,65.91217820260484,47.01537417555718,-2.122133993763094,29.0616241148473,13.03410164473614,11.331755493704422,-3.140093405478888
10.306435033773003,52.11017885062115,49.0804590944898,7.271151593050831,28.10707763560978,10.938156029815445,12.330873491164905,1.362554468299298
17.233215051394552,36.715492367663046,51.14808749537783,17.445855888355457,27.18317942760728,9.170809331669345,13.749979887028736,6.6844370502543216
23.155673885489023,18.173518003677593,49.27691456611131,26.420436136489787,24.271792173701076,7.573507451199227,14.769638784147366,11.841584932360004
26.767833497644297,-4.831697373180215,40.66696838358873,33.00809159489508,17.79946364317952,5.8084071463755125,14.733480661624581,16.054497888383544
27.83994032745925,-30.721380203795682,26.24081960695042,37.16242633131704,8.217143366452719,3.771063225586788,13.65958716477869,18.99279707375073
27.143461444068944,-53.48607851763908,11.298374689122802,39.491456754417364,-1.3996570040066953,1.9055783069976462,12.342961535880535,20.675129296386082
25.752784885964285,-64.2548635271647,3.19471489682815,40.34821170516952,-6.527996026818888,1.0994191236345212,11.881831662977554,21.151194146858273
24.2413538961281,-55.87468672218978,7.083902207825379,39.277898094151375,-3.7254420025919126,2.135119804480872,12.89857807792478,20.27996761759033
22.368563213526386,-27.776254460646054,22.47730443740289,35.324893430827636,7.081886282888256,5.064878377431733,15.017801718045005,17.827251796906296
19.45723698569433,12.397011612563702,43.08800109011412,27.977733961401448,22.183374245514205,8.994965792465553,17.0166743529035,13.806071557065756
15.118861112349713,51.890193954311364,60.18041251981112,17.983877939883584,35.91725027909644,12.48066671669364,17.562861391294508,8.751471832176145
9.74678309382258,78.87741430770735,67.21697210122218,7.361804559556814,43.57533753497419,14.27966647945353,16.023327533129503,3.665267105671655
4.425699607524082,87.75009540897139,62.88969756166422,-1.4418659650519852,43.569232886536604,13.968294779832213,12.808196790126132,-0.370610353183215
0.3623283043164343,80.71704681965049,50.96521136921809,-6.690509193380678,37.69773265832274,12.053497498421839,9.075165384204432,-2.666974474314565
-1.7426704114443528,65.325295185435,37.52424528764253,-8.075017412702701,29.653023541449016,9.573885016649026,6.049357791578319,-3.1936038871762817
-1.98205948929628,49.92456580415821,27.604186058797456,-6.637581181869058,22.903183283086868,7.499771699372079,4.414285697353981,-2.500336689868555
-1.0700689939401329,39.88469141553971,23.192456218253824,-4.062446596146446,19.21818078041624,6.310775899820904,4.109769113898726,-1.37815160884766
0.10193805752514815,36.310916714735455,23.283607842404358,-1.8346891932500633,18.441385450101745,5.9395318100753,4.559540861893251,-0.48340800679306156
0.8755244747656299,37.125394235937065,25.33489759107403,-0.7256419477234382,19.234508443061806,5.997380480905503,5.085921318354957,-0.12427963467676126
1.001862610149474,39.131302607245146,26.887969407283283,-0.7511000642142095,20.073246927666812,6.05816603671417,5.228574642218536,-0.26676701309655404
0.5854229061715628,39.71726955676201,26.52373409614143,-1.4492666987246516,19.928198458478377,5.837314312554322,4.844326873511796,-0.6804802406603793
-0.08473397566735547,37.67697946171367,24.04909950127898,-2.235059231096493,18.493327484226196,5.245409344190258,4.042951653376513,-1.1040805433726644
-0.7059432654323744,33.26334570328397,20.199268305953463,-2.673029641461847,16.088580157538434,4.366095495188521,3.0652384091082694,-1.3578339212565915
-1.0868819616460421,27.71510590851529,16.102633160700584,-2.616162244426003,13.371353915574796,3.3869458851932297,2.1585750825909664,-1.3902936703383315
-1.2067475843604767,22.455201790712756,12.675226983311472,-2.2005057277398143,10.95632811271529,2.492031087206104,1.4678385131334097,-1.2682164023503306
-1.190595886464914,18.304147487309205,10.18777310207894,-1.7114365733103862,9.1017158739181,1.7590962298456154,0.9778988035118042,-1.1201777001954882
-1.21067747808103,15.168145896372485,8.262166699610582,-1.3956235728621535,7.647773521194123,1.1329125189327431,0.5504538935104304,-1.0586816407748998
-1.3764198612421545,12.382359274794682,6.287011087469767,-1.3365554826865074,6.238341865580042,0.4973926214942615,0.037465461162190745,-1.1248363369618717
-1.689156089708687,9.351740211234436,3.8927676328478036,-1.4645534922291474,4.621549332705344,-0.2218786983983746,-0.6185049880082648,-1.2881487499739268
-2.0794286948048892,5.912511980985331,1.1030323800595168,-1.6578902437576852,2.7754960628656757,-1.0180289173972557,-1.3750281822486607,-1.4890067245006846
-2.4724522815973415,2.2049331588008014,-1.8644479636471465,-1.827597638659088,0.8096198537605582,-1.8441551112936478,-2.1564909746679786,-1.6786924054100434
-2.821342468856386,-1.6330050979106279,-4.84600293386628,-1.9308532512980165,-1.1862518354295821,-2.6692787864479075,-2.9150084342050495,-1.8285072491987189
-3.1058772765993767,-5.571566667472063,-7.792212052877964,-1.9523903452377882,-3.1849656835733584,-3.489418034505278,-3.637943606985933,-1.9228234295567275
-3.335318018569589,-9.5949029214193,-10.709801042742557,-1.9111432935152206,-5.184384018008817,-4.309042256356741,-4.332719157391116,-1.965072561590576
-3.566056471216404,-13.671924034046283,-13.669928047989075,-1.8812506259488835,-7.2078626446564185,-5.142433075252701,-5.034032908364024,-1.9953304847448312
-3.895758299134771,-17.86806508326075,-16.865439374701023,-1.9694270646069045,-9.347899516525947,-6.034684762931322,-5.817439837380067,-2.087768818603166
-4.403807218251682,-22.35980442840573,-20.521755035979734,-2.237442179119896,-11.732229441127224,-7.048733019209162,-6.764779657878485,-2.310177477014815
-5.072820315596427,-27.187976209248642,-24.62241912921463,-2.637663348162833,-14.367545363871258,-8.196808863842266,-7.879541476505497,-2.670911368228234
-5.765783909477141,-31.99339046755141,-28.72278706723759,-3.0313802412133866,-17.01360607169125,-9.379733887464514,-9.0321914402214,-3.097396358263714
-6.293084689553039,-36.14411965145316,-32.150281384633,-3.2770472295443414,-19.2816521860384,-10.419431308928498,-10.013685663397423,-3.4637796759140533
-6.527588930504784,-39.28416995949247,-34.525717328751206,-3.313117212840299,-20.94012615691036,-11.18571616849909,-10.677883228423392,-3.649054795871026
-6.496265993434651,-41.82581209810377,-36.189374772291266,-3.188926289356503,-22.179531578620086,-11.720058863400709,-11.068308465062092,-3.600026088451304
-6.407500986929099,-44.88992065393768,-38.1735005861111,-3.060331760938198,-23.603616252998613,-12.25688089096989,-11.440436151589875,-3.3852407139765828
-6.604827008297254,-49.69061801113471,-41.728013052488244,-3.1675988247266567,-25.941852420536392,-13.127514021203142,-12.170289724009418,-3.2193999110011524
-7.436185051568716,-56.78748774846696,-47.660007041634344,-3.759857935921365,-29.65368673626491,-14.600142119060695,-13.587742157063168,-3.4144953798921516
-9.039048043157804,-65.59519257264868,-55.72873166530257,-4.9305694338941315,-34.58544014368009,-16.71028729305032,-15.771929490746292,-4.224619350747552
-11.116737611820904,-74.29670048719386,-64.29358781506994,-6.429481711548168,-39.787586441932476,-19.129195832666166,-18.367979053642834,-5.626301482732575
-12.871922472170466,-80.27683501172083,-70.52910367755683,-7.614812014676094,-43.64950197275523,-21.15711839418997,-20.553429898291608,-7.16587839771456
-13.24664893519548,-81.27381815730041,-71.53446664157077,-7.66334144830947,-44.533641918715986,-21.95275600402777,-21.298905732549077,-8.017167401591
-11.441295633061339,-77.13031942661036,-66.1876275973273,-5.968712837075557,-41.84266205890411,-21.00483557160721,-19.919393280797866,-7.288458789395334
-7.4559355116013455,-71.24802575107614,-56.77644959557242,-2.4924518275024266,-36.977273883616675,-18.629595933024326,-16.65403932455221,-4.459642048373741
-2.305543768372933,-70.37071864334334,-49.05189347808061,2.1604981145873983,-33.383542639028065,-16.1292119003596,-12.865440665735884,0.2735799561182139
2.294055650082286,-81.97548886040333,-50.03206371920048,6.996587483707233,-35.25996350640911,-15.364215596451928,-10.597599610147064,5.9517182857591635
4.662976943579601,-110.19579149709803,-64.38618731436657,11.068142799693392,-45.3842500462631,-17.859018377372543,-11.625712355380099,11.164906239452518
3.9319698086745647,-152.62599815376674,-91.46833135375535,13.835022779608552,-63.29171148263077,-23.924132585254778,-16.50476611543193,14.603651760650502
0.41779963992536695,-200.30371292867488,-125.00332971216896,15.26492542019208,-85.04006695290394,-32.3534470954715,-24.193641701476928,15.587679345352713
-4.603593999136632,-241.39437347377608,-155.89209090530807,15.67329694181206,-104.89830258622838,-40.93841434244145,-32.508852720762626,14.322048615116945
-9.559116225031694,-266.68685388824105,-176.57528640872195,15.472478182225135,-118.05430018022493,-47.51913619263428,-39.14690205685535,11.778126676967936
-13.277657245503121,-273.70935823246765,-184.3852633696583,14.999678700375005,-122.75932579121991,-50.94271503888456,-42.68129063635271,9.277456665296587
-15.387983365585072,-267.21670702011306,-182.14885026053872,14.451613424421947,-120.77229739916045,-51.40412585862588,-43.035846993779565,7.9622998217241845
-16.309994831331114,-256.2880325413986,-176.23014054073877,13.86470090653621,-116.15256256225844,-50.10747176500717,-41.33065627119486,8.356373626570717
-16.913619811111246,-250.1725627609612,-173.5183518758682,13.14568470165501,-113.33756942035491,-48.58554263762307,-39.312035411545764,10.191743167937256
-17.981444938553967,-254.86962389389998,-178.68675495708513,12.227846978769994,-115.3960975235593,-48.0428663311511,-38.60983435298977,12.595098331271936
-19.66800941137313,-271.0308876716286,-192.20548978831076,11.315779037390435,-122.79819166965729,-48.87274635597223,-39.98867711603648,14.560095740647533
-21.24257895288935,-293.10404393768005,-209.4146175357049,10.97749340462555,-132.84785875925436,-50.400083728238265,-42.82555213095034,15.447639753938722
-21.37509893056065,-310.26204154203646,-221.45424916495276,11.850920655907924,-140.20028444832397,-51.004021958345184,-45.17401633969189,15.213257346971826
-18.931637697710308,-310.0178611807669,-218.67850319866758,14.062562355757928,-138.85770716478623,-48.781935264160865,-44.62769125329546,14.244143935345194
-13.833056649229603,-284.01494836920097,-195.61168889024614,16.81239794538082,-125.16416177833189,-42.59796267448835,-39.67617090586221,12.971118256302201
-7.370966562933225,-233.15299160934214,-154.7098482087973,18.560048712906568,-100.20700044949645,-32.9376609569746,-30.751836141485402,11.56515016502658
