FZ,C3,CZ,C4,PZ,PO7,OZ,PO8
9.189283283164649,12.144856294780134,8.50577958623772,9.970735716136188,7.965966905521765,10.729668565577636,9.597585708635604,8.727592957684175
38.52165096482143,229.6738249817832,375.73336455861244,53.832232188466776,208.23680288394067,54.606789761833454,68.80200548357496,33.887574502056175
60.64814372962692,394.33478406324,653.7491158188753,86.70579409637698,360.0236793928896,88.5989226856691,113.74871486484925,52.78548282079294
71.82478340170601,477.0837742470994,793.0451856379068,102.78966940632284,436.4495359013853,107.328006095271,136.67484939170808,61.992771343804385
72.97184492535148,482.33190356405953,800.2932500577427,103.34024203543673,441.1366851769836,111.67144017274444,138.8511851986525,62.02131452061706
68.18529030551757,439.4004046021316,724.6177153234734,94.55458605857434,400.66463290564565,107.03375426116372,128.16949121082666,56.30424607538953
62.048436686187,383.9615992513373,626.6153404103776,83.59859209604947,347.76472128443737,99.79625498665872,114.12990134397108,49.08095584633241
57.61774323304935,341.923791125117,550.815764422144,75.52054994912231,306.50317702400196,94.3451187647847,103.59731958841205,43.58566566957439
55.84920929984297,323.06143123988727,514.4513482190795,72.23083379537623,286.29027178939396,92.00057379115378,99.1437401191129,41.24847752181917
56.04384576340379,323.506180502179,511.6308657437353,73.00661436820413,284.1072164699646,91.62448521059895,99.66357880075861,41.799014156759526
56.652937503588646,332.18833876826113,524.421843922827,75.5966153870598,290.41159064232903,90.99925189645563,102.07777431004577,43.89498806805178
56.168188676112926,337.4653074631842,533.8365263624299,77.52133223831136,295.071286507541,88.27676140895018,103.26315225092324,45.990479335946866
53.9492834672718,332.34675635944507,527.9737029444223,77.34009619859897,291.84164922621693,83.07022441913527,101.66264393308944,47.13172343307254
50.591212868336754,317.0449099458032,505.93604774309546,75.29912355848862,280.47864315084564,76.74385273998561,97.92340460799716,47.25820687404484
47.47015113568909,297.5554140757861,475.9798384589279,72.8231063973058,265.56003673331895,71.61014573981723,94.10388752773426,46.815702351786626
45.7333588063907,280.94619234925557,448.6699445304381,71.20425334923279,252.57738567186567,69.42461998905534,91.94246101366002,46.06649544945954
45.56546774730126,270.76623565390463,429.79617861392705,70.64946877380359,244.1146688289487,70.24018951367513,91.55975312117764,44.79710278348537
46.30673945868288,265.98050578812865,418.32898546980056,70.47447928018252,239.01880416231592,72.49849987252824,91.62888783450123,42.70962757040829
47.13991074250486,263.4256472480194,409.90840913567524,70.00888682707482,234.61201895952811,74.20309884781446,90.66671630253656,40.03074295464803
47.59643451844976,260.6369572318791,401.2514166797684,69.14138324214183,229.20115640689076,74.15252879772383,88.1433984621437,37.635940570623745
47.54894802340634,256.50647146369363,391.22200490311496,68.08929489600314,222.5494328675818,72.3587634938736,84.5630637177664,36.532043098001054
47.02471925791874,250.4002370956116,379.1776841272949,66.97915443646374,214.7947758355327,69.63940373310895,80.84164368758549,37.21006147764191
46.22908398725827,241.8985938602216,364.17474266366617,65.88198859861424,205.87006524929842,66.9619394440925,77.7874382361302,39.42033789520353
45.65780997278547,231.61191064802628,346.3107434679304,65.12460080871335,196.10644888730283,64.98534691755542,75.94337005282694,42.39851783492221
45.92101855014118,221.4234817548833,327.7492783973985,65.23669481703995,186.67881827649143,63.85845835223483,75.47270037958924,45.19687032928293
47.29545570341964,213.1436543608133,311.2246265523954,66.44248252643803,178.79314803480398,63.251098131807545,75.97008518593348,46.93480918648295
49.48632843221234,206.95198774380376,297.5443076207871,68.34122178926339,172.52088661034958,62.68561096954334,76.57507133931209,47.08103358668818
51.900033913591436,201.5911393319011,285.3027903604893,70.24663395730533,166.91510197959056,62.05650079586159,76.60180335015251,45.79240148695391
54.09894260733074,196.04459062805773,273.11156937865593,71.77462378129702,161.3263934114673,61.86453036043275,76.15444193390584,43.998886374937044
55.89317414021219,190.43936387202265,261.1769562429005,72.92200228061252,156.08594690360457,62.76134992259352,75.96323532856441,42.94151816002019
57.046974610126604,185.0231133733331,250.0028826449379,73.59241634436982,151.52781925135426,64.6907210835078,76.48392151736502,43.39319317453937
57.13474182471532,178.83922511205327,238.199275425217,73.33090014704217,146.70855790337413,66.50132250173164,77.23244132369432,45.20906347630266
55.88782648139809,170.30855641173486,222.97893451992215,71.77672184308982,139.8359181886238,66.58164907838731,77.14286346785889,47.57662357399606
53.658705799796024,159.37239800908293,203.4699831954229,69.32230611100282,130.26654872860294,64.04848792877793,75.57652078157892,49.636281957866714
51.36107060898746,148.52758136514188,182.94093522741727,67.05665827811288,119.73947906969165,59.422687858800096,72.88518323223539,50.85157831383808
49.82067930861138,141.15627703539758,166.86380650090743,65.88203688049545,111.20929364070668,54.23062328413933,70.00649690651052,50.940853673685986
49.170478453627545,138.69206720704202,158.46179840584105,65.70636535265291,106.37669977043242,49.987877881970526,67.66344054901087,49.736328267840484
48.86499624585692,139.36807207964017,155.99726219815736,65.54115510117026,104.32079305082053,47.43999627585645,66.00180172026421,47.30697850692847
48.19662675607062,139.27729700682707,153.6291534700154,64.32057382293425,102.10099785170814,46.4605279439096,64.77983270226255,44.18814349792999
46.7782087863846,134.212328455558,144.0258144425727,61.62527139214957,96.18066881367521,46.380653673446474,63.63400856380386,41.332466707116446
44.74520594713889,121.12910211852326,120.90231554823589,57.919474037781384,83.67266183242171,46.43670898514986,62.222217470495266,39.74004866547404
42.84645056168457,99.85021057647043,82.22086859670542,54.56879604875246,63.90696434774688,46.26174508830369,60.551594919314525,40.11832341159312
42.454119625933885,75.3958538321052,34.76460280661807,53.76121961139837,40.729121760281075,46.30383132350818,59.54295807592058,42.78500620819515
45.09610120472743,58.825035078323964,-3.1211868012373296,57.820368456127675,23.73596336159575,47.7435862537824,61.09993528346336,47.57535707165558
51.26461147539004,63.48450645470389,-6.174760158415534,67.53685732422437,25.511249345753445,51.574998478754075,66.91393272221521,53.47187765476
59.144332359834486,96.8888884752872,44.64542232897023,80.36314547922527,54.55794495936873,57.280508842599886,76.46150845243508,58.22545291506276
64.5407073739323,153.46717564181182,147.88588763572213,90.26017078962867,108.17174834249535,62.24153813522772,85.9300676163043,58.678925776032266
62.681643162323645,214.52366487488578,277.24184426794733,90.19860203517898,171.0950728432296,62.73067937241551,89.52421322852368,52.121377371729835
51.03273184052933,256.9408701805428,392.25041043747774,76.17346377534155,222.12756931872622,56.08731619444501,82.7269267120107,38.023850132469434
31.217672057999373,265.4191471402073,458.21750919261785,50.05355557202482,244.91296817758985,42.60035077149558,65.32386985414944,18.910065300783927
8.591765696673525,240.2515736629348,462.844689054817,19.14784788222405,235.97999420720137,25.710875503993392,41.98037421236527,-0.45141404920631234
-10.37346615916036,195.87333286270243,419.61492211662227,-7.390547895164574,205.1644304806277,10.324103292631508,19.887779109779128,-15.201440225887978
-21.251028504291845,151.83096870028805,357.2586253888225,-23.06151372578559,168.85795210009462,0.3243849408834835,5.038964424028,-22.61210431466412
-23.440088520344684,122.51571075808057,303.39085291289734,-26.672138566442907,141.0299801266867,-3.1386845154163425,-0.4770271046519787,-23.05619257725113
-19.695066843517157,111.84883260440411,272.65636518082977,-21.826415477607362,127.58111601550578,-1.6630578099145015,1.3297051501834254,-19.27613007293978
-14.068459252410628,114.76132290136464,264.71436988752646,-14.108480701738937,126.35229931920563,1.8080115939658217,6.315338132331348,-14.62528139117474
-9.793782171470598,122.58300484618991,269.9603221004309,-8.090470004869346,130.99937437949475,4.670441100693911,10.666415550296897,-11.482796966287806
-8.269455222343163,127.99812532574275,277.0506298611511,-5.837643129926551,135.21856402294137,5.609083959662317,12.342502149139797,-10.64687836149769
-9.24314816164153,127.29567836494658,277.8898720523927,-7.100765538574022,135.1228872436521,4.595764631297281,11.152984669469738,-11.659453282411388
-11.55932329270196,120.36269566562363,269.4354832271993,-10.324559919054403,129.7676612310456,2.3809834158556837,8.092127090487656,-13.489754030384884
-13.883327847702015,109.68722118331873,253.45063045915603,-13.648809890321068,120.67632757940544,-0.04040297341798593,4.599317285447348,-15.109673220143312
-15.231333552406575,98.87716740178321,234.81141069713314,-15.658924622928332,110.74672160527813,-1.8402834790702258,1.9410413941084292,-15.85695382758531
-15.306438759648913,90.8192262968088,218.61565110456982,-15.883838890511077,102.65391963874264,-2.66093882982028,0.7107995946513286,-15.624111537522309
-14.529456301843666,86.23420764198379,207.34368037894168,-14.873063095989975,97.42367138321143,-2.720582801766338,0.6280782483889682,-14.819908045679545
-13.672637895937443,83.69907022669227,200.00754033460703,-13.702769334921012,94.18699512194014,-2.5943019819748083,0.8530009661589288,-14.057039745371023
-13.30883365209194,81.15475119341862,193.84902713171573,-13.196219845846997,91.29359472883527,-2.7796349487432113,0.64404569753844,-13.738677117530626
-13.507549764659593,77.50389251681362,186.82353542978538,-13.474297907685624,87.6958337192032,-3.3950309526748024,-0.1844175809236289,-13.862272631621954
-13.987654185951385,72.91227237080226,178.58177995184235,-14.153605095627478,83.3608769279605,-4.2457579371037175,-1.3604189373522002,-14.172975416867557
-14.480554235746295,67.94146425776432,169.60404627289344,-14.857696049209032,78.66001685958477,-5.112686791135552,-2.5802382084449915,-14.455270274432058
-14.903526102549833,62.81275147645054,160.13525882606183,-15.469479165805671,73.75346432323542,-5.92462453104406,-3.750522131870427,-14.6563508505669
-15.252042148798145,57.57144977642809,150.2537817678146,-15.982145869355572,68.6793973485523,-6.686100704230125,-4.869992696854431,-14.788716212188012
-15.469756260454949,52.56198966819203,140.51542962513983,-16.311646355649078,63.740695828860304,-7.352346819650699,-5.851435245881424,-14.823415189753119
-15.507747651880068,48.293213655355665,131.82813177714524,-16.37937326117652,59.41400010438052,-7.860056431777072,-6.587634041881495,-14.734136878474402
-15.457960986562997,44.80053737040127,124.48933223515928,-16.307990037043098,55.80356050512505,-8.254202064513843,-7.14982588209951,-14.596435938817912
-15.51813453998864,41.45446025961985,117.71160027056366,-16.379495623025285,52.4208022545571,-8.693653636382365,-7.785650423688587,-14.55679867347905
-15.788700327321727,37.609049544502,110.43528707271952,-16.745585893343662,48.68865438909721,-9.289381421792939,-8.663099610663638,-14.67941585892125
-16.16008442099598,33.31231639806904,102.48906775908233,-17.257656066771535,44.57564587743186,-9.978065771312151,-9.681765420274074,-14.869920154281084
-16.44859058487676,29.164802674694585,94.63758255045397,-17.652996353265284,40.553186605268046,-10.60379802285017,-10.606661675315602,-14.987676077300593
-16.61187675416247,25.526227053688448,87.50501036410438,-17.86514262345461,36.95303929951993,-11.106807383926363,-11.355392711616906,-15.008182816455726
-16.770394525773593,22.117425434176933,80.82192608379842,-18.063297494042445,33.58121060659678,-11.576536771943438,-12.068359509659487,-15.02965069338363
-17.022882679338355,18.49908346713404,73.94115117587096,-18.391921054548455,30.066000551868207,-12.110993534999437,-12.888349825072922,-15.126596713892672
-17.314230618282416,14.719798189503969,66.82534751137345,-18.775965639982893,26.41571664882177,-12.681718498415474,-13.762386527065448,-15.25327452394246
-17.528484116851672,11.236091308830433,60.11393269734195,-19.047677893475353,23.006446824206122,-13.184914584357152,-14.531261247386695,-15.321461025223908
-17.664949502725626,8.24410269737137,54.20272458604775,-19.200788092759886,20.036287764405547,-13.597582437605073,-15.167739748860845,-15.334499598876448
-17.846481472941463,5.376302654169896,48.64984063952675,-19.409877441510353,17.22463348481922,-14.016043914946403,-15.82420617812924,-15.387234101615537
-18.14922561286732,2.193974668004235,42.754104101565474,-19.78880190055873,14.184229964813488,-14.523296770702265,-16.623336325558544,-15.53338839911847
-18.493538063670137,-1.208351602776908,36.510937949746776,-20.228055763284722,10.951753315951597,-15.071701894341338,-17.48546608942321,-15.707658870435695
-18.750027876118065,-4.328065490945316,30.61995233951777,-20.540364014181954,7.939703533378138,-15.545765411840256,-18.23470740995584,-15.812751663736329
-18.915244382914416,-6.94070529695351,25.527423653220605,-20.714989020124047,5.372434015935046,-15.919275943111442,-18.83844254709195,-15.851708394506762
-19.114736165089507,-9.403556922189432,20.818887313083437,-20.93024469949555,2.9814584551285424,-16.290202352985588,-19.450116487416523,-15.922799887643073
-19.429677250513233,-12.161355932072645,15.793663822551547,-21.30759830258373,0.37712984938615635,-16.74563699717337,-20.197130867606106,-16.084202839383984
-19.785918334804826,-15.136061883058025,10.427742000352907,-21.746007491307353,-2.416370598660514,-17.242924423945347,-21.006333224921786,-16.27484292826793
-20.056855525896538,-17.835921080499038,5.405740072658693,-22.062387197285098,-4.995392829250805,-17.669459117382964,-21.70570335944736,-16.39932493758709
-20.236896158080462,-20.025316893812832,1.190675538239817,-22.242246792173184,-7.1260235930207125,-17.99708603832353,-22.25983088304045,-16.458806771184694
-20.447491913791033,-22.032130821427057,-2.583702443075307,-22.456381164905874,-9.050335615702785,-18.31860486407687,-22.815448896742446,-16.54825318101393
-20.770832330810123,-24.282271112333934,-6.578705572227157,-22.82567899303086,-11.138368654999551,-18.718889653098827,-23.49872421092824,-16.7263985030906
-21.14274090617779,-26.721509398478105,-10.842317334049339,-23.262238829979598,-13.382438678036063,-19.1612119397546,-24.247845018986485,-16.93927454421287
-21.450135985780687,-28.92911061900991,-14.799130934866,-23.6035443101051,-15.440065632635225,-19.545252230972835,-24.910495539906837,-17.10087679534261
-21.692136895984206,-30.752012522992832,-18.138935572148988,-23.845984016127098,-17.15652744124556,-19.85254103013004,-25.464373491968516,-17.214920523083528
-21.976258836585103,-32.552280647911765,-21.32843252324145,-24.1461380226562,-18.81829745978825,-20.172949348832823,-26.047383955843834,-17.36542357011068
-22.353839530389653,-34.69293603353721,-24.975961773135676,-24.584789499704105,-20.754956988264922,-20.572325254924383,-26.75129650734618,-17.58888353539755
-22.728167310702947,-36.95876654569074,-28.885291015634383,-25.026079919868838,-22.82137043093833,-20.98579095277184,-27.467989244853296,-17.809538814239744
-22.974095037203416,-38.734837785037925,-32.12296274828585,-25.281657929871702,-24.48949469049774,-21.291342127769802,-28.013741294560415,-17.93568267738333
-23.116258935646005,-39.75580063033269,-34.09619688812301,-25.37109577419437,-25.473773703500054,-21.472518424885326,-28.377264098965274,-17.992154446939292
-23.325197447405703,-40.46581841543635,-35.288476053748234,-25.529756894740075,-26.097130515914355,-21.654031282791802,-28.761675286990336,-18.108742235801675
-23.72900941413048,-41.54171526475678,-36.753454649926404,-25.947252371292603,-26.94733604087622,-21.96184812336874,-29.36078738782751,-18.3738998022519
-24.278358826894515,-43.21945376206158,-39.08118522346269,-26.570518811888995,-28.296042432070674,-22.38965045473539,-30.156755451037302,-18.739520942357355
-24.82110823530911,-45.24493854394739,-42.11760453294449,-27.201531602857767,-29.99557991011757,-22.833746118036913,-30.979990523216134,-19.087644390237564
-25.2610272701696,-47.34093711411245,-45.52715739242032,-27.71758431412428,-31.83625449483023,-23.22351558085464,-31.70978020880505,-19.353088869131366
-25.58594535706259,-49.384798601521524,-49.09218320682867,-28.10543832095086,-33.70687818168294,-23.55563079694936,-32.32554865334009,-19.53866641076178
-25.769834587620384,-51.026021949554256,-52.183902907063384,-28.311526279334352,-35.279745925512934,-23.801666341003752,-32.774014401239675,-19.634801674947973
-25.757055026522437,-51.471319573410916,-53.36198892105925,-28.212937678251667,-35.80159027001775,-23.865762281570646,-32.92223332747132,-19.60590550610806
-25.617751948883118,-50.13626701293877,-51.298661958610346,-27.852554630172595,-34.63278118709738,-23.714511484011528,-32.76435904505269,-19.50592760369553
-25.67159577144237,-47.69233394116655,-46.575819739382545,-27.65329350668037,-32.210464283438974,-23.541021085313123,-32.65277885473271,-19.565038541784123
-26.3299266037532,-46.239071184209884,-42.406540667299645,-28.233288836766082,-30.338699461909698,-23.71623370621483,-33.18233666254923,-20.06542551650549
-27.714244086123617,-48.04726526942806,-43.02799438569727,-29.870286757593007,-31.20458155803272,-24.497156446094944,-34.710545261445965,-21.063208862389867
-29.405243149350458,-53.775853432615705,-50.7314663895043,-32.10211477121782,-35.771322030538435,-25.748625786615367,-36.93324064681657,-22.225545489710488
-30.59180395821438,-61.57592442305994,-63.72587305561514,-33.861108528291325,-42.77422177692401,-26.940847853426522,-38.921197903169926,-22.968169145811274
-30.52917706148975,-67.63692297667772,-76.16233564394258,-34.050398952582896,-48.940279074924106,-27.419761391777588,-39.59771866432708,-22.80118052708663
-28.999425460355255,-67.73609463150801,-80.15475954182503,-32.16731425870432,-50.2069003728445,-26.747079502586843,-38.32284960069748,-21.643959930360122
-26.565656551535554,-59.26096310338088,-69.20986941812168,-28.711824157438702,-43.55600892118011,-24.96409078318092,-35.33091253031737,-19.96680944205582
-24.5677775302533,-43.417305143685816,-42.61282769725902,-25.318738043755378,-29.21960898575743,-22.757552770092346,-31.95055005329074,-18.74500657277318
-24.77589250825837,-26.801815239776186,-9.34853690105305,-24.46187117346829,-12.505414937586558,-21.447412537673824,-30.459339770210885,-19.183882284409147
-28.5713449921725,-20.584703630225476,11.611250279987823,-28.4518178090585,-3.581798793425503,-22.582318420277144,-33.272181364520655,-22.131411479880036
-35.80947169301056,-36.0092496279528,-2.4108611971863354,-37.82149793049638,-13.808502514575771,-27.07149685853356,-41.45053532851101,-27.297341923789375
-44.05036721641191,-77.55867526240152,-66.0173629744273,-50.00039902128682,-49.460404584421035,-34.26024815090338,-53.28020914163755,-32.773472019922664
-49.02413482885735,-138.05604760798556,-174.9129816421417,-59.566947855845754,-106.48668712885105,-41.714096411025864,-64.15503144275154,-35.45100483197318
-46.558558367559584,-200.0617212463382,-304.19681129558063,-60.600894504038955,-170.51125659824348,-46.19731641748954,-68.45189049308924,-32.43973215753819
-35.04956591021084,-244.17246474053604,-419.1169591298878,-50.067170727411664,-223.3404261606639,-45.46531606612428,-62.64298577383192,-22.778272069659415
-16.8297220209939,-259.6019289836818,-492.91060321641356,-30.01507701706227,-252.53449719239055,-39.70576009002504,-47.66718104166356,-8.274985627596054
2.766099819586316,-249.82077809044827,-520.1343163464416,-6.78257009315239,-257.6837829776838,-31.477414487198526,-28.698081914855447,7.274522484596702
18.333408459508316,-228.70723072828474,-515.7256276525825,12.652891741272853,-248.63562882004905,-23.96557556257536,-12.09006860252881,20.15044022862662
27.454426520844695,-209.48720551250068,-500.0152684000181,24.808220905568515,-236.6329293122987,-18.700192299662508,-1.433656796075482,28.68322197907026
31.652641145398725,-194.77431026053267,-481.12971916328416,31.245148582221805,-225.09965363819728,-14.516282145604317,4.378149685358666,33.67906843944991
34.44827783786806,-175.77170366450727,-449.0380311425565,36.23543592866831,-207.55710248819517,-8.743976657144431,9.47629305162513,36.947983121538165
37.99730730261352,-141.4303102535049,-386.25736666309285,42.35329546791424,-174.4829809321684,0.18193132929729167,16.97952276771801,39.13668058892093
41.01055036424955,-89.98293196213332,-286.2766608334106,47.62710216346217,-123.40101443254798,10.799763954001333,25.85552014400232,38.715332530049736
39.62794187586065,-33.305212308288766,-164.40423107757215,46.64497307100425,-63.81166194121925,19.03529238613714,31.242548111727253,33.03352362236187
30.50992331040229,9.352584403819694,-52.32083750827969,34.734760821555994,-12.995651017224194,20.72509497870854,27.94911439833526,20.621144846638376
13.70153779280299,23.25711392695125,19.342107573387736,11.91309517890893,13.986416579779242,14.375157017964982,14.370613659709703,2.8947399726768905
-6.839936533825751,6.961568969590149,37.696428194451315,-16.340573618769433,12.784096017638484,2.200983322753321,-6.054861009153715,-16.054476851959812
-25.294233892256834,-27.65039256150929,12.726850996693173,-41.890457753009514,-8.739392459957344,-11.13942060888815,-26.69736785295687,-31.4322761421792
-37.04686246634735,-63.04684297358443,-30.90659950132171,-58.219668319817615,-36.091797393877364,-21.103616081946818,-41.379302888262934,-40.100923949336696
-40.74935015441699,-85.56577224196708,-68.33106847764677,-63.34798628070827,-56.3256110617741,-25.403461214438874,-47.32033042046553,-41.83654587121033
-38.31001288824395,-90.7694430475247,-85.52171735018418,-59.868471634877444,-63.49172643923912,-24.55604239602687,-45.74153048503851,-38.896487330741515
-33.26226101714998,-82.60384715554717,-81.68151608150075,-52.68649882848511,-58.98606136830617,-20.8956065225892,-40.29425896932645,-34.46666870778841
-28.84936194281361,-68.78700231342107,-64.56421123028153,-46.329558241186994,-48.26710504526815,-17.023542868504478,-34.79703875710153,-31.11967703204672
-26.915721711812278,-56.34424001740211,-44.051542649169264,-43.379000611573055,-37.123762061436,-14.698846739525475,-31.717689251192606,-30.077953403477927
-27.7854826040636,-49.402930263266235,-27.879781044359888,-44.29750389119317,-29.512449089355485,-14.509467207751333,-31.81072916781085,-31.302658068381813
-30.66610896922572,-48.88682878158174,-19.960790505284308,-48.000279275492964,-26.9460413437752,-16.060889892416366,-34.44996120293665,-33.949785503197205
-34.156156230365774,-53.03685479625644,-20.167804940009887,-52.56500985601962,-28.656268886148922,-18.342186471674648,-38.149389964360466,-36.82776029560067
-36.77623145698847,-58.46030747082277,-25.17412232460314,-55.96355637628644,-32.28020212625124,-20.168727827205657,-41.16679213725917,-38.803266064709476
-37.52763196860358,-61.77313896463747,-30.451526613780278,-56.830470218307745,-35.12429702378286,-20.682999305884845,-42.20693871553923,-39.189257952262615
-36.297599461382866,-61.19341535176948,-32.558410925485916,-55.018081128581315,-35.482916579837074,-19.73751280660244,-40.985439132924625,-38.00809949812926
-33.8807631431026,-56.998220947099135,-30.063990084693746,-51.60977768909498,-33.077238671283745,-17.921702036560266,-38.30568120141353,-35.97640117239586
-31.63491819255671,-50.677676088867926,-22.709983890444356,-48.42159076344543,-28.435508450224116,-16.22568482457825,-35.630652734706715,-34.230021510936545
-31.009607911088118,-43.93574215878116,-10.53776216943117,-47.352808268619206,-22.2110628413564,-15.600515854030919,-34.499315058122185,-33.95322229912434
-33.07695101744026,-38.58615488525263,5.22229151789696,-49.79214952181169,-15.415165604672525,-16.635403956804687,-36.04970462550179,-35.98599030859316
-37.975697455227255,-36.86854340068427,20.238630521781324,-55.93918845215628,-10.15769211829478,-19.31749778413207,-40.54548300799608,-40.34280922735463
-44.30502246541644,-40.82043679434859,26.971243202050882,-64.0289725935132,-9.48686848344495,-22.78709324530738,-46.79891812683154,-45.714206322026165
-48.94676009650164,-50.49641572990002,17.918052520408366,-70.06314150059866,-15.751709084025546,-25.28102487028674,-51.88997409909595,-49.373854882281755
-47.932757910313775,-62.73400757975599,-9.770363392378368,-68.89599000944516,-28.732960796015828,-24.65282914514024,-51.902100099613804,-47.97716578147463
-38.34962791865921,-72.31889728066676,-52.10764190877617,-56.718320922052754,-45.40449637154003,-19.525409585998133,-43.83372245217851,-39.186621387732586
-20.28586374953564,-75.26926864141439,-100.36205114434956,-33.63594769485998,-61.769022366438875,-10.45094569451486,-27.70606167073113,-23.2596575355258
2.564206434292699,-71.73929970089469,-145.66445483553528,-4.478984095620749,-75.27626195811374,-0.13545813711713506,-7.3057290075309655,-3.4633173007775855
24.29435837243951,-66.09740015864391,-182.68455084084707,23.04989403683867,-85.87331275846905,7.702126598712705,11.273944768452697,15.172921552901144
39.460013939375244,-64.066289389707,-210.33282566544594,41.92088287996727,-95.09157579602544,10.245986007190176,22.55456076373514,28.113662554458323
45.37304939470663,-69.31672234190358,-230.29874302582974,48.77895777519543,-104.39075067611816,6.9958480151554925,24.16479890384828,33.18870043325739
42.638983496819,-82.36740771857562,-245.913606082206,44.56169392126412,-114.59709697295192,-0.32051638033766616,17.281569389963657,30.971799941475133
33.91999492212552,-102.37059933504754,-262.5590544073456,32.765420114143936,-126.92363590119113,-9.17961719842353,5.020507291682745,23.721743297956255
22.279999378574885,-129.04618023147756,-287.4360408551534,17.263950771197372,-143.70895371648712,-17.743158755613234,-9.510680277484626,14.046582658647758
10.601491624469142,-161.11906923264263,-324.9434762270738,1.7203682377873744,-166.25262863998913,-25.032079900990727,-23.58771251363323,4.484218599159617
2.2299051002055013,-191.1367389856146,-367.77192000826585,-9.28636277542532,-189.80719412758387,-29.708987723989868,-33.51692938340194,-1.9594598534011698
1.4734145758009114,-201.77128718146122,-390.69918467062786,-9.467353179483025,-200.02185432352397,-28.901677540321927,-33.52655381228194,-1.4945387217108477
12.513945755198813,-169.78195421397305,-356.0970566771219,7.529690725571181,-176.1453750486728,-18.718082917822098,-17.10411292231,9.407117976206344
36.90705655965444,-78.1194921337902,-232.562909891094,44.32081182318133,-101.61932858304313,3.3828902627339748,19.24023676931989,31.862766398659346
71.59319745273433,71.27955620711603,-16.206538096843914,96.69578720826127,24.177552536296346,36.079438125124554,72.46636754608004,62.98536330928868
109.40893455858487,253.9542259911062,260.82648483712626,154.2179084625865,181.80084455631908,73.72427458584471,132.88775783193356,96.45812071394742
142.2685435730339,432.60410493081696,542.3123871925866,204.82729570300654,339.22126256000075,108.66503701546407,188.20016237501906,125.31383491395756
165.02523571989084,574.1978897221209,773.470540706171,240.55698597453244,466.48253898241705,134.90252721217558,229.17002439700002,145.18072311409196
177.33901244456644,663.1216011410519,923.3530074155705,260.41753247805076,547.8505574465491,150.54755757039345,253.10478829545406,155.77378919244083
182.264927157058,702.0134644838552,990.1188052199841,268.5000325783715,583.8043012839817,157.40961388062172,262.82874034160943,159.6408043689519
182.70567556717376,701.217365999797,988.1736029388001,268.9047073395775,582.9076065044642,158.21528431866645,262.2616934155004,159.19684361490738
178.4983252948926,666.2000698101727,929.4054552732213,261.51269533429456,551.031353553379,153.7412835787836,252.24571708684195,154.36154141638687
166.43480811262867,593.3007401877383,814.131503512999,241.97072609309947,486.8537465366968,142.15865517385615,229.98236197852867,142.6430568675752
143.25821516601764,477.0125940332084,638.4025683413333,205.97916577727042,386.96996227785223,121.09949311569014,192.51610272688717,121.62506234297335
109.36399873963948,322.40453319532776,410.39864717495016,154.59018495848133,255.85699845895078,90.781652403167,141.4324911850294,91.9559810520935
70.34067749496822,151.9367900329682,161.03445378312435,96.34454088302206,111.85967527553055,55.659828795469274,84.8941862405318,58.52174543378706
35.0222828750605,0.03781016271547022,-61.73516940749024,44.32360124748962,-16.67759166741216,23.14483413890662,35.06944877302283,28.774486832002104
11.212828350519409,-102.06659363416374,-213.02598813828854,9.836502131695433,-103.58838812013063,0.0914984681643087,2.384277662576426,9.195536303807724
1.8655679796526603,-141.5557036090965,-272.7835036022165,-3.1648088249692616,-137.60772608575954,-10.61262273931048,-9.659977736182396,2.145889313484333
4.116305307658421,-129.35896706497684,-254.84527871360527,0.5827315880587007,-127.30499683107904,-11.107395684905484,-5.758365172371975,5.035484499431246
11.528856906567016,-92.58379590852964,-197.6453967397835,11.09846785191381,-95.25044594419897,-6.725568586861788,4.44121180249142,12.129599000062488
17.816450874426394,-59.56407695348028,-143.2662776664624,18.806240913594127,-65.64835712429031,-2.7078632701456176,11.736031058083265,17.65705519155973
19.71668862182093,-46.91479236533129,-118.12529334976061,18.914482299031885,-53.237161795677274,-1.636337785811321,11.58696968526512,18.38110113465854
17.769208134869004,-54.823263072455354,-125.01246776163804,12.616394881667585,-58.934010232234506,-2.835773717262317,5.247685944190755,14.54947708618833
15.20880709366566,-70.58572676453151,-147.2223891170634,5.385425946573684,-72.48887632999646,-3.5100118516845913,-1.9358426205889698,9.214756654724782
15.828640473212465,-76.77647861347437,-159.66282157861198,3.649870228440939,-79.16211546508615,-0.6473239368695302,-3.7230786927806743,6.4406005049448325
21.55635058239266,-60.75958439768954,-142.07103325987555,11.006100144555383,-67.61205267804961,7.074827624648587,3.4979213343096194,8.971411840340291
30.490408149292932,-23.17546829276622,-91.29620883466016,25.128428588874684,-37.082640947825155,17.872991640130998,17.858139837384016,16.146008488472873
36.484843261176415,17.96381686324472,-28.478039276924736,37.01146988224831,-1.2433919806424545,26.57018910172699,31.196676933847144,23.202527602313012
31.2134047357992,31.683876221070822,4.852413931817043,33.94923934643542,14.787056798537234,26.128931338903136,31.596205110238735,22.90536615538096
8.326594682763286,-12.212207853840168,-35.725994056191325,5.727784761741891,-14.690152695300531,10.883135749966735,8.981074110998437,9.164793757519039
-32.43972389326067,-125.99573120543191,-173.1751715576219,-49.09885614974245,-101.6479309616872,-20.040611035474974,-38.91957885294602,-19.253505970387383
-83.91181837885489,-293.8645367370947,-392.12888374179994,-120.88896318566587,-235.13015578609208,-61.29999083245212,-104.00384326748109,-57.31253897725853
-134.13674635495215,-476.3672420237445,-641.594079211482,-192.52816822941432,-383.85339245123646,-103.1616192716695,-170.7079715174413,-95.7017565162748
-171.7493092626111,-627.9812011665591,-857.4327045944523,-247.2019851769033,-510.0919745485777,-135.78463322121618,-223.04113290759682,-125.18865860031528
-190.96441383108163,-717.8552843578227,-991.960386902076,-275.85068812762336,-586.9848460428909,-153.54418055524485,-251.7137401482209,-140.76633160260445
-193.39142786618808,-741.8210631778439,-1033.5482589082242,-280.12258770421573,-609.3003234205654,-156.9520705646756,-257.34394224062567,-143.2688838242285
-185.95724419961647,-719.6795337202002,-1005.9687503760324,-269.6291848086794,-592.1515938445564,-151.30551419525403,-248.3387002810127,-137.8430075309694
-176.61590796602866,-681.1206694596864,-950.2534586107356,-255.82168090441274,-559.8562174019995,-143.23262874447124,-235.35500271574543,-130.60762522028358
-170.57728447733658,-649.914806223344,-901.896374749193,-246.44344252580822,-532.6964424478878,-137.3952915211459,-225.98076666988268,-125.68075388636565
-168.95308507816446,-635.3041058820141,-876.7896507740022,-243.3960634912844,-519.212675009837,-135.10732144523251,-222.44902006829184,-124.0830177866648
-169.88743837358274,-633.344041660513,-871.2439401046202,-244.22349437590964,-516.7470445660715,-135.11110645267763,-222.79102006940255,-124.57341853398115
-170.86744716156826,-634.6226872286763,-872.0286580277592,-245.3823309862938,-517.5675647008206,-135.46918486631319,-223.80937709465974,-125.39289476078925
-170.71810218663197,-632.513894547757,-868.2730803108793,-245.12739990272843,-515.7574787714871,-135.2439490921293,-223.79664472066202,-125.74565726027211
-170.37430159705752,-627.7297207635211,-858.9039174448727,-244.6693644596583,-511.2638152921542,-135.14098052806878,-223.67650185000875,-126.31981731272435
-172.17045129829157,-627.5601718083612,-852.9916986318578,-247.2102871566142,-509.6797391504799,-136.9188920978902,-226.1927933896398,-128.67771719715068
-177.91678814564605,-640.1752561389296,-863.0443678044167,-255.2376768837588,-517.9429603093715,-141.83890945925467,-233.51207894570388,-133.78336225580713
-186.65556415494314,-666.3578580206141,-893.7484694759391,-267.34817298824464,-537.6671425928364,-148.89169416818598,-244.3743808496041,-140.4131127913656
-193.54450945931117,-693.3468349364755,-932.0083751912249,-276.6601890747303,-559.7395765478512,-153.95387293272162,-252.62108840152396,-144.5596859366758
-191.11159759879283,-696.0765915845643,-945.9766054904301,-272.59244666922194,-564.5927259024585,-150.88504477391947,-248.73114079068793,-140.67574564776837
-172.79810577965335,-647.6677663524849,-897.2126822979867,-245.8990085850833,-530.0956108897316,-134.51483552539304,-224.35133039078246,-124.50597126203144
-136.97647548500302,-534.6117717253286,-761.4297747673257,-194.3748469153504,-443.8348382033234,-104.00103841232567,-177.52749310109434,-95.96383862693595
-88.89164720619729,-367.48341128013186,-545.6795608552372,-125.58256756533504,-312.4520528165472,-64.35335095191822,-115.263334163075,-60.110902471764625
-39.03166892435719,-179.58630493537848,-290.20057847286876,-54.46990394059197,-161.4973086806731,-24.80341408822293,-51.34573546460305,-25.321025030412894
1.320525145241674,-13.338347806243265,-52.41919594360906,3.016187537693707,-25.048886615370183,5.287211551940884,-0.38623230508681605,0.453406632137072
24.770594017558206,97.75317169705619,117.68561679980995,36.58171134162703,68.90713049372381,20.58871138054852,28.424140378803486,13.088442318584557
30.106687992256642,141.03499448257048,196.2546986356342,44.73656475348823,108.72085454937825,21.568645806963932,34.2239128471707,13.390260341284968
21.383209176356125,124.9754921861406,188.8851123789352,33.319727810944,99.94215081815719,13.091736552620503,22.906940718821698,5.588614551884676
5.197308489475421,70.77881530616489,121.02767989051833,11.508564601419522,58.849220704236664,1.2902547263550017,3.086329109682179,-5.268457786643067
-11.621605079593131,3.5353900293705522,26.246472412604362,-11.415387049968363,5.286345471958474,-8.901199107086567,-17.11232460802769,-15.040482493204193
-22.855409082367956,-51.498881792564866,-59.133492814568,-27.030595361656076,-40.33091992810181,-14.200936924972893,-30.76338480250747,-20.579463615253406
-23.06447333146236,-69.23680607816071,-96.58078111462082,-27.724588325325943,-57.060946121187165,-12.101920851238054,-31.532245145700006,-19.104004104704003
-8.473333641990894,-27.74079485069704,-49.73616750285537,-7.814388375670564,-25.66217369316578,-0.4198197777251618,-14.13709974002056,-8.323582256665373
21.211054539189377,83.43299084174458,102.64989913815529,33.73608129353241,64.3504214764754,21.761790627041748,23.258620235918386,12.28728830752951
61.44479976511823,254.21756087038125,351.49197554123396,91.05459531030567,206.50437560601415,52.51892417784649,76.46023590161587,40.15571915309508
103.6359674523107,452.6898619916215,652.7246841769673,152.15731550083305,375.25835096122853,86.59580032053081,135.17883551092697,69.72195342305767
138.3431270272098,635.5743067999751,941.0064254075578,203.3840869510343,534.0935865233205,116.98548069023373,186.57925042882792,94.4606884603327
159.27806382265655,766.1764977605563,1156.6183633301916,235.24039731806172,650.6097997575163,137.90473029500833,220.7467460949372,109.749845818019
165.75072941861671,829.4777224471361,1270.3676327037242,246.17066115714942,710.0141950474668,147.3141070537045,234.79460341199842,114.80068110769156
162.14588955725304,835.6205854748192,1292.0518343040303,242.07075380350594,719.1389295786608,147.38653207224243,233.1660130089119,112.48203645218175
154.94803894332043,810.6143894817825,1258.8175849544589,232.14538643000088,699.3489567210315,142.75603437574205,224.23060104199288,107.30636246277973
149.30737464114534,781.0881450472456,1212.4463737756835,223.94099728020285,673.7157176251778,137.8456607129801,215.5981017019808,102.99046196208697
147.13898077759305,762.6261159863922,1180.1444865344677,220.48475570849854,656.6134577310003,134.98124530251496,211.01419190344993,101.05014446250692
147.44352936164933,757.2876325785353,1168.6168027423284,220.6186202528733,650.9204573996992,134.1739295228988,210.17968272608854,100.95282788308752
148.08567681029092,759.1433358340832,1170.965486210476,221.48582924176932,652.2501212376939,134.22530174150137,210.7797628568182,101.3033162642753
147.69386886448194,762.3315933288343,1178.5010374515546,221.23608357980433,655.673589359958,134.15008949489683,210.97442746779635,101.13570787031813
146.6933385409439,766.3593556295064,1189.1023704309619,220.4879833680973,660.338794963449,134.0623647224803,210.90303728413656,100.63921930798612
147.0937318197288,776.2161834878789,1208.041460019666,221.99206621912055,669.792324032397,135.15681342683476,212.5977738334911,101.06086960864775
151.10469000469087,797.6216460677374,1241.7007797543222,228.63192836017487,688.2408836890069,138.8016720386079,218.38331752741632,103.81333019681938
159.1057104606637,829.7418907042626,1287.6422286572129,240.56312666885898,714.6896209586004,145.09617132024857,228.42891328546358,109.1188125893163
168.07700412057739,859.5294880380449,1326.8017569675626,253.09012399387817,738.3230348208368,151.6840636243241,238.81516982016487,114.94208876452586
171.83296268313896,862.5936984579516,1324.570488484611,257.1678841967854,739.1188634897436,153.85889445913242,241.79293879864971,117.14881292472019
163.6358202916842,813.0379678662939,1244.384234607377,243.2808558842613,695.7871146785401,146.496953611956,229.01959670367407,111.28628243644089
140.13580274016252,698.8059428531981,1069.4258896737415,207.1069361845356,598.377322782486,127.10047525381144,196.52147029838892,95.23470058228192
104.24052360565564,533.4982023371043,819.9140944792198,153.48619601352968,458.21267740456796,98.09285868711352,148.36033838534257,71.06677215100991
64.70657741051723,355.4414951193038,552.5128233203475,95.56651110856038,307.42121963084315,66.54458518967185,96.12687922508768,44.6499365110747
32.14034280046897,211.59332274599214,337.5204534329871,48.795613903516696,185.75549241641826,40.96841442622791,53.758939205474014,22.88300935991275
13.521257535587148,133.76436961639635,223.73117234402142,22.93138227976775,120.60626087281686,26.81494189049433,30.3312376053564,10.096107155092426
8.600785106748308,120.92161110322323,210.76640774973865,16.95869928015295,111.61610525907712,23.4191851655943,25.17490509586286,5.8731773065892305
10.535952778762534,139.08945488099317,246.7503995357374,20.265805000623207,129.86396040615944,24.467229345324036,28.55316012760273,5.743547016237879
10.384893300978996,140.0761019300664,255.0637231621288,19.424971684741635,133.27213697861885,21.846447200524373,27.643500761448074,4.285545702647259
2.517457549747327,88.27776239408128,175.74924005504687,6.202630395621818,89.66320237275919,10.482149906043002,14.078415012043342,-1.4566319809692254
-12.502167318268201,-20.467608424181414,-2.6482581546869257,-18.246350737799432,-6.171443675557542,-8.881559268414021,-11.66159344608453,-10.469227125250287
-29.091822409016658,-158.6540637562427,-239.07099817967307,-45.21660115815551,-131.13299471389823,-30.533106795269294,-41.42467572043002,-18.94729587056829
-40.643713998775695,-284.1499330163045,-464.3955504849095,-64.46690524907223,-247.87570052681025,-47.41974150070857,-64.82442506163653,-23.066474716351735
-43.49016460433504,-362.9884549823886,-618.0598974921568,-70.20300329008751,-324.81783560552793,-55.06984834742594,-75.16370871482547,-21.373689784367592
-38.477992928425,-384.4891113309128,-675.3154309537695,-63.50776083714566,-350.3108720987377,-53.49927165509753,-72.33919682443262,-15.371492595715269
-29.68487731401243,-361.77678561414746,-651.9139839394991,-50.48411035632971,-334.2554957651968,-46.36972822784405,-61.6247293390248,-8.254605760227955
-21.659763647441718,-320.39664539311707,-588.0796200389987,-38.12197220000269,-298.78847578164914,-38.43794632678876,-49.90571557157777,-2.933730930059343
-17.160858451387327,-283.94799261937453,-524.9416786949524,-30.824174920305243,-265.53393412057545,-33.12759043259988,-42.11145850998871,-0.699399301090353
-16.5232188947506,-265.0438137236588,-487.57141124232294,-29.333395723698867,-246.9535227444711,-31.51023496370158,-39.74343483049532,-1.138094956494089
-18.41688210511944,-264.308376836183,-480.85275451321223,-31.78133252987409,-244.72944036810986,-32.744143590857746,-41.537215370957966,-2.9286879129735586
-21.012942163860735,-274.7230153445884,-495.2637612697975,-35.432035624852595,-253.2244681361513,-35.15559034436856,-45.03601132945992,-4.726150405980935
-22.82198479108223,-287.11797587601535,-515.9017963174663,-37.99309645895802,-264.3521912560122,-37.174699258916085,-47.93590738913972,-5.650576381976118
-23.089907760995906,-294.3366504366678,-530.0024260652328,-38.26517085755312,-271.4650677416814,-37.86167718081709,-48.849210527478625,-5.4104198502724365
-21.894287756927618,-293.4737703029255,-531.3364733968325,-36.31303117138705,-271.55264473472005,-37.09053009797777,-47.59003870828802,-4.251241692094924
-19.954159136916733,-286.0511237876993,-521.1208636036002,-33.187863393000036,-265.58742551301054,-35.42377269012889,-45.00360093910283,-2.7671135726068457
-18.14165036700223,-276.1426637589764,-505.4552843319017,-30.20087802151559,-257.01640737433326,-33.68175165054345,-42.323272263178374,-1.554252870093021
-16.951389195858106,-267.4895487103673,-490.7564842423537,-28.126138515619957,-249.24557394642036,-32.41939420211587,-40.3810889788546,-0.8705673115420383
-16.34097681798967,-261.62924667726924,-480.3032669071031,-26.93863803526799,-243.8583539486461,-31.6948584127371,-39.262135247869026,-0.5775153772038641
-16.042948718830395,-258.280977863998,-474.2049989059444,-26.24948502127687,-240.76219897651956,-31.292274443997393,-38.641663739929534,-0.4106255470119902
-15.953281669810758,-257.00788571575237,-471.80703057897864,-25.878999223037734,-239.57803312457042,-31.10212666859483,-38.34613960357638,-0.27364612994937304
-16.141612125517376,-257.97343141262354,-473.2263313178354,-25.89984511720058,-240.40668115126368,-31.211459140984083,-38.47192086034925,-0.23260732047717236
-16.514649089176174,-260.93317319626357,-478.1767124338063,-26.169713715161418,-243.0749401829901,-31.625711178821177,-38.97254913720557,-0.258538882246173
-16.60532410377883,-263.89708898753645,-483.80528977144314,-26.022017431370337,-245.95143633731024,-31.99725415143862,-39.29309696675102,-0.07696604120832953
-15.81339825196557,-263.4057799815762,-484.66043636043236,-24.59691055793238,-246.04435598964292,-31.727207660641383,-38.57464808353297,0.6558717812034204
-13.89436873696329,-256.59493205953424,-475.636177437008,-21.540138684899578,-240.7007712464139,-30.378336721050204,-36.28417936222048,2.027444775800002
-11.243791774566406,-243.42431553168635,-455.722665932642,-17.419971522954427,-229.6059223796956,-28.032624135569993,-32.69447476788166,3.7257068041272863
-8.793517904043387,-227.55157403059678,-429.9650211964603,-13.583478747610705,-215.70339573971603,-25.36197042343694,-28.893379429918706,5.171546799779043
-7.680618642939777,-215.59427454963196,-408.7666686433494,-11.674827678146166,-204.69061083693134,-23.464132616080125,-26.457356307979442,5.756237850897786
-8.824506691278872,-215.01094687571756,-404.7134106947462,-13.019622360154356,-203.24684134590842,-23.53332048896233,-26.941409343590802,5.0617512271140495
-12.35018622799071,-230.44530212578246,-426.7476043829357,-17.797932409437106,-215.87468087895905,-26.27487235520085,-31.072431497981057,3.1345256945648536
-16.937968741760574,-258.9540574754991,-472.27513369140536,-24.117593775445105,-240.67277781162642,-31.089432991491,-37.68299913394366,0.8164272747592316
-19.644225063549325,-286.7203016420323,-521.0321232229189,-27.75679532380459,-266.1965828305698,-35.52353576775056,-43.09273077345911,-0.1867573287108342
-16.841999571142846,-291.2362961495695,-537.106252439239,-23.507530626496745,-272.8985190941826,-35.738036702332124,-41.967713593572924,2.095624641436224
-6.201306979687287,-250.59510394682877,-482.6267268034833,-8.02216576056451,-240.86216572590965,-28.224186772828073,-29.869557733123642,8.710422491839097
11.433703919416466,-156.08320373940558,-338.30874772383675,17.466943285435217,-160.8963805533091,-11.952786284569472,-6.194606779685802,18.759664109562813
31.73793572529076,-20.22398447490431,-118.71293801018423,46.68038150131622,-42.260019480701594,10.482593477832333,24.57462590711247,29.439635355695575
48.72639102744392,126.0670282104489,129.1014015341136,70.91558237247474,88.86678506572585,33.69560011169689,54.511206458950504,37.35009840546735
57.75416845127936,246.86769282163453,345.0997918168905,83.41724363563038,200.48477961954745,51.987018746162605,76.01942255071275,40.30916144314827
57.82851129266912,317.71251380638284,483.521342667169,82.78393370363482,269.3722270263557,62.00808274625585,85.4429726742969,38.45977827886499
51.76913351048818,335.41567208817827,531.9411417840097,73.24487186178368,290.59634507150116,63.99635966032682,84.27470902816448,33.91836390162761
44.22356012234058,315.9778208871682,511.6236057733348,61.76528096054396,276.74861297324026,60.95506460088085,77.41134351524384,29.272554035487573
39.006142810312,283.2926820446762,461.1595524345299,54.09638848352206,248.6135340263352,56.548323733471555,69.94633928957661,26.079382560327883
37.537665326699454,256.8492483629946,415.60482673841886,52.392222530655125,224.17051775852548,53.230216820282635,64.80722965451146,24.435313393371537
39.08596278830747,245.52947966686943,393.6632174727006,55.48656353461066,212.43967628139345,51.654987893754004,62.48566144731491,23.713590354850798
42.05964332055856,248.66479854300312,396.9510932886975,60.79684145899986,213.7581381776126,51.25884777671313,62.24472855343661,23.572914862089966
45.10262159992255,260.54542297940327,416.60159594194465,66.02403336263068,223.504267162741,51.16632159730458,63.293764716753735,24.27003229136587
47.428772064324164,274.4087293045062,440.5359272379429,69.76899557663482,235.71389557571246,50.770497463047604,65.1114550295755,26.151565417920832
48.732166959553226,284.8510203770331,458.5321572601463,71.48638670435905,245.39213837590935,49.93678011032339,67.26977630894636,29.0137487005074
49.13510403234237,289.3541240574239,465.4502520555788,71.42150771875653,249.99318101274346,49.00966677789659,69.39964068674422,31.998748584663467
49.14996733235418,288.8597027193589,462.53569697867187,70.50662921835482,250.06016734816853,48.61541902532987,71.33463923148688,34.04016323338122
49.40817284399466,286.5588312262458,455.6188744232089,69.88035867356749,248.31522518812514,49.21279309878477,73.0644923471693,34.40323969691984
50.26713819356193,285.3421811575401,450.7276578532265,70.21503806677316,247.46469067913725,50.67073461458234,74.49354568814904,32.99144121326776
51.72027523776063,286.1001702122623,450.49816298653167,71.51020961198152,248.5368489701674,52.343836069625624,75.45091380622215,30.422776904859457
53.72058095044876,288.4185038866824,454.38372817152566,73.56736923234175,251.22882031916194,53.69936278809426,76.10911587956541,27.9178024126986
56.44925833231965,292.44789676276474,461.5616100349091,76.48725872259936,255.4520766306903,54.88709533951608,77.25467673245382,26.884105391434332
60.05674607978277,299.2795082638033,472.46691938103174,80.44600117726087,261.8394098637129,56.58176734224146,79.79241027396046,28.188317269606248
64.08557661656297,309.07397000473935,486.92320130627104,84.94184805679843,270.37183178681,59.1719538937959,83.73850177195182,31.515820375375394
67.30278102769225,319.188613745684,501.4291681162181,88.49440916617701,278.8379913010695,62.1128994497955,87.73625149017096,35.39411885897933
68.32261893426418,324.8703192600135,509.5381632943576,89.38265182178064,283.32502824844266,64.14243861254882,89.77190658187557,38.020380977192566
66.58009293549937,322.3659533967847,505.83106554330703,86.89713335703577,280.7643280270191,64.22186108080778,88.61710634452788,38.36253361619078
62.89061023763069,311.90867544612837,490.16198198415407,82.09434199315507,271.435078201534,62.442152143116886,84.8845190977805,36.80658693096865
59.28070888601304,298.53245959730975,469.0301239386829,77.61395790871602,259.622373589074,60.28580754880621,81.05183490890128,35.046406666553224
58.305483574874415,290.6931985613981,453.8773126170432,76.82595791516802,252.3962015333059,60.1573639975871,80.60791046000104,35.390038197653574
62.06155998543828,297.3604478685032,457.4377639274057,82.54932700894993,257.2031726973736,64.34752239866717,86.65079789624049,39.72113758740073
70.8894191519012,323.50686472611756,488.062514193679,95.27897806322021,278.30497066956605,73.59758190197053,100.03538945975474,48.25724341215937
82.0572903363026,364.425008909786,541.9830659870487,111.29575495084627,312.2610954783466,85.68810169393647,117.47104256395924,58.493409360092684
89.42919632937462,402.00935747798763,597.1069542174243,122.08528239916812,344.7567207182198,95.00326044684957,130.86319391401312,65.16954595915428
85.20295809412721,407.8745515662924,615.2978158576728,116.6678170523525,352.72480886618007,94.05401684388818,129.41011307367322,61.976113493489315
63.58577558423557,355.14991827378117,557.1120720616811,86.74024543545802,313.5954454505486,76.88256872376039,104.47499905239292,44.63804249216201
24.52831928856767,233.96074181198148,403.60570939925327,32.01653052125806,218.00817996783954,42.68945210104241,54.872891759110296,13.728285878178436
-25.008489728040754,60.847703196598076,171.88478118790806,-37.84359705643202,78.10916668192836,-2.6687778602241026,-10.896832150879117,-24.705674602138476
-73.49599602482049,-125.29357765371921,-87.3713566432201,-106.56747249732578,-74.98930489852171,-48.62232411656962,-77.45148310101293,-61.416658983858284
-109.853470140045,-279.7629429910234,-311.1107853446359,-158.337941357619,-204.31472334862855,-84.42857839498797,-129.15615939198273,-87.99783753308633
-128.1948701334436,-371.8418237700229,-452.12141951883757,-184.59089402074494,-283.44224827816737,-103.7754516315686,-156.8601544502836,-100.41195087661235
-129.67015650201705,-396.52329935744274,-497.99468815502337,-186.7525370845643,-306.81549926628867,-106.90293648025087,-160.9855220270985,-100.10060922998314
-120.6951892304508,-372.4011383156532,-470.9900307820844,-173.83015208195454,-288.7565101543313,-99.33904519519136,-149.64387402874206,-92.3413329015919
-109.09770415292516,-328.83673659886534,-411.4372660886483,-156.9653634693774,-253.2595199614898,-88.43884267757468,-133.5552115619301,-83.1766987849201
-100.65681953598217,-291.3741583384922,-356.7571859756967,-144.47105953471493,-221.81964322088257,-79.98936669364558,-121.10918733652551,-76.83184330561791
-97.66934797485705,-273.3615559605752,-328.14778681522336,-139.72264564716957,-206.1002108050793,-76.57259970461834,-116.02614737334669,-74.77917393200039
-99.4869310710497,-275.7364199752367,-328.9565923788087,-141.87273024317722,-207.40473679397385,-77.85877754477791,-117.81630272892671,-76.29360937786835
-103.89810307416528,-291.5520342676586,-350.50994068796587,-147.80132785458457,-220.28261849284408,-81.86680753321147,-123.59914164607484,-79.57597625557403
-108.37071488026037,-310.94763674180746,-379.1012062283103,-153.8872928366168,-236.63900066460332,-86.19270740574392,-129.85244898921727,-82.69672764162114
-110.88121430526813,-324.76984851653424,-401.217901715549,-157.20107459513616,-248.75481245060703,-88.84072529533545,-133.61157963179411,-84.18681784808678
-110.43118034103824,-327.13088910952297,-407.3969909634785,-156.26402154688745,-251.45838894640627,-88.73346772053671,-133.24792126901724,-83.38325764617868
-107.24638609354231,-317.06482856986145,-395.08389167864607,-151.36550769391414,-243.63415922358627,-85.94293430137466,-128.8541527160869,-80.54272167688491
-102.57621199112866,-298.67574532859686,-369.46814432847833,-144.30126381784945,-228.51959256224401,-81.56930862714701,-122.08928060350216,-76.66959449410544
-98.21791726290425,-279.59359342894584,-341.5864818299535,-137.68816045211648,-212.50424972544877,-77.32431500613828,-115.5589442691367,-73.15376850505149
-96.03527530533724,-268.5617335790622,-324.66039443732876,-134.24085309904385,-203.05432603084654,-75.03786147805913,-112.06283644801319,-71.41021164402639
-97.50777335243546,-272.8568322295351,-329.9645628603021,-136.08902855330825,-206.4370789856824,-76.17490721611513,-113.83619438796215,-72.52985413443128
-103.05750515898198,-295.2043007446839,-362.15026600198195,-143.8017910211192,-225.0900815712277,-81.19876938972048,-121.5414535726445,-76.74961374233197
-111.1323186736688,-330.0594168044281,-413.8346064403524,-155.09346865575165,-254.52602928050928,-88.74878342159373,-132.99588208118996,-82.75379184218946
-117.70109536116104,-361.32718771409617,-462.1089099782609,-164.13499962821433,-281.3969089306307,-95.16025070868756,-142.48237618926518,-87.33857871674016
-117.09463273551181,-365.2054386122726,-472.22298868872446,-162.79390842323372,-285.7642307347252,-95.16546295569756,-141.92156187574122,-86.14660070735958
-104.36575491419731,-319.65884083468245,-411.1244573831853,-144.0452017340663,-248.9700639691714,-84.02667043435001,-124.22268571592112,-75.55059823025884
-78.01231620129776,-216.61621104707433,-265.7410569515487,-105.88315028227588,-163.99318688224193,-60.13942200776729,-87.26091232100376,-54.73583627105845
-41.237860114121624,-69.02419681427841,-54.424709941343636,-53.09215839462769,-41.65726640230703,-26.39610256622742,-35.83770045518512,-26.55694786636144
-0.6865738322810112,93.23543324688016,178.1259241045113,4.661835825481149,92.5982761882009,10.841617771182523,20.08296143400868,3.6092426182047728
36.672578914293744,237.28745039414443,381.61440577198914,57.420436202416816,210.5789563255935,44.703635633901264,70.06196245675231,30.414783768292846
66.432827382689,342.38519657287156,524.0290796626408,99.14229369132102,294.5499755801004,70.78384495921988,107.76959171363383,50.813422527643375
87.41785370598785,405.99723332203746,602.6648941617163,128.6025018744043,342.90489821166545,88.0909880681614,132.3266375220701,64.48402465811574
99.8413728007726,436.9450533538249,634.8800130768177,146.55502009738518,364.5345760806001,97.44599132399819,145.6294987409263,72.21105122407366
102.75962496648619,441.6112248977493,636.2981045923168,151.82939113362715,366.68417284124695,98.85078315183823,148.09133737562942,73.69977360666779
93.31212378601141,414.8940242192465,604.0877765093629,140.09056751914014,346.3152831723078,90.25594290840932,136.6219888325156,66.85054867873703
68.7612872800774,343.7989786510364,519.0001490241427,106.82782933060238,292.2398899141354,69.0047339824805,106.85526154788155,49.32692762394025
29.846936567385544,221.06253510988213,364.64797233757434,52.43470305880895,196.47821794893383,34.91505740720333,58.00212185345729,21.259151240848226
-17.361361048129933,57.75339497519907,148.54132462608294,-14.80624364863383,65.69861328638032,-7.54640027108227,-3.6506327851028058,-13.154050815903906
-62.941605215944314,-115.64787275811757,-91.99027017124963,-80.64464846681213,-76.57098543597091,-49.970537338725194,-65.68778416013029,-46.63010748497657
-97.28751765709848,-261.4597044715791,-304.22071486861944,-130.8821094198067,-199.23243079574814,-83.42824228279629,-114.73350863836635,-71.9340109481553
-115.36101145005084,-352.38586966146727,-445.18290069011226,-157.71549242117476,-278.306804799901,-102.4676765751744,-142.5530046129653,-85.16246657238354
-118.3918595967573,-383.12684980994925,-501.01816416107704,-162.47308672547135,-307.4598836637415,-107.18490066684018,-149.24098036582694,-87.12878484878455
-112.19988598070812,-369.3965728043693,-489.1178989688372,-153.39625674336364,-298.2598992151101,-102.27000527368986,-141.80387629010465,-82.17085352618895
-103.55162252588188,-336.5460840549767,-444.0627313625397,-140.40517814776305,-271.3578046914553,-93.96665757339105,-129.55942113213126,-75.41965318603522
-96.9908169453152,-306.2372566067885,-398.49519251234335,-130.37861687411896,-245.3464152698926,-87.04622742121381,-119.55049711821064,-70.36707649181766
-93.80559307108958,-289.09821848359206,-370.897129280305,-125.44822304080458,-230.10192268931252,-83.4604590895692,-114.50473665579156,-68.0074716161259
-93.07167948633365,-285.5065907914284,-364.69444180902036,-124.3424791465484,-226.8109515580227,-82.87807884376464,-113.66853567847858,-67.55052370332716
-93.482654535631,-290.9900788858607,-374.6399775544666,-124.99608895539352,-232.05926783104624,-84.11144246115936,-115.04054796584461,-67.79212250230326
-94.64471492767777,-301.30408109195827,-393.6591004275414,-126.52293952807501,-241.94752196259176,-86.27991612983247,-117.26884764254622,-68.18679958525442
-97.22681416838275,-314.4916095285472,-416.26070488444964,-129.62775463485585,-253.97585176827135,-89.15451163584619,-120.31248377650934,-69.1416870118621
-102.03606827533301,-329.852373955893,-438.38869493148695,-135.47903970865306,-266.6215904728329,-92.73119362241232,-124.81581036547271,-71.49054118119099
-108.5082431775807,-344.9325294160433,-455.00580496442376,-143.6494161889607,-277.4300227321327,-96.36746907362534,-130.60229019192116,-75.39435092457767
-113.47401556035126,-352.25559212523007,-456.9304149264478,-150.2690480004618,-280.749622731658,-97.99617182383147,-135.10014946989293,-79.24453627114394
-111.28430347682267,-338.3879592864988,-429.441399727787,-147.92593406247616,-266.90085300265736,-94.0947854487962,-132.9206240310587,-79.42175566538315
-95.91966985764019,-287.78850359279795,-355.7371080662568,-128.31225565081965,-224.69885878160858,-80.89603313074217,-117.57252787151226,-71.52714099231342
-64.40949416166312,-191.14382615497723,-225.82336957163133,-86.85366459484857,-147.4098379816303,-56.53164372874231,-84.9782045592625,-52.768696950929176
-19.578030839560924,-53.781181710877696,-46.42892483978364,-26.668676581424556,-39.080991418686,-22.873963142028874,-36.81713024873902,-24.142666494732172
29.948752067101204,102.00191511576507,155.39953720135594,41.06441577084863,83.4180232690749,14.332749560431147,18.74177770316338,9.159454654433842
73.02203460075124,243.93011355530209,339.7337660019283,101.28091373298619,195.36565829095142,47.52185974459113,69.95128031028143,39.704992854644615
100.92983304116032,343.3684303218107,470.01776173537485,141.72659395235456,274.45642401506456,70.57164965289115,106.68068218101564,61.1766524953658
111.19762362583693,388.0960522276029,529.5217919467051,158.33514129045597,310.81657014151705,81.44011467864003,124.88772476512875,71.17432553844223
108.0111159130502,386.6174750175042,528.069746526356,156.1301472177173,310.7462877662052,82.62632516558364,127.69234771550337,71.80223292461706
99.17876364930939,361.4256942328363,494.5327064913107,145.3425270094239,291.78924715164726,79.27124478689873,122.57017591056436,67.82711730474595
91.73620663524967,335.77793779690415,459.8417483073292,135.48670510660742,272.36670739536197,76.21507681032719,116.73988760247771,63.77578297803659
88.92861193296788,322.5712640571933,441.640108033403,131.15056289224012,262.7461108053764,75.87756343849162,113.80988977923437,61.87275412459954
89.99046607222658,321.55377875471993,439.71334115961156,131.55531590890706,262.5845220988901,78.00750228225316,113.4326497121074,61.84479271496517
92.10229901279692,324.5678495347893,442.7110341038543,133.13936404244197,265.07649711642836,80.9183946990539,113.34848885135501,62.18640432816129
92.81518763526729,323.5885821825707,439.24189339934793,132.84954895384408,263.52509080723513,83.03217135531368,111.85785696788749,61.70924886855361
91.59405216146078,316.436772138496,425.9586120701691,130.2557036373201,256.06611106030823,83.8479265876971,109.22298170357757,60.467519804353365
90.04194349907695,308.19832864288236,409.71661437932727,127.84520760221615,246.8888289139288,84.15113825091316,107.68181267998399,59.80579864512731
90.87834450864557,308.554920400399,404.27579495072314,129.56926076349492,244.18079001884686,85.55120938498222,110.31460507667703,61.61226388276508
95.94460971625875,325.62402724943826,422.3558333294355,138.00419229323307,255.26764712207134,89.34968807038214,118.97741617921346,66.95651731494213
104.00951841806884,357.993696501969,464.7003015545446,151.21663011871829,280.0964889313907,94.98385357857184,131.89295729331926,74.62456412861783
109.81741899163228,389.35352900244675,511.5035788656119,161.40140752775045,306.42609706689785,98.98040955380834,142.4049676011502,80.55018479810725
105.66983316903043,391.28860483293937,524.2142450652588,157.1708466881705,311.3909432057377,95.63685214898908,140.60081023502244,79.04157272269472
85.32478917422888,335.8814979936503,461.5146570053686,129.21802072419595,271.29488200927153,79.73208628001514,117.94357585203527,65.61653443155322
48.083899703206704,212.28496207105135,302.88666074134505,76.29497900223912,175.3579962064244,49.91511518394861,72.58058665545789,39.8948685144863
0.3236398094461415,36.7052037177675,65.14174529587568,7.516449007028269,34.78770301451275,10.498499681753428,11.820765829297958,6.597022944220417
-46.835524063921525,-151.82357745843163,-200.3076491538497,-60.9549523007543,-119.60313209288806,-29.820162425068922,-50.27478651908218,-26.228916877132466
-82.53078439092397,-308.4879649552091,-429.59677872164946,-113.1648365514961,-250.79043950766766,-61.77962101657865,-99.10454957273163,-50.837374771420954
-100.92273922967834,-402.8063224859222,-575.3937181891756,-140.360959998571,-332.2930910623472,-79.69682323729879,-125.96996484546877,-63.16816109705811
-103.07320865406328,-430.31506856604113,-625.9826040602192,-143.83923536962962,-358.6477927100406,-83.54896480282292,-131.11859218844683,-64.10823818923258
-95.2314749839805,-410.16959135915647,-604.6820022048738,-132.5529322508015,-344.36094342520914,-78.0323193104557,-122.05882292595058,-58.182820306013525
-85.02959630699272,-371.96546964412454,-552.5678249370591,-117.60970615048696,-313.5079745672602,-69.55344255434183,-108.77324463524151,-50.80143123875064
-78.02624643215313,-340.8592205722696,-506.87071380509894,-107.1967668142484,-287.31000672252213,-63.16712633936008,-98.99096209789653,-45.82075474179249
-76.24714613762485,-329.0739996195036,-487.3681172262687,-104.3769840457873,-276.63088805749095,-61.04776089390323,-95.91435930469133,-44.571654361749175
-78.74734635225278,-335.968260783479,-495.1250493057106,-107.84990706508377,-281.5924696032491,-62.74091238164777,-98.69666662300041,-46.31439753719989
-83.13499422588274,-353.3695870238441,-519.5207362348905,-114.15736133049197,-295.78556532341685,-66.37792815988432,-104.36530182115004,-49.33347069407698
-87.02145375351685,-371.5994827298544,-546.8565771797645,-119.80906446213304,-311.24463901020096,-69.92079541068894,-109.75625491324381,-51.94644875873833
-88.9578224120458,-383.6972125675005,-566.5957468648451,-122.66216203839166,-322.00915109451694,-72.00079102967496,-112.80044977489044,-53.14727798117894
-88.79707313267679,-387.43108975572534,-574.555405873454,-122.46101998717393,-325.9011904474232,-72.29650709362784,-113.07904707154282,-52.85679472120929
-87.46095341813718,-385.1329903982716,-573.1650446789444,-120.51470898529884,-324.55733973129907,-71.43702940076459,-111.62952686643565,-51.755014620563635
-86.20454026438038,-381.4542612319411,-568.7454916063017,-118.64421227973105,-321.7272871657565,-70.45675022384125,-110.06805595769735,-50.749360746212325
-85.80262577063155,-380.1635694177423,-567.0280478494604,-118.00046645947602,-320.64754156294873,-70.09506899573327,-109.50835223523656,-50.387538476617806
-86.22306040054404,-382.149251503979,-569.9082052296121,-118.56946158093925,-322.2588092853207,-70.43127051883891,-110.03073642548586,-50.63046742400752
-86.96331889605841,-386.0060660972408,-575.8000645513885,-119.63807440280783,-325.53764775273737,-71.09554753371276,-111.03920304521976,-51.10674061873788
-87.6305435912192,-390.23557240427016,-582.6557927297192,-120.6320406282992,-329.2768829424797,-71.76632549388741,-112.03265821369934,-51.53096476123053
-88.19810024768312,-394.6847068613442,-590.2320790873447,-121.50148167762207,-333.33746042169963,-72.43531813985699,-112.99978528377831,-51.87552791808434
-88.81884258105147,-400.0140243245175,-599.4598891655897,-122.45961819732193,-338.2453647552633,-73.25321013218466,-114.17638721960982,-52.228588459131515
-89.54985629471315,-406.2702547588016,-610.2374124952997,-123.57856611484557,-343.9641338733406,-74.24185519965667,-115.6121254774419,-52.61152423437673
-90.3019071102239,-412.33242598947623,-620.4641705475752,-124.7099342793403,-349.3984371707142,-75.21670522746734,-117.05425164701951,-52.972036823950695
-90.93526982392336,-416.5966243197644,-627.2320143165384,-125.63435855604727,-353.0421495456174,-75.92088083754966,-118.13368452734944,-53.26567686849323
-91.27383886201508,-417.8865463980243,-628.6552758492643,-126.10402235106453,-353.89664500277956,-76.14364835149213,-118.51917892208101,-53.441747120265134
-91.07645311655585,-415.9306034830358,-624.8909365472807,-125.80940988940739,-351.9525147652361,-75.75982350049375,-117.97315117028076,-53.373835420535855
-90.21859539031585,-411.8466033345225,-618.6208939277561,-124.6223393027808,-348.49793764137553,-74.8566964278714,-116.57394706993206,-52.94869761511033
-89.08314647392336,-408.8780489323855,-615.511855813896,-123.12708285276982,-346.5214128746254,-73.98302223102937,-115.13415373049149,-52.33683420699161
-88.7156721385256,-412.1982316832272,-623.3781270998064,-122.82185821296471,-350.3694881914809,-74.19036006583305,-115.28234160721676,-52.133037946736785
-90.3117222586069,-426.2652117850063,-648.0777094011913,-125.37631413414329,-363.4735921639461,-76.50050524717719,-118.64367885824076,-53.05559726120421
-94.19823893628028,-450.3023900633375,-686.9423224144983,-131.17475461845586,-384.6198324832219,-80.93846479365531,-125.34480021867242,-55.31058923752702
-99.02948362482506,-475.1025571157417,-724.446246352201,-138.18396296049983,-405.44208798230324,-85.8216217663233,-132.90123082953139,-58.101553080196624
-101.82610591710801,-484.40201574936674,-735.0784577467963,-142.05717453604714,-411.8954134205304,-87.95574685403382,-136.473778302356,-59.669236232364206
-98.87575718821303,-461.0170893156899,-693.6441052885558,-137.48792974023291,-389.8094211036726,-83.75753089706093,-130.53441017166853,-57.81986024122758
-87.03344704938192,-394.5367618157989,-587.5316897856915,-120.10488653115902,-331.56802749229587,-70.71819665232363,-111.08859205122168,-50.6298820592607
-64.94605361439761,-286.5225927303964,-423.90597517697296,-88.17864514775626,-240.19800744755858,-48.532517255109,-77.4567039007807,-37.099458211467805
-33.908554677214994,-151.0400494108537,-228.26613701265416,-43.72826981310452,-128.99687195055563,-19.530254257358955,-33.0344835376485,-17.693145748439406
1.90221365469744,-10.93131163962395,-36.045268231122954,7.25913636950568,-17.45873683008069,11.639513122032895,15.128902883154092,5.334876770845106
36.111365285450084,108.25586914190076,117.94809721391451,55.8196865203643,74.24004799594591,38.99278143415249,57.88472373445599,28.10042772814193
61.89401748930656,184.84407238107667,208.11806001924353,92.38777828466793,130.24759377069822,56.763710110347354,86.48203891758308,46.01149420357184
74.51301670828512,207.27761836300976,223.86710976731118,110.23556803658363,143.05844123297925,61.35908427936078,95.61190179995566,55.44064412791782
73.79317287588883,179.61303596119203,174.1079773012277,108.90516869632745,116.9565838258718,53.274936669745614,86.2022150205674,55.61761948282017
65.21181645657444,124.40674362806153,90.2921519809729,95.85952879824562,70.13839282026593,38.068039205096944,66.61735483153251,49.724566191755635
58.43889186506391,79.33971112936496,23.47615275503611,84.65570751822918,32.66016429659947,25.286393880579173,50.81316436377347,44.18257689804348
63.33479686999995,85.15279383285866,30.315331673509412,89.47698322287235,37.587033197624976,25.01127749487144,53.15495631986942,45.96852393798975
85.14635661298985,167.96651576832414,149.63676519212513,118.31302143980645,106.9638983532308,43.250387919867435,81.8198214060145,59.14586337257021
121.59220101809537,324.9070465048354,380.80462684369735,168.573905161289,239.5226171190106,78.6548323335566,134.3167020624395,82.59486148388697
163.68748585316968,522.3545504089967,678.1205938314212,227.91602545556623,408.190244386476,122.66549521708505,197.99735689205204,110.38582893388146
199.9538420350632,709.4598543768575,967.5699125725564,280.0029059303519,570.4360009191743,163.25191301320373,255.61805626169286,134.63934590827793
221.65553691569784,840.324332001509,1178.5009026923715,311.98384309478615,686.633984474807,190.25168574438555,292.9963911681731,149.21591932812285
226.25969177278222,893.0372943538415,1273.3790211036992,319.6640535929805,736.6457204451551,199.4609783003981,304.69394184784954,152.20702910212063
217.61055427713077,876.0777665487554,1260.197663707665,308.0463376780183,726.1572859406735,193.560960288917,295.08791737866505,146.1151037873037
203.33092301015387,820.4593822460234,1183.0079852854158,287.80250403755304,680.7327330444663,179.92873341959452,275.03841910671616,136.07780972719024
191.30513022590944,763.7787810738928,1098.4162880474535,270.2524468071429,632.4026658978732,166.9864506088692,256.6082248715664,127.46168557268362
186.96849223568051,734.9244106466564,1051.4358062949564,263.3706169636475,606.3179171152334,160.99918987154544,248.558427236326,124.03678668784764
191.98332235306862,745.0193972776042,1060.461565031654,269.76022444119724,612.6251645024497,164.29720480876787,253.9241805714565,127.09652178408335
203.9657907516523,785.2866437168808,1113.5612487403198,286.1893148110079,644.4760432855009,174.85813286263388,269.49325003969466,135.23593732795354
216.9955248913454,830.3608368966428,1173.8150476454014,304.3041161284595,680.882819621024,186.9355002191783,286.7340016824481,144.5956041464794
223.1848956114283,846.3689623904787,1191.7601718096494,312.8738872156672,693.5815974825648,192.7653140438368,294.2762026038816,149.81983581969075
215.51512544060128,803.343782977046,1123.6250080455516,301.8381105611353,657.3847774556598,185.39219687400293,282.0366349457246,145.94724982096378
191.1526291996736,688.8751974088664,950.9947195770343,267.04350930073025,561.5327608409855,161.8853824224401,245.90119730725905,130.72417662236762
153.4682434595132,516.5429839526421,693.0856716121809,213.15733990015414,416.8349949537,125.33674139424441,190.58860582673424,106.09260944661256
111.18530601451097,323.04869748746415,403.05252125969605,152.517600224218,253.55829098103027,84.14445183817969,128.53817953581628,77.72134524675256
74.66915188446912,153.5855656789899,147.32045535248585,99.91714883291255,109.503945913322,48.49924706453827,74.76701187775278,52.55608173231473
51.271692789052025,42.390821327547776,-22.612199128046292,66.0101698824663,13.825577077849829,25.814751939157542,40.26463148531034,35.69564843018704
42.40124053866368,-0.9304199577793466,-90.85074990280324,53.10844906037863,-24.672441102810485,17.690651782023803,27.63641996677091,28.421561457046867
43.91847960275072,8.06607633326634,-79.11440606288754,55.63804768098255,-18.429061039918313,20.107158640076662,31.356739311099627,28.446175879066665
49.27123344288127,40.43741526068272,-30.331148810857634,64.45226725481618,8.414486132512298,26.459607512899694,42.00341056549274,31.926659102433185
53.119091857330744,69.64394084584993,14.793626138831884,71.86358116442938,33.281463553229656,31.280925709268647,51.42252158447273,35.69724222410143
53.302938074081624,81.87873515606317,34.09708961307448,74.4086698502267,44.12526501370726,32.383381166693425,55.72540369874664,38.343448587007295
50.58621445342858,76.92607558489857,26.28493618647454,72.56972542782262,40.43271159820348,30.620482891943006,55.13538685932467,39.89062451201938
47.123206467516056,62.4733507630987,2.814716255119323,68.79937292287745,28.516660536598874,28.158467262683065,51.958314055880976,40.88278784571058
44.92619117842208,47.49111983536235,-22.27263403290366,65.5871242975615,15.873354944979265,26.732939195989342,48.55496628008619,41.69690784372555
44.94634429176149,38.03474363298423,-39.037262918595985,64.32766693064735,7.598586405608571,26.77829889341092,46.254588757590355,42.34487610181751
46.79271845174952,35.61185627925936,-44.35999635363229,64.92189170583613,5.033083315111158,27.48958085546606,45.12721042434507,42.5716995296878
49.05360642835161,37.430020579492094,-41.8944411216492,66.03783735581368,5.959071943372669,27.512967008787655,44.331611148703985,42.08467601364066
50.18469823288137,38.51227292052187,-39.3220371052416,66.07296379929872,6.281286353505126,25.9101315287804,42.90971829508202,40.865918827773356
49.55288853693445,35.1869234261403,-43.22837333394058,64.3902135538222,2.8825688963096816,22.9078801250525,40.675067075716264,39.39389655656106
47.867464888452616,27.787241481689772,-54.432252652802354,61.85489385637042,-4.036569771938876,19.870643270100665,38.48628444667567,38.47342023066794
46.5699886659089,20.21918391167868,-67.58238084606307,60.07404469676674,-11.149293526432402,18.358793454316636,37.5137958944726,38.64404957169864
46.664383136895445,16.6061769198733,-75.62135402845125,59.94306704091158,-14.743413001999842,18.932617395069848,38.08589443007892,39.637910253987855
47.995025800568044,17.980050799603152,-75.25933419176175,60.83216448591426,-13.628743957845586,20.717234234378306,39.25133797276633,40.45856746515166
49.51135381186875,21.726791327684285,-69.02864813573083,61.10640669314402,-9.833585722754167,22.125813272355916,39.53350798082472,40.102379246484496
50.13022611861231,23.587061809513568,-63.2971110193724,59.387761874126554,-7.075874450177516,22.09064315483437,38.141034920957175,38.30500672393623
49.44053128313444,20.007272784094216,-64.9593715937455,55.477117257936996,-8.794316825540816,20.76400844003286,35.526435155612134,35.70084187660023
47.9205187248895,9.575775866184214,-78.74504524895488,50.50642740085012,-16.847114124743992,19.280449765467946,33.01155767929055,33.40476654866012
46.81829905702972,-5.884809569728876,-104.50442470000452,46.619389098457745,-30.394404083098994,19.032386516515857,32.119601835375406,32.499333969398485
47.769223740996395,-20.29776782062774,-134.15646725081294,46.365286854840846,-44.66046100054748,21.068712333951375,34.158648845000485,33.718733515512916
51.94788196167409,-24.09522200855645,-151.2278968221695,51.526692711949025,-51.074264421817084,25.720234103891606,39.82260296495031,37.15014732422046
58.82027138327709,-8.633836457528137,-136.84317320437216,61.40216157538918,-40.71257889962236,32.224182194756075,48.37793686880842,41.7648599608686
65.31427859588172,27.124218529648246,-81.28000023732103,71.62538825277215,-10.309560303985,38.429400012693435,56.81949867828594,45.116643329563146
66.49307248614562,72.62948926950153,6.334016341055452,75.05362802858441,33.29276001070303,41.11026507104264,60.14591218064301,43.86797891582688
57.92284023506049,108.88498248472095,98.63425698922008,65.07138220258071,74.52820217372242,37.23115419528893,53.41091381837251,35.32339645690773
38.47492769990841,118.05488881664762,162.635207023934,39.60548112182833,96.61450404425788,25.680369687284937,34.66672490592663,19.196949207881328
11.640641787894205,93.61658442100952,177.00602686292498,3.1385425788553447,90.68887136167582,8.340099102139101,6.808283333955321,-1.6410316322056762
-15.733928179790496,44.26315919697533,142.9383974800146,-34.90464994049079,60.58886766756375,-10.411603411889075,-23.20779919489254,-22.16149716903839
-36.66753028266748,-11.034248044155909,81.90026523116259,-64.62051260957733,20.235396777599824,-25.6618644140881,-47.55384294275762,-37.47081972814784
-47.28081085207707,-53.42349403243831,22.460202708084772,-80.2553937616306,-14.408349155066333,-34.25847358152578,-61.23723725222337,-45.04307035025551
-48.14681955957489,-73.25084088104872,-14.723205536382121,-82.26976884200792,-33.40437437365329,-36.04985000037172,-64.06554301972173,-45.56558007390648
-43.17543127435805,-72.56390105311914,-24.557033206853024,-75.91957310240248,-36.09967357868412,-33.40564294573813,-59.846877188832444,-42.03011842365718
-37.07418681908173,-60.86264008383247,-14.991595846913656,-67.74434492025972,-28.66790437421828,-29.53954102938243,-53.70690126638291,-37.863041032261364
-33.13186297341442,-48.38484897695725,1.2076767734823357,-62.416750444539915,-18.98128556372218,-26.864902627484202,-49.48792447475303,-35.3634126251686
-32.428007550536975,-41.587685199446945,13.647794416867947,-61.55893401568029,-12.68420001500929,-26.308829333022754,-48.67032996151491,-35.21027680796697
-34.3275291464557,-42.30241530493964,17.162802305292082,-64.37850771146427,-12.02735448757246,-27.590644585297618,-50.80636837214342,-36.88228973334965
-37.41851884907199,-48.993675415519775,11.499811376862539,-68.95452130120088,-16.472994610915418,-29.850793482678924,-54.50915108015824,-39.350351474531394
-40.27181854275679,-58.28551882977651,0.05540291990380958,-73.29141762615242,-23.672230397143984,-32.139203471454486,-58.24142907107241,-41.60572006829404
-41.93175859719371,-66.40571785699835,-11.859163864584731,-76.0113773194964,-30.54501411973157,-33.7227447593139,-60.83043296254348,-42.98928798930496
-42.19913848146384,-70.80621135132935,-19.602635204484468,-76.77530628517049,-34.692536769414126,-34.3216210043428,-61.84948518415142,-43.382197374066166
-41.59531050379385,-71.34768231334263,-21.670195567566946,-76.2674701102228,-35.609738520812215,-34.19047477753569,-61.72192068722434,-43.1720901786029
-40.92637617326866,-69.96363261271354,-20.049382817024405,-75.60552127709617,-34.661213169024634,-33.88859421711526,-61.33045883580673,-42.93135565159632
-40.72333319056794,-68.9219320715195,-18.047974486266547,-75.54857901949721,-33.737911934405396,-33.858916137676694,-61.355339957868026,-43.01571543650488
-41.030059946563185,-69.31817188487557,-17.76334590734562,-76.17975374615041,-33.899355043333316,-34.193460303048994,-61.933335259877694,-43.43261337980233
-41.6727998959816,-71.1326366954294,-19.556138379045244,-77.27596144024518,-35.24346408488191,-34.784829583532684,-62.915594164816504,-44.06321831867675
-42.61666359600717,-74.26313975087427,-23.282484025348925,-78.81507070869458,-37.69182623783289,-35.61429905468307,-64.3074725422897,-44.92540275028127
-43.954574488845076,-78.8563593477016,-28.991793413570832,-80.9604781334439,-41.32743585589284,-36.77811193130674,-66.27948040510753,-46.137050303512076
-45.571152254198665,-84.42817204855712,-35.967516974221724,-83.56676977436248,-45.746089551577725,-38.21390877308955,-68.72174302251373,-47.63046463547661
-46.95331964823142,-89.12494158345064,-41.70824454479078,-85.88454184964819,-49.44929045899967,-39.5028929387922,-70.94102599597569,-48.99277639540861
-47.451434856224566,-90.53959719902667,-42.95995719056548,-86.92411549217076,-50.48358613970638,-40.06163535085914,-71.9758545622696,-49.66848178966288
-46.77225105527599,-87.65209809563291,-38.437703649521175,-86.18458823084137,-48.04349558676831,-39.588852815019,-71.30742156040176,-49.35678998297368
-45.26578374408652,-82.07948152096908,-30.621977863622504,-84.1124476756852,-43.51978813643333,-38.36346464454494,-69.3456842871156,-48.26895028595266
-43.84649681047276,-77.54263741309276,-24.826387602001997,-82.0319304560495,-40.00920127581966,-37.18547427348041,-67.3736781765478,-47.11511969087433
-43.70055834441456,-78.13897244699538,-26.390547644565878,-81.73956455586958,-40.777123819222474,-37.07818299640807,-67.1096241221389,-46.91036400386778
-45.87148152935963,-86.50895869420846,-37.99285016838693,-84.88591529760392,-47.708346900508936,-38.90132257000157,-70.07224857183616,-48.63530115171086
-50.631816271007196,-102.18024047417843,-57.879757646991244,-92.01194536897975,-60.09897938461795,-42.85341356803872,-76.69881663047472,-52.66617298022111
-56.73985995549952,-120.12577140383006,-78.83161653441132,-101.3894386292759,-73.75367330373177,-47.90913294311616,-85.33802685040467,-58.08006901736856
-61.175869993457724,-130.70612475160675,-88.76396959613511,-108.54875153182238,-81.13676396998007,-51.610725543836146,-91.86085667219318,-62.35843509408143
-60.04838178532231,-122.85787109806655,-75.01170336595771,-107.54509413961547,-73.94940735344656,-50.780162978034284,-90.83296947514341,-62.08725137494081
-50.615181063184565,-90.51856272080829,-32.362848064587766,-93.94188384209065,-48.15082583479078,-43.177510272465014,-78.27492630566515,-54.639586695719586
-33.29627012164718,-38.75342595103048,29.596434340626242,-67.89779952950578,-8.660228736854727,-29.219450549011754,-54.55330455744462,-39.94225521684498
-12.208923230205556,15.49311643112692,86.46513755391534,-35.157964384863845,30.313134303083213,-12.480003333018104,-25.314562051198102,-21.100965315137724
6.408383594115719,50.24128118382158,109.16948743657454,-4.908394090839806,51.07130981038575,1.656360220925025,0.5958831377745294,-3.2782100136046877
17.092798500306348,49.62534740584508,79.42206606985285,14.451424947960804,41.59058863269947,8.554653666121085,15.261459028081795,8.64376349720938
17.666837335690012,12.383915412095908,0.5574996250291857,19.12736503867397,2.252214202565466,6.5717133779087185,15.429440061347053,12.269673096913913
9.927233633573309,-47.902379124920074,-103.95525685180472,11.1496320759821,-54.44323326510439,-2.3751664903821954,3.6340531516177026,8.522224588896101
-1.6606893165976722,-110.74690939751873,-203.5535571161391,-3.381852665206822,-110.94409109703841,-14.129492327604797,-13.720117977878708,0.7940678788412868
-12.15704368871535,-159.04328608696727,-275.9673226613982,-17.459030932703186,-153.4150284965761,-24.46195153275263,-29.719787808857838,-6.808922970526538
-17.848893226762307,-184.70904246365177,-314.22048240686973,-25.669216732989824,-176.17459582183596,-30.64595177766872,-39.51130004172778,-11.00986011872842
-16.945925477196347,-187.24675378769922,-321.7687355832665,-25.212973077651604,-179.75995747222345,-31.780983248703805,-41.03841574982763,-10.145773903333948
-9.76658271168896,-169.03718337998336,-302.48735175407813,-16.148263606067765,-166.13397734544327,-28.3613803207846,-34.676242679618866,-4.44639091495732
1.0508502861297562,-133.21230384864737,-256.06306131013105,-1.716500069279297,-136.51380862667787,-21.973698888638012,-23.000820226654124,3.829141615733845
10.628654750382953,-85.92716411042707,-183.05520034215257,11.62906601294763,-93.80069155266003,-15.325167168964885,-10.839332639892682,10.606425226085905
13.057186774122755,-39.1857798163872,-93.64829638731695,15.729368913442292,-46.263947919517236,-11.968840111690097,-4.552555190908313,11.123356332367923
3.8738153159280895,-9.09739999875987,-10.001635936028968,4.106379304636575,-7.416809235971641,-15.147106667360681,-9.78881166779273,1.9886415338219614
-17.376247514037658,-8.754135512358895,42.20843668560766,-24.34723156299149,9.510166801576895,-26.103285646610715,-28.52114920520078,-16.82071801201828
-46.265315158364615,-40.3573420636846,47.78074333846347,-63.901447180319046,-0.9976788294324753,-43.004465488010375,-57.35354586408085,-41.40568595161903
-75.18170620285834,-92.65142241638341,11.285377928201815,-104.13508889978682,-32.931043702612776,-61.43440127270353,-88.5854563759241,-65.45985846568234
-96.79840176578367,-146.1114301323041,-45.20688387874764,-134.7047498669554,-71.604877674748,-76.37654278102615,-113.70803835888293,-83.12054393150318
-107.31666583001912,-182.82711000087056,-94.47705257125173,-149.97527865235395,-101.44284636540607,-84.5555678585732,-127.32395838756398,-91.52212582356383
-107.65844402176076,-194.86669245698627,-118.29779319869533,-150.8785405543366,-113.65875566065112,-85.74253049567105,-129.19862149592217,-91.62885746704637
-102.16187856184808,-186.30832316369265,-114.6446261131455,-143.2576168400782,-109.2553236459429,-82.34900867180163,-123.45239048203395,-87.07333988323839
-95.90719704606528,-168.79234254026125,-94.99582135228985,-134.19645566737674,-96.39123516282746,-77.7923348546584,-115.79989357659984,-81.96832073520449
-92.41697766739568,-154.50656955310748,-75.51978635793925,-128.77457585973505,-84.86072977138498,-74.80138822670297,-110.77733926586029,-79.09690455871056
-92.79467359201718,-150.894443095269,-68.36210010402331,-128.77934117644003,-81.31106262766069,-74.55952466970516,-110.37426912305011,-79.29550887888186
-96.15865263949475,-158.69409876469322,-76.70032747175983,-133.21200621724986,-86.96653469286174,-76.75026424597236,-114.12484171445884,-81.86665005383814
-100.58722313844338,-172.5140031700092,-93.86335350452443,-139.50415197091144,-97.6268966190424,-80.03726892958629,-119.88073011826488,-85.35713586991076
-104.01807583089692,-183.08443411090033,-106.03992925167132,-144.6875773242847,-105.43008041572637,-82.63786998868851,-124.71684158779148,-88.23766059360804
-105.0047900229691,-181.21728523412818,-98.71000846538149,-146.4297439540169,-102.40219614540779,-82.99006736266908,-125.97389571288123,-89.41223541967301
-103.27258099722695,-162.9025961486549,-65.58890465507208,-143.89848371699193,-85.17679937162728,-80.48230350406996,-122.40551020911676,-88.55516781654875
-99.77115485186908,-132.97966434955916,-15.53645052551687,-138.02118476398567,-58.48363243886591,-75.87420053858268,-114.8752358717695,-86.1091227978822
-95.99654068344235,-104.18750360305513,28.36742339209861,-130.735601162093,-34.40690828773256,-70.96540906130085,-105.93097752511304,-82.82354316756563
-92.89531182814517,-90.91566594394773,39.3970267468704,-123.56215443970332,-26.643185085214995,-67.55052533992006,-98.29213395250537,-79.074184539904
-90.12073383655459,-100.95962394988463,2.2292783779522827,-116.51236871256135,-42.68509351954108,-66.30909580364789,-93.18945025640245,-74.48139162701746
-86.23079749251005,-130.53705284725442,-76.8943939861238,-108.18513957396529,-78.86016209329199,-66.39861486510013,-89.6920938552344,-68.16823274137573
-79.71724086829985,-165.96012420785314,-171.84755880024167,-96.99429132911797,-121.63168052301894,-66.0185199018659,-85.46095443371985,-59.49892063089752
-70.13648933274268,-191.0151406880161,-249.5637883329468,-82.61346894781782,-154.53417128941436,-63.525251127396444,-78.37663515674393,-48.760068149005
-58.55922305603643,-195.3773330563279,-286.31692641382114,-66.5843470180804,-166.43462792326315,-58.333922093511205,-67.93569361516262,-37.28941965244224
-47.09492374436946,-178.98559374336122,-277.58058628693027,-51.70556775600164,-156.16136274814215,-51.08423020941857,-55.56944855212213,-26.974772081594335
-37.96739190053313,-150.57540630691943,-236.88774534742896,-40.7983186346695,-131.46573011373735,-43.17848660669112,-43.919788710364166,-19.52472522532318
-32.87436174319527,-122.74133022494348,-187.001331767432,-35.84931420192752,-104.33342595850243,-36.24498479161693,-35.82532876374737,-16.02942074895227
-32.84244346533592,-107.17737885649206,-150.3939044194745,-37.85727586311637,-86.23546959397873,-31.863087725457497,-33.58899045676424,-16.90907425013622
-38.02700310365456,-111.39033391125254,-142.92172303101495,-46.64056564239005,-84.96667429234509,-31.25241915101977,-38.27975955914346,-21.809458143280402
-46.90831510311662,-135.69418886427502,-169.50208132302615,-59.813082295087305,-102.17066842625192,-34.446439663618285,-48.56248400288344,-29.059358374058352
-55.33766397671861,-170.2086020782071,-220.15524073545748,-71.50398758519712,-130.9178690677766,-39.19285990687419,-59.485420489185536,-35.07380973043322
-56.80609399960114,-194.73070131304755,-269.0511413695382,-72.71004574221031,-155.31328882161839,-40.720824772920345,-62.76531103389024,-34.7265502221903
-44.83931430533433,-184.95821217213197,-281.54573943488737,-54.571165410418956,-155.0888707275705,-33.36733520925832,-49.72831799425907,-23.285347342504704
-16.644496276527665,-124.26383412407387,-229.650453125045,-13.401446005532717,-115.02223561898738,-13.638783680605167,-15.98665653209739,0.8540297166769006
24.354650127831555,-14.547739706500165,-108.31468539481068,45.79796374544269,-34.264833694456364,17.181419113180997,35.03534251038975,34.44562433124848
69.14108283526207,121.57322407954386,58.44882381700269,110.2175847741242,70.88397666158669,52.833078997572215,92.45025473044672,70.13855980379718
106.90272051136466,249.9294396665634,227.0817576560296,164.56512165338765,173.52337166378197,84.71200772486092,142.4367960317024,99.55452313329407
129.86197992373698,340.43720269893646,354.8195214642586,197.85451760826965,248.6006173161072,105.83840745788517,174.43799950581493,116.97260386352522
136.3338556681956,380.0497327904896,418.85276548765006,207.71958396313485,283.9361985424853,113.80855532318493,185.43388402242007,121.5046706206666
130.4651457340255,375.88497755677594,423.44276994832,200.05180300074932,283.6534349230551,111.1477501824831,180.06075071674954,116.68699007993385
119.27840042961515,348.04748251437695,392.4860337379728,184.81882987482533,263.05428622794756,103.23427308273357,167.0808119221998,108.0800441680844
109.13655498749952,317.98877112605595,354.33389303039723,171.0499118868911,239.34946882003004,95.39532286818518,154.80079930552418,100.54737919775299
103.58916377771301,299.740652808388,329.0835940829775,163.7793809362671,224.28357602137675,90.909645268498,148.08648722132133,96.68574064994161
103.16104573738436,297.57381542178274,324.24330676927593,163.7569654040372,221.8715188225948,90.60137532025223,147.90977564567154,96.76490743551145
106.33120573788149,308.50671567422586,337.4208629820276,168.8510465675046,230.20931339185083,93.52525368805355,152.55377021168889,99.54317492218435
110.68984668625929,325.99537149719924,361.04732637547966,175.6877244010692,244.3797235553144,97.87622209288739,159.10141673929323,103.16597721986685
113.8322038017014,342.6989941734014,385.9129860510122,180.8918632000461,258.6332991300514,101.6906095292162,164.5447763205104,105.82381805977681
114.04862086946505,352.4677015057516,403.6198848964669,182.0332624285291,267.933323052754,103.39259694565946,166.60310819307034,106.23910855982855
110.84511406339021,352.07268269136443,408.86962641694015,178.3540374340565,269.3504310398806,102.26750584983196,164.37909857651985,104.03211037475874
105.1236675293366,342.2625323582135,401.13386448919994,171.0451384762232,263.0037657961721,98.72851965703407,158.67205724342608,99.85667908106868
98.91634530831918,327.53201838520135,384.74386188283637,162.910821053927,252.0101819341922,94.23168527232083,151.76937118058717,95.23318088305028
94.79333083742036,314.85717920839875,367.67139925958134,157.5750888020161,241.61881111279015,90.88693800915549,146.8236566064382,92.15069667872655
95.06554681759337,311.99305299731463,359.9578577671991,158.38735103440334,238.04758760016372,90.8606178346371,146.96400321200025,92.48543647914599
100.72757616133086,325.06575487583854,371.4008893173293,166.9301414385272,246.78778773644612,95.51106274919006,154.0363548641711,97.15399070736017
110.23057760292514,354.7920557336122,406.9409558636824,181.22855148862692,269.64402429433954,104.2537002034379,166.95990517192257,105.07265131397753
118.77611949319486,392.3932001235493,460.23171935935613,194.6330382481011,301.10641724692175,113.65896341193377,180.46101339647882,112.50411433379524
119.2006605471409,418.79082872520456,510.0293168805361,196.93685663969512,326.92481453494497,117.76294909627734,185.63692628646714,113.68243889792932
104.86406852975539,410.48755317657407,525.2012624110024,178.40467450781892,328.02310038304427,110.22283573835857,173.2274826938757,103.0814181929054
73.42069870442042,351.2223477437438,479.1336862524544,135.1986841851703,289.6196031644532,87.6769107182967,138.55289280302776,78.46602990136199
29.184269953937235,243.10899240822107,366.31823755621747,72.94921532839845,210.8156519109835,52.42013778621924,85.28058463502981,42.9179705660923
-17.799983788531755,109.45875128842425,209.99533355863932,5.685375174279963,108.11221079543667,12.458036129271267,25.241447677479538,4.293419683223708
-55.92541509405731,-14.089509484488813,54.06941478784151,-49.9529015073741,9.404376872378982,-21.56922072751992,-26.26499810670592,-27.94959383082396
-77.2406088265366,-95.96174869349811,-57.44384938971524,-82.19385745123164,-58.90401819450569,-41.11687473018778,-57.32306851177161,-46.9189793324197
-80.73927608511413,-123.13505848306215,-101.55164347113327,-89.03750213178215,-84.26249810309827,-43.508315805374906,-64.54407648832338,-51.11763107115999
-71.9574490555071,-105.28704594625731,-85.33707081358695,-77.92113785517626,-72.53630678458347,-32.68589554458561,-53.666759602182886,-44.43505931957048
-59.45906196498913,-66.93901957360174,-38.29566998204833,-60.82548059067994,-42.6182883828052,-16.744674085098115,-35.66904845496658,-33.593975391257
-50.5607662428258,-33.48924201183809,5.730391975739719,-48.13787406471288,-15.310801144375441,-3.909585116606266,-21.083699126994098,-24.785727386254685
-48.62894582663252,-19.74192170840876,25.261020709945015,-44.6917455361706,-3.4934871257528344,0.8215438171639691,-15.740074590547817,-21.33517262889433
-52.80320323405188,-26.045993473640657,18.26000126846572,-49.31783283778127,-8.208738540041177,-2.9718019258642245,-19.560134900890258,-23.186616580291158
-59.50608982758617,-41.53872120790646,-0.9701773943359749,-57.025979098604665,-20.749725436108932,-11.814406724624412,-28.021166453056825,-27.865748135675798
-64.63682852044657,-51.15590853044063,-11.007982982971905,-62.182637126862325,-28.269986071250234,-20.357800448924777,-35.01784486087617,-32.14892417788588
-65.65418534733051,-43.63578625982304,5.143761952468301,-61.47505753382418,-20.657540232811847,-23.980791571365728,-36.03287241300998,-33.79409787740644
-62.95703158533731,-18.503591586772288,49.049641482817485,-55.80418355462747,3.0925006607629983,-21.13930185719996,-30.665606862475737,-32.76081687729091
-59.88798024328769,10.885533187912895,100.83003312586173,-50.189140851891636,31.66235849824649,-14.39533141821924,-23.336217500982517,-31.298256565079022
-60.98265762451579,21.497616229601284,123.79062635269914,-51.198965604091306,44.45618907107176,-9.26547602689562,-21.273561416532093,-32.60869844749913
-69.13650481805266,-8.014512524851968,81.1131931794498,-62.894874270702694,21.339894987125408,-11.162057401681926,-30.374277066742522,-38.68195117697908
-83.41530367735992,-84.29260433127966,-42.783896820078304,-83.7399580548153,-45.47494720217814,-22.118099846292502,-51.28968736168854,-48.68392370669738
-99.12874118411176,-192.99914672288665,-229.46304313637646,-106.76735873080713,-144.88564182576567,-39.40032404759705,-78.40895254249891,-59.105433352793696
-110.32081217394222,-304.2589486495898,-431.87736516835264,-123.20622879797969,-250.66226933707262,-56.96221377437123,-102.6304401788122,-65.693794857401
-113.11989125189453,-387.1605255912591,-596.1145945848018,-127.32565383951165,-333.8970572686739,-68.79456833022522,-116.23569677185067,-65.91698015817147
-107.79248345207463,-424.6123009863806,-686.8067247138811,-119.40456659622464,-376.7669449942976,-72.02857767802602,-116.79158542531657,-60.349126065653046
-98.26922377271433,-419.77854510681254,-701.2902317733808,-105.06028881245238,-379.5134890420172,-67.95255481902805,-107.7696292433741,-52.145083938014295
-89.62511011654469,-391.0723619905401,-665.2801084375931,-91.62487363535195,-357.19314284285826,-60.593622980566956,-95.82905054260887,-45.07379664651385
-85.27183949933674,-360.059359555633,-614.7880796018612,-84.09512239358335,-329.3629888113609,-54.08651105610475,-86.82677225461003,-41.47648904157917
-85.59753207780442,-340.4429979648707,-576.813060812535,-83.15937855627524,-309.7835143975912,-50.61858166941939,-83.14184819164404,-41.40507062593591
-88.58234327879343,-334.1733253557475,-559.8762358028179,-86.0706005319517,-301.9366235056252,-50.01220714982819,-83.59962871524549,-43.23109201217517
-91.55587642318189,-334.9740075833653,-557.0516428416863,-89.15970090333154,-301.30301950041195,-50.71007447077413,-85.34416156107446,-45.00810727215384
-92.79801980485948,-335.1123589340876,-556.1444733864772,-90.09738294404681,-301.12263425365387,-51.14949584993429,-86.00539586334604,-45.59463861205781
-92.22920727605377,-330.8753425916557,-549.5453331824159,-88.80600788127113,-297.56442487594137,-50.67417232664973,-84.93114098435476,-45.02805390890347
-91.19212942449751,-324.5539758884374,-539.1120134695906,-87.05661906879344,-292.01619215088016,-49.731031997284106,-83.23481186001136,-44.239587370588914
-91.60744287659524,-322.74134040058107,-534.7651866968617,-87.23571825716826,-290.01331161494755,-49.454730537623135,-82.93058690839304,-44.39883758767619
-94.7400003134965,-331.56326043984853,-547.3290752353117,-90.69423143314607,-297.20840933049845,-50.79307259422766,-85.46671440466298,-46.102257230392446
-99.97531604546802,-350.5438069671169,-578.1817735508205,-96.25176119589374,-313.829532475239,-53.47891620966944,-90.1705397014431,-48.684516221786275
-104.36822532739002,-368.6556903745137,-611.4319832926227,-99.84818246435226,-330.76040681785963,-55.489863086533326,-93.58390774169895,-50.13040449250497
-103.64423960158624,-366.55157755420885,-615.5977985115499,-96.15445861953387,-330.9309078674608,-53.658200991383,-90.626440495259,-47.94720930436185
-94.44768383775876,-325.80915324937223,-557.3865324697158,-81.70314261703169,-297.1243966959303,-45.4065476914718,-77.4232700775262,-40.710893624269175
-76.53877225030638,-240.60939816984114,-421.45132672269347,-57.64179232783241,-222.5291527351158,-30.60016288100577,-54.153130759385895,-29.30486848868695
-53.39120567746167,-124.13560357904498,-223.73277611444388,-30.013226482491895,-117.24287888139128,-12.156466413569182,-25.82590976622465,-16.86032816317665
-30.61068661987601,-4.460189805070229,-8.303690108433644,-6.988801577925992,-5.642183275071011,5.201253439406366,-0.1293390143535531,-7.242503483596767
-13.083507407830849,88.52862848386843,172.13767378258214,5.373915705385498,84.68740064340301,17.3457183538077,16.468589820529743,-2.980203962651353
-2.646708783733837,137.44399925128613,281.0198668222746,6.168869980574845,136.03725539112153,22.75799324432494,21.897966491502658,-3.9753104515732325
2.3008400826696893,144.2769081244032,313.11024615355706,-0.42504358899438544,147.80061424166067,22.882066693537535,18.95731145844145,-7.811512960651739
5.1965985722863595,126.21980914948193,291.87716445535733,-8.078873278109244,133.95036003919407,20.7507257337274,12.989324612572402,-11.372910799558728
9.03166260180688,104.29673060519602,252.7215892336953,-11.950238961254463,113.46221443547057,19.026022038139363,8.599103386312965,-12.597903139439625
14.977814129307287,92.84409250040173,224.29700900599167,-10.627920150938285,100.55765632000032,18.863471001808612,7.691746157851831,-11.226090308722753
22.528352986181435,95.70020379271824,218.84192659054446,-5.602307488306743,100.3456437034188,20.122066550427704,9.737880008974537,-8.304864061592255
30.488638937197003,108.93795900403224,233.69755644311294,0.5912480557176925,110.40846301874372,22.25959355060924,13.30952465562433,-5.167822124974074
37.793812731890014,125.84042814958124,258.5533004590278,5.894672631757205,124.96384270262465,24.908473049042932,17.296569927455536,-2.7354754419276555
43.7895868972265,140.53889570354733,282.3292259855131,9.275993569968911,138.36357183844663,27.8173751101312,21.14817842494149,-1.368550201972948
48.294494366113796,149.83197906454018,297.64818662477893,10.753712719577802,147.1464641306086,30.634746821862688,24.651260622705866,-0.9498505416929472
51.68627379154068,154.02627556439128,303.3611306460298,11.326563511695989,151.12581531562216,32.99916575836866,27.858673510501273,-0.9471903529869264
54.78261128838987,156.56760280376264,304.616581350352,12.590551349290362,153.25157389543295,34.787929296055445,31.064565427147738,-0.5881461324063607
58.28599361546296,161.69014659686536,309.2504881023327,15.79101981545768,157.55955721556936,36.0867486266496,34.432008206671526,0.7060861236415396
62.134709968370856,171.02664928136736,321.80738917145817,20.822334739353984,165.99042336509203,36.85916220761577,37.452156872287084,2.8765308824640954
65.43067853582798,181.95145396346786,339.6543118092597,26.128599525688635,176.5563130284347,36.78380573295829,38.944241133273366,5.225379048195986
67.12791048308428,189.4159460584131,354.71520700484973,29.76283500902175,184.63851452002694,35.572487581702696,37.88491624926565,6.944079500962468
66.8799331152453,189.8159030631983,359.4570061818715,30.738086421204756,186.4082950117093,33.47523338572745,34.41201413639094,7.720532687608245
65.30884148568296,183.67856014800097,352.23079126762076,29.58799706306555,181.57396191659396,31.432117744027995,30.08730496110074,7.925754223562425
63.593072593291055,175.55313102903864,338.5916485801229,27.933294109319924,173.75153603494672,30.737236327231415,27.250090593089304,8.34279907849787
62.83992860704164,172.0776647154747,329.12786166397564,27.654912463862736,168.99268306236067,32.53638982964851,28.057892310658755,9.759425555702682
63.58614633555159,179.56170135755616,335.60407631724473,30.115261711990165,173.5664788667885,37.39296819811788,33.68682314465437,12.610361610813282
65.3609584285294,200.9601742914901,365.53134539369745,35.32233423190325,191.01977934016097,44.80244252688361,43.589108020481326,16.58506656594446
66.32211023228214,232.061743926944,415.1145593854496,41.10122776012171,218.47698523432717,52.63312811942538,54.77258686756496,20.257579695820336
63.47241236892597,259.14353820936117,464.1011930545047,43.12091620951641,244.1731464390955,57.04889992042966,61.83828961692694,21.21053316949891
53.98352831403706,261.9601916332718,478.9700674270402,36.68461351128135,249.7033895636893,53.66391050055553,58.7420892187575,17.092821754295606
37.2399829465275,223.17451800203992,427.29732713606023,19.823967426727464,218.23987477503326,39.85218260063307,42.054208492552625,7.271406744459454
16.180845434895406,139.56621837909097,297.02202690164023,-4.388873040748767,144.89247690434266,16.879744457909254,13.781551776732922,-6.0892967068164
-3.396911041421828,27.170363391288017,107.98342481693723,-28.409566713799958,42.225467074320115,-9.831024508033407,-18.536969662737757,-18.581566996559747
-15.516165640880157,-84.335775117788,-93.56136825070129,-43.80212678901965,-63.73068757534171,-32.87907558541401,-45.0629049396058,-25.66585301762556
-17.08675266898364,-165.36543330031878,-255.58754467310263,-45.665513176085675,-145.3042216232767,-46.34448705121196,-58.42118297751251,-25.0532868357132
-9.409131597699208,-200.06710845821362,-344.0711350468845,-35.06450224329204,-185.86764541353037,-48.44671493099332,-57.08165216099939,-17.826665909624296
2.776123292767347,-191.94825329191087,-356.11341933879646,-18.027817837659263,-186.03576313310612,-41.882965054138694,-45.42150100289443,-7.644011242684047
13.963896428831507,-159.0658495360523,-316.0935605412403,-1.9815046108149459,-160.5212649568497,-31.87225131179878,-30.7429648811461,1.354742061789809
20.54382595280866,-122.94856190036022,-259.3517808669529,7.98663706958197,-128.7130105524448,-23.312967838064196,-19.350967001446335,6.564671417867056
21.93914659614212,-98.50025186900689,-214.53614968223192,10.861620154990474,-105.27061994492294,-18.770158111594405,-14.043825507027568,7.72010641443888
19.92769325806063,-90.01140817524346,-194.16494815356953,8.911857070995342,-95.67940913728792,-18.16088163552536,-14.040258062391018,6.309026561391473
17.03765441232064,-93.40106634593423,-195.6103573814143,5.546573440340691,-97.46918239202066,-19.77419682441034,-16.63072445245814,4.3190690870158015
15.201117892372128,-101.18315800133519,-208.10739482596458,3.4557704084968375,-104.34768517003403,-21.612196359601924,-19.053052634310774,3.2202260421234445
15.233224762358446,-106.67168000770548,-220.05685485904365,3.849598926138628,-110.1090782297052,-22.283747259943176,-19.58801635670756,3.5944545227487064
16.957104122837578,-106.18068804165982,-223.71147061949696,6.578359702720083,-110.93547964411947,-21.308758793019837,-17.811629453207804,5.256346537066001
19.575648776266977,-99.58117689262389,-217.0850047207111,10.60144073107745,-106.19020239375105,-19.033060765084716,-14.37157154812072,7.557297679385719
22.10960802787429,-89.59158219752399,-203.46900052619864,14.57148606074018,-97.97566059769265,-16.30311362648519,-10.501221054226479,9.735378138594456
23.859666771369145,-79.93683767392187,-188.7650012914609,17.483948666314976,-89.57966209388479,-13.976396061156278,-7.347834721513354,11.271434302983863
24.724559430251457,-73.12810490602665,-177.76366387916153,19.150341312276822,-83.45790326246758,-12.465327219265472,-5.376780430747578,12.117692480097151
25.141165038130733,-69.29213198736157,-171.68396221435148,20.146117193834172,-80.02414379126134,-11.60495219955127,-4.250719449533384,12.629462161024044
25.66988485402538,-66.84526300629732,-168.59859969849913,21.244946097842007,-78.0541822901254,-10.927824650264373,-3.2719538491693436,13.236606595735264
26.586399932932693,-64.17163025177655,-165.8769836968518,22.8411517926099,-76.10042257429842,-10.072851051725793,-1.9657001389486783,14.138784678881352
27.821016851372917,-60.661692197968314,-162.13231100730013,24.85099457718668,-73.49757665592432,-8.963280568873746,-0.2870832983851638,15.273580812491991
29.198309956337997,-56.44669494257049,-157.23563061405795,27.040099341393443,-70.26006138324338,-7.68208091886767,1.6064713129892503,16.504878699357434
30.638146854473238,-51.67566448587195,-151.3190873070944,29.303908236575964,-66.49013591305739,-6.293040199513014,3.6221434382695263,17.770678041873513
32.12077804158868,-46.39129304656371,-144.4366448227699,31.618318890479525,-62.224337126334675,-4.828561412695308,5.726591497884119,19.051812029534222
33.5658545538857,-40.92613747652616,-137.07424025883574,33.86799833471522,-57.74479993445759,-3.3789202675226284,7.798619999488152,20.28394016472325
34.85956505076169,-35.93980153318894,-130.2880451867159,35.88500796740969,-53.63494000830928,-2.079890906560637,9.650311715311622,21.38469949984194
36.006065860218946,-31.813530434586312,-124.84533054136884,37.66722625774172,-50.27776983144098,-0.9742252884288359,11.234992033731166,22.36685718597196
37.16889981009249,-28.16965215321233,-120.36152337624472,39.44300171994896,-47.40418254162431,0.061279916957566447,12.744492345906586,23.359925059190708
38.507581939734145,-24.241921659967495,-115.66678437775705,41.441531506493156,-44.35326834869647,1.1960672747429655,14.419860579171127,24.480307907410715
40.00441408029151,-19.710627436585415,-110.07824564342262,43.64261474935729,-40.791121649176844,2.465748051906204,16.291264489510162,25.705505938709045
41.505173541297324,-14.973056053907827,-104.03350545626718,45.827872862768636,-37.009654095078716,3.754635061794696,18.173878750210463,26.914755384131965
42.91795008373376,-10.549109085702174,-98.3580352545308,47.86188833216049,-33.46663378475787,4.954734403072909,19.91515720853971,28.041624481369606
44.30856954119836,-6.4402568784818435,-93.20351689377001,49.83334611629162,-30.208421682169273,6.0887574854670525,21.564862742295816,29.139406873000503
45.778747765460274,-2.259709587798661,-88.03176528811892,51.88816823064503,-26.917640456664966,7.24604139072104,23.26025531863136,30.284003066191538
47.30854426753122,2.1327931198579235,-82.52576084835272,54.005979247610846,-23.442553813378385,8.43878849951737,25.010600250591757,31.458926231388933
48.783883395553524,6.4233099094521044,-77.06708567049881,56.0338167711425,-20.02416719294582,9.585993618261218,26.689051298886863,32.582710953169105
50.16625075938713,10.348852260342623,-72.10737248526799,57.92153146838176,-16.904145428458875,10.643383769518046,28.235825355102367,33.634921527571784
51.563270023190064,14.170686280254321,-67.37193599539137,59.819433296643524,-13.895162887384387,11.688031508525976,29.774390726473513,34.69864769763146
53.097048190166355,18.396381384751695,-62.105436142051374,61.890673811466115,-10.566507729300744,12.827420733012728,31.461438233854757,35.85444325422954
54.7464169788907,23.076515590017483,-56.11994658172791,64.08791224531876,-6.841628919304455,14.048261000049095,33.26403881247807,37.06812837365814
56.37371402703449,27.621156273772048,-50.24091080245763,66.19670102533773,-3.20551679827756,15.210109722157656,34.967443702338294,38.22551518700021
57.89363960438945,31.41864465976145,-45.48240882421382,68.08782190246407,-0.2078297421378821,16.19937971160757,36.413341989845264,39.268204890139494
59.35405876364698,34.49600207826417,-41.93229256588841,69.84616607979072,2.1372532085628437,17.050084343817044,37.66736807534022,40.251374667190255
60.83249637993767,37.43963216884187,-38.6743232524265,71.62646389491609,4.341552380109209,17.890166986033133,38.92119556702422,41.25722956443361
62.31421495619668,40.78189319680933,-34.70687856626008,73.4619104897687,6.91923194805177,18.805267265983716,40.28902526029524,42.29524316159116
63.73858134653479,44.67826885244603,-29.64015799785713,75.2955735733339,10.047350116900686,19.801661018947854,41.76872263909718,43.32750287898896
65.14972748338621,49.14011469959804,-23.517300679250766,77.16262045859082,13.71418669253746,20.882409200551734,43.3661174137646,44.36850376513867
66.71763415552417,54.212306773241274,-16.482323348294134,79.21351024505553,17.892306636998793,22.075087632527335,45.12870763094152,45.49334981962881
68.55349631171528,59.59597911435962,-9.155541175865293,81.4830021948889,22.275980160975372,23.32568989262535,46.975453052336135,46.71501415887292
70.52547610150471,64.201176383862,-3.2251153174856144,83.69347746635333,25.924428746912767,24.402243287080683,48.55659508917229,47.88995678812552
72.30876422646594,66.55549635329673,-0.8946597236482777,85.40047582349194,27.590890519994723,25.004652987792674,49.43256467537323,48.80447149040608
73.63658820732718,66.11950321034762,-2.9214477016927467,86.3914423781465,26.83740475501517,25.04918654402419,49.50069281719153,49.37810904103513
74.50333312253245,64.35760633087027,-6.886573515533566,86.93963660271436,24.98035293931729,24.860402265123835,49.26046535285424,49.7731175425505
75.16612566205434,64.38401963411594,-7.670125311564589,87.67596898473138,24.801897451482372,25.056312928892652,49.618487501129174,50.30435256227518
76.02840114413954,69.22245759288039,-0.3134130158603998,89.23450379320681,28.991186551693826,26.189900071943345,51.35609199561108,51.25273039943025
77.53176855387953,79.80871856042872,16.524689924071367,91.95038331914252,38.30963923371372,28.39010501341523,54.62413689410142,52.73138460843874
80.0117167257747,93.83171244480425,38.587343813511914,95.67049950232358,50.5411555681342,31.178786232692193,58.70140718529829,54.621279729598754
83.40875506569567,105.87085988106789,56.529620562175396,99.59642171983609,60.710824590391645,33.507950341126396,62.058520705821444,56.517665721459764
86.95001839436058,109.02869350916303,59.108040514680106,102.27499487486689,62.70174182565554,34.060129695493536,62.791258160555046,57.73800447023319
89.15980549965226,98.21682828962629,38.86715874828275,102.05651053788496,52.27348644501546,31.878945650911486,59.53347338816145,57.549113272843556
88.42591398319763,74.40184838316479,-1.0812922734616779,98.07498942814453,30.78285937254106,27.200433338989967,52.654515773552895,55.63076786800104
83.86520763702583,47.44592465437318,-42.896141949242185,91.17683909789376,7.551552100121144,21.986635002210395,44.992492480876486,52.48080979918931
75.87942690414131,34.473408627874186,-57.14911478867178,83.93539161238823,-1.7455876519046014,19.54568399725765,41.22990201798411,49.35187904974967
65.97426534054098,52.739790816968906,-14.839561357637503,79.4343829532287,18.458924042988205,23.09404382914358,45.75919183255527,47.618056465614806
56.002239002220584,110.10371376264091,96.64391652771297,79.53367902008,75.04223212254526,33.95146011446867,60.1241249829653,47.98000896721648
47.45940176318519,199.19582138122612,263.5200155924827,83.93184660468756,160.8920776344588,50.569567236009384,81.81312723849764,50.154040942106256
41.38266163804066,300.11972357401834,449.7769130564485,90.86500630652993,257.2685674048232,69.2249636549275,105.53112786130768,53.36795327352195
38.753667583957,390.9103117999143,614.8141022205529,98.91807802408225,343.28261962560316,86.05570397821292,126.30107482193834,57.270081663280884
40.62091775553015,458.7294277032536,733.5026215997185,108.19928139420992,406.3484665686711,98.98743166957387,142.10229205189646,62.311469076574575
47.17684039611643,503.2346208593999,804.2810848000468,119.3130156481659,445.88525732404014,107.99257417038395,153.76735883743135,68.90304769954092
56.089599515248416,529.2550796065713,839.11624944761,130.50149945537615,467.31580051821766,113.41251476691792,161.98819971472523,75.75125316243731
61.66408668835425,535.122335210981,843.8348537697295,135.54859790528357,471.50232574706314,113.84957359032762,164.01073820526318,78.88056398360933
56.416374377139185,507.6336614181007,806.1582829959675,125.2105540566524,449.2256873082287,105.76894628747961,153.36776774087565,72.75436050683292
34.89817284376922,429.6096165774309,702.9321439173624,92.30523557872203,386.5045382650833,85.62979102855965,123.69741278790289,53.34584104711468
-2.5198905700483287,295.1150220275449,521.730986171718,37.24578690228566,277.26507953991165,53.12248251757245,74.12454931261448,21.223225184783452
-48.67661065528193,120.29735854681859,279.47575134604097,-30.15369246113002,133.27144884115035,12.941468805685544,12.03910214863003,-17.651595380107217
-92.4613953844113,-59.293319348842225,22.706271118799595,-94.33560373946528,-16.956408517521353,-26.49116613734138,-49.12747970702353,-54.22709078909535
-123.8712044578565,-203.94482531844506,-191.7817588733662,-141.04035323481034,-140.19190723317445,-56.69923650271218,-95.9037379055065,-80.45016770956954
-138.28942900438247,-287.8465522703921,-323.2294999301156,-163.47491212955222,-213.73339354889646,-72.9237120836801,-120.79833626979601,-92.69517296444772
-137.6939008067739,-309.06759817822,-363.77037168318475,-164.21849223322243,-234.4872846207097,-75.78021425894967,-124.85258061159674,-92.68744721321625
-128.5713784392819,-286.69554800739104,-337.1306536329893,-152.4045857822548,-217.38057518029788,-70.11858463374027,-115.74237728298432,-85.77116189884275
-118.20925560658013,-248.61964978493052,-282.5042682410749,-138.4804398385477,-185.53613137328972,-62.13192987086328,-103.17507797525694,-77.8940207371854
-111.5778457573324,-218.10541023412964,-234.86401943367522,-129.70431496240002,-158.9051581949337,-56.54557856533605,-94.4885363990795,-73.09333520160341
-110.13994350330937,-206.1204825077197,-212.4928860711331,-128.34684412526258,-147.41506821233642,-55.238928654065504,-92.54000036416703,-72.54493703533004
-112.53045570255522,-211.392908981837,-215.71679982799967,-132.5799870100222,-150.62495335573976,-57.5149711085049,-96.17168501211104,-75.11977385077931
-116.16349568579533,-225.58625888080113,-233.68007051452398,-138.74156175183336,-161.87265685807387,-61.34097602564542,-102.17378139147606,-78.69259874039008
-118.78719667006197,-239.50530515321833,-253.20199212133826,-143.5721324563517,-173.4603297143563,-64.69986583674874,-107.40412628185759,-81.415480949974
-119.42604494993928,-247.48462067527137,-265.32298433282847,-145.60063970712184,-180.40133305791963,-66.50228482334991,-110.20576575473892,-82.49426611800082
-118.53188202897802,-248.934699982268,-267.95206302654384,-145.40124697684416,-181.83672812557765,-66.86138771516472,-110.80461143198823,-82.3109390048994
-117.40967354893384,-247.16319536242622,-264.7548655301589,-144.8023956677184,-180.21633243480736,-66.74738953108584,-110.72188344665469,-81.94654617118786
-117.2431857025194,-246.36248925697726,-261.351484951676,-145.50493281563132,-178.93237575599892,-67.23101585210877,-111.56567653734707,-82.38116572250827
-118.28389441160941,-248.4900198202934,-260.9831254651902,-147.91164756530964,-179.75482779708256,-68.73795906363095,-113.89745585757377,-83.83404607159537
-119.71824750580107,-252.0483975737038,-262.4505697552696,-150.9106468528158,-181.71985743299967,-70.77960592805059,-116.89130945798749,-85.65299376321322
-120.29476499996967,-253.65881676832916,-261.88389054826916,-152.74373506864157,-182.2982101880589,-72.3402711812827,-119.01068967216364,-86.81042176814165
-119.27987107878182,-251.28400890576697,-257.0097246149044,-152.35760042167064,-179.97984943215084,-72.65428585691689,-119.22813582367174,-86.66600545760168
-117.13327481964916,-246.67843569880796,-250.45216119446434,-150.3712604307303,-176.25627248759443,-71.86123858586399,-117.97508536169218,-85.52406854447516
-115.51671311728136,-245.21832173488724,-249.26987047243648,-149.10346349756674,-175.41412084500524,-71.14521283919898,-117.23869569992013,-84.68102139601575
-116.58835593528727,-253.01801875493166,-260.69659633875045,-151.58723933294775,-182.09197597550096,-72.2597896844779,-119.70405038484436,-85.90339806231101
-121.7710361348138,-272.67373447882267,-286.40364135320254,-159.83742817884,-197.83852161640573,-76.57318768014302,-127.20727864269648,-90.4535745708057
-130.39609803137714,-299.4840088021847,-318.12169498565385,-172.93598654607786,-218.27200092936843,-83.9313101198099,-139.02191386103675,-97.96749650582487
-138.91054856863818,-320.05261791189685,-336.8646807070424,-185.89801242616645,-232.28395299092182,-91.84404638385658,-150.79978613488697,-105.74794596642747
-141.44434021284636,-314.9747361989091,-317.2586558029656,-190.4396341705052,-224.42336723103872,-95.64788636917825,-155.13402405278646,-109.14364201704248
-132.04858083862626,-266.0754974275075,-237.066261886512,-178.09839465865804,-180.67598791918238,-90.05032417474686,-144.21063364265225,-103.29456150379332
-107.84233808781943,-165.96995912656203,-89.05907351986501,-144.65530622049118,-95.8844686272212,-71.68378663487708,-113.75728619943277,-85.6516474095628
-71.34440979338248,-24.959073443281916,110.8275176701538,-93.44700163452269,21.019405036479576,-41.408385765438624,-66.22612838892329,-57.892664718109245
-30.304132384156173,129.91279053892214,325.44659402073626,-35.18852724191555,147.97370974268486,-4.844699717876663,-10.990096259135209,-25.870230861601087
5.355170256195499,265.1176972045831,510.3636942782336,16.261225522894513,258.096263471349,29.588905777203678,39.211682299280845,2.7396261583156356
28.006524274583022,355.7485894106675,633.9743714820154,50.14053734671751,331.816251971453,54.343108438868704,73.97382034899233,21.928705874902167
35.58471904310482,396.65824828197754,692.1139831197107,63.35059324860453,365.7701787199516,66.03989817123667,89.74979606564015,29.91013609850904
31.603694809813536,401.9002195571103,706.4704721254035,60.45972825325233,372.1312508068167,66.33482320784903,90.28317168208838,29.12508456201779
22.04457382192974,392.00346425448134,705.7878279304315,49.318890438449166,367.85961965487337,59.81860322995118,82.69605818966207,23.823273617885075
11.464818780214515,377.7300654881631,701.9414155138504,35.64144578803015,360.96342883985903,50.56513233998794,72.16024492256982,17.094314809816925
1.117168358627851,352.483930828198,678.9021545576766,20.525682793176053,344.0782580027345,39.90217071478749,59.12731808403576,9.531799230610995
-9.935350742009996,299.44850037140844,604.4862475284665,2.2949590190700793,300.8086830168639,26.88114480842414,40.944130639604474,0.24724282844584017
