FZ,C3,CZ,C4,PZ,PO7,OZ,PO8
9.303673732211733,81.92636660145418,45.68439194730235,-3.8494436474927314,24.982871371957504,11.266844691308904,8.11795039944587,-0.07766812088203567
25.522312435096694,172.56530423386943,108.74093432552067,4.590728909334218,61.453856169403494,36.1079899185392,30.505225036079988,8.921847245652547
37.53494943959855,241.19611256801855,155.51163467553127,10.588904204316595,89.2328876555371,55.89792266957047,48.20805511540026,16.079942886592875
42.976086610105234,275.0366932209069,176.8497047720095,12.858950558143114,103.2706304191146,67.56547210844965,58.35084989688747,20.198818405169146
42.182509399601514,275.06045903982107,174.108100616294,11.781633871799642,103.91266836782533,70.98044756278826,60.75306572692661,21.059236202488176
37.67693885355243,253.71631773861822,157.12586889935545,9.017057867572264,95.96262518721339,68.47612542633611,57.52974499454962,19.32941041980843
32.70101175042726,227.71048890132747,138.50316465101005,6.54688908681972,85.85623926359894,63.372378653163274,51.804262137658036,16.170514108763534
29.658381486860634,210.25189150258066,127.65071318919361,5.696198707135453,78.66803596487158,58.4196626563272,46.32212022749396,12.767038526514424
29.21371657830658,206.67400941868215,127.55559110272135,6.574667650190646,76.41890910867174,54.9290581376866,42.59380469389032,9.96380557250446
30.3352318769075,214.48440161075396,135.0483613386701,8.133095943507668,78.08873486203883,52.77717154888761,40.734164180901956,8.09578323060144
31.117039069039663,226.24743237720023,143.4627037724587,8.809069763271218,80.80001071053564,50.98341853775715,39.828795837238,7.039679397907651
29.950398210775788,233.21644231719503,146.09135753856756,7.514837012740619,81.41011924905845,48.45567911806296,38.605074682300675,6.474975410572518
26.513607671604838,228.7353660387313,139.29999737974705,4.491340846503747,77.99934007793229,44.65595331303429,36.22670116346594,6.252717809254697
22.102313794520885,211.13228083949195,124.48814351111042,1.4839897838344789,70.90505214869161,40.04136978854066,32.954646268767036,6.659936690679377
19.084151249097,185.30578964226103,108.06848595656113,0.9856188489850307,62.89688981292697,36.10736246903438,30.30497008650227,8.36206441255667
19.71073712553034,161.66930520822012,99.0030821544617,4.862938085671993,58.19235156318153,34.893758327243326,30.454464836609183,11.984624155667667
24.919188568299646,152.00918692174764,104.60623826227095,13.14360570251696,60.54086209385286,38.05503839781255,35.070406007389025,17.563164412198354
33.79858846322474,163.8208640718229,126.5873859106346,23.716345929001307,71.24785963084405,45.90181147985553,44.17724541424151,24.231754793810946
44.00845333014357,196.0617352620671,159.50653604288343,33.172139512656656,88.19342852962002,56.91849434644296,55.739158410559966,30.3995438524903
52.876223925066874,238.7558397608272,192.61249566347553,38.3451623142077,106.41435750558242,68.05448698076273,66.25470816851396,34.36019783304342
58.54939838031503,276.8639870276978,214.22642284660765,37.72771401204226,120.00468251581493,75.72148290668177,72.10766056520949,35.01276184206893
60.630131356986915,296.6192759346027,216.5565703334929,32.04291048212738,124.4586960757546,77.11855974837917,71.04584766201657,32.3188592417066
60.07582104558134,291.2980149142027,198.71396534934618,23.75568578601777,118.41821345261205,71.36278074943556,63.12740519913108,27.28585457404707
58.546459129623564,263.6901284872742,166.6679869545503,15.870823444113105,104.0921338829234,59.951112923586805,50.7326334308451,21.520124670836974
57.60294487877658,224.2090079759152,130.38978464591412,10.686851758283247,86.22561515130658,46.31461963379675,37.6489171896855,16.59053814028921
58.145653401526346,185.84287433694055,99.7461212319078,9.098709155173726,70.15490177132324,34.59820992543077,27.634727384790967,13.496423981851063
60.28380433838467,158.77201509834146,81.16243784225517,10.65148791310218,59.8829239715056,28.160557418654342,23.089897186352445,12.445521623326856
63.55682926422883,147.3899136070341,76.38693783459367,14.098354792807333,57.000271963849805,28.425287129258912,24.374991608555014,12.97508285611958
67.24045626812891,150.591001127434,83.2543427788255,18.000702871839486,60.68766911012843,34.51154109429496,29.955946477310356,14.285998648556989
70.49783627142757,163.875701366822,97.1973517266344,21.059149049380775,68.39099150555107,43.663436981551,37.13257109541333,15.592347523224179
72.36937838450334,181.02788072629312,112.31494939206905,22.216752664953816,76.58152255966586,52.181682354726426,42.928384456509306,16.344114846970275
71.82360001251088,194.52534025077912,121.94658425862812,20.78730266073906,81.39540991933413,56.51165934502612,44.849229775615306,16.299128777667143
68.07186509541485,195.9121269624333,119.67065205375513,16.733554498237382,79.38940325589213,54.249585831741484,41.44464003963002,15.500929221039906
61.066480339952626,177.78546717367718,101.31545661874382,10.908857123292414,68.5908121333027,44.87165253313587,32.670165021833526,14.212963411150795
51.81875010603938,137.2719824170213,67.21115451918423,4.932409563489289,49.49048134738868,29.940715759736445,19.942008016102985,12.811176254038683
42.18766082246117,78.7440220957127,22.981963931526945,0.5753121358615313,25.251511341034245,12.594634235275706,5.728082244107983,11.627856727255896
34.133688302316806,13.325492682097325,-22.213282867214797,-1.074020106088302,0.7019008089492257,-3.591912127821034,-7.295123018760147,10.79200116034611
28.83933791432017,-45.19743690433716,-59.331645325929074,-0.16037810719093418,-19.514665155751786,-15.896666155560395,-17.179166215911508,10.165674325582772
26.240217665600305,-85.86512550751758,-82.90274905030608,2.0493690476379554,-32.61456922330686,-23.250781303910486,-23.24273916761535,9.455199941724915
25.264496029369223,-104.22559652614586,-92.28442858293911,3.9019038840115234,-38.232189087179606,-26.154538235968694,-25.916578024822748,8.465415547070048
24.61261827381109,-102.28260673391527,-90.2335419374606,4.267144411792826,-37.667914841103084,-25.83940448870793,-26.039588161935868,7.3354104993285025
23.556069641307793,-85.35678384318517,-80.12856659426441,3.0576956792313754,-32.51508970551518,-23.274193578619432,-24.12598014308189,6.556918106996462
22.24767667718929,-58.451409377936294,-63.950277300379646,1.0673898523918404,-23.710025841479258,-18.682021075133783,-20.133283689298988,6.694375079161803
21.39849069910452,-24.620773806192283,-42.307468740813114,-0.7010764736661648,-11.615977017106342,-11.83786887302357,-13.872130586229543,7.941232122065476
21.614076243866652,14.071568312584333,-16.08688620922308,-1.7327521035211273,3.1149372117562746,-2.834824491909782,-5.695200828092451,9.807202821086152
22.885215183952365,54.495085576916146,11.925931228813122,-2.2630760278072457,18.764595925129818,7.326651743887966,3.1254930529261475,11.200807226666711
24.574567120366435,91.44673861134099,36.97976715606551,-2.9713047594137065,32.61897095348623,16.819480891095157,10.701613227039516,10.942433258763016
25.863448465545687,118.81995914999108,54.109668674974394,-4.359951893772733,41.97373037977923,23.730179428990386,15.379949194568754,8.450950044396409
26.296010541091114,132.28940097142285,60.579825498378206,-6.278692516560934,45.443981087520605,26.969930079822444,16.59887932951884,4.190282641015057
26.014089170709315,131.62375204344414,57.35049492423834,-7.930788059206835,43.69164746182331,26.752881184137628,15.177572368117438,-0.43121757057161353
25.538676380403334,120.96271148031154,48.5838740922399,-8.347414072943597,39.07358488394124,24.361761128725895,12.844814792135379,-3.696204050521482
25.303710948413766,106.92718445964876,39.58732796633574,-7.005089738147429,34.46518420738034,21.429743255114982,11.326089143813476,-4.41343160775783
25.297316702247592,95.9500184097305,34.56118982019228,-4.21582205784978,32.030487688520495,19.247333259609213,11.561871857346999,-2.505034640945165
25.02314108315998,92.3181736675498,35.30199565337615,-1.1063192531957025,32.57419841321168,18.4423214221908,13.449472222642768,0.950699990246269
23.739218258971853,97.20855061127564,40.99576262907301,0.7863189425276967,35.52847834170527,18.992782484500932,16.089127369232845,4.227565502609093
20.80163755886484,108.08662981626111,48.569185821941595,0.1647087215716132,39.23090110489777,20.332574667805186,18.2486184876197,5.759640045005944
15.978857670557398,118.38103893117567,53.33753711730272,-3.338918788291953,41.28774038896475,21.452259621840838,18.802847078365254,4.874492474574387
9.665131031245936,118.50907314391459,50.25288893478533,-8.734567612584383,39.16352181089467,21.12818443780477,17.081315732971937,2.1086708201333053
2.906833467850685,99.23173163342648,35.908381146917655,-13.832203948313607,31.13004962575378,18.392063727137185,13.11657046824952,-1.057853882274926
-2.8572056164540918,56.453345994291695,10.55336853314657,-16.0876296174788,17.266988946459563,13.077653818114255,7.7083222867127175,-2.932129754389636
-6.325370020393952,-5.349993093488401,-21.247612689305498,-13.806021110406332,-0.15606331364619586,6.07074245657495,2.1877202854028632,-2.4342349134650396
-6.91061234521912,-73.7717724540364,-52.14093775180644,-7.043964364324126,-17.378561138167075,-0.9928477635259694,-2.095889696821094,0.41315658942151634
-5.035978115026801,-133.459724058266,-75.11374877926632,2.3544055951834593,-30.70328484758847,-6.466595412761475,-4.338632128252919,4.571659488292649
-1.9447119611122665,-172.82014139961612,-86.50765618747381,11.642699298505862,-38.06966291547786,-9.444756529193906,-4.5913583661255934,8.560620574408576
0.8889107678656225,-188.6475032671515,-87.22554335941051,18.466622782734312,-39.76159768586496,-10.089286928695305,-3.6407679168702862,11.172323656539525
2.4158406163138473,-186.2502483454069,-81.59572749841841,21.829855379493864,-37.911229275434685,-9.378543962547354,-2.542898363235755,11.949805629413651
2.3746280062554015,-175.51699991849407,-74.79934708075731,22.25135842185168,-35.20625625678361,-8.492521071139189,-2.0954108300229595,11.226850072653367
1.2045926338062887,-165.7059209460418,-70.49555312564092,21.16897039157731,-33.63183866911111,-8.24369179287038,-2.549881376880825,9.792925291492447
-0.35587879466912753,-161.96950990362086,-69.84740891863217,20.070372427178064,-33.9037908586694,-8.856210162768418,-3.6761172499880685,8.432951028187336
-1.6898641174656517,-164.86254072009638,-72.01580392857106,19.873784415360227,-35.67403261443102,-10.102620693052469,-5.045918842004697,7.603144546521375
-2.5138849142324307,-171.9807706353348,-75.31532144585155,20.780669782693717,-38.11146256865647,-11.584958369491975,-6.300669349522219,7.361260897411907
-2.856483402278502,-180.06651476903448,-78.19716593951472,22.480072723747814,-40.41622061555835,-12.953287309929475,-7.264113748126513,7.495657302379661
-2.9226138299214863,-186.5235003243608,-79.75633226522605,24.457991765358663,-42.093836551304506,-14.005505026454074,-7.925589227567895,7.715259313335404
-2.9573342381891754,-190.17204644462282,-79.86625589472611,26.252509287924163,-43.03757646165043,-14.713301625094147,-8.383660106903521,7.794394520133542
-3.1442294262548303,-191.35658955107093,-79.04872951939306,27.611566130154426,-43.47667786988962,-15.200009104239973,-8.788779860993833,7.639948206258539
-3.540961889660677,-191.4237354420247,-78.09799553248254,28.540485635477154,-43.79644355830007,-15.657307383435633,-9.273462941553657,7.290265559520841
-4.0750755493349775,-191.77076519246268,-77.60330193088753,29.227540099301713,-44.29665157455647,-16.225332337007583,-9.884706230470446,6.862132308225887
-4.617078040672822,-193.07315306540062,-77.68915246367885,29.8925593693111,-45.0533971457936,-16.923298944607136,-10.574695949566687,6.471416865281499
-5.08503342653936,-195.25849878647387,-78.16085086327372,30.672291396164145,-45.99140915330853,-17.690588020612,-11.270278532718496,6.171762658060161
-5.491349300217434,-198.09164941978028,-78.84690736041621,31.62482908285619,-47.06377636612601,-18.48486492444677,-11.953811126282469,5.950255984642744
-5.892412532066803,-201.60860151809334,-79.73323609256109,32.80518120775696,-48.31777499229223,-19.320671919649865,-12.665024445226054,5.773460140879866
-6.302087485944813,-205.87399661237507,-80.76090520576571,34.2815906862759,-49.76481160941374,-20.207468536155414,-13.42123948985149,5.631759503530488
-6.664374100403839,-210.39711499814752,-81.5900392004032,36.03790586456216,-51.21649965607317,-21.072679024624108,-14.151628678009759,5.536893758487671
-6.908867134051525,-213.99623652092853,-81.6894733510133,37.86145418905859,-52.30524322361079,-21.776355767671003,-14.728735986944239,5.481935693750519
-7.024381576888443,-215.42878807689237,-80.73502325126783,39.367232989906014,-52.71439204845861,-22.216680266837955,-15.072774057847473,5.413700122896409
-7.082513052742603,-214.315282220084,-78.9591657877664,40.19659839426627,-52.43650315941978,-22.426389938306958,-15.232128348140668,5.2515012553848095
-7.209115605806563,-211.67406245356685,-77.16749886461939,40.276787534270966,-51.877251590886495,-22.582273577434982,-15.381510716423191,4.938493353789978
-7.539486123729109,-209.79737715218266,-76.44667161632786,39.981360677217374,-51.76361596248054,-22.940940865302203,-15.757601715433973,4.488170350794241
-8.163666612260782,-211.54245570157804,-77.71881490268193,40.09030231099134,-52.88952966321447,-23.74616807736476,-16.567523922578534,4.003093673720143
-9.043159370704785,-219.05938604319078,-81.20079245844227,41.515932076459634,-55.70826117146257,-25.10955603291838,-17.869393141117296,3.6598023620555553
-9.92823516998731,-232.04472431257705,-85.84947158013647,44.81394111513861,-59.83607954659644,-26.858667981271154,-19.43641615735251,3.6491828553645727
-10.375534598455742,-246.25944524822262,-89.16350237151397,49.611830384503655,-63.74057352959516,-28.43550720254581,-20.700369205694482,4.06282475533725
-9.941129567433512,-253.71716636804283,-87.86857432785429,54.26342580825647,-65.01567851884863,-29.002668183003035,-20.909263580766037,4.758698001802533
-8.481616948492128,-245.49461592694624,-79.56271348843443,56.10361593866955,-61.39583480754676,-27.820813850150333,-19.51346089478353,5.299895156972921
-6.363175308005941,-216.32473149775365,-64.51648177014404,52.43584398076591,-52.09297885645648,-24.72375527865807,-16.578301059620447,5.062871062558243
-4.401404426252001,-168.347434465394,-46.33009953041119,41.89078638643423,-38.61990085645288,-20.358357150352887,-12.918200764344187,3.5171942054530443
-3.533502212634145,-111.34984607593526,-30.68265880321556,25.402765254301507,-24.434664596108274,-15.965349208691878,-9.79218290297077,0.5449526270262146
-4.41242795534323,-58.90714711713277,-22.702690718914248,6.132140605299276,-13.4696063562896,-12.798759853309898,-8.30410635335911,-3.3948654870714843
-7.159801578176717,-22.580390462596803,-24.546886670015216,-11.748560821715296,-8.376435728508245,-11.557112310090446,-8.87459149092708,-7.3825260858738835
-11.389206520432541,-7.615817811757723,-34.704915260266915,-24.772154283440937,-9.531214551609933,-12.195555757687162,-11.113084248086059,-10.398883727633928
-16.414861079635813,-12.353685774614927,-49.31223953923481,-31.445097862736592,-15.297743074272438,-14.189028406818702,-14.131561150795376,-11.748210709273678
-21.451413371155777,-30.73144074283485,-64.27076108507235,-32.43397785404993,-23.140095750063068,-16.94885030778884,-17.016899373388103,-11.318035344909058
-25.685591029181694,-55.20864529596707,-76.49271604130509,-29.759585672138595,-30.64480976182072,-19.978240890531236,-19.08692910072129,-9.548690675193672
-28.28982683991145,-77.94239082743307,-83.58546948464856,-25.66656814414865,-35.818975899715085,-22.63148255807868,-19.797142962992854,-7.162291568898326
-28.551678818366696,-90.52928800369801,-82.90458105341091,-21.86351320274993,-36.86581449930066,-23.79545546785103,-18.53330563359769,-4.83618366039988
-26.17879395135734,-84.52399563900694,-71.56325283908842,-19.36749450840874,-32.172126065606456,-21.99344629206649,-14.657124300877175,-3.002769850367713
-21.605102713477237,-54.21660114443152,-48.00260331578643,-18.689243127923998,-20.943084382368575,-16.08291615066926,-7.91510000366393,-1.832059188672674
-16.014590107375316,-0.4776156496651217,-14.028739382650281,-19.966958390925807,-4.110066915754643,-6.143038337837474,1.0857731944804985,-1.320900976858353
-10.950776876938544,67.43298635138457,24.554134510679685,-22.910177670129887,15.356950660502495,6.140444285055175,10.78956356849641,-1.3767880911237513
-7.678794419014675,134.36514521474217,59.70125338435316,-26.72744824676067,33.284726960875425,17.998401331470337,19.193557590125227,-1.8461814612395218
-6.66424428436766,185.3814851269694,84.48312236547211,-30.279390871175842,45.9772905790286,26.776624481444475,24.698618413663002,-2.5182682667780942
-7.471999159041985,212.0785275953551,96.03030459622356,-32.49597714523226,51.767677052882355,31.096536261450744,26.79149200913999,-3.159475607706184
-9.117100951920644,215.45534585981116,96.3123332771986,-32.83590304010044,51.51132695921025,31.300601528431734,26.148945062826584,-3.590244806705292
-10.618325364821473,203.93422085459775,90.4672900353887,-31.48480306764442,47.801964279820666,29.00067892753817,24.146632933352503,-3.755178379308012
-11.41421483883325,188.23104668978738,83.94877415692254,-29.16241854339296,43.511048312067224,26.116029705125374,22.13097515773979,-3.7264817042872505
-11.452976618288762,176.41002802028152,80.25903488057473,-26.691416411825852,40.5688536068994,24.01974379108106,20.895995693781927,-3.634208656181383
-11.017034522470498,171.62458256854964,80.26949672735809,-24.626405316928196,39.548484924705015,23.196657778390072,20.5772821803408,-3.5801155465105317
-10.479080328065235,172.77873844645643,82.91025743016439,-23.134028088809202,39.978081332496394,23.40235631406431,20.86652995196888,-3.5974930002812404
-10.133422134869864,176.65465153101488,86.36244312142233,-22.085956577074736,40.94082659594497,24.052508808023646,21.315432513373135,-3.666058861687404
-10.119117844178518,179.98375652709683,89.07163160678058,-21.209239906266088,41.60002835192279,24.589303774863176,21.57087057388197,-3.744201256208864
-10.399105827684625,180.80537252160002,90.35570530900247,-20.205886190058393,41.528471416051595,24.7138038358196,21.50157350392635,-3.7892967328234355
-10.793660767617187,179.0227529482894,90.55595047965448,-18.860685172351705,40.82009811044338,24.454243273299635,21.21088635459226,-3.773681082517833
-11.082547818074342,176.0712516626783,90.6622120839946,-17.14999232135066,39.94201828913709,24.05791034850653,20.924337026817458,-3.7095795881778217
-11.135451517277607,173.74663467901405,91.5285355263654,-15.281018312448753,39.362171673973634,23.75638495148885,20.795409841129132,-3.6636130724576006
-10.979918205839319,172.83709262849735,93.17177153689218,-13.586161383503017,39.18214648750612,23.562424837738487,20.76459576377113,-3.7253179066799964
-10.758665536114247,172.58971361892958,94.72677357842473,-12.314052845159686,39.069791907864825,23.27190239969304,20.602961054679614,-3.932503391449404
-10.628160631308246,171.48490271869494,95.15075979019443,-11.46343592225185,38.5614443646448,22.685933105716583,20.124767957773248,-4.211555936293096
-10.687535994460674,168.66101916984417,94.13600339396842,-10.768503908126709,37.48130804173616,21.865720564325965,19.396858283387015,-4.394076446718225
-10.960888889747297,164.79579673036523,92.54105830801926,-9.817232554087727,36.14209348247915,21.193588296967025,18.769539793907754,-4.311819156156067
-11.385226116084485,161.83249884793648,92.07364061995548,-8.223191790077681,35.20786369977614,21.17477060166265,18.699412091788943,-3.9112776281483375
-11.782271669968246,161.87925703700932,94.43479863910972,-5.815121703793437,35.343577426926906,22.10278772338734,19.47088297850483,-3.322202887378228
-11.873886745455335,165.91577701773406,100.25964173107985,-2.8323238420183223,36.81366977406725,23.765490696868895,20.944938950788192,-2.846221619557444
-11.404773345094426,172.65512434397843,108.15313955807042,-0.028855722632512293,39.12040465321005,25.317725053874028,22.429174833485394,-2.8554726309762546
-10.323721550857996,177.85394575658952,114.27564866226251,1.4928558532173148,40.8172771276439,25.409575081755968,22.7635874420956,-3.604650917790138
-8.87123481822874,174.76471953262862,113.11230798495562,0.7896148752636645,39.75623872939048,22.63425981961718,20.707773065637088,-5.0055057719298155
-7.466864048965599,156.4161292571397,99.6805357254217,-2.296011044423907,33.93043197700479,16.225408549343054,15.573525186282735,-6.493017759892385
-6.460358028523852,119.27333427513173,72.37612875795195,-6.82782498947923,22.63564766136557,6.683202084034094,7.7957878104734135,-7.143422392978721
-5.939308599997376,66.28794497098531,34.74652233601387,-11.104863760697326,7.237309765793863,-4.126948829668448,-0.9870286095902316,-6.094982161839748
-5.744789156960726,7.023423686669374,-5.266867425260044,-13.522756132189702,-9.107897416936709,-13.638189426891508,-8.550775744390378,-3.100151785742223
-5.671379198679702,-45.86495047497082,-38.57147684724635,-13.454139692898575,-22.78472722570731,-19.73774987320454,-13.13587473174729,1.1336509602342013
-5.670234702649667,-82.09625334327119,-58.92428842845413,-11.568422789822568,-31.368825791194915,-21.74493453681666,-14.308954897761987,5.106893802952829
-5.869197519049727,-98.0811217252003,-65.39497214910438,-9.366258885249676,-34.60120930793217,-20.603451984019483,-13.088896977528956,7.19545644501359
-6.388214715516593,-97.66088602709928,-61.979467422047726,-8.24114647121366,-34.14149791396831,-18.18843211777708,-11.269037516077312,6.472029460720352
-7.1285761780588714,-89.11709223085491,-54.880622907472045,-8.70212390482798,-32.37319704315387,-16.216463603270356,-10.402721227300356,3.1815670698615808
-7.7589700986333545,-80.60722512868308,-49.337023658885364,-10.243264987978344,-31.120100008300042,-15.475805345433166,-11.109683136948362,-1.4316913748288418
-7.944822526216095,-76.85932823768738,-47.83033661578235,-11.847903274400187,-31.05047065013228,-15.789517224578058,-13.064153078069388,-5.821578642274618
-7.6287600647403755,-78.5814527379327,-50.20972720382586,-12.68145718891544,-31.905635918912825,-16.540245187785867,-15.494793735476865,-8.896717792889158
-7.1081741771511675,-83.91442077899303,-54.91025051277664,-12.490095186902353,-33.07893466802632,-17.219030037267224,-17.711057098008474,-10.376677584987764
-6.8342310637671,-90.23119184224295,-60.09618962671251,-11.54050506499543,-34.00434971397173,-17.605061688324493,-19.30784206902598,-10.617485105264922
-7.094501801311283,-95.22820761335322,-64.22357465272374,-10.280365416755979,-34.22988728719097,-17.63602516367795,-20.090312040878135,-10.148976505227827
-7.815216515893906,-97.41742047681716,-66.25642420538226,-9.00766075867211,-33.42224322027792,-17.300337644697812,-19.986312092962542,-9.29628866136939
-8.594501965025737,-96.45715293872331,-65.85299675076523,-7.725207724404646,-31.498843677132136,-16.721883012512926,-19.08795016804627,-8.097565756630745
-8.90925138524242,-93.25105414766571,-63.461773703619414,-6.202305332839793,-28.778572102009225,-16.263452037113048,-17.705271246103987,-6.469360833879349
-8.367969329542195,-89.46365313538384,-60.1116454942963,-4.175676116440992,-25.921354416397897,-16.386740352733007,-16.25887718394301,-4.426156866488761
-6.90347470591451,-86.59194227057745,-56.957126041800564,-1.5770025054183223,-23.63246968710615,-17.284795040772188,-15.037655811542793,-2.1893759537652873
-4.832268433682711,-85.30071442997036,-54.898534658747025,1.3477188114111642,-22.35170119173112,-18.61230429703332,-14.038097631882817,-0.1355101556062756
-2.7375686619760007,-85.49901454903188,-54.45039428348715,4.114101298330998,-22.129628159945316,-19.610437867406706,-13.045293565915411,1.3676483543929838
-1.207743042739309,-86.82899610942913,-55.70965539391332,6.220524512689776,-22.683295803462943,-19.57861574101985,-11.882756313548798,2.1351164661191357
-0.5685565449916926,-88.89418162194777,-58.26171370918545,7.342316813088962,-23.5152943977132,-18.34520737837363,-10.61292150518833,2.241628900258552
-0.7813795228519923,-91.09341654168234,-61.165303247188604,7.359424626066141,-24.06581883774697,-16.40431521219754,-9.541131845437086,1.9481050291735034
-1.568507750385507,-92.57375797470716,-63.28166577565678,6.254368903390029,-23.937617361724563,-14.642647448424395,-9.040838312655207,1.5298424327833775
-2.649249707687549,-92.66549547996394,-63.87838887806252,4.050976421319275,-23.12460861992794,-13.82740472100284,-9.309064735505116,1.1376888285255466
-3.8922313590816886,-91.4260621400492,-63.029865906971516,0.9005764173256434,-22.037364170647322,-14.125922443514355,-10.16552964672225,0.7923281863013648
-5.2833649166046,-89.63097795060311,-61.42612604004435,-2.7702959487015555,-21.21276506979437,-14.906639030207145,-11.003400780940812,0.4905735212572092
-6.775816801550101,-88.14513749301938,-59.763627461955224,-6.2403996969942614,-20.895145925532983,-14.970272890619995,-10.983466112334348,0.3080631256378244
-8.172305751137866,-87.32524516541194,-58.28771751662153,-8.695833901307164,-20.85038923236681,-13.17220933610309,-9.461724264906211,0.3973235234997864
-9.14119542710266,-87.01893646644999,-56.8367310417079,-9.562091527288462,-20.591055480897584,-9.158888918551717,-6.461094968555091,0.8703743969956443
-9.361783301164973,-86.98777083196018,-55.19905177044607,-8.781193024541244,-19.82193174695787,-3.8017876831897137,-2.8893741702410285,1.6360552937677797
-8.718337808635216,-87.17413030876813,-53.37370010650557,-6.891902752695404,-18.74119687632859,0.974892604762301,-0.3062883483332227,2.2965591806976455
-7.434339011510555,-87.62038612325551,-51.587633173703324,-4.862606216762354,-17.99490108446941,2.943971546386677,-0.304935684174197,2.204613871218273
-6.0442729490527,-88.38583538532565,-50.221516484734074,-3.7047402629153017,-18.356102865180585,0.5545273323665207,-3.7927176532497477,0.7345969919461142
-5.159452706351027,-89.6983576372595,-49.739434220949825,-3.9873669710553337,-20.31547250061431,-6.298496967120835,-10.48771971820416,-2.2980287059927664
-5.11522424803908,-92.0221706012913,-50.499597763771035,-5.486030357170886,-23.73303989806495,-16.02638725924063,-18.833445675031314,-6.290533569039739
-5.7192170472679775,-95.62168644137755,-52.383626915316185,-7.222166826817043,-27.686537680822063,-25.742386925511838,-26.401187153530657,-9.867209954689645
-6.314977987708549,-99.84522875469398,-54.520686077731085,-7.966671507736917,-30.67917087763863,-32.23755167177437,-30.71611015664336,-11.393517824200508
-6.180930780984842,-102.93924576646563,-55.515207458422765,-6.9633396077567795,-31.263953619268015,-33.24418823402341,-30.25672924036194,-9.80455398285023
-5.037357465412114,-102.88905154781746,-54.223826195576365,-4.432176401997681,-28.849024126847308,-28.465714299330365,-25.19543675947695,-5.286861223893093
-3.342826719709604,-98.83190091485528,-50.61568017006934,-1.5319462376333126,-24.21572434942007,-19.837726231370493,-17.464390363058676,0.6316863323266775
-2.1938865929754847,-92.05235228946998,-46.14519003111688,0.19284867284327292,-19.390925381420463,-10.825294195178767,-10.045441815241432,5.694542485170286
-2.868765851794193,-85.93270130466068,-43.41950132185222,-0.43584745407878034,-16.90851284208313,-5.073087711033442,-5.811448047585839,7.9188875159597965
-6.211726975329604,-84.89020504606403,-45.294657913555646,-3.6478730078171933,-18.813474625449437,-5.029655798799227,-6.462539211518973,6.458052031169438
-12.10005433432998,-92.56979608084696,-53.59937291928969,-8.55284724645889,-25.7747005772278,-11.075297737076353,-11.964786136171437,1.9069269215719065
-19.22699179217128,-109.56516260991391,-67.72743654116903,-13.4516935439334,-36.52712100210321,-21.365929092251744,-20.588663098459428,-4.0405088514850105
-25.380120762623466,-131.38361015367641,-83.67760540981814,-16.55085384455657,-47.82742434010506,-32.35818377382349,-29.436020451335192,-9.356794704938345
-28.227415841679804,-148.12400934040986,-94.4621208674851,-16.817808600201534,-55.156352751722764,-39.88583819564804,-35.30667937058996,-12.49502052191109
-26.338164121594197,-147.2556593795767,-92.44839205732467,-14.55948995037722,-54.234472415559964,-40.561667122382374,-35.73517683304735,-12.913058089626972
-19.932359282970697,-119.19931329021284,-72.97041432630182,-11.344075152870335,-42.913230611430514,-33.08146141527277,-29.909245137842525,-11.132038104406895
-10.899953073069224,-63.044272833280075,-37.296935661557924,-9.217289733787142,-22.504349023124536,-18.859658794339186,-19.0722290826598,-8.362166925257652
-2.007946628544808,11.247845965484608,7.046895028920273,-9.616053059757201,2.352203535184169,-1.5810365963379989,-6.118607375788169,-5.90488456158104
4.308861364650014,86.16838475521864,49.196015273571504,-12.614601785985405,25.45369290915942,14.24897529495628,5.539574480895032,-4.614231224213792
6.928135530624828,144.1611897268982,79.67385522260237,-16.948868059367694,41.619718475506225,25.107633089859647,13.333629550559314,-4.644527644919654
6.295858895946283,175.19016273977476,94.312382000705,-20.77468514250657,48.73038984439358,29.72284510748973,16.4498303839603,-5.555892766309507
3.907809559865115,180.14816915615413,95.24747223044646,-22.664071059943197,48.153023267739805,29.201308064617542,15.850791837277615,-6.668052042831598
1.4103260554267765,168.55538709450948,88.74885741460417,-22.235731197780257,43.47965465919015,26.06940263572072,13.487290336603072,-7.4394215500731065
-0.13358531174526375,152.57917471889746,81.55711777389689,-20.11304201771374,38.493113230071415,22.88007595572928,11.235998654660497,-7.670730543363163
-0.4804140703630642,141.30133903955465,77.98965993694858,-17.373582755784472,35.582274320230844,21.178187786567708,10.166281771401108,-7.474827851996921
0.01024981845919503,138.14742731972296,79.07477531583258,-14.93698718190547,35.28665082416445,21.239386947992752,10.407239183534529,-7.107596739110179
0.7620460992017007,141.6991894529176,83.41595203110523,-13.245306833278386,36.80212423277257,22.45036044209577,11.464930734496976,-6.803902064061133
1.2888647444552577,148.15187180508596,88.6793149870494,-12.277477364712222,38.82416788879553,23.908049839720334,12.660491819089462,-6.695601190631905
1.3460442703436333,153.67188341835023,92.85494508324372,-11.725594560733382,40.24140388334485,24.899533361132452,13.465830545552432,-6.799610768371811
0.9571906346308019,155.96934918470654,95.03256225043063,-11.185203732813175,40.538379742856044,25.151745371799215,13.684680854404307,-7.038823568993917
0.3438472448467205,155.01313215752506,95.63886845062208,-10.329710101990901,39.910319665552976,24.857936218392503,13.481026351353684,-7.285888169963911
-0.22449328792879947,152.72023407616928,96.02351312764971,-9.058436984197538,39.05797334777393,24.4939467629519,13.24112814055439,-7.430285179829764
-0.5905977689890414,151.56108898816487,97.4838106597554,-7.541984819221694,38.70243137709485,24.486249432965895,13.308795689313216,-7.440302992542941
-0.7714631371360748,152.78003225415193,100.2999978320286,-6.098058831769145,39.087261027851184,24.913582006237046,13.748352514773336,-7.373794051965471
-0.8814382717771864,155.50542186588177,103.5111880105203,-4.964429970768304,39.82931372367996,25.456571911557678,14.31014237109227,-7.327400548555399
-1.0039488973488373,157.46759565667412,105.63377953701945,-4.14253975421752,40.233453476581396,25.64585292841907,14.625158999365906,-7.369595109819821
-1.140615963305832,156.72874634662838,105.7699175693802,-3.4213999527425574,39.81060606026578,25.225937222998695,14.473867190694694,-7.510779250694513
-1.2674879055244381,153.10857808650488,104.32875565650345,-2.525308967617161,38.621733967217594,24.37752889738101,13.94369115786119,-7.715643019130832
-1.4076939726904223,148.4931916544951,103.00130349753596,-1.2553290962615384,37.287078550742685,23.67467085511424,13.411342819245505,-7.923031847801494
-1.6295748871028048,146.12259926586796,104.09750958213668,0.4263263366279648,36.74078700009689,23.822892997445003,13.394274396948141,-8.055390498708581
-1.982525710487092,149.21809864563699,109.4381517479862,2.33476441434858,37.82607384614363,25.280059755506947,14.313337023952615,-8.039866801587603
-2.446179011804993,159.09292846718517,118.97894019842023,4.034397114449417,40.756301732200825,27.85880596659897,16.19129347197075,-7.8581605468233775
-2.919844524633361,173.16212607494626,129.68608439800744,4.95100143730393,44.59317089168745,30.47774052446716,18.39999576945052,-7.587735418556937
-3.208459492350441,184.1508790046669,135.63925706224774,4.686462817581039,47.153234304254894,31.318650231028005,19.689664104158766,-7.365750411643171
-2.9848533408576836,182.03454201095334,130.08576790027513,3.391634971921463,45.73559398746363,28.54225835707958,18.672428439808062,-7.255944043604006
-1.7975843531847766,158.74642386122522,108.90221564126182,1.8997588181895273,38.54047609037477,21.33642137093654,14.620172220916,-7.092309684944353
0.7888356718385523,113.26784033345068,73.5246966834837,1.4332362987317775,25.977925953039733,10.679882266261025,8.102517231531312,-6.422763158508744
4.944739723657059,53.606508280922284,31.24433892262967,3.0104508701649433,10.899105494353373,-0.796857928507245,0.9636599522591711,-4.635851256598038
10.37034798868871,-6.2241812676751564,-7.731457599554495,6.9187599445329315,-2.6070731256681325,-9.960463838296667,-4.486409210481209,-1.2534999016525343
16.297009752566844,-52.75733178564073,-34.89738214931529,12.57531610619564,-11.228318511834024,-14.742847628764544,-6.654944963570873,3.7306942308479365
21.727570695431854,-79.13912128428154,-47.01690118209601,18.81570301875405,-14.020930656665861,-15.179234511872735,-5.50913671584432,9.646759222433682
25.78581630609833,-86.9522346225455,-46.61219897708635,24.363722392177092,-12.586395251316226,-13.24689748733998,-2.5362729088543796,15.226564344102231
27.96717253958904,-82.99909870599106,-39.43492463642137,28.16170658496843,-9.788861970713148,-11.594475534526374,0.1591402365369094,18.98214380216327
28.150685463375048,-73.75288982124648,-30.90439727227636,29.425346751664566,-7.951407158940549,-11.97569373816035,1.0327963217831662,19.731096500642828
26.412876926277452,-61.59171865930089,-23.873528868929483,27.567219824439405,-7.750473808542013,-14.374778675176985,-0.19340245477340873,17.02672190628313
22.84483257116368,-45.18441616321715,-18.733981178906614,22.25288227476507,-8.405945239189533,-17.304512753676015,-2.668539724781841,11.309124360701704
17.565185036070684,-22.9769570834584,-15.00533034745772,13.68615233514129,-8.765142045464664,-18.95114960616766,-5.160539773902231,3.7451712837120006
10.92702522316175,3.5546855887615307,-12.684575613783098,2.9104617610529893,-8.312234911677622,-18.330267075417247,-6.820473058554489,-4.148504253131121
3.701998020719679,29.645315375120212,-12.287059801294156,-8.235548595612725,-7.387437296414708,-15.737753097236928,-7.487845306323631,-10.964282787838577
-3.006389281024883,50.014404926036335,-13.909386382125202,-17.67894706751618,-6.658211727222041,-12.364517677505845,-7.492301191186785,-15.815681546755814
-8.168475545552448,62.16937206817403,-16.53886699207445,-23.95367330900679,-6.481876400255447,-9.513218499577611,-7.27048354333684,-18.576250054793267
-11.322881142996595,67.36923288699185,-18.53677121839499,-26.793807604382753,-6.779830915946865,-8.008916260156727,-7.148533731826667,-19.83033605031545
-12.797869177106833,68.43486922258823,-19.045380495666848,-27.04350803094045,-7.474806424064264,-8.08807601415184,-7.374557009979027,-20.500388606536767
-13.442874792498412,66.38743138788395,-19.046078948966855,-25.90730259635487,-8.942632134496968,-9.597343624315283,-8.19752797651928,-21.275817608581345
-14.001043826267411,59.02947985470519,-20.9020053407512,-24.061837944439056,-11.86783789785124,-12.142867940348472,-9.759602932501327,-22.12720945267945
-14.548655262415483,42.943927282204044,-26.485091933174676,-21.27770030627583,-16.47126414968132,-15.040396357836569,-11.821682061508396,-22.211967477253577
-14.41677095083694,17.342939916720127,-35.32078315024835,-16.819767106728474,-21.76969986431653,-17.263886628217858,-13.60753536935273,-20.291056913694565
-12.674411434895628,-13.521143596085633,-44.32747537932805,-10.298297751566038,-25.644961086798308,-17.685181895949214,-14.034596916338103,-15.466751427281027
-8.84875465068124,-41.56366504145064,-49.506167269864854,-2.314416673625623,-25.888115853774547,-15.62881235993894,-12.29029416274578,-7.826768377101247
-3.3994285346292563,-59.005486826681505,-48.41762499785436,5.571915477112771,-21.578118278030296,-11.405519519037862,-8.395710834010288,1.3867781415505167
2.350645615771942,-62.56177103423307,-41.71704837157574,11.512674570782034,-13.840495765648253,-6.391904132618058,-3.358230891880612,10.185374363408632
6.7642570593113405,-54.89603366856256,-32.75027283653864,14.218356079328686,-5.438906491339054,-2.489923828870975,1.2212263017805862,16.586762297636426
8.581257789730689,-42.62001544202218,-25.589390111169386,13.465520051418716,0.5656295477168531,-1.2163038403899926,3.8690799295035982,19.31794215042217
7.387453238288453,-32.47514107254272,-22.871622539686314,10.046745092048287,2.273213537694176,-2.926992679510646,3.8862390301496115,18.17154838806149
3.6860057693841894,-28.260437114916353,-24.753740682300865,5.3225933364212255,-0.2935383565171103,-6.606902814479935,1.6043857668598136,13.962303059760197
-1.3675746703126508,-30.074650277565652,-29.36131410334899,0.7079509055271614,-5.427144150924936,-10.326053716387273,-1.8156497199195245,8.212732914658144
-6.3898595349588145,-35.57532406356403,-34.1128213781412,-2.68778186360349,-10.677166573993166,-12.117613771662196,-4.89417047078297,2.7093820507975424
-10.203181268253285,-41.8417429159752,-36.98938305699913,-4.263477195121139,-13.93611615833659,-10.870941722840852,-6.430807535540883,-1.0031928121101383
-12.18603217834676,-46.705610793002236,-37.223380274036586,-4.0445975690834945,-14.228336909676766,-6.874913422204299,-5.994094329038957,-2.1235603836486194
-12.44922287646134,-49.31188762178716,-35.38992301294504,-2.6884871648961446,-12.002223681662903,-1.7921639996925893,-4.134079453778556,-0.9228196681248362
-11.742716019902803,-50.12163475282446,-33.041073014857986,-1.2657587490034954,-8.87561963638734,1.9722982912844045,-2.190347087278907,1.3161557280693785
-11.088555012427124,-50.44045994615163,-31.96926496232884,-0.8098672729241333,-6.892255873759674,2.314565280296543,-1.7005957520427375,2.8346068121104757
-11.301113118071239,-51.52079757063806,-33.29861753166417,-1.8328083841529679,-7.542744694515433,-1.5462700969685113,-3.6349748167264484,2.2259957555472325
-12.647004721792513,-53.66019730163634,-36.854068975435155,-4.083609838777778,-11.008034355407649,-8.590510589828943,-7.840701437593544,-0.8351866394054598
-14.809326405936769,-55.968333748456466,-41.23855445272954,-6.683374984160112,-16.050316044877086,-16.3739179671012,-13.020922434758528,-5.350222487973966
-17.128123150421885,-57.03865285554546,-44.591294431196545,-8.545631955610771,-20.623080990879505,-22.115922812671727,-17.29303091278845,-9.400585994732308
-18.95540056189103,-55.96183008678689,-45.50724562089456,-8.869678921497382,-22.84562497253866,-23.95526365748169,-19.052661334003435,-11.038196860731224
-19.95911133528592,-52.852073440555166,-43.57274830712423,-7.508723772313622,-21.824834883308952,-21.74363005458709,-17.713165912498443,-9.241604311561753
-20.270993694340422,-48.6275338103613,-39.385777395009974,-5.074690945597141,-17.982068257873177,-17.01655672776481,-13.969838396037881,-4.46228817206027
-20.423872665469187,-44.49009335047121,-34.274346874078105,-2.7081200324863635,-12.833889363404438,-12.20621531859608,-9.47703957436281,1.5246988371238124
-21.07923183519345,-41.58669286951204,-29.88448824583976,-1.5625017767592801,-8.361048782283445,-9.49678130524832,-6.090652429121259,6.402919471677613
-22.645855559945403,-40.82014194238346,-27.621901564629113,-2.2266247924255085,-6.180425526070951,-9.840248052593745,-5.015105412194791,8.346716881549328
-24.990784234319676,-42.516518274498374,-28.001985419921525,-4.405052893086025,-6.817211639139267,-12.557123962442212,-6.247200146647771,6.8059309351387505
-27.4328139907851,-46.01189779362168,-30.252746751408388,-7.062098076582891,-9.430079827389244,-15.700771181293604,-8.595654121221495,2.689044095527294
-29.046382739852035,-49.63556554085353,-32.573134881910654,-8.954564011019334,-12.20435058130191,-17.027430151793375,-10.285903761649065,-2.1032515323865
-29.10182244068754,-51.369689232255965,-33.04221018638953,-9.245747788777955,-13.262691080286025,-15.103289939742108,-9.846297911569042,-5.540229091726719
-27.391339285169142,-49.82996748546129,-30.65719477021129,-7.8771286434135535,-11.60051360880802,-9.983359819411415,-6.8115057172801325,-6.308175450639031
-24.2859062880256,-44.927785651802076,-25.88521609067115,-5.544317531634807,-7.542950795821761,-3.1292928053719593,-1.9002103263592607,-4.273278788528633
-20.529270137861793,-37.957946325494795,-20.500480422964845,-3.3205653364291554,-2.5521092964144665,3.328412327005071,3.3594595362110486,-0.39077154682431237
-16.87455842870908,-31.32306135221039,-16.887062610987844,-2.0906712428446967,1.4248501669947986,7.540310024291967,7.311507256432465,3.854536549190576
-13.691443432233816,-28.021302656128693,-17.063724061680993,-2.0172968339148425,2.759346703190153,8.639448360451171,8.849608840066601,7.190496559181115
-10.685102011734214,-30.64755708677419,-21.611318981462013,-2.291587387022097,0.8650009012788668,6.975733447786294,7.867897176026849,9.126812429601395
-6.889647813253596,-39.81661626495838,-28.82578174049351,-1.3675270702153075,-3.357420296192109,3.9161330025179097,5.3569752753052855,10.085741370099067
-1.047445359660718,-52.77652078664583,-34.706045051332936,2.327858352439957,-7.609949084272848,1.3423040674457063,3.078066453967949,11.050705173301878
7.703730132143111,-63.58743272915002,-34.282552864664325,9.520015321028643,-9.003475865013002,0.9792704138355613,2.8615882181400694,12.943557234609456
19.157502971482298,-65.57354918226191,-24.008371539396194,19.546889480737974,-5.390484741858774,3.7274641569803597,5.778036571962726,16.0867305230494
31.798445397133104,-55.030160213934465,-3.958421920762519,30.528661817602927,3.4283243146289015,9.252025473909624,11.588778583097119,20.045776297646338
43.23199121698126,-33.809024341571515,21.681256033151392,40.210561896702835,15.400696842992764,16.0769977113866,18.81927241854403,23.91063222224661
51.144155096649264,-8.72455783031261,46.46094521646387,47.00170937158383,27.15744713772578,22.237236954491486,25.475615782986644,26.809884444761302
54.32064464216466,12.253659742051077,64.92651265413517,50.58281933428671,35.735985656753044,26.220183256170444,30.028776676703608,28.32961829709397
53.19922634773094,24.671960562261987,75.25906741809229,51.73664205875047,40.05521811004632,27.689943222427182,32.09091841578211,28.60126434650987
49.68899984577949,29.86855083417182,79.52622272756378,51.593494505508374,41.18509141771759,27.54081068051148,32.3762690131535,28.062320184671965
46.389126856857956,33.14618939816488,81.4023558183849,50.879046438093326,41.244998976637014,27.216874862678942,32.00369057837103,27.110002333783942
45.610841255773124,39.200488819574275,83.07317920887897,49.68453841523446,41.73912497900226,27.724884202392072,31.64534499584654,25.906430010500742
48.60511890916746,48.2899661694578,83.62991817902174,47.81373127089735,42.52902032751878,28.983287133858155,31.109980330695326,24.437855936339837
55.210988839575144,55.96363394282211,80.040103322518,45.30547850336979,42.115158731452524,29.903688007302442,29.59818182247049,22.718755091196417
63.96211300395743,56.29415611954909,69.77517793310597,42.661385930930706,38.89476850544901,29.091953494722883,26.373405983547322,20.938430854717772
72.60218280986835,46.00244134930616,53.04503950051199,40.62567191124967,32.411844803967384,25.68858375506399,21.350704766798867,19.430005323187693
78.88153587983183,26.589539223397033,33.12226477247003,39.74346309330097,23.768447112392,19.873155655339595,15.253149453005697,18.503570176987342
81.37701610426952,3.4484220412399877,14.786023712637853,40.05129923833703,15.073889192157544,12.838629674853998,9.330540075429342,18.28327354891301
79.98685765306404,-16.858521571436974,2.1667971710175564,41.083665898362945,8.454435879398156,6.341878888183398,4.883319914428619,18.657614958590838
75.84020660119545,-29.10542654968897,-2.6348801933385952,42.10710057531685,5.281897994385599,2.0780317386346945,2.846211530059347,19.343784388264286
70.63140393478639,-30.537160803772366,0.2768696469175761,42.35710912342385,5.90600552991453,1.0940491419386114,3.530908327366945,19.984402191802737
65.69827931180497,-21.0755634613879,9.004843681230781,41.14662659580604,9.689462421111385,3.3589484010459913,6.484635672406866,20.204240270936722
61.332279743508465,-3.7122168568112177,20.035920685166356,37.919565902008934,15.010840202406246,7.57035476918523,10.428698470206445,19.632195870607926
56.72001572640097,14.752737592310849,28.158788240756966,32.41265878243908,19.228967258210623,11.320388090573687,13.371698708623038,17.952962627438513
50.58012438194954,23.991873460648943,27.0078118918067,24.949567992485576,19.00896794625212,11.744334258510554,13.065200604577795,15.027147416109731
42.14400989091541,13.052951495547765,11.061045635978964,16.653644195453367,11.380775082121211,6.599680072553498,7.82849310587306,11.031004276392618
31.891846518283533,-24.29159015234224,-21.277346530663404,9.285652181060534,-4.666785159337182,-4.584827988679121,-2.5328882685669782,6.5075121889213685
21.569288551295177,-84.40083732696097,-65.23811906944975,4.613910915953651,-26.908857684643078,-19.862302246772668,-16.210977920521458,2.25286895176076
13.425508157233507,-152.46771154211825,-109.88283552219383,3.5749348271864014,-49.91813382279928,-35.1974688248807,-29.700663934643256,-0.9353358853311431
9.082497266510428,-207.0651180414704,-141.65962872998193,5.7132136896217816,-66.8000305055059,-45.826831824483136,-38.96331743655348,-2.5278685573554784
8.683489423163616,-229.09948209842534,-149.9837670991605,9.303230563584862,-72.00351293988784,-48.1594539228333,-41.00475166147464,-2.4128744218098093
10.820596839347864,-210.71422829265745,-132.02812213808872,12.170209691392666,-63.81242564784351,-41.36039987791907,-35.13295657628186,-0.8590473932156794
13.282787294029195,-159.18969125930204,-94.08145966915001,12.772934338943438,-45.154263394174706,-27.80976896234493,-23.260554457375964,1.653823461364553
14.173838346924374,-93.4997667314764,-48.67235164884959,10.911149050887138,-22.251273168602545,-12.138626752597178,-9.083897715108296,4.605840390794021
12.741318031177073,-35.39520916761685,-9.043720136469226,7.637792670137289,-1.854275332140834,0.7284759754240965,3.447897866137458,7.50112577135339
9.464661427431627,0.01470740585639696,16.01613648484553,4.454834345110618,11.429951184133165,7.554819126614015,11.601053689340485,9.821499218234765
5.429929197993123,9.206113048388746,24.400369973966317,2.3119605089441877,16.36534453379358,7.812862277354473,14.565643945205428,10.972494014855146
1.4591897721355997,-1.2731515148352783,19.325396011214284,1.0300811328948458,14.4787194059855,3.3188956969697894,13.18167177284313,10.353217475009531
-2.411912041277114,-20.802166544808536,5.927326689620243,-0.5097493678794728,8.356644896974435,-3.132381803801901,9.042816899978394,7.601767662454451
-6.778612250242358,-40.85844291418191,-11.66178070916974,-3.5523809970691356,0.12956778618001405,-9.202604964818224,3.644980196185448,2.9169988245322296
-12.180453461703646,-57.74928844356465,-31.05780548949515,-8.552154559086429,-8.959862292046687,-13.688930964909652,-1.9324478175828868,-2.762556017693432
-18.39590948000604,-71.27829850311511,-50.40829871660129,-14.72312900717043,-17.979636593622804,-16.28195282497303,-6.830448435822169,-7.921044241480795
-24.23452924892125,-81.61518094968893,-66.9164010511269,-20.318994912577992,-25.570832246518755,-16.912345645277714,-10.127746637537607,-10.984705042935026
-27.994381224887416,-87.33495475705747,-76.74675976941248,-23.460416654052793,-29.888681317124103,-15.3663886219829,-10.892037061775351,-10.977314741544703
-28.30527500686001,-85.97164119283232,-76.5813672802259,-23.023418962978653,-29.36970739622894,-11.458395332940428,-8.610530130129186,-7.964773702139955
-24.837891026807707,-76.20170046530724,-65.65805932923473,-19.10132607146188,-23.742387560749602,-5.505015273368774,-3.6597755156976817,-3.027951066207112
-18.469328036440743,-59.730962289020866,-46.75567047952938,-12.828639764807015,-14.511392963784354,1.3857755426042448,2.595943782553189,2.2369031091259726
-10.853114009064136,-41.47763310931763,-25.37772780021975,-5.735436621773148,-4.541473913516347,7.506997365569143,8.225757148646407,6.417374524565302
-3.690391197687689,-27.81549622500026,-7.529822363489393,0.9372480095515969,3.068037463746097,11.159617977624558,11.479946190211292,8.805580439861536
1.8729494121009762,-23.589191807286984,2.8021214823563096,6.541090680030218,6.2831948872776655,11.370726885664421,11.500842519983047,9.492396855494524
5.429922540781662,-29.219060028683245,5.27535373789007,10.803361207311687,5.022246744308462,8.387251231422153,8.674823155049024,9.05320411732541
7.065075708063899,-39.5238148455817,3.099198021942554,13.330774507073617,1.1899837971321674,3.6968480899553575,4.460757191520879,8.065403192685404
6.927581722536045,-45.4690485545739,1.1709605598754587,13.303333946109802,-2.2467012427982387,-0.5106273379239008,0.737866816046575,6.7547809663181555
4.966889141033207,-38.54010576908657,3.335604444546549,9.709636418173865,-2.7608248303800327,-2.2762158438528215,-1.0555876795957837,4.954160226347435
1.0266872746032163,-15.545145826882058,10.288699208594995,2.0561699307946535,0.4358230231002092,-0.7720881166969482,-0.5687215593448713,2.355979826799704
-4.79521404011517,19.095893284654835,19.36866327772574,-8.935223994379438,6.04835624662524,3.328048364905042,1.387470800215962,-1.1335047686279185
-11.830752373094285,55.23549194609395,26.347070007358358,-21.203689616878847,11.521911931475723,8.249354738861653,3.3826088335709716,-5.180065952716647
-18.860414614623206,82.11806611064365,28.06573293324384,-32.01021620244948,14.526374885497011,12.069916703330287,4.197284481256852,-9.088701474728916
-24.522089878605232,93.69465352642648,24.25695815504,-39.06538636334807,14.191177828509872,13.666020453814664,3.4400314204048015,-12.110064344163165
-27.886346883421204,90.98573623847462,17.469113769136566,-41.479890127372805,11.370813354678447,13.110045228074469,1.6097349017060107,-13.794704448288117
-28.84666747302165,80.36036072181979,11.31509401988857,-39.99528395524724,7.889077117226855,11.366232875688093,-0.35600508636140804,-14.18111282859696
-28.08461019337798,69.32217883347015,8.365484582751064,-36.410677989856765,5.383372544361961,9.591482649481357,-1.67982663405084,-13.718714314847023
-26.648966611027625,62.781509621636964,9.092632589864975,-32.61537170106719,4.54542993408521,8.541237811752714,-2.0923092435098747,-12.999783704318265
-25.434574592475414,61.843590256927456,12.291101775590386,-29.817025299026156,5.118219363960336,8.384982959210914,-1.7911081927383006,-12.482121831117169
-24.871894595041663,64.90449642462673,16.252381735039787,-28.31500094916047,6.386616066141749,8.872430499287754,-1.1769945305388043,-12.35398677945281
-24.936775757174132,69.42686348795463,19.673824313191655,-27.748196241624093,7.655725354815927,9.596903449341191,-0.6164754427606519,-12.56565698065901
-25.355526302867297,73.15301590688226,21.914839280551192,-27.503405487990406,8.464518845866985,10.184652983559875,-0.33672440773834866,-12.945576848021451
-25.813217548358043,74.69240224758055,22.91008012394803,-27.034956250817,8.630110047237133,10.406424646252853,-0.40228086739626795,-13.310153729564554
-26.076175177666382,73.86148910239692,23.081180393530154,-26.039124369215585,8.264722245168374,10.245792621959284,-0.7176574406334748,-13.533309094444533
-26.0494570746413,71.6935296122896,23.18534305865295,-24.51544507437585,7.726650922547956,9.888389491425816,-1.078359190041379,-13.581832845337093
-25.79300498899346,69.78325077568697,23.927143530990563,-22.714346079993593,7.415848295697437,9.591968195746768,-1.2926488872014332,-13.515914059670438
-25.474184266184018,69.21136605137941,25.51358384353433,-20.967560108626696,7.511282151662086,9.509344441959454,-1.3033504605503863,-13.44496034475124
-25.253676365610605,69.92532388474731,27.575732312582645,-19.486826279072094,7.886849911276353,9.612096681517386,-1.1999552403751608,-13.455366026556389
-25.17917054117439,71.11074867491548,29.561542915887383,-18.274624461506875,8.287398794853415,9.7719980730207,-1.1114911941089607,-13.560622723701925
-25.179264630907813,72.04956194238417,31.183150352307514,-17.199986294124216,8.56257214455075,9.89299050363379,-1.0970952856598095,-13.7112548966768
-25.156777397682458,72.5210634163158,32.47308645734824,-16.13361479728752,8.713007204172875,9.953109127107856,-1.1402242256514485,-13.846113429129295
-25.07905017444042,72.51798131621749,33.52248317059105,-15.000810656490396,8.761753296071038,9.950876643306714,-1.2170301797091327,-13.931884714476514
-24.97911468161149,71.94781841765749,34.35116169279448,-13.741410348608584,8.679895184521266,9.87066519633881,-1.3276914646645503,-13.964734695666445
-24.893581178465418,70.87286081247854,35.094825475644676,-12.290244799811632,8.484017189278518,9.72952213993731,-1.454136745541694,-13.957630332440454
-24.826527654217635,69.91734440206984,36.16867659911222,-10.646681672381396,8.347275643404366,9.626293548676912,-1.5271154827754267,-13.942726420965615
-24.77017611897954,70.06250209115761,38.02555750622784,-8.952993931230317,8.513860441409667,9.687990427555052,-1.479420698816685,-13.977332144189369
-24.725698852497846,71.77946687555396,40.65765670481701,-7.454242538354212,9.059652143501904,9.941756981354104,-1.3368236207629651,-14.118508091962521
-24.677350425171113,74.37068959731722,43.39354777203321,-6.336388838251204,9.761894484783701,10.25393433325407,-1.2286912863714274,-14.36661314685365
-24.562463845304027,76.27285796447195,45.27383446082297,-5.577274423941673,10.232226083342885,10.414372833805047,-1.287600316872047,-14.630268221635001
-24.31188214013211,76.06469259669878,45.6886716379342,-4.928450664055185,10.17663880769925,10.284969374665852,-1.538969988203466,-14.762664251783491
-23.94868518197843,73.310389543869,44.77161673916911,-4.016383069502023,9.5505670383379,9.88055187340044,-1.8861605865565816,-14.656523821974092
-23.635424175848076,68.80975824264894,43.40710394753099,-2.4864912296520556,8.565196648198052,9.355287344547413,-2.1774071446373267,-14.33134871965507
-23.587739451026028,64.50464813774394,43.02716399955345,-0.16719500905969603,7.665481997649098,8.963518091473269,-2.266321899721237,-13.955738408592183
-23.904052052603582,63.17866000220932,45.218973694882095,2.7361715031721534,7.495981871158929,9.016427833113216,-2.039914751159509,-13.794202117368387
-24.44226279493528,67.49414259954898,50.92378661592575,5.507399473197655,8.683973769040053,9.760501832978346,-1.473871098963229,-14.094041055464613
-24.81880484465875,78.08723883937503,59.3120171998701,7.049153411040055,11.364272847340741,11.149549321111257,-0.7316077667863534,-14.929085676772605
-24.500144532066507,91.68899743164133,67.1287156408279,6.386566037161419,14.741249062716948,12.663817015311176,-0.19225898060888097,-16.041097036388507
-22.931561491837794,101.16523786385271,69.4954474940057,3.3407912552965984,17.18222639754525,13.414011529450885,-0.2734500084333684,-16.77679639802397
-19.697065348137773,98.47780446165115,62.25930614056401,-1.0862440592085647,17.016403636512486,12.585283094706666,-1.0957095344639576,-16.236061829519457
-14.711883250553049,79.25157151720842,44.627733166472495,-4.9813461760426865,13.60037664888518,9.962763211743031,-2.2464081218739715,-13.64950798132688
-8.373781111346107,45.96645798347271,20.286018789679673,-6.389790799197644,7.8904948978759855,6.150077395525636,-2.8960981462094413,-8.827671697736829
-1.544962078444916,7.410115856516136,-3.9468286595405577,-4.3084588078384645,2.0552833341350545,2.294378955839077,-2.2622185717567964,-2.4126554434238923
4.693813729861423,-25.488106064035396,-21.25215321472095,0.7780519716797787,-1.6707039704665254,-0.5024102622609516,-0.1227027371350835,4.266315445395634
9.420486637525318,-44.90538964834998,-27.911947931249365,7.118820164659991,-2.1732284813923095,-1.6875698340712069,2.987954343350504,9.704179897901726
12.17825164927278,-49.326163691838,-24.648857386028528,12.518634806041858,0.03393607433082063,-1.3799852955854957,6.046765169742772,12.83585044777963
13.039555966547885,-43.10845695547501,-15.676625165361104,15.276628577162185,3.2132544314721705,-0.1347870514375304,8.080144660443757,13.419754111857925
12.405549688332362,-33.27229391883738,-6.3310172084809295,14.7610716997477,5.358600009335936,1.3747623692865096,8.592812914197033,11.995078589393232
10.695564371151978,-25.88082909543211,-0.7751690637727038,11.431800479958083,5.079061857430328,2.519333209884849,7.634397664082565,9.483900124738096
8.158352895278119,-24.002390466469212,-0.8203309262126126,6.455054529449713,2.003455202576614,2.734354758444486,5.5662322657224745,6.709663613326492
4.935618553935242,-27.64324957668515,-5.956579549265508,1.1955193009442242,-3.2877634521801853,1.5915912777886887,2.8034563735810734,4.10539691915761
1.2919379285399277,-34.78903491608627,-14.091963884828198,-3.2047237478110957,-9.573083520739845,-0.9832894836490162,-0.2624804739085223,1.7176982662315994
-2.2218028817905258,-42.62966642347396,-22.524898236252717,-6.081230484791628,-15.379774777651683,-4.502119298505836,-3.198284990353266,-0.574428716991294
-4.846655672596811,-48.6334849701829,-28.914707817701178,-7.315850092331703,-19.414405336935243,-7.975205952320951,-5.505974170617175,-2.7900631713965844
-5.906123939569932,-51.413346087033815,-32.044293644353424,-7.215016585559011,-20.965576273592927,-10.32393661937473,-6.749352032351369,-4.666624384628707
-5.117900651021853,-51.130397537693376,-32.08077127863296,-6.25288761685624,-20.105326329880025,-10.930245164354016,-6.751958528964269,-5.652728227735969
-2.740885622013476,-49.14145116117972,-30.192783008347075,-4.819828462569832,-17.55861726292808,-9.975927979044263,-5.7088203019293395,-5.105550036194157
0.5044541872500841,-47.06568620812439,-27.789375225738393,-3.120969088163927,-14.327656975422377,-8.364126549023057,-4.1370071628582,-2.6524201968435706
3.68922976575252,-45.93345471445845,-25.888309643383344,-1.2518316932776477,-11.320425792404649,-7.281039010135348,-2.711355055908418,1.4362235876963072
6.002216562366935,-45.94091696415087,-24.910865060468396,0.6599768294404592,-9.156747779249502,-7.636033328869743,-2.0675651480035633,6.100641516430502
7.036816309106847,-46.70327319944703,-24.780931819694292,2.3860758811890577,-8.117024753438264,-9.634166622287132,-2.6174557920327626,9.757071671540206
6.92615370906495,-47.53601120407431,-25.052637390451686,3.6518675396800115,-8.113627795204545,-12.647757996665668,-4.3992213687984485,10.941117376685028
6.255849258088321,-47.571006718555054,-25.00228077373241,4.265818201813987,-8.676698545607232,-15.437816208761332,-7.009795462630648,9.03526203364792
5.788943994271941,-45.94934283135427,-23.834005236855848,4.244239727560399,-9.067925840099832,-16.652130559161165,-9.68241018462278,4.673199383571316
6.141248911275256,-42.28112886231211,-21.05573494624378,3.865385190010795,-8.580177598020276,-15.40747232682002,-11.527231484450914,-0.44696666490823206
7.555327404430485,-37.10026284063051,-16.826094795410217,3.598561086472137,-6.90015143905536,-11.703989699426955,-11.864501878089941,-4.286077764817324
9.834159572979754,-31.835626113297483,-12.013505406468335,3.889266062856294,-4.315292289149924,-6.478432962149506,-10.512711351303276,-5.363615969768536
12.409219830294271,-28.20076293555549,-7.9216087059755225,4.880547441017901,-1.63520799488003,-1.2643684199615475,-7.894586925893968,-3.375146365390344
14.507098784711907,-27.42482880303315,-5.846805430080675,6.254719616578906,0.13295918143268073,2.3964351290637107,-4.892268701682955,0.7661249710744271
15.402948074469792,-29.800686590850237,-6.631892510779401,7.354881830131249,0.21106729238489175,3.543874842931319,-2.4945635221108278,5.434845275641429
14.72004046937152,-34.640099454283956,-10.289129482505507,7.556584560329554,-1.5861189774856994,2.144454706079452,-1.391638032000121,9.034598772640974
12.653889135195216,-40.459582834479505,-15.804397507977212,6.656607096392251,-4.707402160623779,-0.9592818247566197,-1.7225090679562718,10.587045232666805
9.97112023412206,-45.34819888869067,-21.335196474564338,5.021799589438229,-8.05667652756624,-4.4817808917759105,-3.110684293532604,9.938670700849366
7.73341420630772,-47.623358696455604,-24.89956284830991,3.419422578248546,-10.488867665331707,-7.3132474081735666,-4.94782346939475,7.611154989941733
6.865675210589048,-46.64525160325644,-25.27359287795241,2.6607027379598662,-11.366502333998584,-9.009370956753944,-6.720512324859713,4.48698435217126
7.7852806386101445,-43.250803965684185,-22.5326651397791,3.2595091025967795,-10.835150327642857,-9.879704594498122,-8.16189570807696,1.5061672470388883
10.26227687328528,-39.310045163140096,-17.855727018340623,5.234857321447484,-9.63897429671962,-10.627285837318114,-9.174623771366086,-0.5707256179720089
13.54458749403687,-36.56844899640608,-12.760113971218866,8.091522537288792,-8.624200192225919,-11.780069193274134,-9.671498134418517,-1.3508771208592751
16.665143470499437,-35.59574562836987,-8.338001151210142,10.975083140624019,-8.286186760975497,-13.294488996721071,-9.524382085854514,-0.925895606582536
18.80033351369008,-35.6069158498724,-4.969027115767403,12.977422341902548,-8.628556370125118,-14.578310565785662,-8.662330760719101,0.17383092808382944
19.550643078199382,-35.21217388206111,-2.5518253022382127,13.5063288326563,-9.335851520654556,-14.878116592732631,-7.185616758046627,1.2405908424555336
19.040652381395265,-33.51254244423235,-0.965936365770881,12.559875699407309,-10.07398956503634,-13.754632318769113,-5.354182373583636,1.7672337321480676
17.79934565500647,-30.885277824375805,-0.44185107536406343,10.756736362207706,-10.734403216646756,-11.371484053774582,-3.45798383990232,1.716457227976766
16.486043407857185,-29.087298016896995,-1.6231025213234975,9.093850316320413,-11.516432736693123,-8.473687032560582,-1.693734108644643,1.5030977493218989
15.610937788140953,-30.520075220704623,-5.1936214988659515,8.540019692940222,-12.783744363776288,-6.077200753031421,-0.13011642442341304,1.7084174912174608
15.38046406779482,-36.68466016806005,-11.111670705280247,9.622191314898851,-14.689368022266256,-4.984419841760603,1.2745811456266851,2.7206776977942986
15.683095896883435,-46.346183736773206,-17.84501271756432,12.126847148861295,-16.735693542221195,-5.325738340879262,2.667134430246868,4.510020330484374
16.135609275274557,-54.58975119053916,-22.299488011775193,15.010649293127317,-17.62289630317218,-6.384800424867028,4.286534745455014,6.624420242582948
16.13238794450862,-54.00546657489728,-20.92413485552388,16.61653493314045,-15.68864108119383,-6.8863166342794315,6.36315947886536,8.366072346700504
14.940109598762577,-38.125328442615526,-11.672985809622539,15.235611871797401,-9.857490615314957,-5.670311206473278,8.91996208577493,9.054380268240521
11.918237004566079,-5.491529448871644,4.33155767957489,9.87558632124849,-0.5552161030006418,-2.3923009113252336,11.604567595940814,8.284574029104592
6.848857964434902,38.23884366229642,22.688048225619465,0.8872845389242706,10.08816059162549,2.192517299158943,13.730656429018662,6.102936680802801
0.20821591087080046,81.93734323493598,37.53849073004346,-9.94134190158802,19.04179669488299,6.579924067721312,14.587627548011666,3.0311766774415196
-6.839781286284285,113.91111211468356,44.41572592504188,-19.98581223691381,23.81403378420788,9.321152534350487,13.865412444255307,-0.094129519139516
-12.820950240635373,127.3695589703315,42.4335341821632,-26.847210921183287,23.681317733931888,9.79182884510246,11.906651595333733,-2.431370635979452
-16.552485656475945,123.2280950188983,34.49476856458577,-29.33364485173155,19.945138164526366,8.448369750956925,9.576714950213816,-3.4721615009426405
-17.643016107383197,108.76230740241887,25.50501953982999,-27.83237361188313,15.09735249296752,6.446264152382196,7.80979641227675,-3.244730134558968
-16.604046731501363,93.4112091901194,19.885801985379373,-23.916148495034765,11.506394481286563,4.933053231913573,7.138213957725698,-2.273855150626545
-14.540241431880549,84.61905322995699,19.918867163405114,-19.507407155567076,10.462664319250294,4.50141394742926,7.511179955612574,-1.3227617753040721
-12.65361017573806,85.74688499154341,25.473170659073997,-16.13227998832137,11.974009299117089,5.069871074912954,8.453150935903087,-1.0554659020481114
-11.844666609478072,95.92016520488006,34.51534781994682,-14.577832216489593,15.069332983463516,6.097997618651412,9.359386882081393,-1.7640982017765865
-12.508912041282708,110.58341066121163,43.654274938285496,-14.875548526343406,18.18836246376555,6.893525206358183,9.721009945323653,-3.2318787072357464
-14.444720520899462,122.38157498265856,48.760651058725955,-16.377137795321172,19.568437791190522,6.893017992399691,9.256654130813638,-4.7513543021202755
-16.818241102264583,123.16703806204414,46.217596274808706,-17.86822448334809,17.821860997321597,5.931660398546312,8.029666446913344,-5.326605503309242
-18.296176221387295,107.46222139566031,34.75984009121961,-17.87867807512038,12.681850418271036,4.447100406269497,6.521502820625386,-4.07424386431461
-17.48844461641645,75.84479960276965,16.78296397073533,-15.27119792975144,5.438359599070056,3.4141712209124857,5.499039528753569,-0.7186476350635516
-13.62048352929961,35.713409416561014,-2.181326291954585,-9.8755678178028,-1.4705763708961181,3.869954483454177,5.601439508408888,4.081455679210042
-7.0783114470642605,-1.752337419018475,-15.966331067286967,-2.744927799751064,-5.685537905143543,6.205241446288762,6.846302404430495,8.850438112151599
0.5605174948252939,-26.915131617851277,-20.86997263017787,4.214063524484591,-6.257812998485155,9.675734412086172,8.420341073600762,11.89927317028063
7.108672687182143,-36.080796803807864,-17.440878942907627,9.073081624362043,-4.208754905336319,12.527038359000057,8.970729627083095,12.113174853223391
10.67879440292092,-32.44509917646362,-9.895244083927002,10.70650289207844,-1.938760149269521,12.751119358257496,7.26548791051606,9.451088189195524
10.445848170978207,-23.39467861256729,-3.6327562094699766,9.16696880075594,-1.8603996258415187,9.086389776973009,2.8422339075136316,4.860832497396814
6.898849781863362,-16.179569775592135,-2.418770380493274,5.480642065024692,-5.090772768837254,1.7170294627827305,-3.707083136835029,-0.28386438553532917
1.5229704953797356,-14.61328119597773,-6.811896822641099,1.076729829526471,-10.936119677312426,-7.699651358682346,-10.927093844072148,-4.812527062333084
-3.8611350440747856,-18.33238379401326,-14.464020610248708,-2.785620059767655,-17.361356392916584,-16.672419436596524,-17.022176441451123,-8.069048870592752
-7.765078141307903,-24.304826313362728,-21.753625694880036,-5.336643242404044,-22.054981462508668,-22.83623656088833,-20.45488098320627,-9.82478026664128
-9.456536871065088,-29.110603203432593,-25.631355887507365,-6.332950366483863,-23.45669581213873,-24.781171639871438,-20.407330115042896,-10.017848303945367
-9.057559152019532,-30.636464765047105,-24.79073921369751,-5.941123171870476,-21.294428312006872,-22.44130273602837,-17.00044940335842,-8.611264237776265
-7.3650728703212724,-28.68706202174181,-19.90234286249744,-4.597460358744386,-16.539565970113426,-16.975917732750577,-11.238846794518164,-5.685213168757284
-5.491800332451367,-24.69385817853146,-13.105650909882609,-2.8824711824913565,-10.940644056427983,-10.25842785103619,-4.684640038606812,-1.6381176162123448
-4.441729955290224,-20.86282628858352,-7.076942286661343,-1.3874593816606635,-6.3583420928792735,-4.179201635500415,1.072311463179351,2.7358322476733434
-4.753258699536672,-19.08163550068204,-3.9940621356850947,-0.5689299117243396,-4.115431370273703,-0.010202296556819507,4.967128842215828,6.431692599751585
-6.339994807016201,-20.014384759167,-4.755531930612605,-0.6340137862695567,-4.577700566545087,1.926064523430548,6.781664158365371,8.616144812847491
-8.590233670133365,-22.861033370176813,-8.769363301327713,-1.5069372093836542,-7.133619876165148,2.1485991153792727,7.0616081329281615,8.985112856928733
-10.667395756610278,-25.933929764385073,-14.371039206815498,-2.8871450390968714,-10.570671200929661,1.5513287481598812,6.680376527295275,7.871913530605511
-11.86453596090847,-27.647461019509173,-19.59168607986353,-4.370492668718793,-13.636497233078863,0.8610657821420749,6.314460675043195,6.027588611571124
-11.865775839152933,-27.257859540540885,-22.86446147814092,-5.591445084582966,-15.495684119516675,0.33453140664135783,6.133583986216387,4.196620828159795
-10.8343113265718,-24.990714504700534,-23.41824910792784,-6.339444180773342,-15.907851019062088,-0.17086128968747288,5.851580610981595,2.745473935179028
-9.31816099387969,-21.710470090023772,-21.352477263074267,-6.59987409074954,-15.140927462379228,-0.8797143707367202,5.050160234583619,1.573586901005395
-8.014958656818617,-18.499081247156738,-17.487056210595497,-6.498042646902187,-13.743395112611084,-1.8165413211851025,3.5290144712955014,0.34323259552012575
-7.478877601771,-16.330910012498318,-13.049527279415635,-6.188882694229473,-12.296935858846554,-2.784332601964917,1.4415997464111034,-1.1663865221729017
-7.882608297132456,-15.811929436693655,-9.257529827937269,-5.775511714157833,-11.223154509465923,-3.609447412318779,-0.8602266658781785,-2.8566641751264683
-8.932338927869488,-16.970147045463982,-6.924956438077865,-5.298086858893344,-10.679181248709215,-4.431885901285005,-3.128136255993722,-4.387617871113311
-9.962964082057477,-19.214128562144566,-6.2467456133514085,-4.748180281763461,-10.544071480071679,-5.751500796015312,-5.394416623455421,-5.417631881451758
-10.158659187405378,-21.542770003071244,-6.817238501080033,-4.039743744743517,-10.4642102051177,-8.097163301477527,-7.83254323831876,-5.764879902431757
-8.810294950779891,-22.893556337792408,-7.803873743129084,-2.9487075786059274,-9.92216059932732,-11.48151853219791,-10.369326365913624,-5.364830840611642
-5.543917262717837,-22.42773149005487,-8.180067221804148,-1.1291072175516437,-8.339649661530444,-15.034466429913207,-12.371197672768396,-4.129385852657746
-0.4832274764844028,-19.696782643884863,-7.00854799102443,1.706196424505579,-5.266121534066111,-17.17504098533233,-12.747345448037063,-1.9260727617094553
5.69591289468186,-14.795932666913535,-3.794154638481127,5.5011507468263,-0.6530119194725459,-16.351463334386303,-10.526848886450189,1.2273762972580313
11.872178115855398,-8.531192691281408,1.1924904755376748,9.67000833914945,4.9184059764969925,-11.959789181665943,-5.57192776514331,4.898327079955392
16.76155859383715,-2.4040551374099426,6.842383914276598,13.193606124322098,10.26139072276276,-4.860727119699155,1.0868484829387368,8.175081336056765
19.302733786756736,1.8017845301440176,11.538220211848405,15.006402777070912,13.95890621156052,2.879160408593912,7.594852762705653,9.962294364281115
19.001765292006407,2.7457067229311534,13.785449428592603,14.485344591482512,14.953120709589188,8.922024566079154,12.144215440471907,9.530894183653823
16.10268508459746,0.1616117927809775,12.835523362410486,11.778709078409403,13.04345418027691,11.753373623585091,13.85951699901489,7.001597430945114
11.5274959663649,-4.989367807645968,9.009749070358108,7.797829897408847,9.024170665771068,11.331248035470216,13.174040380497074,3.433915923718894
6.61140435444735,-10.894938912108595,3.612337791041805,3.8672315519316545,4.393133631959788,8.954860609461509,11.49167356153246,0.40743640884683835
2.709458671297541,-15.553028446762573,-1.5149503233048334,1.1919134131892204,0.7710680470614858,6.46003052783755,10.349373281733675,-0.7174427404952641
0.7818089797631481,-17.45006300474851,-4.661616413685891,0.38489426448881964,-0.7248854203860042,5.2025413735373975,10.557705555250944,0.5246754525370281
1.0915192227425887,-16.09412610566994,-4.932011956056564,1.2716864315343563,0.09178001774910932,5.379168292378,11.780432334477382,3.452667645669475
3.14388893632495,-12.250551382543438,-2.647296287256448,3.056215516167466,2.4300069811679195,6.034432264463787,12.760729455888505,6.5475329700297165
5.919110270519844,-7.686622745645698,0.8054234113874771,4.750618430606687,4.905209121320008,5.721653730333764,12.054755753126933,8.160354495546049
8.31478761841028,-4.385221250987064,3.692131262488043,5.639530257799235,6.210366928206793,3.4268078155353323,8.866142908364147,7.257964244555196
9.601387383629449,-3.5623205541602503,4.859300412516247,5.550781850329053,5.7531955577733775,-0.7790972717544825,3.5270698196592893,3.8498356128894384
9.681999054538835,-5.079860300907566,4.319035326525872,4.832475764271948,3.9192292509225743,-5.7274512060161324,-2.6225912231181634,-1.066663812037772
9.048619206886393,-7.64767819900273,3.1331685170901684,4.097685876075191,1.817475493698969,-9.76254968634874,-7.861702819320365,-5.955314709312937
8.47814338190899,-9.66206704074018,2.6840808636239455,3.8931737236477546,0.661978550981543,-11.594176048505096,-10.85427216602491,-9.340909667386503
8.628870397543297,-10.110941229662775,3.785567732492827,4.446999512413807,1.1346184810201176,-10.903685122222882,-11.164061787273832,-10.31713772781181
9.730964945473886,-9.022725338565849,6.141191449582383,5.588363541233358,3.0498629452178374,-8.414662385201908,-9.327012292835583,-8.819484449864024
11.508427900074444,-7.31550784574673,8.43192979176884,6.857402069034049,5.458404935410308,-5.473024622226233,-6.542137966869582,-5.616201055612502
13.355455104650646,-6.2370082795112785,8.98732253340492,7.749835778908244,7.1169530650906765,-3.414643455866353,-4.175577670515452,-2.0251421641765437
14.663927333716908,-6.690486946464867,6.711849100282882,7.978802282345844,7.101779140111936,-3.0294077698378734,-3.270908207895782,0.5781311809558964
15.119962148443166,-8.723445005867735,1.7876409881006163,7.61505221652593,5.280133756119029,-4.318323671905116,-4.207271766589623,1.3038957004045137
14.807360926834345,-11.425006985297168,-4.261676224538685,7.023229345670855,2.399858355107068,-6.588727340098733,-6.6017987504896345,0.11340067005880425
14.075569267127086,-13.355138202882609,-9.244785396933791,6.631224030930844,-0.2688367362153104,-8.803356918634814,-9.496044980379239,-2.1893434266346428
13.276343291859895,-13.334142223726287,-11.374751552302191,6.673093123331732,-1.5635524714085818,-10.019366221666283,-11.770241396168297,-4.366101609254185
12.544237171531341,-11.12817683744311,-10.134809728175384,7.056524786944278,-0.9946451310334753,-9.742417024962633,-12.621725091704057,-5.362223376577739
11.746025468840271,-7.5849417972412985,-6.464443743614377,7.419823803773891,1.047264875100924,-8.077007614975061,-11.895717254646524,-4.8142059489521785
10.603563446693206,-4.155721578702914,-2.2304904313835423,7.330399033925042,3.5111917986306014,-5.64159832428285,-10.11532227968561,-3.181954678262579
8.897414373163759,-2.1531108779126105,0.6537261113638108,6.512478984080604,5.175483688980765,-3.2925756730909264,-8.198755980013857,-1.4496400370429527
6.637751715469746,-2.1772426621064955,1.01096900266976,4.999275928129305,5.166409257628879,-1.7528505226508446,-6.997529220668884,-0.5713552318808933
4.12612531923404,-3.9128883520914712,-1.1906510303937454,3.15360734871708,3.3179874787331785,-1.283279972189592,-6.870332819017264,-0.9578105863609154
1.8814492719409714,-6.273738601329145,-4.879978409145904,1.5515631534447303,0.2654990371309269,-1.5557338804151855,-7.4958342343689575,-2.2567318010171014
0.449041705205198,-7.8290729771242455,-8.351748815608724,0.7651386037035147,-2.7766964317007385,-1.8278201530923999,-8.0251620280045,-3.5181211892115645
0.16118791529887988,-7.439295015408895,-10.030999307548479,1.1199237610614021,-4.511385669646359,-1.3550884628974191,-7.509653987146892,-3.649006314942649
0.9602961535837987,-4.8723739937512365,-9.223472287324174,2.532761361460173,-4.137667472679702,0.19963565048178966,-5.385810657263205,-1.9354894160955072
2.3895236626742187,-1.0133970326294552,-6.442205415510911,4.518510733813366,-1.7192402018529398,2.625363879985511,-1.758752193101047,1.6092914015163668
3.777946667220017,2.5766736657803424,-3.082289382935411,6.381535542786937,1.871934088757838,5.37048034809264,2.656307608706932,6.222812695854711
4.5374809445456945,4.537024226221221,-0.6259031012685793,7.512751545170302,5.4025565046912885,7.919338044742773,6.870231535927027,10.693486028989243
4.421997357824664,4.43412414820069,0.12903618817185356,7.6536791445294,7.849907603670699,10.043929384767,10.02105353197603,13.834238772698738
3.6186609591742274,2.8684757535833363,-0.6242081469733477,6.995402037935371,8.790714286344928,11.759014879172728,11.628284212277515,14.909265054732485
2.6288755151298515,0.9830095157587835,-1.956506469873083,6.050464759988087,8.447543925363213,13.056422510262095,11.614128019462136,13.831680579813996
1.9998824553069137,-0.20819490564561188,-2.7877584430921716,5.349934465118479,7.4367360123215756,13.665805069353011,10.155830808435882,11.077141566672795
2.0419920665681923,-0.26685622941599996,-2.459194926631124,5.131022514478542,6.3953077609084605,13.066796877882036,7.520216171800284,7.407065736969239
2.679411149027981,0.5754837994463412,-1.0321253483579629,5.214910396308484,5.6927711505110175,10.795079915081194,4.016281382575691,3.5790048562342127
3.518804464495701,1.608665766646802,0.8007817986344928,5.170600099265212,5.371816375759206,6.8736531090166375,0.09481641590282167,0.1910315470565881
4.098283898205678,2.029518901143956,2.1428351144810187,4.662334365355755,5.3271551427825194,2.090941890353601,-3.516345024033671,-2.3134469487079667
4.169294510273186,1.407279563966672,2.4381090970651673,3.7346578294129364,5.572016032313236,-2.099790919820802,-5.829620530940979,-3.5762155366157007
3.84551911656583,0.0011260041110310072,1.8132323815329574,2.829839891980429,6.361708686217507,-4.09430470592933,-5.887282341673874,-3.319310156494773
3.5445722244917452,-1.3247911550502838,0.9937731008936957,2.531660289103204,8.037012378479108,-2.8599963864133406,-3.2424047078251763,-1.4549848513451598
3.77791583675906,-1.6085063471764658,0.853684878336269,3.2216031645412726,10.679697472235038,1.4986655307671224,1.648512153011848,1.7634371028293807
4.913765866888719,-0.3916324740055884,1.905858984858471,4.869266643926557,13.85497865873912,7.666233480034355,7.423628220515368,5.688127749768921
7.013881988969959,2.0095094508006777,4.042950745370174,7.056894801056202,16.67665813450213,13.619518602269055,12.292134244575214,9.408218762735176
9.780567022121577,4.703169152659543,6.610988124299248,9.181468903660459,18.18808675412807,17.460046682827784,14.761868871189447,12.029945881941218
12.612369109866833,6.663482814410514,8.682024204590011,10.702725294421727,17.81632482946781,18.13927992152756,14.220048883335142,12.969143390867707
14.762345538570612,7.1053534725006715,9.367639213433964,11.326650996901668,15.624760225991507,15.736726019045715,11.075734260972395,12.110932835351973
15.575780635862072,5.691610920027844,8.11418976352255,11.071950206681239,12.25512108572705,11.245886032684556,6.4600682724220775,9.772876336134885
14.73434065525525,2.6352200871013194,4.952122099909149,10.215547082347612,8.641722875758678,6.081421291613573,1.719395223757056,6.52652502674611
12.394745840714435,-1.3120438824365073,0.5921477508933478,9.152249426978408,5.659307073019402,1.580465547812506,-2.023793481914343,3.0132547012014057
9.139642225874143,-5.104975902886616,-3.769025269118827,8.236695850011886,3.8399208238884626,-1.3353563880624755,-4.094854114581937,-0.1295282163018261
5.753745671077386,-7.88229304034673,-6.919381880890799,7.679285616863832,3.2465420133036753,-2.299564109511217,-4.2856282159346435,-2.236032306924946
2.9323980925714253,-9.39417606061121,-8.138238130518662,7.525216354962006,3.5467505705218776,-1.468280760056764,-2.7605052502537295,-2.6082875277534843
1.0568323171369034,-10.03268893870191,-7.439000988256164,7.687757124437083,4.251902680373751,0.636478398657606,0.05514821397223787,-0.69336380302724
0.12383978488461561,-10.42968448128608,-5.4361380208158305,7.988955853096567,4.986377287879381,3.3343628031412154,3.5488822536990967,3.548454711705558
-0.16040729715041793,-10.96745951421923,-2.9732699983484294,8.196851378857462,5.6226690329435165,5.960749683366407,6.960331564466455,9.290528438875121
-0.18099699766133898,-11.578701088863518,-0.7368596632049532,8.086103017696718,6.222594693653606,7.9669882704173425,9.446867374671795,14.820481758498651
-0.2108742244468044,-11.891561480984292,0.9967731623918549,7.531835374780091,6.877842985921003,8.976625795410799,10.246331265426088,18.04499229624192
-0.310038835042522,-11.500627324385537,2.415420559905691,6.588436204908632,7.592094032999859,8.84103051263637,8.929178169946772,17.3751577481847
-0.38193843754679685,-10.18449981338354,3.984689600738116,5.480452569069784,8.257712384989453,7.677348255290929,5.616490689003437,12.536425090054951
-0.3413650667326501,-8.069776023547213,6.049480896921614,4.4844498612282475,8.677294020556001,5.825612919118704,1.006180162915146,4.813983291128728
-0.26604494013650476,-5.748194912195721,8.417853202139913,3.7642626498959126,8.582309375136731,3.7079418013733814,-3.845909012392653,-3.4486029158039893
-0.41635649017028753,-4.210862859349649,10.230736654391897,3.2585834243405554,7.672203035777856,1.6645934370567996,-7.885864778044675,-9.841235936479823
-1.1124004566049606,-4.477116713573952,10.283232659213446,2.6854111778078398,5.71505510982174,-0.13338628457438165,-10.386643677656364,-12.848929923624814
-2.5627507971492505,-7.069162240817292,7.640171256142426,1.6649810017393807,2.6817646232102237,-1.6655373588803455,-11.117013160972785,-12.32710177511616
-4.7567096496596575,-11.709601122934258,2.1710349081774054,-0.08656801263130495,-1.1758292257162366,-2.9871103187755876,-10.334667560904654,-9.340950550745713
-7.467422108782233,-17.473442439097802,-5.291404804391868,-2.574290265162069,-5.362050911378327,-4.155962949444758,-8.643757101268786,-5.5495762530979835
-10.341950388874276,-23.231298911922046,-13.205190520418721,-5.452164517264599,-9.263921216509242,-5.178502593021334,-6.7698422723059055,-2.4865919786227417
-13.0269233222035,-28.02188645632527,-19.833586108462733,-8.131622096760447,-12.299560835799465,-5.973556324759997,-5.313209688140942,-1.0489731902447885
-15.281260570644642,-31.190400105922965,-23.83140715929655,-10.041898763853787,-14.047076980983398,-6.373040023861717,-4.556955211383631,-1.3306871834813223
-17.03161134304166,-32.42472160518826,-24.718329742285373,-10.899085097567005,-14.340165550119986,-6.185207425241623,-4.399020495870979,-2.759032381230406
-18.33773918034373,-31.82551539733405,-23.02971115453366,-10.814819192433305,-13.300233502476114,-5.304165084851111,-4.429821462738173,-4.403663727706042
-19.278129735470493,-29.912793186935506,-19.99971873891769,-10.180392225532316,-11.265330853186772,-3.79724773826418,-4.1197350082929765,-5.334678152728351
-19.82793837314255,-27.408040989461245,-16.894711946031133,-9.418370249366708,-8.641240567731778,-1.9093792749133291,-3.055302061283764,-4.945020548663951
-19.824570309738586,-24.896120170282174,-14.418678329042036,-8.771526234472821,-5.793990657444954,0.004176170394971396,-1.1650072790735744,-3.1696276057136608
-19.06100463257293,-22.70372653400805,-12.617330340536018,-8.245440080639472,-3.09016853371512,1.5484542299786357,1.1358406619961399,-0.5330336019221137
-17.4500074613476,-21.134117392816325,-11.304968944010177,-7.702578461019769,-1.0303488506135905,2.3250038886379683,2.9790336219454523,2.017071544805205
-15.14774950553152,-20.736254635193227,-10.57140422445504,-7.021990789916529,-0.2673009061130441,1.979156277056499,3.33187464837442,3.4569546096886983
-12.556379411499957,-22.146890089705874,-10.866886775524943,-6.2272314910086575,-1.3548618472421918,0.32774335965005574,1.4873470727926157,3.087948325232069
-10.205646773724284,-25.48381030844059,-12.585680327753586,-5.519079024644838,-4.332371275237899,-2.4559150391370883,-2.476045303971823,0.8182615016168774
-8.578884281013844,-29.83594737145722,-15.55479267801422,-5.199074462881697,-8.472105808186715,-5.75003865094305,-7.570674846489582,-2.805752743926515
-7.968250634110966,-33.446528010322275,-18.925873463296366,-5.5249318744172315,-12.468342726469691,-8.649455840706427,-12.272309499893813,-6.833097754913067
-8.42455568333379,-34.647242170685416,-21.63128611181122,-6.580767767394967,-15.048017203840661,-10.396496125391216,-15.245812039112913,-10.292684381213105
-9.817703861546988,-33.01961869799527,-23.1423686516483,-8.235917925596105,-15.681831837879722,-10.866592450090714,-16.032036847210687,-12.548542892546536
-11.953227298495325,-30.104933915695128,-24.05832633181388,-10.194952758104344,-14.985659870158743,-10.785399752181041,-15.290376952418269,-13.471010536012685
-14.63543359781625,-29.181292476673253,-26.084494075770888,-12.068496332133162,-14.537465598918022,-11.448784539390507,-14.425190695952828,-13.366638013316024
-17.5927159701959,-33.89409685364585,-31.161430494314352,-13.406592262194119,-16.088283857478785,-13.983702693220488,-14.762948714677348,-12.730257106780693
-20.307927799091626,-45.91191343860398,-39.91534680962213,-13.735391772274575,-20.439941748888153,-18.491338074269535,-16.7048988287951,-11.968100408971091
-21.93830603872691,-62.494259540944,-50.182276431408916,-12.703356184403738,-26.531234496835857,-23.579696813716314,-19.32485732933422,-11.24143314540158
-21.51373496883109,-75.59500721081412,-56.73766326087921,-10.356950915496359,-31.35657648944246,-26.680217296040325,-20.68090840377622,-10.493907498448053
-18.409844624619158,-73.9816129399309,-53.00025066053422,-7.374654245805164,-31.041293695077282,-25.14285161637072,-18.744650314192253,-9.611234235355237
-12.834055029815902,-48.276977481353065,-34.29079183823782,-4.9934083381111956,-22.738851035245197,-17.611942237192384,-12.498610521478746,-8.591191909638612
-5.964429158962884,3.4118031300522462,-0.9328912801755003,-4.515131650211119,-6.375705368489971,-4.925212258168141,-2.6127248811910264,-7.609387558676187
0.4416742591593355,72.77204424015689,40.85259446164478,-6.6034328015257024,14.844267124669136,10.030030135871554,8.705019103115795,-6.93955241863518
4.806852711170031,143.7735666597709,81.19996524243157,-10.809876089911537,35.64583633124017,23.503354417653142,18.650953871505752,-6.785101468460742
6.432305202778299,199.57481449696394,110.98242996332348,-15.690722910081998,51.04244533320222,32.50692505515019,25.073918528672685,-7.1431893364017505
5.721180971832935,230.08135439444982,125.8387879961876,-19.509528357882278,58.531098204469345,36.009902600408545,27.34943750642533,-7.80333534135412
3.8138410120547497,235.73902695885107,127.49077225874517,-21.116532594123814,58.86984551151058,35.08148310017442,26.418061143690533,-8.481750951543045
1.905547000944696,225.52076341070975,121.76909246687704,-20.456133587600334,55.099565200258894,31.99744961096594,24.043831544365673,-8.98490369512706
0.6952060912715876,210.88732715780756,114.91638265710608,-18.409032135399798,50.60172252925649,28.937594891271246,21.819475789779304,-9.277929464248592
0.25471514154202574,199.89167961166575,110.63432818056435,-16.144017793764945,47.486078334842276,27.06634416468547,20.526336661446305,-9.42566909532155
0.2684443510025704,194.7913831267226,109.39641156916502,-14.45823276985876,46.141870904207266,26.410753153265926,20.114376776886278,-9.486875351508026
0.37247310096540237,193.53423798138755,109.74692559308309,-13.49279516727462,45.849593835612865,26.368826108996103,20.118151202572264,-9.46548012445216
0.36811372440182216,193.01414658385536,110.19794422704345,-12.866812796243432,45.74853360906782,26.359609930121778,20.12774743113988,-9.346282692238814
0.26322231673776314,191.73860404693818,110.49939489467108,-12.023036284145606,45.52173210359328,26.21833444478881,20.050497927103645,-9.159504035307084
0.1977408626558212,190.77769210911708,111.80865482003462,-10.582871409208757,45.552935120725216,26.21616996884391,20.10640685015848,-9.010024321364467
0.2985922887335784,192.9041496064883,115.79652230372196,-8.613617833219676,46.57462510920127,26.770613311489477,20.605679630712583,-9.053428409838913
0.5068350449139901,200.23716100612026,122.99680836460061,-6.720858353935385,48.936890174837245,27.986210588402884,21.59709130941016,-9.431422455734898
0.4865993863436974,211.28569199428216,131.1706712116505,-5.84067975525307,51.82617560821973,29.254763268557852,22.564457676682427,-10.176894017438567
-0.2513334548093347,219.27814043574782,134.94640187232986,-6.717642490291032,53.01505935158614,29.23130360533548,22.430260142371313,-11.112549526827712
-2.0166963392893633,213.8187380682913,127.68504722289735,-9.330951574951357,49.62709840967152,26.387503127625674,20.014137642705236,-11.81669195585854
-4.620478790908179,186.06534736291056,105.07296981153075,-12.704587775185889,39.74228662406313,19.95125733597892,14.758720676345797,-11.749270463509326
-7.357167464158756,134.6860181055519,68.32299118844296,-15.349190662172285,23.880175101219088,10.638886599588641,7.238467237140977,-10.544821507905532
-9.37394526731173,68.41866117425214,24.615345061447783,-16.117447324514558,5.233996751737182,0.5816136372723741,-0.9729934842458432,-8.3198351271444
-10.194447051553505,2.826908728448889,-15.943710522210834,-14.893605365786646,-11.717378761144012,-7.650706429677398,-8.064674218847951,-5.754173252374537
-10.00844776179437,-47.247261688880236,-45.16199777857061,-12.603610889208364,-23.447425829768065,-12.371159351270164,-12.88954675408819,-3.805212327305763
-9.486005377291757,-74.94708149984281,-60.40073270341652,-10.5000313146105,-29.052999128680554,-13.595763535755564,-15.392278009392813,-3.1597039173133896
-9.220584522895624,-83.86544091628535,-64.80266603812503,-9.204778314532373,-30.301046037288735,-12.829634647195286,-16.291284347586046,-3.7455138909919627
-9.195522911874095,-84.37590582140768,-64.21785510661982,-8.191384272965706,-30.098163316509087,-11.982258742743008,-16.292581916224403,-4.640883958835391
-8.681742772451967,-86.52366728314117,-63.10717733261207,-6.096573935393707,-30.484072501733134,-12.151063243065622,-15.453013941528814,-4.497152463292778
-6.681744937272655,-94.23617815115308,-62.190752078838806,-1.6622147893430617,-31.505525855086244,-13.065500143978722,-13.17739496481214,-2.2632319282890196
-2.6334856133107363,-104.35384512265107,-59.13763842267596,5.352266850406768,-31.623807734904656,-13.491473100710975,-8.827210628197669,2.2167149458320976
3.123646827633142,-110.44359027672374,-51.33900073403339,13.934811751657687,-29.191902808978426,-12.227323773630637,-2.436210523854264,8.106146999170168
9.464988383465066,-108.15698333138782,-38.45644739685119,22.422267387454394,-23.8348506477789,-8.958915433348558,5.047342930560573,14.041240022755213
15.101002300614175,-98.21716931367885,-22.89150635403998,29.481480890506507,-16.75611692881809,-4.418459485444935,12.18774992378783,18.85060650040317
19.243864885569188,-85.23644118680616,-8.099645516500246,34.725839077801616,-9.874884054285104,0.15618777806266304,17.821018879469662,22.053769172764397
21.82330813475876,-73.81788626142509,3.6343749084356447,38.503893918609464,-4.588908405932385,3.76195236747985,21.545971808203227,23.825682039042
23.11159912159872,-65.35761926321169,12.03204439257894,41.06241763962961,-1.1825172936009434,5.9889568062093455,23.5657962751078,24.50512177492336
23.10823088660071,-58.124888095790936,17.653946675210488,41.82230070084555,0.7142563035361555,6.804269489656915,24.04279100069002,24.06369788051969
21.258449311025593,-50.236798671152904,19.967938728884256,39.45507390470756,1.1575482278117986,6.0977004884361135,22.568434759160116,21.98307565148367
16.825439178183956,-42.61223241773671,16.652110073970352,32.81816145196846,-0.5879302381230389,3.5301441204203803,18.29832369965412,17.6762820837787
9.690158080463219,-39.11428985760319,5.073984266887668,22.098007960114163,-5.4913705747914205,-1.0861412328971667,10.756887610785023,11.162361432523246
0.9597592797270096,-43.66320305229202,-15.07457502268127,9.291394491799014,-13.579641100998957,-7.187339717979351,0.7143352482919342,3.4830018178393836
-7.1523885740498,-56.73610125158418,-40.14336118861082,-2.4103846023919013,-23.16455876886923,-13.221848669622615,-9.610375998676412,-3.4979086165607485
-12.218056687680951,-74.14848910498566,-63.40947640835713,-10.023223479780627,-31.235797417646268,-17.11989584252739,-17.321102165051002,-7.855639956802669
-12.765013365568846,-89.15757979184575,-78.16647556162339,-12.12901365084095,-34.90437499805085,-17.268465964952554,-20.194434296726072,-8.490782608353742
-9.035539978243369,-96.39199749271471,-81.11697657486647,-9.415409672095878,-32.99429621825027,-13.391869169683579,-17.78915247055042,-5.62337993879135
-2.8944792245037094,-94.84200943478201,-73.96108804198701,-4.166771309220999,-26.753673185668603,-6.777781267511617,-11.643270461808205,-0.6370845750719657
3.0379330203240555,-87.98254534004158,-62.301288311586276,0.8972568022884121,-19.24636319649178,0.28503763370988916,-4.47589576429023,4.587657850661369
6.531282828182791,-81.27105417996691,-52.695345676307326,3.7586360534938175,-13.836183529571565,5.5033591587360355,1.0865723948277326,8.4541219076838
6.591994893428434,-78.98954761695404,-49.65671784849966,3.711612453740672,-12.672972259814374,7.452192635688337,3.533491943635235,10.165589216594762
3.6831454996392456,-82.40915043685392,-54.08412766713901,1.3354386777862668,-15.937736197035271,5.944402624017884,2.7911517889680897,9.817812510153288
-0.6629755934146627,-89.88293567426749,-63.50905279062132,-1.9907473554618522,-22.04215856029836,1.8715731797407569,-0.12850375782987078,8.136232188185527
-4.583284822388296,-98.1703545228961,-73.63151014151461,-4.763142121046979,-28.49372318290303,-3.277233112666096,-3.8054514552406182,6.039912053110004
-6.647990858744342,-104.02949263313926,-80.32453093934997,-5.970706793388853,-32.982513919074194,-7.994932763528843,-7.05372610505231,4.222497000414066
-6.365626543988612,-105.530609018788,-81.36979603761137,-5.444077219537019,-34.296636188371,-11.271641614255168,-9.314836088843963,2.9055664348195367
-4.253999303069195,-102.79659546895302,-77.2967596051119,-3.809557295977988,-32.744064230160006,-12.896093481495766,-10.72539332662465,1.8543619228781298
-1.4805311099790635,-97.83770804655242,-70.9234587739632,-2.095488937250192,-29.882580934630536,-13.409790629315962,-11.876210737413762,0.6316235967271955
0.7236165198004857,-93.39539242156297,-65.77713094812607,-1.2196993109767287,-27.658316393762554,-13.714310453654283,-13.385665075463935,-1.0618954157371188
1.5692254658326394,-91.41913769661139,-64.28537751790668,-1.626025848636524,-27.421602310514917,-14.54703729636769,-15.507217737906629,-3.159806199860768
0.9124957957932345,-92.24403143712625,-66.82401244072594,-3.1989799981048335,-29.394092411637818,-16.141782227234113,-17.98091309742747,-5.234249886376967
-0.8563793136062343,-94.99893150908368,-72.06436749410618,-5.402662032688406,-32.828990892905594,-18.246673260811182,-20.18488131845278,-6.700026249716931
-3.086156028595573,-98.65418775472833,-78.09729611891767,-7.5161496667713665,-36.5978787086586,-20.39161416494778,-21.454864007701044,-7.0824012293107454
-5.13082894843614,-102.61495255967105,-83.39786562196798,-8.87965753647166,-39.714776890656644,-22.141071595490452,-21.372253283754375,-6.217241928444866
-6.529837288594511,-106.4356809371917,-87.1197987663579,-9.111166934004164,-41.53104746348493,-23.169200922851637,-19.903398615491245,-4.325453621736904
-7.095495117031684,-109.26858385386261,-88.90908105155651,-8.236836155047815,-41.70433365529355,-23.21684941954386,-17.38854278523515,-1.9622690081323626
-6.913031624461735,-109.88954375745212,-88.70164493496313,-6.6622562904819524,-40.17680423982551,-22.09245387354897,-14.423932030571338,0.14105957024774032
-6.262853942551062,-107.43903225354755,-86.7389701000099,-4.977134885363974,-37.2482036723061,-19.790178430570588,-11.679898162707604,1.3105148510741405
-5.5096055183852,-102.30392203656443,-83.73368322871025,-3.6977885717286236,-33.6546901160728,-16.65735724531828,-9.71945102143097,1.1673938535929902
-5.020822403914233,-96.54708964301554,-81.02213838895874,-3.0889345925133367,-30.54176036591964,-13.484647446900007,-8.902308055155803,-0.2230101950362416
-5.124430940471902,-93.64268849942952,-80.50879780281228,-3.124991919670875,-29.266931845113636,-11.40798188543188,-9.398941768223962,-2.3573617474663995
-6.0380503030561306,-97.38108964207993,-84.1163379110615,-3.550926115797068,-30.97271675848265,-11.553718196501313,-11.220299224212777,-4.454885685960431
-7.719781306310276,-109.82754337876277,-92.57256079956655,-3.9942865071046425,-35.92332243254173,-14.464748326795501,-14.137901192170066,-5.719463873457142
-9.720239512729957,-128.82701960567712,-103.96017336517035,-4.133446288602079,-42.84006582262772,-19.548247476707022,-17.51368680875047,-5.62699224699133
-11.218231404916965,-146.64026132766594,-113.15876361847488,-3.9163778351639755,-48.760065553194856,-24.948317383440738,-20.251700588692213,-4.1492050825999645
-11.343001172872727,-151.59924716321856,-113.25010778115285,-3.718438687822759,-49.88494284896965,-28.131509234357853,-21.087136511101743,-1.8154251809948616
-9.651994454021949,-133.12852710327468,-98.75718514630205,-4.262821354122503,-43.29736661815758,-27.036072230200304,-19.17249087200011,0.4583717265084425
-6.453916183707058,-87.83396186037785,-69.02594859173206,-6.243533282177916,-28.676137263222586,-21.175954456316138,-14.619044002763577,1.7441179127297182
-2.7247954068519995,-22.82968459706348,-29.504129778158852,-9.83375141576008,-8.896043222806734,-12.010405989652227,-8.595570872970304,1.5182792918852737
0.3670712902311972,46.328116578303515,10.220860997457914,-14.413006634830118,11.029599487468822,-2.3040194544554056,-2.8501182147502524,-0.10070282148647866
2.0398735049150907,102.40681243908772,40.7004525483142,-18.746640218364284,26.17293297439577,5.175184352630764,1.0949446163668943,-2.432125038439758
2.2245881818641156,134.18408203710527,56.77035351571026,-21.55655892042294,33.832993522595245,8.87562171325137,2.604352842629778,-4.586061413546864
1.4659067688141514,140.67220371205397,59.228009138986764,-22.146694711876698,34.40579923897847,8.943239591045366,2.07621447676058,-5.888155830917077
0.5193328948782846,129.80939361222005,53.36455205607883,-20.694952084738443,30.63152567532922,6.800971556847963,0.5472296910973217,-6.14320873077684
-0.055622814373068985,113.09559885442506,45.64954175619129,-18.04896530642613,25.877552310054295,4.213963535566051,-0.9285864641980094,-5.616662710449737
-0.07179101742326413,99.85132180754893,40.73387795964271,-15.206434558342227,22.574838158005004,2.4536606480510814,-1.7302518759493506,-4.792891235624705
0.35414605011441697,94.19404718648083,40.219523638737314,-12.848302496710158,21.569146095554835,1.9585263243663251,-1.7612765854024905,-4.092220733762535
0.9698429991494278,95.35601647409983,43.18263507000776,-11.178053530913797,22.389862085130908,2.475275254586144,-1.2777930970968745,-3.7117959791982056
1.526115178408614,99.88830993302714,47.505022419192365,-10.039876811086254,23.941426024575343,3.411217652566829,-0.6594069079724163,-3.631422491595005
1.862674612699175,104.00974480545433,51.14547244273905,-9.120224168829445,25.15672815259648,4.165096069388796,-0.2385102670748156,-3.7124417935411778
1.961574013878605,105.26808907240093,52.999339797421,-8.097146323602516,25.43368147825869,4.359909290681286,-0.18807189235714486,-3.79966356649981
1.95025423592486,103.35718200752193,53.24511742189521,-6.742541979808291,24.820078610655326,3.9665881980677145,-0.4621918526480817,-3.787914465791718
2.0189478657648015,99.93827378625681,53.05660416142299,-5.011369930552162,23.892921158523038,3.279606286414583,-0.831870482032135,-3.654202151829763
2.2838342265821314,97.39326870085553,53.729641427559294,-3.073880795103233,23.340902247555157,2.72697518520893,-1.031623337840263,-3.4527123752551865
2.7002264030659786,97.09915000773687,55.71636075827116,-1.222871247559825,23.47459146625603,2.6098483123909144,-0.9316338170676555,-3.265019931740018
3.101134620175317,98.41354251976135,58.271249235137496,0.31152846869220413,24.012693546665346,2.9405931495638447,-0.6076211891901597,-3.1284961538652327
3.323898226893069,99.17679606039484,60.000352368849356,1.5044768837838562,24.307281364975083,3.469877232600844,-0.2688400033825723,-3.000516160831499
3.318655662439708,97.33913262928512,59.89728304214645,2.537263546843773,23.82191405846582,3.8403031527151335,-0.1259595987321888,-2.7978696928530193
3.176440601097361,92.49804220133204,58.13897364453256,3.6900333837954467,22.515926052917003,3.7481858608133467,-0.29576222834941546,-2.4830996431751218
3.0963535796833237,86.41527647036214,56.20823560828524,5.223601738318831,20.934378034268086,3.0707226606440305,-0.7551463850018946,-2.1221977521769078
3.323168527681226,82.41063058779429,56.34982414264474,7.282485031404561,20.02051015415047,1.978970865249959,-1.3093250150958975,-1.8623480662755867
4.040861157276361,83.93385508909753,60.51979450011085,9.784228875307344,20.718780955390056,0.9966690336910785,-1.5971370128958369,-1.844120020308194
5.211907461861478,92.55901344262685,69.01826322211545,12.315818520445287,23.40435133644102,0.8743053306190509,-1.2177506416368769,-2.1010305663487223
6.443419733217371,105.90026665023275,79.29558228971993,14.165994941303529,27.295414538797388,2.2089295533888467,0.0051275001217927565,-2.4901392852155038
7.028745243772475,116.70359975114532,85.84320547395576,14.596628095567775,30.248947375546532,4.96500251396988,1.7689427595274807,-2.6800848648919486
6.231950685601244,114.60010832128013,81.91992521244178,13.254106436833597,29.354070351120583,8.226406605016711,3.2696447821320995,-2.225297511441473
3.6870825478977607,90.6829309221154,62.765937257647074,10.436084910698735,22.281770061449777,10.427416628092303,3.502048748240983,-0.744942326608499
-0.34551934903695014,42.755833533726616,28.607348589111457,6.980359252941912,8.695024599657227,10.004954639570274,1.7367828243628727,1.837985073191589
-5.0515454550744545,-22.189133864262093,-14.602607661752023,3.82185783853853,-9.235434015789556,6.125897458673217,-2.110516324679873,5.127053532376052
-9.424353711307857,-90.44089484526691,-57.537990947916654,1.5300772654951424,-27.691912314259636,-0.9127415964653516,-7.430840562988301,8.297456997168505
-12.67799861158369,-147.91899934200836,-91.72324294782854,0.1566275976055682,-43.00435202652155,-9.806830416436862,-13.193177732158968,10.396165323007741
-14.453356231472359,-186.48997173857853,-113.0287190262738,-0.530865117580445,-53.245448829188334,-18.767800559805448,-18.337829085481374,10.770147910525505
-14.731578834088053,-206.1672474601196,-122.27724350082887,-0.6735711278580498,-58.595388575587705,-26.111404373482586,-22.052562320254932,9.387360419784676
-13.60257055343986,-211.98457410800762,-122.83583613528943,-0.16948191930381415,-60.327878249728556,-30.627183228797087,-23.83289601005762,6.852884270721381
-11.1374557174709,-208.23065459112468,-117.22385109301572,1.0963085837844257,-59.295310211053945,-31.68669370092661,-23.42677804758636,4.095369996023276
-7.486657233412565,-194.62301100704474,-105.35837865198822,2.8544024631800182,-55.14170175537701,-29.24495458723939,-20.8338253088584,1.9013006738527871
-3.080285085296647,-167.28903438269052,-85.59156003123616,4.306903601669686,-46.83572175838373,-23.86017640028541,-16.40499932255503,0.5692231631787785
1.3210813610262355,-123.48473963966407,-57.39763499486196,4.475391480177068,-34.01557924791248,-16.677770226859806,-10.909843771421881,-0.1275294218845792
4.861736646428103,-66.07536036968492,-23.34539649155734,2.8518556872614456,-17.99474739907291,-9.225546309618139,-5.401996806739858,-0.6833894696902617
6.993461984898235,-4.204909131696353,11.24622097152907,-0.13613496191660857,-1.593422904007253,-2.971594563994691,-0.8661075684137062,-1.4974077989609287
7.756927848040225,50.288160275833604,40.612364178600636,-3.242684812209646,12.08465330059949,1.186492803275813,2.165353001577939,-2.6289206454664957
7.71267846554913,87.9740109673003,60.956282376592306,-5.087653551796146,21.015241267649404,3.199759617556013,3.759927586957304,-3.790468127400172
7.5408729436114506,104.91535694469253,71.23006921775779,-4.97367730472211,24.809207429971302,3.7022193881232472,4.367554703491858,-4.53651355519527
7.584648085493194,102.14324634721692,72.03931799713531,-3.283293649133822,24.216664992250504,3.477345932027131,4.378548412384176,-4.4982158504326355
7.673929824266206,82.87222479000165,64.01524352712738,-1.1771825126602293,20.173506992892477,2.9158948026204707,3.7985717907864425,-3.5192151394190807
7.364436245139703,50.276428439672976,47.31388465808592,0.20263130596805073,13.259592689324343,1.8559845714976488,2.318976239406763,-1.6481143702953036
6.402201824599001,7.532554729270917,22.68849502889239,0.4763340600905072,3.9409322214225697,-0.09179155318933033,-0.25562751826779595,0.9452367819640658
5.03720614107936,-40.683138660451114,-7.047120809881363,0.21612924497390873,-6.82459089816768,-3.021986550340417,-3.580596597508936,4.0276159516594685
3.9202492121956567,-87.57962639427157,-36.8834197997417,0.4802288359970013,-17.39401304335048,-6.464183873502612,-6.741409772108067,7.291074799129165
3.6449474412311695,-126.02654549009789,-61.456423538935525,2.043603531605541,-26.0396938849384,-9.604687728170042,-8.716929434895544,10.321435180972268
4.287511507518141,-151.87867322678417,-77.74555902047567,4.870521632988405,-31.943764955882994,-11.827372675234995,-9.024321561989003,12.639734825114953
5.319926845194187,-166.2084364031492,-86.54010470011002,8.175191091899809,-35.70806890817969,-13.11816542069835,-8.045389664382064,13.86049355502975
5.994333479393241,-174.13593311149054,-91.28658016026824,10.97135215650308,-38.765353342424135,-13.958665723293082,-6.732319778453805,13.896294377281267
5.922331174940307,-180.38655880793038,-94.88506209063142,12.657943812132878,-41.94410578888081,-14.741313820684278,-5.854067979714226,13.054111703703734
5.403224685870863,-184.54911336000993,-96.75333502463823,13.210999883864373,-44.247927063404774,-15.165297815151447,-5.328744554912999,11.908865105476211
5.239415020834,-179.87260265617653,-92.54237470095829,12.922385084712433,-42.94260295521808,-14.156423921666928,-4.172153173971655,10.998554502727233
6.170932188579537,-157.1992866543169,-77.01702925847857,12.004889271341499,-35.14661861754553,-10.482285759332576,-1.1536558150439336,10.537014909889399
8.34473310900199,-111.74819296488097,-48.192423743344555,10.440620625534331,-19.944076205854227,-3.6793455805384445,4.284348909199339,10.344411075414763
11.19140402861723,-48.040978972395685,-9.773822188265434,8.173588155157116,0.4598667586326233,5.376723711249543,11.494848791679688,10.037316455747563
13.770250847995444,20.657847857520913,29.889739631143392,5.420490836148925,21.414428956749948,14.70126852296338,18.85562094064107,9.331075395089044
15.317857117290469,78.25355485874198,61.70281052336472,2.78012641295234,37.958172421299224,22.11673210790669,24.596682403374313,8.239668934442328
15.628051182012761,113.383197342466,80.07870331222627,1.009548136600307,47.09326455998973,26.276526852043393,27.675762824767286,7.0521430693696585
15.052589551925387,124.05951526365274,85.01926906488167,0.6226912140747257,48.87230292770159,27.179215810721082,28.172954768765752,6.131902499602992
14.195850562168168,117.04750192763221,81.112787954625,1.6153222211792027,45.831095280504094,25.935282628375383,27.04675136787885,5.697830568548099
13.56127192622856,103.12278656339157,74.54053793306969,3.513651142123354,41.355795224067315,24.04197146378526,25.51339451156591,5.731684772787158
13.368978399491368,91.60241976948174,70.13232552773972,5.681352469625459,38.08051939750573,22.6672472782817,24.478191589117635,6.041857647192218
13.57848399985508,87.16164301615477,69.9443244233233,7.636589662239441,37.11489588079313,22.308069413970777,24.292590687650183,6.400640221351498
14.006953889816323,89.745783324286,73.50206352306624,9.18085588060961,38.18522605748419,22.85442049232034,24.828817099021997,6.6490122139300825
14.43814437090671,96.40796983725836,78.92809311051586,10.341994686687977,40.26200541248011,23.860719942545984,25.702616901086294,6.726463419328414
14.700738591577775,103.48358276766781,84.14568520410704,11.264384660549245,42.22037838174329,24.82808132111113,26.50026560687008,6.652336338632359
14.72957786723305,108.23761362825849,87.77123482143386,12.135442854987483,43.315631880590395,25.414337016803035,26.95290565553973,6.496021852108847
14.588649658167979,109.76484721247179,89.55787082860725,13.12986198325388,43.410327283842484,25.546989807915075,27.028581141258222,6.343805592474258
14.419979947614216,109.016267719446,90.27710652444466,14.33737494708454,42.90963376523074,25.406355552346714,26.90383455965128,6.258379793566653
14.34025114693405,107.91447456521854,91.07819055177092,15.712727500795431,42.42895579826146,25.275852574600073,26.820739148265403,6.247682734201111
14.369048549675272,108.02780095047352,92.7160959751507,17.112678490210868,42.38947506706106,25.349817821680798,26.92391402737927,6.270636410471636
14.44662170767827,109.71025387323921,95.18835883729297,18.40365924187922,42.81864930556094,25.63760411137263,27.19688496557199,6.278235026418028
14.505186264587454,112.27208981222165,97.97614775250666,19.540231422315657,43.46361580056662,26.01919694332899,27.525567099617476,6.250502199095291
14.51090289971758,114.81975299589504,100.55527522183218,20.54984194061111,44.0507379936593,26.368899007123282,27.80261028704779,6.194856143050857
14.449744239165145,116.89680558891465,102.70398511904996,21.47400224918114,44.44397124575226,26.625761216380525,27.977722307576396,6.117570903505941
14.309395312471636,118.50624513160182,104.48935623809108,22.3570323463851,44.637002794669634,26.784669923288384,28.050641350426286,6.009777787459316
14.103319288248187,119.85808214486968,106.16491009190578,23.285190010273094,44.705828625986655,26.876416045338342,28.065915525466906,5.865375688249056
13.90415819377922,121.29923607219024,108.1328062151358,24.384745988413155,44.813158317752816,26.97943110786284,28.12499784763411,5.703491112331151
13.817214257368457,123.33392500698139,110.82302596172465,25.724952026555936,45.18602802395944,27.21457380832575,28.35950178319954,5.561963639820201
13.890427521655559,126.33356939184763,114.3410714674149,27.202802028218393,45.96271044201372,27.66467292376775,28.83074376271509,5.46669093583684
14.044234353493193,129.98707552066074,118.1111709158114,28.542455653013857,46.99162224138493,28.263076141928,29.424783700597434,5.4113025927225245
14.09879972313268,133.13857556772132,120.98053219914604,29.44539126001376,47.812596649819056,28.774940898590927,29.86277790773164,5.364443087929534
13.882360206568812,134.48220898822626,121.93612794162946,29.789877440563334,47.92873925448742,28.931454821615034,29.861618470908944,5.286210276083629
13.337172894032902,133.7021687755308,120.98934186508554,29.749784122386828,47.195420342518744,28.630876773976777,29.343862554319685,5.133287416204116
12.566952868942375,132.08469314204234,119.54849452826896,29.780329780188946,46.028420980771735,28.055792941040707,28.552323635496904,4.864524821411671
11.829157529446293,132.04121549355602,119.9457500437973,30.47815248612286,45.2833906532378,27.6306336113309,27.99802526223538,4.472151347807797
11.476185984285962,135.8388750561879,124.29932281014263,32.31627833975439,45.877500978154266,27.848866300182106,28.25751539950055,4.028574506602137
11.812805171908467,144.19829899974843,133.1344487079145,35.278634095040914,48.29209822330413,29.02701279480142,29.66611942955657,3.6966000484298167
12.868519832571485,155.18861509793447,144.22790358159003,38.55059851576469,52.07199660973355,31.032139462622315,31.98061846507294,3.6644430972260316
14.205758397997696,163.73243845648855,152.27165185057984,40.54771318993511,55.51662374681214,33.083431299289984,34.17174820895961,4.034490456204257
14.964995746461144,162.32158318821982,150.03359565757358,39.47145834670205,55.900212838120716,33.818014798425025,34.57642211335006,4.745668558704153
14.242015321068349,143.52300252641908,131.1978298910308,34.2321036021628,50.45780636567733,31.766186440139897,31.526123104816353,5.5873448084649935
11.636272910877903,103.81391538288943,93.89566068765848,25.225968683311947,37.87962161782171,26.11685443175659,24.24583438316652,6.2907442719090545
7.616322438107159,46.79500390960385,42.92837288389884,14.424758543278045,19.4958423922293,17.34559088471132,13.513738973310495,6.631549398162962
3.4078791514200693,-16.58933351938281,-11.070717922442105,4.6128093422336205,-0.7365511993601948,7.229160686235554,1.5831576306342137,6.484087266631572
0.40801797205353807,-71.74906500115944,-55.62513481692113,-1.853399115009559,-17.70890899095026,-1.8983377428418216,-8.733734534851141,5.814683268793599
-0.5431019244876127,-106.5506779643456,-81.65716576786632,-4.070844659445643,-27.43325047779662,-8.28901876018118,-15.383909566027771,4.645231448296284
0.4147432516250382,-116.61558082301461,-87.1931178736132,-2.8371359815603654,-28.872665803553115,-11.655845882726492,-18.054640990123755,3.02774752258833
2.300114078658153,-106.86294795780108,-77.57949110811012,-0.04494041786630334,-24.2872480193803,-13.228142523538692,-18.232250948327486,1.0487086415971523
3.876217321743368,-88.47391090591537,-62.284052802678865,2.3443862198209615,-17.918854318343815,-14.92546830253822,-18.28110373031981,-1.1438395639845567
4.2968798471375536,-73.13355576625787,-50.25278002144471,3.1391160492712458,-13.811710324689203,-18.134270197298434,-20.06172230679088,-3.3055637937588167
3.4376824218555786,-67.81554106914221,-46.33127024882534,2.186795426362646,-13.990872079579205,-22.81498073542929,-23.865873472610083,-5.070809014087443
1.7918705351785569,-72.57675763336377,-50.21612274464064,0.09044397988230564,-17.850953390338546,-27.445824152767727,-28.236710787015472,-5.973572942680211
0.0746987004891776,-81.71227775573979,-57.769110264046105,-2.3521457279240625,-22.823191120701576,-29.79946636369814,-30.73425601872837,-5.571236038047065
-1.2244205589723385,-87.04593703930064,-63.57249024371408,-4.675959728957206,-25.81417603725536,-28.118468482305733,-29.239246733570145,-3.6943448674355257
-2.154108091089836,-81.97209846868142,-63.6580022548487,-7.013085706867396,-24.798630674014444,-22.13912935532248,-23.186687925575693,-0.7337892645594157
-3.3626110526175936,-65.25631719176309,-57.69317895356978,-9.960102414301366,-20.05014731983167,-13.546364695482257,-14.178968669124409,2.241644113864983
-5.84684093543893,-43.3907852078929,-49.90479024780076,-14.066337230542896,-14.526159076960607,-5.641934080458243,-5.6482020075765496,3.736717204370016
-10.428479195881627,-29.783703899805843,-47.94552605787267,-19.198881467272574,-12.999894712564027,-2.2288395948008315,-1.578964091049292,2.455381562909174
-17.168344703151742,-39.70214041108165,-59.5236734203886,-24.22087354083709,-19.964530539973467,-6.022431593550651,-4.7335480157581555,-1.970874723466532
-25.0497962045289,-82.27826734165583,-87.98385630647931,-27.319721793169276,-37.093366904606164,-17.233454432044024,-15.174328578067097,-8.576348055280782
-32.18196557694928,-153.54892442576875,-129.1749478093106,-26.917578193548533,-61.59917840606485,-33.07411207574443,-29.885299540409285,-15.28866722834353
-36.50072770382681,-235.0516771009583,-171.74783003754587,-22.66127603703649,-86.6325080594395,-48.605323284705065,-43.832310689411585,-19.767434740532376
-36.652458316357446,-299.9429555693645,-201.32371772315062,-15.866122027895447,-103.84892076941553,-58.67211745971957,-52.0633346982381,-20.46783396967839
-32.620369673343944,-324.30745986772683,-206.74226232533442,-9.084840280654596,-107.02645340762294,-60.051210642610656,-51.8566959189393,-17.375901069543474
-25.76656749967533,-298.02885932563373,-185.23682881320374,-4.988451070670807,-94.90819506698053,-52.757396602191406,-43.844015836812,-12.004807183161892
-18.25381119911289,-229.47359284751252,-143.78935738863274,-5.147161359842867,-71.76211431611677,-39.86324727057168,-31.545713122910723,-6.6314666946907534
-12.13297801649289,-141.5051004787216,-95.93102173990351,-9.353658881894598,-45.35967532916507,-25.969252984416496,-19.596753556038692,-3.1795225159969136
-8.564082280308735,-61.06025118279083,-55.72047672546456,-15.82956052776553,-23.478768439486533,-15.166516338611073,-11.634389240158553,-2.3681251632073215
-7.563083342669398,-7.846429784692426,-32.078501106709936,-22.182785886654244,-10.78762498744849,-9.538123118604394,-8.953051254710552,-3.59694924817577
-8.352706112728269,12.235553888047434,-26.238859535108443,-26.589906099505935,-7.620057151543142,-8.840065559887144,-10.519805730419268,-5.58655604065474
-10.02442401495085,6.396530653770292,-33.107671787187506,-28.564162601059156,-10.959003725235199,-11.273290219172752,-14.110279737962347,-7.311970962237659
-12.04640207703967,-11.379844303346902,-45.08628307473445,-28.916881495619734,-16.68266734826564,-14.682769317591541,-17.7072569344537,-8.591268848567813
-14.318243269893673,-27.96263394415979,-55.83061360585844,-29.01367178039028,-21.59625576786545,-17.443360259604496,-20.298019778405763,-9.966092894459525
-16.850865082421187,-35.8917527777676,-62.08179847978261,-29.85407625634455,-24.250208545380584,-18.700116453742922,-21.774288864563676,-12.039776030622383
-19.423407170862905,-33.97739581092214,-63.39467080578161,-31.551404072312497,-24.569836896334245,-18.16136368324199,-22.316853263680905,-14.813901757371042
-21.521468660951395,-25.088784120644192,-60.887178839821594,-33.43762503987,-23.05560801586144,-15.87274969327789,-21.912114107715986,-17.513055931935725
-22.577408634187893,-13.464427294016447,-56.169659239778134,-34.580622257241494,-20.269665307056112,-12.201208993700618,-20.358601324913906,-18.994475686752736
-22.294192412263087,-2.8720859229291253,-50.79269132972307,-34.32093123432585,-16.75717812340505,-7.898979862404708,-17.615488445681773,-18.433747538444333
-20.823813658467195,4.363802381543885,-45.93714585536197,-32.56687659983601,-13.11170768750299,-3.9853051854991124,-14.085725853405867,-15.836024181722404
-18.729119804570345,7.779598739261197,-42.16430646536553,-29.815462118482234,-9.929266457423267,-1.385048693481714,-10.569870021789763,-12.082398788105953
-16.80037360967653,8.591266709668085,-39.3941931760267,-26.98695432327896,-7.676523374072917,-0.5440692560418581,-7.945321395317927,-8.524684969612172
-15.828423246381611,8.85391157480763,-37.25303130128098,-25.163704827594255,-6.617922148860799,-1.2937483782075876,-6.810514905714599,-6.3879677224658815
-16.401183757082578,10.400164939708876,-35.56505210940597,-25.30527745053993,-6.829524423781484,-3.0356374618289284,-7.2945141107580485,-6.30442793027097
-18.763335569813783,14.20002767599491,-34.60771561467937,-28.004824466762816,-8.223698651377667,-5.092907338776814,-9.091714018345389,-8.177820867691974
-22.76253259623293,20.244425953107218,-35.02305154336747,-33.316422802309155,-10.571663028736308,-7.017600327579753,-11.666181515571667,-11.363282198987418
-27.868194351743337,27.475002469657397,-37.57620334130732,-40.63241593913276,-13.589296126816427,-8.722454452368183,-14.503083006666124,-14.983871337812044
-33.21658933099995,33.56443294554557,-42.871800917641146,-48.61184894097882,-17.061335741477777,-10.396583162608179,-17.25671001927965,-18.18987657513552
-37.67100674621858,35.200627606786746,-50.89046370187726,-55.27657560066931,-20.825492164815415,-12.23286009114397,-19.69418612695324,-20.284338136632563
-39.974288777828086,29.659613628060065,-60.31667642292809,-58.456973021089574,-24.498405722966044,-14.091685739828215,-21.4864201873876,-20.77624066172602
-39.09054331573155,17.27150643038212,-68.12535231421136,-56.610770242878175,-27.134837320709064,-15.324908499428252,-22.059639902036473,-19.462356162703916
-34.690540466779765,2.9619679499414446,-70.14381152913414,-49.693018822797576,-27.238063242857425,-14.9538318974163,-20.721908446797798,-16.552341174832574
