FZ,C3,CZ,C4,PZ,PO7,OZ,PO8
-5.4933849605891325,-43.47639817511441,-30.10663463120042,1.1536483445445127,-15.454323388316046,-5.2325607317387,-6.4691053069207225,-2.826139565050534
-4.538901634521834,-135.7580825062605,-75.92184895854187,7.260013296180119,-41.63117261743788,-20.28203673893745,-21.812721697926516,-10.785284900347184
-3.4800161241761014,-205.7666371301039,-110.41376759522598,12.04341257532496,-60.98623999263782,-31.611324430251976,-33.29372619334232,-16.448399054294264
-2.3456607365936657,-240.98466772614665,-127.53008290349186,14.671492133818052,-69.7150998716652,-37.06005813911649,-38.6471239437996,-18.415486577922486
-1.305218966052454,-242.92245730925333,-128.62873001846455,15.063923697184311,-68.364293508993,-36.78165021392479,-37.97711189199309,-16.681908219477485
-0.5426363919806543,-223.954483128106,-120.50080323293619,13.802447670290803,-60.87199361958374,-32.83063087962171,-33.35012562979087,-12.515058837820112
-0.12344374778090766,-199.5953940758031,-111.05095592293041,11.791103733587315,-52.182529065292,-27.922856494894596,-27.56522087206213,-7.800172685112675
0.03905475368281986,-181.28798318866396,-105.52701023102452,9.898105913319865,-45.9676630972862,-24.111242542319147,-22.84016501321426,-4.178548094959464
0.12290008213323791,-173.27374387242816,-105.15704224783343,8.762977489395773,-43.560113480787074,-22.054660311848664,-20.05819687797672,-2.3851175489109844
0.3115646672801713,-173.69761885875428,-108.08657793424841,8.759578408649524,-44.2227332882488,-21.13947763868878,-18.809908195733033,-2.0939092431461557
0.7195851619999074,-177.75328741045132,-111.31074128092943,9.968264443177487,-46.17804215106393,-20.248995994078687,-18.050935827808566,-2.329345537430333
1.3215494188401555,-180.69266522859726,-112.40681790957672,12.085234780458732,-47.73401138228883,-18.68905287999548,-16.959161217757483,-2.1953598505104313
1.903071388851598,-179.75502624018816,-110.53178213764197,14.39132086457632,-48.07065257724081,-16.733259165964018,-15.527105751992089,-1.4800541172685346
2.101338258710294,-174.8583356781686,-106.5418486071669,15.957587875914989,-47.45190340371576,-15.455065575897626,-14.560060392720075,-0.7623920687937108
1.565957668875487,-168.01088815117328,-102.25120529985836,16.071326982848255,-46.810041714020535,-15.930613553158413,-15.07463120771498,-0.968842112237821
0.15402996268579133,-161.70437972729397,-99.19507938206945,14.617785742855819,-46.95604297923009,-18.338864724635346,-17.48762764877366,-2.690771405054676
-1.9872957174235213,-157.26330939204894,-97.68781275706341,12.131190619950269,-47.95731233256682,-21.628871433578293,-21.174141164976255,-5.7194026439120655
-4.510810158949776,-154.34300470418228,-96.86987221942503,9.472491401569723,-49.14730402227674,-24.072260071234783,-24.744915854301688,-9.088455866862454
-7.041126274058877,-151.83701512060156,-95.65217668472131,7.363046261944028,-49.72777696471742,-24.368679198849893,-26.865273811587482,-11.568715499289814
-9.286344654867674,-149.16360010122244,-93.69052112482511,6.067151408995075,-49.42106983982051,-22.5244101352898,-27.02426805969435,-12.279176112041105
-11.040809282034678,-146.67064731511343,-91.56775069305928,5.370609647963167,-48.619409402539766,-19.86095754492667,-25.712315872269013,-11.042473520725624
-12.149888847495003,-144.97825084699988,-90.1631630753808,4.8141724734468205,-47.96230331303245,-18.13878037114814,-23.932680802283716,-8.31809820518525
-12.523193240582499,-144.1865165403325,-89.88237018360233,4.028548705177606,-47.760958133219795,-18.408902811464568,-22.461205850321182,-4.839052479187962
-12.200364419382694,-143.79447326766484,-90.36755026464526,2.9831740584936504,-47.74470584418178,-20.364216036142945,-21.400491367011686,-1.2542328130153637
-11.403233494333243,-143.20819331823324,-90.75841262578703,1.9929603181976463,-47.273974264684796,-22.579397106824885,-20.298144235732615,1.9783058133427431
-10.51579005365245,-142.14866337840033,-90.20210202527021,1.4560519790310873,-45.81976308619881,-23.42895232387336,-18.6744849069723,4.446085184697086
-9.981362272868079,-140.65799105969094,-88.34520463261731,1.4950270467069,-43.39744161503852,-22.07574481236178,-16.544159233658075,5.62155032844153
-10.137158945779017,-138.9919830425193,-85.65100470098722,1.791210626883239,-40.710638895031735,-18.93460342569385,-14.55334936273662,4.9495382424877015
-11.027305741944692,-137.62281029866335,-83.33267299600423,1.7847643921230036,-38.88305618368239,-15.366001718629343,-13.622076282517167,2.221466322912377
-12.279436780358392,-137.1085961144376,-82.72780876869369,1.1129446667245708,-38.83912026761608,-12.820523392451122,-14.311169199350225,-2.02171390044709
-13.163189772661077,-137.6030292851429,-84.34296820295526,-0.06509952797517574,-40.65512756539466,-11.987937099942469,-16.34213000075491,-6.4254681568044525
-12.886819408926966,-138.39485130134852,-87.27451231226533,-1.134760255168742,-43.356516673015314,-12.503966309419312,-18.64045777043879,-9.276220211145095
-11.020986955396198,-138.16722994843636,-89.61758620085911,-1.4438239743818198,-45.4222498480154,-13.388290342397205,-19.936560546904214,-9.299915015997817
-7.7961817014289645,-136.00887296457802,-89.68258323643428,-0.7551657743612599,-45.720479776603504,-13.85476388550373,-19.545294149369767,-6.367551102658424
-4.057025245290928,-132.2689348226953,-87.08205784082091,0.5876796523418689,-44.19879546753319,-13.858390634298908,-17.77927677791574,-1.6821636944463654
-0.8757411726226859,-128.34703194615096,-82.84830905618684,1.8709183909627034,-41.81615005357912,-13.976613480646956,-15.701809230138736,2.702966892324193
0.9470171716788744,-125.58060320605371,-78.6101845359852,2.434688729244005,-39.819719813437636,-14.782497042853459,-14.410925928896058,4.817150274845525
1.2152544686692048,-124.30864743214363,-75.58741710996289,2.051666159698402,-38.95819876423441,-16.266280321421238,-14.369761637315525,3.6879535887615864
0.3617884210758134,-123.89580804278124,-74.0821955912421,1.0594143462514878,-39.157533922193714,-17.76813318612703,-15.213083171417003,-0.22830983505031688
-0.8000200824267376,-123.43084460160195,-73.54766956741553,0.1763565731727665,-39.72964231569842,-18.433664205722014,-16.083726295626388,-5.317774720235785
-1.460549996160341,-122.28234193855229,-72.94341818264027,0.08237574336656833,-39.83392899807399,-17.818558561247304,-16.214127440560006,-9.623632249753237
-1.176111083574851,-120.19003932512729,-71.19550113893432,0.9877585445688728,-38.90633126429616,-16.22355117004616,-15.380982820799018,-11.75230559972305
-0.057440394181274626,-117.23987217234986,-67.73791211018836,2.466659543297439,-36.9232254212871,-14.56448476998733,-13.993927540991173,-11.386466878471733
1.3209836499097611,-113.99490664712673,-62.96659537919875,3.6973167912217817,-34.432664108685614,-13.856249113174423,-12.795278884530717,-9.181284660769132
2.267648093191852,-111.49135117703617,-58.23785629983099,3.9701267216778726,-32.29879264759715,-14.592878203479245,-12.356622736015776,-6.209110970535568
2.386196748780919,-110.72880041741871,-55.2432089002504,3.1136846888487493,-31.236490539877387,-16.398006786199424,-12.690401235977005,-3.364106952604912
1.796680208056701,-111.92006560945087,-55.118927763027465,1.5520831282410303,-31.413755645437604,-18.218859313493166,-13.246712777537224,-1.0744729639801585
1.0337849800409575,-114.2460332724641,-57.9127315320148,0.000994422929776046,-32.40707814588164,-18.999457979056075,-13.300816599652011,0.623664417166637
0.7177944231109493,-116.43049537899078,-62.694202776451114,-0.9334384720856351,-33.51308387238217,-18.378942573455138,-12.426847786303528,1.8599537189156554
1.2332741086927919,-117.57029166321773,-68.03975375389713,-0.984960444728366,-34.11803731724945,-16.872357743570742,-10.683021737597103,2.788413183284663
2.5972623096185794,-117.43264113189113,-72.46599241243705,-0.21691328463871762,-33.841275392462435,-15.369948839127261,-8.40076519000347,3.588817812218588
4.531291838434509,-116.13458215488306,-74.70147700945755,1.1189654514442258,-32.47198591781468,-14.361874449505812,-5.835070564841344,4.4900973461060705
6.627943312638537,-113.8189649079381,-73.96341689486036,2.7190589620161596,-29.93904830576275,-13.546202394322487,-3.0408083515284527,5.688148616493186
8.49696068921983,-110.75944035343261,-70.2708853826049,4.300878810966771,-26.437135721411966,-12.15988405515296,-0.08917431384940779,7.174413664933682
9.837940490834463,-107.6013659353323,-64.54033205044645,5.619169684722153,-22.556702252426188,-9.764218331084843,2.6111792876178956,8.62247973939592
10.439845080466117,-105.22169486163384,-58.260745217299984,6.451997751627347,-19.1968036081401,-6.854074320355079,4.231651481979369,9.46723244694032
10.13742461313295,-104.2587322010084,-52.931305985132774,6.593817494631232,-17.25635092557386,-4.818772538321476,3.813241591573934,9.171639779618987
8.780012414882703,-104.87446797761179,-49.657094976180844,5.897471590827808,-17.31373374664084,-5.265273624262294,0.7619299115797794,7.534079244137019
6.272172125004682,-107.00168063385611,-49.04619383634858,4.368333940588852,-19.46558847234223,-9.117564295587782,-4.746774714651679,4.852410573679135
2.692131627700141,-110.61277294587052,-51.18345986994458,2.2383513303244467,-23.306923351782,-15.997172006454896,-11.667739746135457,1.8433782031788777
-1.5929500015639924,-115.46251892844066,-55.481941460340984,-0.0773318628810313,-27.971530555847945,-24.207352291598024,-18.341129083318172,-0.6479247901536701
-5.9274184295470915,-120.50036333135478,-60.58510947573483,-2.1510592808357245,-32.26191609078865,-31.340588987068294,-23.018843066467653,-2.0031275361454823
-9.52290673217934,-123.7609015289036,-64.66451269511033,-3.7225186200190157,-34.95788747770361,-35.235766187266215,-24.47692552840371,-2.0689066421601416
-11.695732119571234,-123.18177016337012,-66.13847340428116,-4.74628421925505,-35.255293965163474,-34.83835458223375,-22.459804574854427,-1.1537182252311662
-12.067201062699208,-117.86711889969135,-64.40179630615047,-5.2865260740526585,-33.11010154663809,-30.565492336809537,-17.741852249161944,0.20851548762348182
-10.657256934574342,-108.90391061764399,-60.13174478550593,-5.3743759848663455,-29.29046210657852,-24.05018865913835,-11.782515312274395,1.5764750939494696
-7.8678134134762825,-99.28714869266871,-55.090742150548685,-4.9496220590274485,-25.144364598429814,-17.465187957611825,-6.177694197391361,2.799883923557373
-4.3661219256113055,-93.06775860412081,-51.57652211934651,-3.901457505216547,-22.21027547090123,-12.774330170636185,-2.179038212210062,3.9898907955271428
-0.8705282801256977,-93.85245549991274,-51.5578288193678,-2.1472325301363964,-21.71836822440226,-11.156850072301092,-0.4172453733003876,5.320554210300011
2.115790269442703,-102.6835281452629,-55.48327514541639,0.2814284499457217,-23.967859319936874,-12.667450897026606,-0.7945109668225188,6.827052338523078
4.492719283361029,-115.90513640114388,-61.16617199808993,3.1258496507687443,-27.756966828484344,-16.145011193180203,-2.491199229108366,8.336820609419068
6.526536856185603,-124.60521264374123,-63.687409547825574,5.786223980511596,-30.334165466277764,-19.464030703459326,-4.138564538221558,9.552602462354908
8.57196592241008,-117.20688895758764,-57.08241896817421,7.335419009965172,-28.287029922124525,-20.22288548861755,-4.2449102881935925,10.206836691669475
10.72995189274284,-84.9463639518297,-37.41198157757403,6.79250312702329,-19.20020226107892,-16.737115642514844,-1.8105386144158484,10.185578717511826
12.696441839397757,-27.44924455475149,-5.505280576449011,3.6110369700513942,-3.2029648847778875,-8.895760907263615,3.1529084017966085,9.564194900812108
13.928795309709253,45.314526778445774,32.55185545475134,-1.8882127428074131,16.645134210682016,1.6429211247458957,9.538040563652034,8.559192384876685
14.017229226700673,116.56541090461121,67.83103000691425,-8.463869155037596,35.55005763247124,12.130450767069602,15.617550150648334,7.439546039656433
12.991811015823119,170.1147636462729,92.62196716676549,-14.400317423661713,49.15884029852884,19.966213535631837,19.85167689946323,6.440880891559024
11.342677966047184,197.42336300837923,103.76891053243993,-18.248253123834516,55.45620091682424,23.81063302482028,21.566373731106207,5.703878408042619
9.744779113994301,200.34163198094797,103.41478373618888,-19.441505134869356,55.32011479896461,23.9690057865394,21.120537870175834,5.2454032325922375
8.694056864749948,188.43136087975037,97.03074879848288,-18.435284773137806,51.578275392239206,21.92351356184398,19.527966500559465,4.97299569740366
8.308335599944641,173.16681751590713,90.28807911447149,-16.319812157611302,47.34078043021738,19.416899764645066,17.848680945769217,4.7453422602070345
8.389613908208824,162.7710785252741,86.72336828907027,-14.198751097222193,44.66805501651963,17.676243178553186,16.74396853029918,4.451170061878641
8.634049884779197,160.15580386687358,87.15140591349429,-12.728182436818031,44.153166458700426,17.124712066903307,16.374527406494526,4.057002452221002
8.804326424501765,163.87151327175627,90.43835151829249,-12.021490616217278,45.274603901379756,17.533969041509135,16.546686920369215,3.5955988792067517
8.782269449190217,170.37186778006821,94.67836693899993,-11.833431930305535,47.022152150498776,18.358272118216924,16.91724695342119,3.117548717490244
8.551386970062495,176.08829837221214,98.14892061354108,-11.803134903170452,48.435091542579016,19.045036644011212,17.157645235534414,2.6545279192753517
8.177209534693556,178.79235213984612,99.91924221108977,-11.620355810195274,48.957222531153576,19.25261247021355,17.07450153307935,2.217238227919573
7.7827240538058655,178.20601867091213,100.08988455815073,-11.115489346476561,48.58932393021843,18.952010321862712,16.67570073956683,1.8088106521347738
7.486333798231547,175.7399346828728,99.55132194672225,-10.301415170143004,47.78062069457268,18.376534332085537,16.134626711080983,1.4266548973691855
7.3262211214332735,173.39372774689758,99.32391400557586,-9.344734234187312,47.08553347660031,17.834385490544573,15.653475014979904,1.0545998220384771
7.243793847643044,172.45967678124543,99.91405088159753,-8.449240307765884,46.808232309172396,17.507839488723597,15.326387940400059,0.6673534125683129
7.150911899752909,172.96125475820776,101.17003242436972,-7.719980260614794,46.89951944153595,17.387057891883813,15.115696970343759,0.2519822677725579
7.01127181047182,174.13194755180666,102.65565131034296,-7.1201231005926955,47.13785353339798,17.361138447260913,14.939520930474583,-0.17749316946256036
6.850643507671779,175.27115738491102,104.07519462105306,-6.549287939593674,47.359873449310996,17.342036566443916,14.757498288324546,-0.5932494706770547
6.6991835655674965,176.11147217235091,105.34770962703135,-5.947799790755585,47.51529568660861,17.297433652662768,14.568460970763953,-0.9819588342104708
6.548312500907974,176.5839202828184,106.42448811421141,-5.319122590656823,47.57508974339268,17.20396300406597,14.35733458147041,-1.3561727319367471
6.3737553113899255,176.5791385541518,107.22157090492672,-4.675054745081258,47.486672099874504,17.023952485672396,14.085226239884166,-1.73783160799259
6.182338805215175,176.10683179266252,107.7771937542992,-3.998052248678351,47.251454911797936,16.748614498834765,13.740262806545667,-2.136663464849691
6.011662682236553,175.53718495744906,108.3560415255852,-3.271566929679641,46.990789949535575,16.437646469030497,13.371827681186605,-2.5482646179006645
5.883213436522228,175.41773503135641,109.26494114711178,-2.52326843282495,46.86687616070309,16.181883959517883,13.050680969179204,-2.96667484256418
5.777162059846759,175.95802964844967,110.55254733491043,-1.8072357685534137,46.93018190709817,16.023369008003975,12.80118639968005,-3.3874537515748147
5.665504078057802,176.7991394450695,111.95807402534254,-1.1420194182614167,47.08009018242454,15.930208181774796,12.591593961381129,-3.795909048046382
5.554859862169772,177.37416075699798,113.1721283151065,-0.48999482997538496,47.18386125096518,15.850647364045619,12.387521598638447,-4.1637258306458005
5.47330882919459,177.42615821856992,114.08651578475035,0.189885005796416,47.19490447984889,15.764004276321327,12.186584675226234,-4.472463849064027
5.414413062765694,177.089787572527,114.76528395445551,0.8863662255267445,47.12825459033232,15.657599058013309,11.983335833575097,-4.746035272722131
5.318204780590981,176.56760846729875,115.27459191707602,1.5552733594527477,46.96397452261273,15.475142239919737,11.722041871508317,-5.0533539816306146
5.128045658629728,175.9589469599605,115.68448923228728,2.1903797624726926,46.65587105063932,15.138176935347945,11.32661974061179,-5.467081576593966
4.8638441208692615,175.4899698579604,116.24796247828668,2.848911600871933,46.265020436875155,14.649616053606046,10.798774283670477,-6.007790149319411
4.625555346847651,175.69555540127115,117.411520715168,3.591531596879801,46.02804777302179,14.163185247557378,10.272536150213988,-6.6159796054213995
4.520509492159085,177.04182777208703,119.4494578425832,4.408531294899304,46.20766376338179,13.913796241576447,9.944488775016795,-7.168574141520034
4.588944428651012,179.22369935317613,122.01602339846129,5.221610847833938,46.831315020485484,14.046982781038595,9.92984537367323,-7.528586431940332
4.785069304414441,180.96030710274627,124.13170092401307,5.953515518500215,47.578759769890375,14.488506196286242,10.165550018216372,-7.613281412582088
4.9953477125625305,180.72156697189462,124.74686995864728,6.579653356751626,47.938547719344406,14.946592580397253,10.420344883602253,-7.468333560758579
5.056088208801261,177.87582490482828,123.48487092779717,7.118167076501738,47.50219525518964,15.024386653611142,10.378675116770044,-7.314230141034236
4.7906179782427545,173.35612698243602,121.05252069931085,7.608047023541606,46.20031108235031,14.384593517240676,9.759208162403711,-7.503782943970049
4.116738930435618,169.44292904008842,119.12713230585524,8.129351787577411,44.41641600392096,12.94862213052133,8.475636492889741,-8.350652775516682
3.1983304660371816,168.88819545376612,119.792618807127,8.827026946449116,42.98788615928342,11.096385150249521,6.8192466826259945,-9.877551849198438
2.5073127288334414,173.65710986767766,124.57482673034576,9.850472931616444,43.006150176183986,9.721968934487698,5.5271670421583545,-11.629237241630015
2.6741506348002466,183.38517482264885,133.172055934398,11.208105372335915,45.28316000886255,9.953106046362246,5.558832475367074,-12.708247242971519
4.164939839394302,194.0071830999888,142.41403297998457,12.664505804654706,49.59795148033022,12.522428498128484,7.571497300088953,-12.087947202587166
6.984188840746943,197.74204877229718,146.42826799712427,13.80728970487833,54.22053885590772,17.10329585737425,11.365804684994481,-9.095898455334986
10.605454918227563,185.53999579462973,138.6669005154337,14.259172578393551,56.270699860552625,22.093560498722127,15.700068100599593,-3.8388023032063634
14.176845637400051,151.56295246839775,115.20268834908012,13.869667338750974,52.97989110852497,25.13518116153646,18.692173796772828,2.6701044857166374
16.87426886262229,97.31057579030721,77.46194291683967,12.741768943641338,43.2197805069104,24.199807377424158,18.65797443543828,8.801103776641385
18.208497377123887,32.507890007873165,32.5075975031428,11.103518415008487,28.34402111123463,18.678502503186152,14.946982431842958,12.928649603015682
18.15348783678441,-28.387678456432333,-9.627026186639673,9.166156978928141,11.759989100238274,9.861966676828187,8.324140093362633,14.107161592869783
17.088285783170956,-72.38665298928794,-40.180432651391726,7.104327042204547,-2.553388352816368,0.518393003901758,0.7039073727095237,12.478608044231676
15.63718738731787,-93.3800234399452,-55.108395748554095,5.161657927002213,-11.715713543279982,-6.234820720999987,-5.605895016866795,9.219170460550071
14.487614313541782,-93.76653047323138,-55.94036133347999,3.7397232294394502,-14.89341061046116,-8.213416243826272,-8.772669768763302,6.05234212635926
14.195847360989925,-81.78592044614018,-47.97180121841268,3.306378237771944,-13.179580042575894,-5.028113678261024,-8.06810930407385,4.537748417159534
14.970601026763596,-66.74062131174654,-37.297142346643255,4.112358079748726,-8.758865876971445,1.7829103461678597,-4.0913703372737045,5.426911608799688
16.505881073298774,-55.19037809149511,-28.499523977099873,5.915145772515963,-3.992126297297793,9.33558899460358,1.4244143413232773,8.356399826769868
18.014600861860814,-49.793434320886576,-23.829292252698988,7.965038047316294,-0.7911170450978366,14.47162745994123,6.180248845733292,12.02598735064278
18.546246188689835,-50.23349476492314,-23.491775064995082,9.324713870225313,-0.24987136346632235,14.978867089552852,8.150478978341138,14.801137423809726
17.46489625543238,-54.64276583794633,-26.28331100170576,9.328903232542975,-2.4150992499705914,10.514421701975982,6.423730952610584,15.46750865236361
14.806147286367258,-60.60484726283997,-30.25654809553162,7.890585156798464,-6.292113764967955,2.7776980942299865,1.6314057829923763,13.77626037039252
11.287106503044201,-65.88322316214028,-33.502550694525205,5.496097412162329,-10.2731033536097,-5.249436926989903,-4.335656744407059,10.523084934761265
7.970245201926871,-69.14351872874384,-34.95890354300807,2.9467114925798263,-12.90317652019081,-10.666322970118175,-9.220549388540316,7.145249179288855
5.785035360745869,-70.34300674094303,-34.784902409299,1.0141831840841373,-13.547823454967588,-11.896805453757239,-11.411287282647727,5.0557329331694
5.15300260992534,-70.33576013447077,-33.97912981307086,0.1589864746158207,-12.538705833679373,-9.167510196153378,-10.530370732788022,5.037949132949364
5.86823106156716,-69.9565471150059,-33.538870918927344,0.40558191232839813,-10.784882545044677,-4.087723569253455,-7.379285744172806,6.9657393607638225
7.258601775465203,-69.4453644202304,-33.850873527963365,1.421950482174588,-9.215126293068012,1.2836178045887197,-3.39844846180119,9.94157229635898
8.544897432150469,-68.66571715393164,-34.68781387947021,2.769105353371384,-8.404974608082435,5.344220496256572,0.02164488263743749,12.751987221655687
9.227557877445339,-67.62364548031765,-35.56359179049582,4.1714599493740625,-8.457928905361577,7.482832513400854,2.0939407317474,14.414433199332422
9.297307264447722,-66.53381090359251,-36.000008842542954,5.617842763177593,-9.033308957988531,8.154859276108017,2.889495138835601,14.581228911046026
9.147669730786259,-65.41300029418504,-35.5970110367154,7.221251512825458,-9.480169646262098,8.546167667648486,3.220845289990581,13.65152274589071
9.251781404215258,-63.8876418629638,-34.1185160943978,8.962081577222024,-9.123688717517743,9.937762471457129,4.181756796960735,12.559306928477202
9.822059678052407,-61.62412176004552,-31.686902116058967,10.528252887243669,-7.649588370422414,12.993229708541858,6.521864084702673,12.315393782171892
10.665043457864947,-58.92692798648044,-28.88347447978125,11.367167042812406,-5.36179001137935,17.2956624326466,10.158025938816703,13.476640101263024
11.287426726715603,-56.77846187241975,-26.57016337527827,10.897662582063631,-3.1122669413955055,21.40605656637392,14.09122408591498,15.77757868749337
11.152892990497365,-56.25887366432885,-25.560597346642094,8.761412689949472,-1.9374351175781261,23.46311355918912,16.79650829130746,18.138992415216613
9.951100011411826,-57.96436619230488,-26.399086934447535,5.037947374686358,-2.62023743976289,22.05402481711932,16.917913984065272,19.127294106099757
7.786689743660524,-61.866553677141916,-29.259922888731378,0.3796264119232953,-5.357097073698232,16.947320253262166,13.963016995468463,17.704806141951032
5.224074122561512,-67.38916100266867,-33.766269895923564,-4.025355054074785,-9.585284612383631,9.33935558808761,8.676124602933314,13.894268861309142
3.1241976913122627,-73.33745023901092,-38.751017534169954,-6.775902509688179,-14.028725144135583,1.459794206875957,2.8575916137870045,8.938310499019446
2.2756055132123194,-77.87465810474957,-42.36997789459451,-6.838703352104962,-17.081829121484198,-4.349141124945161,-1.386348193510055,4.765473764084492
2.9789546992578555,-79.07571889110294,-42.884018256718306,-4.111102431782647,-17.522548153417585,-6.679825836825073,-2.654419942755605,2.9948877458725987
4.852067312860144,-76.03569362037733,-39.76011498794909,0.41259961094354203,-15.219876509471181,-5.684853320861553,-0.9703479462428259,4.048157670853084
7.02354840464981,-69.69438216326934,-34.22815781444855,5.047693542267702,-11.331296753150497,-2.901026134815445,2.248681695646287,6.918445840106128
8.615835035016707,-62.58293528254724,-28.749831085984248,8.205229085826213,-7.765712995071732,-0.3544221466275976,4.988241439023542,9.752349668083184
9.212526896073374,-57.65924319706511,-25.74356479369593,9.132754057141488,-6.223654450204613,0.5221585495685043,5.720613595309723,10.90144995026194
9.036948279346452,-57.12043169845165,-26.435378122600028,8.240703451756174,-7.406729071597236,-0.4540547022010711,4.151970803245546,9.833633906855901
8.779336362342834,-61.735131451254894,-30.40240345882367,6.8758793427555025,-10.772120986325973,-2.267829314463303,1.2845336707901847,7.400295843367529
9.19624284222519,-70.45691892568995,-35.75726295428719,6.629176679338867,-14.791794656450984,-3.312323591406609,-1.1305051243178126,5.327508178100072
10.660025995744991,-80.07175933842007,-39.730766731200745,8.43818126294077,-17.495480037916717,-2.182571155733979,-1.4220700695882267,5.214385305076413
12.823208222187008,-85.4385753008642,-39.636565699483576,11.887164630630574,-17.171443699456326,1.6587168149070641,1.2300610156121703,7.578391594284843
14.56211209493348,-81.19688464457943,-34.191193708690996,15.13571653365627,-13.137892349823723,7.538425124521473,6.346837406747135,11.469046053162215
14.325541520003323,-64.73244127264473,-24.65091027407654,15.672163587856415,-6.302402618324715,13.689974207426177,12.21798284674052,14.878741802036632
10.837562115328186,-38.598252584175505,-14.831119201404078,11.608248758866733,0.9331133599937033,17.878113361772545,16.544205809603124,15.747293442403967
3.8391311438913913,-10.29502009534038,-9.531947760942701,2.8109930478639265,5.621451019670935,18.35098355857286,17.44214851656412,13.01817186848801
-5.576613400832605,11.04196653268099,-12.041215391066435,-8.83012376010133,5.689916403352176,14.679300751312743,14.334874366684303,7.168783090335684
-15.304457655473296,19.22133872057077,-22.229183857109142,-20.20945481260481,1.018650112387219,8.008665302682155,8.235263469490617,-0.05722809689689038
-23.111090403491332,13.994003459114165,-36.500083761243694,-28.43547808190015,-6.501174610383296,0.5466210611980815,1.2457041731134662,-6.526292335961628
-27.587739485113946,0.6542667140249735,-49.67796166126418,-32.070424291837284,-13.98098702480854,-5.452062370328544,-4.450403833120114,-10.686137989561953
-28.65347277357518,-13.305458315982113,-57.65162037511283,-31.528259853852575,-19.000046912491662,-8.651413031973537,-7.545252425082259,-12.123042930397617
-27.3752199671057,-22.176739158105715,-59.164097497921674,-28.532936310935277,-20.647942470176307,-9.050041406591298,-8.013362610610521,-11.49317008632665
-25.284712055280394,-24.211894995869795,-55.80340930774627,-25.087773247199372,-19.60417796134611,-7.69238507874968,-6.8294380265187105,-9.98655522519259
-23.63665784077507,-21.147421561280687,-50.5236881704046,-22.592729058642387,-17.388800177182357,-5.942588782226486,-5.273043221326271,-8.693476279193712
-23.001078289169275,-16.14784289387948,-45.90802524719599,-21.50328359225892,-15.415392565523776,-4.801358765069394,-4.28552723748121,-8.200547488247633
-23.29328654035355,-11.91334618001763,-43.23114361298184,-21.50818792676177,-14.435564580758141,-4.615140297607988,-4.199735773995031,-8.53219500575929
-24.06841511368185,-9.861692350957103,-42.50312015277096,-21.94461139088935,-14.513513961480701,-5.1927472115299205,-4.844451324846409,-9.345472668866435
-24.837131263482565,-10.145028198968676,-42.98643296877876,-22.18463694767057,-15.283306880974996,-6.1012340565073835,-5.812173903382233,-10.203422620459499
-25.269255821196918,-11.951312633628294,-43.6971351159951,-21.87521398004988,-16.220776238182083,-6.920428768604348,-6.696921066942499,-10.790149188215569
-25.274469413069202,-13.954635516091843,-43.79151063635336,-21.01312652276176,-16.859172492312137,-7.387758012164906,-7.241669444087404,-11.008574820710882
-24.982309391568606,-14.992400106027667,-42.890287426849824,-19.86184825155628,-16.969945958436107,-7.458520681960431,-7.405714157139952,-10.959804516523814
-24.63493213120245,-14.70739174387215,-41.22003568520246,-18.7540711131747,-16.649259603287955,-7.287371886541269,-7.344011053203391,-10.839350364921918
-24.4355940225773,-13.631224220336883,-39.39124259021747,-17.89294045111906,-16.213242317624267,-7.1171161567921235,-7.2900737395102215,-10.813288593881973
-24.44306016110544,-12.593446176580438,-37.92137758631331,-17.27826238025542,-15.948491230437542,-7.1215891735166394,-7.40285585454197,-10.942998813767003
-24.581917586971848,-12.027642822404284,-36.90769109387315,-16.784499812951022,-15.926598129633057,-7.3149583720702935,-7.689474461475929,-11.190706688557409
-24.741155795012936,-11.829247245460362,-36.12097015275463,-16.290289086379143,-16.03702639792622,-7.5953410451910965,-8.055753814695262,-11.478781946588992
-24.859487616187767,-11.752629777969966,-35.33972326419943,-15.740458280126186,-16.159148572461657,-7.862332903794851,-8.414505757693203,-11.74520621106162
-24.931020298342567,-11.750456362159891,-34.523963729707944,-15.123104346349987,-16.26378579694267,-8.084918994355256,-8.738827370863941,-11.961389974566417
-24.962780104290616,-11.870305873811644,-33.698089225221985,-14.43610703775464,-16.3614241037675,-8.273746580778123,-9.032161436734814,-12.123649674951375
-24.95586229273538,-11.985070168204789,-32.79641029022522,-13.695386937439523,-16.41940387503702,-8.42794001679998,-9.286750192397486,-12.245113795832127
-24.925937134182544,-11.83348332406245,-31.721725805917128,-12.952488359683612,-16.38510207444575,-8.536316342609473,-9.4940461613715,-12.353409206634119
-24.914056035818515,-11.351425736188341,-30.52017800398214,-12.268001071100818,-16.276916995600367,-8.617998782367447,-9.68024949308309,-12.48036485500452
-24.955020840740122,-10.81412831346584,-29.388616521491315,-11.656083443376392,-16.195789150138896,-8.72654292578426,-9.899259342040496,-12.641455277662676
-25.03915635395197,-10.543322894302603,-28.464122222904948,-11.069689707595932,-16.219686576134176,-8.89702567074536,-10.178668901097062,-12.824677655161212
-25.122107192357305,-10.536728840290511,-27.66409924436664,-10.452324774529801,-16.314049481814266,-9.103852938835956,-10.488155953046604,-13.004437072631106
-25.175970821282526,-10.503560654521953,-26.79523157522905,-9.796303892765106,-16.379477888258034,-9.290217581731554,-10.776166530463106,-13.167037056549953
-25.217807000014272,-10.252490960652086,-25.792030844682436,-9.137905156954,-16.375749391541188,-9.434931207975438,-11.030033200695867,-13.319323130106795
-25.27945314791171,-9.911617786346085,-24.77247391542111,-8.501972410115075,-16.359084522701572,-9.570527089633899,-11.28223788123119,-13.472952607366992
-25.36003478788068,-9.702628355642124,-23.849396187462716,-7.872155652481895,-16.389078324964892,-9.73129395882211,-11.557789844190237,-13.626977072548376
-25.424973694578068,-9.605636731469167,-22.967254788190335,-7.223086299311084,-16.439088910319928,-9.903747799243947,-11.836607696785663,-13.77114089068986
-25.452349411833623,-9.390634305314677,-21.990766453237963,-6.564051937756453,-16.435696854934882,-10.046953898111644,-12.08264657571065,-13.902947942274329
-25.46462004395174,-8.969410445798568,-20.91722231231583,-5.929711805977681,-16.371593934089887,-10.153592940581186,-12.2990941856187,-14.033547448027985
-25.50505273116053,-8.565608339055471,-19.909161686220553,-5.3298459168942545,-16.332457656497922,-10.267059041389945,-12.53294886187198,-14.174549803698469
-25.592243185240854,-8.444489782083199,-19.090354773706395,-4.729640190958617,-16.39498036848058,-10.430366042619848,-12.821132447565693,-14.324940269644953
-25.710945578423534,-8.553120337258147,-18.375782660899755,-4.091305308099793,-16.529409266805494,-10.634976063348311,-13.148668028904844,-14.4761587488733
-25.841915316148526,-8.55572050550204,-17.56420848542396,-3.4229900233666735,-16.633960601332284,-10.835492234841109,-13.47069060564756,-14.626351316529938
-25.978761759274864,-8.222265405814731,-16.56939605764037,-2.769517729261666,-16.650727205839672,-11.004934257093577,-13.762710678040964,-14.780965556758444
-26.1046313061597,-7.664172110843317,-15.488464984706885,-2.1576254925177567,-16.609287099260687,-11.152978199958849,-14.029978308582926,-14.936990443866925
-26.17063443571998,-7.140024311392788,-14.442318149564187,-1.5685677438395693,-16.554923166550974,-11.2879617219769,-14.27215338241261,-15.074488019060237
-26.129557281608236,-6.745628164740192,-13.437207896218087,-0.9708375700506148,-16.48345629133748,-11.388454003420597,-14.468804523295887,-15.17335112292599
-26.006803497932054,-6.428381876734764,-12.446799138392183,-0.36221272850647435,-16.38870696681072,-11.43896235346709,-14.622475318862403,-15.24041700829138
-25.92667383802303,-6.257119520048016,-11.571859076945826,0.2397601280374135,-16.351286484631142,-11.48810230235414,-14.80491137198911,-15.315116452034145
-26.04427169718177,-6.4662522698043725,-10.990202476138906,0.8423761050873185,-16.51124980426995,-11.639661603973757,-15.126684499607073,-15.443821917012391
-26.42865888922139,-7.090099408245588,-10.689214569967756,1.4856183045121691,-16.907856919162597,-11.96065345552656,-15.635670934579972,-15.64617390228718
-26.990354132974037,-7.632327650993223,-10.311197016238294,2.1890218024219137,-17.360889647257363,-12.395742155192394,-16.241903935728445,-15.900488845314504
-27.500901131302424,-7.3008421661102485,-9.367743225297499,2.9021113178875675,-17.553089341726004,-12.779744265451294,-16.749017005490565,-16.150924711125732
-27.683958472919034,-5.704671120103708,-7.661541699745368,3.5304370570934474,-17.26107447493678,-12.9385852077307,-16.969412568428766,-16.323837792536587
-27.343009980243846,-3.341575493419288,-5.514744628965574,4.020260031378304,-16.534096144998436,-12.792968071828716,-16.8372170633502,-16.35260237074853
-26.506719120462762,-1.4077650772059869,-3.6219465376956013,4.414014264425958,-15.699760921186522,-12.408917684044425,-16.46674805009492,-16.220976786453576
-25.543198104640407,-1.1362287825012465,-2.705309016172621,4.825276622557241,-15.243578197747883,-12.005323573559561,-16.156498772437928,-16.01333264151168
-25.126578685872406,-3.167473486279655,-3.199869692593802,5.37154479586546,-15.639297052402224,-11.923058689520698,-16.324777512602072,-15.923504574447453
-25.946575378585667,-7.147205289327546,-4.980865499687865,6.12694376934391,-17.114833696296444,-12.504146926759113,-17.3271933283417,-16.1755768728952
-28.20903747653247,-11.473374735031033,-7.098111956561387,7.098205070030541,-19.347653361647325,-13.849599002052024,-19.162142941517903,-16.86932075808466
-31.18940295141567,-13.378300308740924,-7.751082231030898,8.189886219672099,-21.270376501921312,-15.562564372326797,-21.220072864475092,-17.833532348067592
-33.174967643126905,-9.85893183084143,-4.890539232757593,9.177431521604609,-21.29078436820062,-16.70074210913314,-22.316199399280467,-18.586771812873216
-31.963836040812676,0.4701495884450657,2.5694262718878553,9.771541822925057,-18.02035649770414,-16.08908112566416,-21.119494172495575,-18.45209149769247
-25.774126582980283,15.631390622944737,13.652552679349853,9.809144127227288,-11.156958442320484,-12.895844248059221,-16.812340122760535,-16.792980001449763
-14.158403695956014,30.25014265800401,25.291922543203615,9.455818355133845,-1.9084524534032314,-7.158745224676294,-9.613211261199195,-13.27976954533437
1.5341157564516954,37.91576147385268,33.66589859411388,9.21592640714564,7.417041683962187,0.051197698830360766,-0.8433257054428168,-8.076180638798007
18.42150135587345,34.7293806610571,36.11458291967922,9.652886612371162,14.44627800049048,6.932816884736277,7.517350197494501,-1.8557818602489393
33.01649413174976,21.59852548988439,32.31426207742687,10.965363796102247,17.744216035505556,11.58044513779787,13.552195257563723,4.380589653358989
42.43843538571602,3.478210079076659,23.91689400660988,12.743397830912789,17.181056842385203,12.653361819210115,16.05634649183826,9.630862518085674
45.417835884696025,-14.039549027530038,13.093384268668233,14.171531678998779,13.577783957784177,9.840181706028156,14.868920471912203,13.242640690507445
42.73460650871591,-28.245985301252887,1.3572475602025245,14.648755260569958,8.113533511861748,4.006173478937244,10.873882464117543,15.159567498019452
36.97241392290453,-40.108791879702494,-10.185887513929067,14.440112024658768,2.0984066633200062,-2.96030948929062,5.796426652736885,15.963486518628075
31.670589636815667,-51.577401885793826,-19.384936297877225,14.839536763186034,-2.760017069127936,-8.55439680571848,1.8704350431805175,16.665471912057008
30.10017031849535,-61.621785719026754,-21.988547215133675,17.5762541188707,-4.118973943592755,-10.29594947141131,1.325407089473826,18.282639005922483
34.03372657235289,-64.58800703533541,-12.634435881138266,23.712299780192655,0.5227975775876723,-6.545254049576904,5.660491722797788,21.34793674082032
42.97251071768268,-52.8429472297638,12.025573202561098,32.688330614317216,12.518438705333596,2.7331690917021985,14.893410293969518,25.57711180418463
54.20968309325222,-22.314788718616654,49.90572896636987,42.163267811605614,30.657938185391448,15.634345554064822,27.187419922085038,29.885887583089474
63.80072721588645,22.869489500465818,92.29973910646672,48.85403210458303,50.725341127549605,28.71234897684426,39.21611544684478,32.79945424606588
68.10561829132917,70.09868409065804,126.30003187439756,49.99884303747728,66.6519803870895,38.106259860218756,47.28336931731237,33.096789959510176
65.27019360631535,103.09059749698234,140.00939423309848,44.69290292473056,72.9256826789453,40.992409567502,48.77943406915963,30.391848580674285
55.99061388905926,109.39649050725117,127.95827973045768,34.38804196627723,67.08958500877048,36.73280605830535,43.301978779262306,25.357811088418995
43.19738613589062,86.51430436779658,93.85483561815295,22.28320816193392,50.99794646657687,27.16290335104828,32.87032010739253,19.465940138873275
30.792787019836517,43.241390574158125,49.1481801946688,11.921852873338777,30.104610772966193,15.827539235433996,21.082263534504396,14.360298642319442
22.035489580629115,-4.473344019641237,8.096893065660224,5.724179147596865,11.101600985084334,6.470788213754994,11.591078557597058,11.1826716375597
18.33179842584417,-40.90227535979878,-18.15524948717053,4.1787804440806395,-0.8984558481999458,1.4691405021045671,6.6285630545318615,10.179171416126941
18.95649083647894,-57.182235624983264,-25.597912723874455,6.005406113427292,-4.235226618905051,0.9587531690389898,6.272674209520706,10.748287958904223
21.719746508761908,-53.9104070394058,-17.774721794315692,9.044277734119525,-0.8061834966769562,3.0771162157314853,8.759075994694621,11.839926061871747
24.12623460436528,-38.95375505140946,-2.9611027530658918,11.292667116747019,5.4028388560316865,5.148166307389097,11.578223169128716,12.450652359529997
24.419817434901766,-22.54681433732335,9.958340679412686,11.593026640746366,10.360221461735337,5.114608397708402,12.711017429098279,11.98052161081894
22.121657603906897,-12.816131723607585,14.822149396393906,9.839023871299593,11.521982918508884,2.4222556992055573,11.38092677374778,10.37069476440444
18.028175065601403,-13.602623724368495,9.766569843241545,6.858262211361987,8.38311547243029,-2.0200650868363055,8.095229936845824,8.075074586713308
13.847729758923311,-24.329231003980304,-2.7168406998396426,4.138645613005085,2.268335514153123,-6.567792784702686,4.187891892024724,5.931234663952584
11.634204040234392,-40.72907565393502,-16.71665949383205,3.4069215389019507,-4.221499129891937,-9.68436988554086,1.2379637616079942,4.932949857353956
13.089873633135108,-55.96495397525642,-24.74289675566413,6.020837502780638,-7.968191493131775,-10.461483405025628,0.5906232651394036,5.891534421197936
18.852970477391942,-62.588773307050594,-20.501888730593134,12.302024018235098,-6.372686604707496,-8.734190983273011,2.9996754489003052,9.054974630636687
28.035897813948257,-55.46855151151328,-1.9194822387408725,21.135382030585276,1.4752825495660487,-4.947087376849053,8.367402492521483,13.857867237255583
38.32797373800519,-34.54821692752273,27.10528673993581,30.151462945092867,14.041124107355152,0.06823097815064777,15.660338678230346,18.987377888447565
46.76981189135724,-5.652285614278294,57.58146155744741,36.54224565039577,27.60160357821065,5.338698637757199,23.13525486763325,22.823736514459682
50.929625046464736,21.57306623025087,78.94836682203565,38.20267981273979,37.61459833325459,9.991999260161588,28.89400669689562,24.10502418985909
49.92320588446888,37.72950592545448,83.61403067984817,34.66358254008826,40.605484684924676,13.438290338323023,31.570882456827185,22.500565790928
44.74115890667631,37.66582851048999,70.1980672955841,27.328035913500898,35.616204360832384,15.419264694106879,30.825546638432993,18.77421634832071
37.69755823043194,22.456705231462813,43.89371951007652,18.84487989267259,24.503104248563798,15.91341462539473,27.38978643979707,14.413108879203536
31.29132910929536,-1.4041463941694925,13.945532310831089,11.902137718122738,11.008840676598426,14.984593727466416,22.6563554208671,10.90032220910399
27.08587194358347,-25.017215273718968,-10.356275288812189,8.055554860701182,-0.8601369010458765,12.703042686978192,18.044627878980666,9.039061955641966
25.177219346536223,-40.84835130269273,-23.240290602454852,7.204779128101333,-8.359575203207518,9.207809941563262,14.478360523674262,8.718316335200004
24.464453163440552,-45.56808611026087,-24.07648748700477,7.9533384515440115,-10.784685328821931,4.856492433236951,12.210490521209246,9.219824945986481
23.476443514972257,-40.72673932525862,-16.609952710012784,8.559055399420226,-9.272188709907097,0.30618696462247363,10.992190676145626,9.794569281134775
21.228651530067715,-31.19307514241793,-6.55862697801478,7.867149456479289,-5.9132534413137074,-3.626137984052173,10.370475340232469,10.07705693285812
17.652745580118125,-22.55794452190635,0.9660162566373252,5.739890400095689,-2.7693050858921193,-6.321792944446445,9.88015598291622,10.093382610245765
13.48108732116655,-19.042242573808632,3.0245794204706207,2.908248505882065,-1.256488877081943,-7.708700791115402,9.087556232563026,9.979628079417806
9.79758622773691,-22.52518403445513,-0.801772924067488,0.49687786067266854,-1.9335674606864675,-8.278173356720822,7.644146476990203,9.7315027331382
7.5509958783274564,-32.190494091030416,-8.71929670196198,-0.5041130854463267,-4.440552508011073,-8.650315106622912,5.483178064325978,9.19596794805496
7.19022982464449,-44.30043959336203,-17.254498525099322,0.3054184346885502,-7.485689578200165,-8.966472222138052,3.045525996359837,8.242626728687082
8.445752471674973,-52.61911734611788,-22.199610417027365,2.4256859115083507,-9.121874935869243,-8.62979801069447,1.2338187750383613,6.895995703898258
10.293893081876929,-50.44954225038843,-20.25835108646319,4.449835712806494,-7.55807684903739,-6.7096668712337895,0.9359353445481335,5.294183062329624
11.209260803577124,-34.08862652158514,-10.919257514666045,4.524825847874292,-2.2610782641551106,-2.776947679467823,2.360183928014841,3.54197630906254
9.740534008326499,-5.720022699548735,2.6956583291632272,1.208296102772949,5.395470890117766,2.4811707924022457,4.695944230391501,1.6300758320736604
5.211001591314656,26.62015179096662,14.985662251700752,-5.694584436065391,12.570472476918335,7.401983553428931,6.442565198470705,-0.4916433996815571
-1.8453546218403323,52.597732200834855,20.66606704988773,-14.848245993297233,16.377818606736568,10.205368461058484,6.247224742062478,-2.7638841610637312
-9.82648749754631,64.7072937096729,17.555473844855772,-23.908817543384277,15.431883130422548,9.987801640708451,3.6940498202271135,-4.944852164858005
-16.763088350800313,61.8243530308549,7.60283567680331,-30.594679226517748,10.530922504228448,7.18948187740848,-0.47836855802533795,-6.695815450100033
-21.20104341836462,49.08780537346163,-4.432668461129694,-33.69241768105954,4.082615980136712,3.2694478947872305,-4.8412095442584855,-7.76525492367427
-22.773986151728586,34.46890308263284,-13.696591143399075,-33.44058660688592,-1.2884182779775413,-0.13824017209692774,-8.07688019830197,-8.129997104275306
-22.180762800498094,24.445866586121717,-17.588792179225454,-31.15250694472022,-4.0317768912593595,-2.0212074066523225,-9.597539474860247,-7.993133118472522
-20.660090102095335,21.442641028683546,-16.438673117678125,-28.41010130324893,-4.127520482482865,-2.291926529923283,-9.65322147760285,-7.656470565402942
-19.33560191099577,24.067786969909562,-12.490538111881236,-26.349709091750405,-2.635451008137902,-1.5457884122129097,-8.984199172418391,-7.372193945376511
-18.803265776756334,29.146180770118395,-8.261769450410767,-25.375297661206094,-0.8562833751400454,-0.5689734885565927,-8.341574105740028,-7.266158460812072
-19.09278546507842,33.74221846183168,-5.402310553069343,-25.285080691589133,0.29668779379208443,0.05483582200659345,-8.178685672810607,-7.345631918052206
-19.879753176107126,36.15358081965411,-4.4220571938642275,-25.582626286159936,0.48790308367322,0.0901435109365993,-8.594469139574477,-7.545264818008699
-20.74560352331993,36.02942237572403,-4.948701851639565,-25.767990400768568,-0.1412099354664182,-0.3902561317407962,-9.428483356698997,-7.771411334128422
-21.366947032863926,34.12879003782435,-6.112260309100646,-25.53186226793203,-1.159427031904119,-1.1212219267531054,-10.39552404804567,-7.940100988799694
-21.615171021999743,31.854882705783744,-6.959198817997758,-24.8400416059195,-2.0618075821861277,-1.7905523152080527,-11.222163572700264,-8.01207101204687
-21.56900124152101,30.50729002230329,-6.895623889553246,-23.891511359770938,-2.51005272578822,-2.1907110515995307,-11.76844216446082,-8.008556847524199
-21.43461189618301,30.555613498254402,-5.961953058204478,-22.962016183531592,-2.493019424070586,-2.3107786639159302,-12.07959750259601,-7.988780052493526
-21.405530281091718,31.50783457354145,-4.689838222530143,-22.227009859048877,-2.2705605085712928,-2.2995571952355367,-12.320928551549311,-8.00234531255438
-21.552421534723617,32.51027126272838,-3.6246864631385094,-21.689529340403904,-2.1316593707963616,-2.326741810783373,-12.640773031900087,-8.05830175544044
-21.820274907969278,33.07974964441895,-2.9472394461852884,-21.24798641357687,-2.1875851144476517,-2.4658199331858413,-13.079201625646984,-8.135781569107095
-22.114308653414664,33.26888886095284,-2.514955506065085,-20.8101193532141,-2.377301465904084,-2.6925142297954334,-13.590449692141146,-8.215519637814593
-22.378458014943046,33.269253365977285,-2.1674011692043784,-20.33861452414634,-2.619321804427345,-2.962439769030385,-14.124676790547563,-8.293343238144397
-22.601272582988887,33.08194531365809,-1.8858393320512856,-19.81830700950217,-2.900258214752706,-3.2584859601731564,-14.666486141133893,-8.36700493577364
-22.77952947014672,32.65880971654341,-1.6657775073883183,-19.227172461841462,-3.21613243833595,-3.5655376789730533,-15.205778110551318,-8.424256389839236
-22.908164047768278,32.20323672632577,-1.36759513853371,-18.56208274584576,-3.4946859929847807,-3.8379196002308036,-15.709922271627214,-8.454450181862766
-23.00672828859452,32.10411750084962,-0.8107088320114105,-17.873263956780082,-3.6396727958706894,-4.027802991933154,-16.151903019333805,-8.468571510365436
-23.128002391432684,32.52473843449646,-0.00027886781092240423,-17.239496647196603,-3.6487468350638728,-4.145109120406856,-16.55628065870683,-8.496824816547702
-23.316194132317097,33.187893103262134,0.8358362909675047,-16.698554164273578,-3.6386981774394167,-4.263605106599524,-16.98919991629485,-8.56123064084555
-23.558068191995,33.65657653972703,1.4720028780959677,-16.215282234573472,-3.731732388061107,-4.454380023544615,-17.492318240021586,-8.654292968301357
-23.790725654626435,33.74776625596971,1.8868258103230773,-15.724947751601539,-3.9448441506456877,-4.724439002681551,-18.04046758868063,-8.747668116646548
-23.961883803950624,33.562832174025345,2.19679885113841,-15.192651244317444,-4.216216741721382,-5.030052475782452,-18.575732128955384,-8.81711821085878
-24.07310219547311,33.18348714378394,2.4563294902006625,-14.615442080888654,-4.509519936213542,-5.333360544531823,-19.07147684409155,-8.85347986676364
-24.162059697386606,32.5609035592675,2.6409064282583734,-13.981841445637105,-4.8320949584333,-5.618545122303858,-19.544468310505934,-8.854906201453451
-24.260098969704153,31.821180232383373,2.8469336253516233,-13.268446900373794,-5.138418129565686,-5.853892691926254,-20.00958874454007,-8.824592903662593
-24.384863260509555,31.528460636203835,3.38398155476541,-12.498840518787752,-5.278561802282586,-5.977834365566861,-20.452450555638684,-8.786978715484146
-24.564576690659006,32.361930589332104,4.521683233593893,-11.786624836675367,-5.1197729528531415,-5.964355471107028,-20.86636644386675,-8.798229256583353
-24.833941963145946,34.37136515920889,6.107231186435355,-11.277815224462474,-4.740141536849356,-5.90648573469029,-21.300591229903315,-8.918501896062486
-25.178695844997293,36.589879339616616,7.500600592444108,-11.019967774697992,-4.465244813574314,-6.002516184702981,-21.837202323078902,-9.15400263126696
-25.491911007162738,37.499505739790344,7.967551100926714,-10.879914228504978,-4.667905321476651,-6.420927584429853,-22.502542331416127,-9.420367207279927
-25.619602076458673,36.00713863538708,7.202791423521713,-10.592697055574046,-5.49624110801708,-7.1517052791924565,-23.21160108356666,-9.571011332850562
-25.4833585738791,32.196531105029464,5.5829665290412915,-9.904662403314916,-6.743488848533233,-7.968341360618212,-23.81624957614962,-9.481045097296214
-25.17727186940063,27.500236349471503,4.072800177879817,-8.716039046896443,-7.906702681508749,-8.521178666975777,-24.214364837038698,-9.135554692395829
-24.951481021478656,24.39248257442941,3.93309549301742,-7.170876265691219,-8.351612810318482,-8.49534036689961,-24.420022058416695,-8.674171482325843
-25.089139636526667,25.628379271332225,6.259305791988811,-5.683741194136787,-7.551524785337225,-7.776280730508098,-24.55351525928571,-8.368225905715985
-25.744659481758536,32.8478710253179,11.272975932032274,-4.860669195718015,-5.429918912753606,-6.595199508595611,-24.785433990806936,-8.519099671985746
-26.79556413149388,44.82276736575454,17.59742606600541,-5.2479499654062725,-2.6963578819858185,-5.577200635233618,-25.25529722210648,-9.279493204824862
-27.74068589582633,56.59181415201839,22.21356712104898,-6.949821229110808,-0.837347185932659,-5.54880119185508,-25.92751901449565,-10.449719653243598
-27.7147715004211,60.94719364944292,21.68554121646179,-9.351707212238418,-1.4733929845801974,-7.0466516354034825,-26.38092790172718,-11.374811774349174
-25.72026477176264,52.33921778376859,14.317686417450425,-11.250138616551205,-5.2619597932183595,-9.738045059549227,-25.673001236441518,-11.084249761519215
-21.088597997570897,31.072079125354346,1.862224843804252,-11.468345157991127,-11.061907224590373,-12.197871421357553,-22.516367878940816,-8.709271463412351
-13.986688766314975,4.614256429896876,-10.726408183559165,-9.645336105274877,-16.140714216294853,-12.407990718368088,-15.886033444441928,-4.022886065735889
-5.644235204366687,-15.816700851950278,-17.87321961609493,-6.644869899770636,-17.614737464199493,-8.90698654453875,-5.864253615569568,2.1945406959191742
1.9491377159446848,-22.130790558615317,-17.018943319227343,-4.182035507008298,-14.421868273615475,-1.9903248717975406,5.762677106129534,8.238846838722417
6.845182680583559,-15.629202013506513,-11.002825380395715,-3.7663519296747916,-8.567470168089034,5.855948135939766,15.674553202146427,12.084579384219182
8.074594911106372,-8.18938534091806,-7.334629461791314,-5.590836346139917,-4.628874073613799,10.770968282715634,20.13807241390988,12.282036695304544
6.196189558950509,-16.63782941327075,-14.328369754057181,-8.154766305891577,-7.513133093857083,9.321205357689546,16.688676801930406,8.706626849675096
3.0890481693018357,-52.929987793126365,-36.150393062148055,-9.000148484963548,-19.62154011412625,0.3547900388969857,5.529628681253641,2.7336461400692187
1.0501288326182354,-115.79540185586741,-69.70148725301678,-6.190853751779865,-39.067203395784226,-14.131723490767783,-10.169973892297666,-3.307980483706449
1.6926107392415348,-189.02576334301241,-105.25646324336562,0.3934507928673961,-60.04354012728805,-29.610302579930753,-25.344909561278985,-7.153686541121862
5.256766718874406,-247.84344541527776,-130.62082708049707,8.803083601226067,-75.22456511779436,-40.812099939143,-35.00253148295391,-7.575842133155823
10.663743858400341,-270.1948426588553,-136.64102527456413,15.991527090926775,-78.97696242684933,-43.822163684101916,-36.16180055381187,-4.819908636392357
16.18772877383446,-247.09163499742795,-121.27680043935077,19.4202845371502,-69.78538347524888,-37.550985626175574,-28.88903114452918,-0.31350128318617654
20.311348133915754,-186.68879396520379,-90.29152711504416,18.332681103011954,-50.756918498415466,-24.02491708660626,-16.039745565384862,4.1485485575974534
22.32077841245876,-110.19051847882817,-54.381991516979035,13.990491470193737,-28.07037448259504,-7.485013603446477,-1.9367653689160693,7.275744767066261
22.421733015601475,-41.987383479577026,-24.33793625759843,8.827951291286752,-8.24409077640437,7.24346052482184,9.338298082582835,8.748294977082237
21.433261706158813,0.7127284799366715,-6.716484061803068,5.098447796851743,4.39284272183752,16.421807510740276,15.284401366831798,9.083464281282254
20.297146400651712,13.619585720364537,-2.0735434507974113,3.814693547830711,8.878279755071132,18.493975906441417,15.486071273979,9.078659313655294
19.67442805326779,4.266067958453573,-6.243609662638571,4.53118798565717,7.130874902880615,14.30049387276094,11.28569538850868,9.249353140146903
19.798697776160918,-14.170362398643809,-13.430204182510373,5.96820287470782,2.4064066428817736,6.480311764745014,4.986292308806006,9.623708947797747
20.574054251679765,-29.926743662200774,-19.09048332924831,6.965213710470904,-2.277609444006517,-1.603124494116877,-0.9857818823544264,9.945679197565303
21.756820639323085,-36.86402498931699,-21.226163178630316,7.108334407443366,-5.021013096380224,-7.007995688646357,-4.71814145795458,10.021393169006414
23.060582752268825,-34.741962209813785,-20.056033980558837,6.697552487202238,-5.160584415775124,-8.104914580559027,-5.227014862388499,9.872563693158062
24.167089577469614,-26.982677518328522,-16.959439923181513,6.242199673257326,-3.003792778718697,-4.991746381840301,-2.675574740984957,9.57664124165171
24.751960822850133,-17.997516171136212,-13.50760971177657,5.967343840755163,0.5017244947965037,0.6834142893838854,1.6697935625684588,8.97577406131555
24.59854065380123,-11.244842034536266,-10.84108487892839,5.678950938485026,4.113296037059988,6.448185352768578,5.845509738417714,7.5650783369815295
23.72410880492348,-8.226265070644315,-9.363004593267583,4.973707404252086,6.694020090613506,10.015824192437668,7.91247870214668,4.727637753604517
22.3726000601847,-8.42219491786487,-8.802025615700085,3.545917583840487,7.569374776050036,10.15403733211711,6.723192390157771,0.19839970037094812
20.83806151596551,-10.183000535805714,-8.684311654088015,1.3790890936804308,6.6515872210379685,7.045915820768987,2.3809282282574347,-5.560780422691334
19.256197965954062,-12.144927338069264,-8.921889275570122,-1.23186666794387,4.294071619693249,2.0546590220901026,-3.8122582279587753,-11.364170005088477
17.54248393301236,-14.179471563714834,-9.984349653343473,-3.7873379232938347,1.058156887384282,-2.8954745159993163,-9.859892710511303,-15.741828922138524
15.520498838645475,-17.11906941146076,-12.429402669682506,-5.767228401161878,-2.417826671274685,-6.005227319983169,-13.789186474012759,-17.596325109282834
13.120542427228326,-21.582854080038572,-16.21139234055971,-6.827478255422962,-5.462886977384391,-6.146504913417349,-14.32128672735246,-16.70883258548734
10.492263741373076,-27.054013252924534,-20.453103390453233,-6.913224192398841,-7.483651907447958,-3.2010206392045677,-11.292823200665474,-13.805297641657594
7.963835070726869,-32.01811913191744,-23.929767392551504,-6.2256382009931,-8.181740225482566,1.855450447086991,-5.697781305515218,-10.155309706002635
5.878856670673199,-34.90818312761671,-25.863183485295888,-5.094280936745103,-7.726919379060453,7.2011546857673885,0.6794304272264898,-6.95735816422704
4.387128701368477,-35.036961359346805,-26.444414828821213,-3.882623990017268,-6.732066027641857,10.75043538400776,5.905614019052095,-4.874644817345202
3.291849325056004,-33.05423496621576,-26.84394892094117,-2.9759634439642317,-6.055096438553189,10.886239663827808,8.544655972941221,-3.945631096246101
2.0820793631571943,-30.964265630901714,-28.78916439925016,-2.744056854539284,-6.550683175234282,7.045683925368391,8.063677504295988,-3.8117550469167205
0.23101481843731825,-31.642222951850673,-33.777095794421875,-3.347711474593307,-8.79021542704532,-0.05488500175030034,4.933590047616461,-4.008920869638408
-2.341306939700708,-37.51477497409386,-41.970578971137414,-4.451421216315305,-12.67957416746985,-8.581114901506211,0.503632185976305,-4.111793665188184
-4.94982795915483,-48.537091618316495,-51.187046523799395,-5.120695963522135,-17.07083729945656,-16.044280920252046,-3.2926508776999293,-3.7314495484643877
-6.288959673675202,-60.70535402940519,-56.84695261145183,-4.146451181580897,-19.74555151005338,-19.9832368563496,-4.434614537411814,-2.5228588841159985
-5.075061677710177,-66.76865463540413,-53.550656580179,-0.7130652003713608,-18.124173935639266,-18.75568511938817,-1.5041570214064552,-0.30927793301939493
-0.8362125822953486,-59.57601555348716,-37.87084379830962,5.009834388590664,-10.563506336122202,-12.203779709605763,5.655541785851687,2.7482139129686396
5.66817981153158,-36.36814361192216,-10.77924649900143,11.796027721005661,2.4822578681002168,-1.8584792861265254,15.69335414111645,6.111515951614689
12.706144132257236,-1.1784244663356689,22.013455518454542,17.91860539572705,18.271549668440763,9.537999264220746,26.172730974661246,9.052230516809384
18.379498584445546,36.520512975071036,52.33201420713587,22.003264044710605,32.84386630605472,19.071970495918777,34.54486142610291,10.978806089935015
21.495440377178372,66.3396298062003,73.24608428670774,23.648127583391013,42.808828662503544,24.791249858135178,39.194593769414524,11.701795786822055
21.99967018171116,81.94392398252911,82.06077795950854,23.45698997938366,46.82012377620081,26.362839909975214,40.00634347477138,11.47486161509643
20.77856648540892,83.47546376413906,80.90666893353301,22.545162428536468,45.895999146342014,24.935888188243606,38.17358967118051,10.805806320268935
19.046909333713085,76.2472375636249,74.84330695060156,21.905083919911597,42.51276480199814,22.34974983636468,35.428268753585265,10.179866919573115
17.746096363857557,67.06946336418335,68.94155768012594,22.02347521693862,39.17291376401444,20.19379775142325,33.18763307450699,9.867171307988988
17.26295287494203,60.857432441020386,66.1738730910236,22.870777044655963,37.35578576572157,19.238885022668825,32.08287116926109,9.892017727668607
17.491707355420072,59.3143730036748,66.98228367989654,24.114244488076874,37.2972631669119,19.42853075653222,32.000556653957304,10.120732309516956
18.064469232001287,61.56009244921069,70.10342939892624,25.354293646640226,38.39542144897664,20.234872914083557,32.43025848829734,10.377555187804273
18.582766877033137,65.45904483025735,73.70884776288149,26.299636610295416,39.76702613006939,21.054154740960453,32.825097130986734,10.53198820037308
18.78618002849101,68.75697846240996,76.28945487924965,26.880723476718238,40.66857949344808,21.460104059334768,32.82587318531808,10.546545464712727
18.641995443271874,69.95005885352853,77.21109360891043,27.27393195711091,40.75975758372797,21.316432669088382,32.35224068198464,10.481628889753141
18.32448004190725,68.9256175119784,76.91501509227223,27.78447270140478,40.213669362785424,20.785911545210723,31.586757957984574,10.44806868803719
18.07498102463159,66.99379496023317,76.58888420766796,28.622020506903322,39.58510514876836,20.221869981798644,30.844990645737735,10.521470132049348
18.023801355030265,65.99056573607896,77.33289249254169,29.724839656821867,39.42552923048626,19.951356653279696,30.367006443754693,10.674275437156908
18.108479067127163,66.93189526015368,79.33244844983084,30.78157663365258,39.87682743636484,20.06772684067668,30.15825512433976,10.784662805955433
18.149579461880837,69.2796254320437,81.69333563800856,31.44204396069247,40.56783001816104,20.38685275437813,30.006724020723095,10.724795056781058
18.006657838071284,71.39421626059008,83.08696761616753,31.561368173651438,40.89988344278233,20.596403435880454,29.66291368669941,10.465582187584479
17.68261967226704,71.68369257226243,82.68938624943159,31.327558393436814,40.47645730638045,20.465685691998168,29.030032734904818,10.124665991187875
17.320615653223353,69.52865162181422,80.7686379737356,31.23027673481195,39.365252972652335,19.965969594779263,28.22617181000917,9.929066433731222
17.13405664917966,65.60784167962026,78.69002077366942,31.890087504267303,38.09755657849943,19.275096039457512,27.514089317339984,10.110148160579325
17.316176456989268,61.8433430964255,78.45906812366562,33.75618460784616,37.491534671032085,18.727893893154878,27.178926041604935,10.76490989551106
17.925979407377685,61.01301122631429,81.87544552591744,36.71820058112997,38.34085335582645,18.72449133492117,27.396241682663604,11.728210013745139
18.759150143700182,65.62615784787519,89.31761271640654,39.82280215683269,40.93260088964175,19.539322986774412,28.082748271873122,12.529208250570024
19.298504756360266,76.01089882724678,98.57905910548392,41.38689206008992,44.51995131662175,21.047638933686642,28.77796365657747,12.51563801464879
18.867048540901678,88.72286487369807,104.72247172873364,39.64777244476578,47.164913499978645,22.55828287197184,28.699415309175823,11.158952516283835
16.976230067526718,96.97727847223072,101.7456427613779,33.70659870932221,46.354653730462424,22.980766022652094,27.066688258947043,8.410104509159543
13.663490545793838,93.70711377364647,85.66451287889979,24.205677725358832,40.285681761425884,21.337184676630695,23.56442846378074,4.870772521688653
9.554505163380071,75.72102106160672,57.27815697862608,13.241765058821521,29.080256561900768,17.323772616569972,18.6170592118445,1.600196365969688
5.559306156788097,46.19016379882063,22.658791989527792,3.4702544070148913,15.058814674862909,11.530100970842287,13.215215848766334,-0.4011899076984207
2.3851212996926243,13.560418665259276,-9.292481637753914,-3.111134529880696,1.7540781733391546,5.148566371370252,8.360158586369433,-0.7460698711296816
0.19322338850031187,-12.62697357853102,-30.953983997020636,-5.986062834760394,-7.786619464151746,-0.6255422326719072,4.511475012513494,0.10877733802751971
-1.374582806541462,-26.411652811672266,-39.34582344217016,-6.096835659052076,-12.36279310003287,-5.087633901527324,1.4529799229524918,1.1368685992156318
-2.841356689368313,-27.711853174539584,-36.83177867682336,-5.082531288809857,-12.839050368087381,-8.101036879469454,-1.3169542108702945,1.3732184217598546
-4.483071790200335,-21.126533692668062,-29.02877730437217,-4.332604528563211,-11.222471162986277,-9.793581126735,-3.9818390004982276,0.5067497514149908
-6.149446280992695,-12.57175473191693,-21.54950608649831,-4.4265876536177675,-9.364704347814092,-10.215256532203243,-6.093099810412542,-0.941100735061069
-7.410150068462241,-6.277093839143547,-17.647995987190342,-5.16417328996463,-8.182217565496408,-9.299591257692992,-6.839164204232128,-1.9569914279712841
-7.87404923744279,-3.774037067681296,-17.783358880190374,-5.98416658667773,-7.726034868514236,-7.1588337090035585,-5.726270448374787,-1.6791153357698145
-7.435294250605244,-4.607820505032657,-20.623735162845033,-6.419693123358508,-7.725872255405941,-4.399997435612908,-3.1491620133114724,0.041785782496235796
-6.303770697113771,-7.4539921438599235,-24.332644447158714,-6.3474038471401375,-8.002454607320288,-2.093402632853438,-0.3821175612484138,2.490724002590283
-4.850232229217126,-10.787365705074459,-27.376272390687483,-5.972689623274821,-8.479109509780592,-1.3037549792058027,1.0666784256457977,4.445208483439826
-3.3901146169067493,-13.215125204427265,-28.80553526471534,-5.616805191513715,-8.97688046550727,-2.449601264647002,0.34813707223430124,4.859870391799861
-2.0198860478718235,-13.820249406310293,-28.252664024591873,-5.441683228101897,-9.101419896924511,-4.902033506025654,-2.140494441020094,3.4974436468052494
-0.5776196196488852,-12.410580936309577,-25.7702158452932,-5.291122518215347,-8.338730378004312,-7.1062694870751315,-4.844472178782511,1.1192473910595933
1.2351860858854946,-9.389234305203656,-21.60135714499829,-4.791267717575526,-6.291622615946821,-7.248872163307227,-5.819033568356045,-0.9217895113906822
3.5968829480695224,-5.40658818612159,-16.10315431154331,-3.687209261018238,-2.966466876227194,-4.230909402459849,-3.82341281179984,-1.4829999572729458
6.309234673712637,-1.2828424994635217,-9.97809592171807,-2.180805859574758,0.9841734336069815,1.5054383202043888,0.8221733582314218,-0.3564099422735613
8.742799379578535,1.7491674283414642,-4.556233043065508,-0.9736357850113704,4.256089990436977,7.822766275603333,6.149498098429209,1.5473470642219582
10.091983014243384,2.109846492900635,-1.5865378165478197,-0.9143061399874501,5.335148347019284,11.70180131616164,9.414090089532053,2.709068642769711
9.815504951789162,-1.267718732426024,-2.3573749961470836,-2.4655061440955324,3.3135877199600423,10.756886777958089,8.546595676922948,1.9226811554369336
7.963449640107094,-7.809419199090364,-6.723898424184956,-5.366328933654736,-1.4128881305985088,4.624853757482227,3.3555706727046295,-0.935692830699653
5.156457330859237,-15.08005826826116,-12.91686286400191,-8.722997932366217,-7.146318060245888,-4.667234451011959,-4.280376886820971,-4.774056169931645
2.2427458193018492,-19.99492300855578,-18.41381901035284,-11.4482164146964,-11.698754559266883,-13.64559479580401,-11.366431561621669,-7.859746266324246
-0.12014664797754546,-20.652414410559835,-21.256358552936334,-12.753967532199532,-13.50001658026443,-19.084647352679067,-15.289934635904194,-8.729539357905987
-1.7062851558325187,-17.43741604772055,-20.9180839891999,-12.423705434734241,-12.295158454662722,-19.463239715275776,-14.982815360892397,-6.891314953707902
-2.694854028172021,-12.78939085696194,-18.33353296376624,-10.768192358970548,-9.105459014336969,-15.45496655984067,-11.196853938868898,-2.9647466022996727
-3.447270881100024,-10.048569748555183,-15.303654380429192,-8.350985271022688,-5.632986407579426,-9.363765179759692,-5.922013467253175,1.725184852088113
-4.229118169135654,-12.010776524265522,-13.624630302857657,-5.676882240404803,-3.477699063342028,-3.9281896270634666,-1.3704856505359533,5.802245603405715
-5.027898615331446,-19.460464799292804,-14.152505921237932,-3.0531357716650844,-3.4421342786771563,-1.0873109601310438,0.9791439889419113,8.372557119758515
-5.591573847849061,-29.990957834419163,-16.113467181541957,-0.7308440845664229,-5.131746085987332,-1.220882386434336,0.8983071532282574,9.202742383276853
-5.708455193190835,-37.98099602592958,-17.21381677545731,0.7845905962762197,-7.085075537297623,-3.1642577078655285,-0.7031569641055374,8.539612248008789
-5.564428493177886,-36.61013010498178,-14.886813091714364,0.5652390172828766,-7.535772090478977,-4.972270651922559,-2.4385034000163324,6.76975214572952
-5.884646946299512,-21.51754590906921,-8.153207863007696,-2.483270789216488,-5.500996978732718,-5.031818761985016,-3.2885788036344756,4.174811710224018
-7.660293575316777,5.976955239893128,1.1987124932128197,-8.975051161486515,-1.5229304625659428,-2.9134928254132535,-3.140735268183488,0.9200682664390304
-11.56207671635588,38.50758749655852,9.183400153057361,-18.41243555262895,2.505588275314421,0.5011705461213687,-2.7209890710449027,-2.7868032416829154
-17.416690431651993,65.88843229206296,11.78976405297933,-29.067112817516314,4.402238466561607,3.6386558949892103,-3.0122513953370467,-6.555374157070977
-24.128118397867958,80.18282717667233,7.378178294848994,-38.56730791595402,2.980612455904506,5.17636978983682,-4.570802295976988,-9.841631519558401
-30.140402360430127,79.52749906570043,-2.3004443697069172,-44.905640280659775,-1.2724565287003877,4.728657864356571,-7.18220746068137,-12.146708327519693
-34.17402778771389,68.42671168717301,-13.128577419022124,-47.286873714178924,-6.544353670776783,2.906110296984028,-10.038981938666792,-13.247856353641644
-35.78959527089255,54.5890397232547,-20.958949169778485,-46.33341061114101,-10.78970229273726,0.8057458101389608,-12.264809368170283,-13.299087901057245
-35.46319519902293,44.601118488469716,-23.693075242721605,-43.58420321063532,-12.810413792616108,-0.6591808008742426,-13.400403270471188,-12.734146187599771
-34.1956625823648,41.20019956461197,-21.8540477192562,-40.65898376246861,-12.653052914046398,-1.1502056259634275,-13.547905220134005,-12.042691451215944
-32.96595045692914,43.348355922172175,-17.61040530815404,-38.6022388970502,-11.226041966185248,-0.8616661637038086,-13.163534736943,-11.56556766393626
-32.366030108003656,48.1589336591258,-13.264556705359992,-37.69530305305908,-9.595582810831818,-0.22505048939544636,-12.734188350805274,-11.415445409447958
-32.53944598517212,52.83760605021667,-10.272959414848842,-37.65958454367465,-8.494697109562836,0.3625775510779334,-12.574531814399572,-11.523261931047198
-33.31206281064668,55.616346815673744,-9.079005351734418,-37.98125694530654,-8.211109519199528,0.6608745802477679,-12.79441807231503,-11.737167707304533
-34.34861967306995,55.90394478294047,-9.352744723105053,-38.16167706910645,-8.669440268481857,0.6081641874770115,-13.341046136576482,-11.90791476269735
-35.27207697114087,54.19861341894807,-10.256814253296989,-37.865147300833954,-9.524215814194331,0.3076501521085654,-14.043166088174791,-11.94267883059678
-35.773647050388746,51.801718837974235,-10.76026377189111,-36.99864845759707,-10.284137081020456,-0.03614657126853674,-14.676793485860337,-11.83267222129126
-35.722475842228185,50.131583572712564,-10.110857581839332,-35.715913086801415,-10.538796429037088,-0.24704380119645938,-15.075419775356867,-11.648672552759127
-35.22570076925568,49.90540029364811,-8.260331759205673,-34.32565502044206,-10.192101552451096,-0.2956962254022411,-15.225046450087776,-11.495589141031115
-34.5978439402124,50.8623479534837,-5.869331914187231,-33.149716935703985,-9.502803064389052,-0.2926748311533782,-15.256684670512184,-11.4455738794959
-34.259759792933394,52.26752911909067,-3.8468431758931976,-32.41968576559696,-8.887738934076795,-0.3531457384745592,-15.340650781362255,-11.49566858137873
-34.60646159317235,53.59509709569548,-2.8229142917110304,-32.23726015052081,-8.676100981082064,-0.47132106411858954,-15.586206822106215,-11.57930747404634
-35.842742809312824,54.643119434335,-2.9369696716577796,-32.53396734134602,-9.007218941587634,-0.5345055862738024,-16.02425487430085,-11.614155793924251
-37.78302104083872,55.11613138228964,-3.8939344595599303,-32.9905906599115,-9.84571217037151,-0.45257163121209015,-16.636079943938118,-11.545156676245313
-39.70772480280882,54.402768138097315,-5.009677160769608,-33.005941126697756,-10.962646254343074,-0.2667080378189491,-17.34675725824974,-11.363437285718545
-40.46008472748967,51.95231733457424,-5.246330894405895,-31.859972625848044,-11.880397506615674,-0.15578262204174748,-17.988381806791057,-11.110962100025372
-38.88744046747137,47.75358409811689,-3.570031152143461,-29.075829354322135,-11.977298606575353,-0.3830577808412122,-18.32788245314758,-10.874914694515983
-34.47144110993974,42.17867091606453,0.2587469213577517,-24.7633159939511,-10.860799242203177,-1.2464293852265302,-18.202640328736642,-10.75010810547785
-27.76359880800574,35.262853777468536,5.003339529530793,-19.663826542918287,-8.774459896772708,-3.0030463374990046,-17.657608836075237,-10.756020309226237
-20.283275214818392,26.36308556948056,8.201007867413017,-14.811687355556943,-6.608695375492645,-5.696962975052411,-16.918751619074595,-10.750901409483664
-13.86392581942592,14.949592166136659,7.5729723538511236,-11.022541813449253,-5.334371460830523,-8.92876637796048,-16.168568919007228,-10.430923005997427
-9.816777478020914,2.11100557406136,2.7739383090847936,-8.560396306505401,-5.198625417899374,-11.762589506042668,-15.295328859645718,-9.469782391894803
-8.421192085751544,-8.687086356752623,-3.894062172147435,-7.195552136868174,-5.342540631673237,-12.976556428211484,-13.865072522993716,-7.74676933310758
-9.024064147487735,-12.924499452622094,-8.661904846533616,-6.547352453170735,-4.29870793109032,-11.662471589695022,-11.424014692716517,-5.511639814611854
-10.598124494942416,-8.320701719851574,-8.890726850790742,-6.367444429528788,-1.1891554183663906,-7.891577616334671,-7.970598157065191,-3.3371360439991653
-12.31058643113365,1.8928393205905267,-5.379556185949236,-6.485294036895833,3.1864008120191807,-3.0017959117277733,-4.244603391533151,-1.8396705384262917
-13.728126475356847,8.505436669308194,-2.5685767742864773,-6.482343754075404,6.280635578738296,0.8031455815347204,-1.5423889544449267,-1.32440863272081
-14.645364973958522,0.04467021073329744,-6.146032783023335,-5.47658226577013,5.027399904570748,1.4439389217283192,-1.0828674858865153,-1.591544813115903
-14.833822553659298,-30.905309305719467,-19.455336122249356,-2.3624100903416485,-2.3046527797282725,-1.9732241962467194,-3.295442128331811,-2.0442004719973257
-14.00491518597926,-82.63301235713539,-41.07544980305431,3.5394995733516916,-14.840746541165803,-8.64866641157087,-7.497075725070496,-2.031844324112904
-12.017239018420607,-143.92074957639645,-65.20426465194656,11.865328020554188,-29.282823584079136,-16.445588155431814,-12.183406556080534,-1.2092022735877759
-9.109966611464175,-198.8871909898671,-84.59313925622585,21.11420265132279,-41.46464920770292,-22.906470201136994,-15.761885812336429,0.30173619554506875
-5.921904112026437,-234.28482880551158,-94.16924989337069,29.22230876964203,-48.331461488476855,-26.355032315447037,-17.2889810542412,2.0173817873707787
-3.2439801665565144,-245.11122981794836,-93.21477385100948,34.49309207848575,-49.202227735527494,-26.507010466381203,-16.805181535584364,3.3734601367044745
-1.672355533569984,-235.73964607756884,-85.09001175501876,36.34313176570489,-45.72126895197149,-24.352128666197896,-15.145499161290655,4.0046804802893945
-1.3992146188052914,-216.7095494641082,-75.09590982133062,35.467623179742276,-40.759257392523644,-21.509107598110955,-13.429617514032232,3.878456766977671
-2.247633467043254,-199.65827725289793,-68.00315273975032,33.411900959370165,-37.058474614527356,-19.493238672192255,-12.572012579686648,3.250314244107679
-3.846560196695875,-193.07561756380764,-66.47304693257632,31.858692310774725,-36.30232351871902,-19.23270691973925,-13.022614996594513,2.515428804306218
-5.751803693576742,-200.0095590547256,-70.58159275842175,31.98879049645592,-38.76600597788122,-20.88002451102468,-14.712465100697049,2.0561840237874054
-7.4360833811670615,-217.39911082167077,-78.00443095424134,34.093945694320894,-43.33955479715719,-23.793325315645045,-17.079444384870463,2.1320235601241255
-8.264641147240416,-236.6760150240994,-84.61261244852676,37.45381878711167,-47.79368725639862,-26.64173653538906,-19.151729411924936,2.802770222224014
-7.623071588610088,-246.04254856022715,-85.6864095568805,40.485010543044574,-49.403150445280254,-27.739567519406727,-19.78942354024705,3.884627668574692
-5.205361034528762,-234.7423002136197,-77.81491829308308,41.22561194333844,-45.986358915282516,-25.668502876343094,-18.124518180675107,4.984555621646645
-1.2664954010363099,-198.15304605642382,-60.78047587510486,38.12777315257182,-37.01144219120989,-19.983727433727616,-14.024565297667497,5.659785855084836
3.3915855790520837,-141.0174462558874,-38.200176641705916,30.877110486193352,-24.100488829167826,-11.584312352024103,-8.270975907653181,5.666400932756937
7.757343641986481,-76.39891264782828,-16.171613801192827,20.779203599122347,-10.464135907228268,-2.4235991103513337,-2.264068439084836,5.156292634126727
11.092435366382977,-20.285196013692076,-0.4350623084835431,10.391324875189598,0.5469368108934343,5.373089384791947,2.626690524306855,4.662470414571253
13.271640503410074,15.437738883818946,6.3565227830629585,2.5013823145878438,6.974066865801187,10.507160263031787,5.69645310935384,4.826153475932321
14.77729003422419,27.75001098730759,5.634812169577982,-1.0329666637071855,8.974715954440791,13.028401888278085,7.147356566061279,6.0006480236128485
16.3589486679722,22.50333502637806,1.6463883386191902,0.017465315063218037,8.365611373191028,14.070331318325227,7.81395019104176,7.9796982720699
18.561199881465697,10.176029543765669,-1.1625091324538124,4.322390197420314,7.374270504494931,14.994454090325382,8.572477693289459,10.038855118951142
21.36868991218392,0.3121806208205523,-0.4380068585618362,9.671299374435748,7.427437293522204,16.498439722536173,9.80259696627862,11.275405096725942
24.117660391021627,-2.270594035224202,3.2946584694761847,13.820027705352329,8.613169943161983,18.198903752701423,11.176236830110314,11.037884933190071
25.692826688188102,1.7349232248151587,7.353874572689802,15.130411386961699,9.880039574790572,18.83765193880609,11.813803656757116,9.198945366397213
24.96007471610585,7.655244255312637,8.361031012599033,12.915344651030798,9.641319233021179,16.916790885340898,10.685634754086294,6.157452794424631
21.340498340664652,9.447445608798859,3.7699553108880797,7.58990964162981,6.496330051679543,11.464377449763738,7.118024044499456,2.6316790793544245
15.326875943370641,2.6455221498722383,-6.780584777251052,0.6566352797913889,-0.024043325909158933,2.6794809836705205,1.2708516364204656,-0.6105562850655222
8.629934263669528,-12.962798715997794,-20.570154438434393,-5.6147386375756705,-8.838681211881061,-7.78334871155825,-5.612772300212348,-2.9733821345972227
3.703128538693586,-32.09917525722738,-32.01508829628285,-8.919325702941407,-17.229612611632444,-17.131243302575914,-11.427300476167666,-4.168454761843557
2.72286064111749,-45.50514346025764,-34.5518404303038,-7.867739168111398,-21.675531920318225,-22.40886440611648,-13.972362663869928,-4.2610581147592725
6.5117050878927865,-44.20142390011959,-23.730511893102868,-2.6658475448348287,-19.455819351121395,-21.78866735263688,-11.97943889825719,-3.6183109354962073
14.04181024613147,-24.430272519596294,0.10932715721709706,4.930884209274551,-10.19149345539306,-15.503217706072729,-5.829847477851802,-2.7595327941583028
22.864002331302444,9.759110474791933,31.374235089910705,12.434921785822587,3.6844551537995986,-5.83551708604343,2.5113586236426313,-2.1517743406653804
30.24855410968749,48.11615599364971,61.53720778801467,17.773537178038765,17.94461413371551,3.8952485617606376,10.368112634004603,-2.036316340681259
34.39057049121032,79.1874578104894,83.03729682667529,20.119431317410818,28.539715953377854,10.813241252905907,15.557452379284056,-2.369851175281791
35.026882536978306,95.73435337231844,92.51969289518748,19.98823349706821,33.37926400013976,13.62651804008251,17.256778104914176,-2.906670048535228
33.21761487990634,97.41157344318576,91.63744994382579,18.670287037929743,32.93081537437934,12.864047675098044,16.10135692120058,-3.366412759283826
30.56080640199169,89.48976507983396,85.25892507309463,17.445582790945153,29.45377728836098,10.215109773248162,13.571470603514504,-3.5816053127661105
28.375445997395484,79.04570288845277,78.52885332035355,17.051309017027634,25.542650895738234,7.48869158803141,11.133395819509946,-3.543569420205233
27.2673227908756,71.3790639040945,74.65449271488804,17.582472092271182,22.94131546032706,5.8245469745974265,9.644295286408463,-3.348642435035957
27.151703847283,68.5496440605686,74.3597832076595,18.698068184272728,22.16542056680053,5.476310529578749,9.236569653450118,-3.1152343387289148
27.544302978129043,69.94117799194292,76.6338613174244,19.911638260650726,22.79996746214163,6.05592603579337,9.548877508461702,-2.9361300042726444
27.895569343356804,73.56250809705199,79.820601464529,20.835888392867496,24.01449343856798,6.925524015127457,10.043875267303711,-2.8702653598564036
27.84290251884063,77.132261755057,82.44087121425284,21.339872220669832,24.98830044480472,7.514947252546123,10.256740219432467,-2.938928489748986
27.33187531296729,78.87294230635601,83.67785303716924,21.578658718366192,25.2024996762179,7.51570319556197,9.951453055941604,-3.1109660133929213
26.578189035494248,78.14268558426397,83.56619327284704,21.859763047971075,24.603861865011428,6.956965339395328,9.182078830907367,-3.3003938373369337
25.885884877716247,75.62483325086083,82.7863810874991,22.404964147562445,23.558930908466575,6.139309826455917,8.226942960246507,-3.3998889088601594
25.428883947329883,72.76085346520222,82.09143555188756,23.17474677998635,22.5722082461229,5.434467923196044,7.408269957099687,-3.3359987338073913
25.148067352966635,70.76991888267449,81.77166720129702,23.89763216553874,21.954102713030174,5.06689067005319,6.908491327563251,-3.108965594861594
24.83211662946312,70.0867426569107,81.63771958111359,24.2807928292125,21.705262500573422,5.028237743715753,6.708812805992744,-2.799242284064035
24.300818748828934,70.5817626615064,81.50756398733773,24.23648211072821,21.668947317783253,5.1565281399406,6.659285640112123,-2.550353037081357
23.543650864232163,72.01026734751169,81.62850497775632,23.976169754903623,21.724662382514826,5.262501954123904,6.574452126819393,-2.5326085445071627
22.735939592724275,73.96871542651884,82.5283102448673,23.944229234243284,21.799130136071692,5.185328336616759,6.274472978189933,-2.8706867281219868
22.15688061601916,75.46437694043571,84.417756697577,24.633859712252352,21.74475282057155,4.796259906407116,5.611204140714529,-3.5335667695137465
22.05673822524356,74.91517364793215,86.71797745745066,26.31730055818848,21.315964079374208,4.04845203416286,4.555364151372662,-4.245360536024466
22.490385328143518,70.97701556154622,88.07681181139404,28.743711538358507,20.324664669388252,3.079869633300219,3.3111735398011986,-4.513094439244587
23.15672472134437,63.51824619179386,86.73069552382445,30.969283721863288,18.787346658481507,2.2405279273440066,2.315384723128867,-3.8152864161889566
23.366044812198137,53.7052123628784,80.9221895706419,31.55038488562412,16.860139081869246,1.9377739717071996,2.036972078989038,-1.8754501740420169
22.268713416170065,43.03324319868045,69.35850304667821,29.172145562759322,14.626979446925814,2.37819615802246,2.6846401500242134,1.1409386929400334
19.320573720514325,32.235763718433674,51.844113191420576,23.441714641832867,12.013740945640414,3.420841949439048,4.044168662497711,4.6385879484186585
14.730615916822375,21.112091059548227,29.920732704048074,15.336695253732108,8.978127697406913,4.677404468422062,5.577429336751631,7.819773445273829
9.556956764233398,9.392604911846796,6.97540390584906,6.9275693684621436,5.808783690506745,5.775535656077942,6.709200248245181,10.001880047152065
5.302062641014634,-2.2166801949999444,-12.619388010245236,0.4464949238269054,3.2042265888967343,6.559169379736951,7.095866842166828,10.85434769796059
3.1904279985412987,-11.850558096845537,-25.16376317000484,-2.7739465945315214,1.9568666853694914,7.063274528886525,6.709367222877896,10.450845400825816
3.546644677909685,-17.491274685571625,-29.278669966630062,-2.859575320924704,2.4074146714258586,7.309093288245546,5.730538612924328,9.158958953281466
5.653242265416625,-18.43777698149104,-26.556042580894776,-1.1406226234367502,4.0860584277965115,7.140207509219525,4.393768458402624,7.478089890064611
8.171706184209576,-15.981507775746103,-20.70387351602308,0.6978828431833983,5.889198132127362,6.298843211766942,2.9340313366287205,5.920394384249986
9.855528642740618,-12.624665844394425,-15.61358265300596,1.4906309325658005,6.743991376315601,4.71907322155517,1.6461406727773862,4.941300650831264
10.120464772151687,-10.47020931462404,-13.531635477881085,0.9878257226853498,6.287975029308895,2.779467330576913,0.9174920535209025,4.867925462698282
9.172985342589211,-10.147407662689208,-14.433979711453821,-0.3354595519508143,5.041578477498891,1.247623756048054,1.109790593419523,5.805852438301335
7.707398288116337,-11.03486137762793,-16.780492609501767,-1.7836223594749205,3.962852516985686,0.8965806419588731,2.3387251096801234,7.576399979644773
6.422287250646017,-12.27666734066413,-18.86315262495608,-2.8918236758040394,3.7683373962547533,2.051647625031991,4.340106441742527,9.751506861172018
5.638684528336818,-13.526535329986865,-19.77469035438307,-3.6206343161295997,4.5237934970077225,4.38022439756617,6.55576825104077,11.7891340232812
5.1801141068005405,-14.948418504713572,-19.607881931808638,-4.288718613581476,5.703591720156872,7.045749160092238,8.385397614413549,13.201071537704502
4.529226970367317,-16.851801658087023,-19.125739694612296,-5.331758934419525,6.551450826678531,9.109859416582097,9.432827127054711,13.678689910711016
3.167139434242451,-19.45503237255366,-19.275969104820692,-7.0041142638762866,6.46957920138405,9.958939396188597,9.620319142079722,13.147949387999553
0.9225840206060851,-22.786271438129866,-20.728751529450108,-9.170151207493792,5.275181058327663,9.553523892494386,9.154325382043396,11.759602633679203
-1.8668541236180354,-26.516556696275742,-23.543514013411013,-11.321182886933709,3.262541596534169,8.379184019231012,8.381489984327823,9.82252951566385
-4.488246174844891,-29.85478694461579,-27.1543514501817,-12.827799901587403,1.035579977148043,7.107024257898221,7.588417403260892,7.696057649152779
-6.197010251599987,-31.862956701550143,-30.762703523715892,-13.258080964288737,-0.8387992252265986,6.155102241724623,6.842880579160791,5.691087762304819
-6.538338592845322,-32.13237346231807,-33.858328901096385,-12.537073005237357,-2.138169407925671,5.4656046708075685,6.008720615228307,4.041868233722178
-5.453610294257966,-31.17276628814219,-36.38412702163482,-10.870639285648965,-2.9913252167840834,4.701641145479864,4.974919635809458,2.952102242989557
-3.1763485280150148,-29.99559705709071,-38.38798042787389,-8.563486033165207,-3.5618870557167037,3.7235826271542245,3.9315827593789936,2.634035388921232
-0.08331597527685368,-29.23028075190407,-39.57838264228522,-5.913765706612018,-3.720271522370604,2.9075669099368677,3.40624854527553,3.2502766024709557
3.3590190993984677,-28.680532346748866,-39.34324903740705,-3.231987511972759,-3.0681133614026486,2.9382023995881634,3.925830579523259,4.7674627306051525
6.568792469291064,-27.758296379168232,-37.291519700254184,-0.8852375720749226,-1.3447910323735923,4.149776425473502,5.507256228794719,6.8439039724879445
8.865010423359461,-26.25931176004872,-33.796350608655054,0.7318810717246631,1.1432671542247967,5.935000230639533,7.393685416821576,8.878145249160204
9.603830570001188,-24.632454188407365,-30.01179267698142,1.290521763258375,3.4690017267348403,6.773736913353898,8.316352058101446,10.227572781734738
8.39577192193975,-23.561952352151078,-27.35901986101037,0.6162460564710371,4.4748753116628155,4.99546774436008,7.168579907813008,10.47263027711853
5.298536276498923,-23.438270575610478,-26.902915851988762,-1.2539130838355361,3.3314253968140277,-0.16995932540437797,3.6604118223651043,9.569837408379303
0.895195292105679,-24.241044281210634,-28.966546103909725,-4.028557738455173,-0.06560263566094665,-7.935799156875922,-1.462338052351121,7.824298277890681
-3.7917418096220277,-25.718983984112135,-33.02370251028208,-7.152825611829681,-5.011611419586821,-16.133712350948073,-6.742821988459239,5.7353614735315315
-7.563218868563146,-27.462473228261906,-37.82199924139919,-9.906154731349819,-10.21450848874881,-22.143698680629967,-10.656672675540477,3.8262057949677444
-9.432970794195528,-28.850670902743285,-41.80746674271485,-11.632916695078753,-14.259888857602533,-24.077816235779476,-12.21965484232962,2.528871101762179
-8.997300310148512,-29.231547930259723,-43.84913206543021,-12.001333381397258,-16.19365351119193,-21.61424787788298,-11.298099970762635,2.115878091013038
-6.5920597298000265,-28.405509672398487,-43.895074750383394,-11.123268780227674,-15.960493826258018,-16.094208313984364,-8.547465976126311,2.6321021330708088
-3.132084782211901,-26.899078908927454,-42.99094086246596,-9.463257068945042,-14.399648437994982,-9.874807334125478,-5.06566757056045,3.823474740820302
0.2810793134040543,-25.542920119938987,-42.49523724816625,-7.625410159715105,-12.735255229697795,-5.283673417424061,-1.9417133655826462,5.135076751061425
2.7588466322616934,-24.639507098304495,-43.05944990927859,-6.164953404369144,-11.878616047107236,-3.6799695663346337,0.10444622222484778,5.866085399425727
3.8424872150776124,-23.581506973467114,-44.21896671098257,-5.487103701885316,-12.015134771892583,-5.016020727261313,0.8699234016803191,5.478356432759821
3.5069943770196828,-21.372033039004933,-44.89732733249997,-5.791435903332102,-12.695717990124662,-7.9985712022689,0.6153403527680662,3.9204007991950705
2.0465868845728705,-17.553353622630343,-44.31023320008717,-7.01676506933559,-13.244637833736268,-10.680348601738311,-0.0945281649512965,1.7627367080555956
-0.06560626034632323,-12.702989575560366,-42.50677177070219,-8.81596467441263,-13.141266621423448,-11.228481064854657,-0.5917328824760643,0.011564211823327293
-2.3166198773490128,-8.232347348094205,-40.25576462166222,-10.622304200249197,-12.21096826918196,-8.66417072543324,-0.3549910263470239,-0.3511368335372237
-4.285684823226115,-5.864744002504055,-38.54365430093238,-11.813313736423735,-10.667753209182353,-3.37685440286268,0.7172195256465643,1.1299267034987497
-5.736678682064433,-7.073989460155382,-38.041050045847285,-11.91719984555094,-9.04169287188641,2.844506131463576,2.1665838395441064,4.121032875088158
-6.643453832418155,-12.307887229817334,-38.67904339989302,-10.815460935577416,-7.9284874101347835,7.45947341866925,3.155674019019177,7.623324097186159
-7.177295325571859,-19.971309423630213,-39.441349081764265,-8.922055500070565,-7.589543874914796,8.360577500506842,2.951349242619058,10.393982158873767
-7.710997414829023,-25.95522817876283,-38.64848600717486,-7.271397439923783,-7.6773690683622675,5.00337780836919,1.3984331837329511,11.418436949396549
-8.826281332034396,-24.82273132001441,-34.91137658959616,-7.362745857602039,-7.416315856919025,-1.242564543126844,-0.9947554623354169,10.212043826035455
-11.222843836899731,-12.712209449427817,-28.358866853722727,-10.649578860738298,-6.234285520978844,-7.822926097931328,-3.450677980141344,6.881399998584876
-15.45228621351935,9.694953863696062,-21.21677832941604,-17.80177570750496,-4.387232369162384,-12.384468094980436,-5.4886416116604675,2.011472136776422
-21.560048446976072,36.44249943297781,-17.02790888134121,-28.138945575125202,-3.020155685599535,-13.942297539056932,-7.21366157245128,-3.5240461200872626
-28.869883880646167,58.81276490770641,-18.75254520634098,-39.660437204171515,-3.514691045100095,-13.139065447989905,-9.12181530047548,-8.777599460433363
-36.122009807483295,69.79286760358505,-26.908986032113635,-49.78320956516956,-6.545738820581284,-11.559525375261554,-11.612617011638365,-12.953400606415883
-41.96167394265117,67.71142386496354,-39.022403156853244,-56.441911110513736,-11.52643252840492,-10.66583744158541,-14.609932088891503,-15.610843955038535
-45.52435346237996,56.73621895499946,-50.8310923570693,-58.9417717593928,-16.859363373087707,-11.056595301484078,-17.57074601695106,-16.77040216569289
-46.772054001327824,44.03250008827744,-58.52420143183115,-58.08826053340464,-20.832596942702157,-12.405577584622666,-19.83765713944198,-16.849835044662786
-46.38531961321755,35.60639337838775,-60.59010482401443,-55.56820255758979,-22.5393408378586,-13.929440189384318,-21.038996111008913,-16.43777992205047
-45.310866325203,33.540987419850154,-58.1761170888547,-53.012918953909185,-22.220769426819245,-14.953143364150879,-21.252412825237187,-16.01794982706547
-44.28580612395261,36.00959373866752,-53.967862003139054,-51.313248991266285,-20.9091104458913,-15.23189019543606,-20.881793672275208,-15.79835087948701
-43.63240597340579,39.36047973957014,-50.57070710117948,-50.503354551292,-19.752604976206328,-14.966461312323537,-20.41822607600603,-15.730173282345003
-43.373762615539455,40.50941426079739,-49.42592515283649,-50.119723175772684,-19.499556743565048,-14.629024887302252,-20.26789873698922,-15.671999476057632
-43.47844523081893,38.404147364390475,-50.56657322673194,-49.69714543614265,-20.315549198938736,-14.708520562287038,-20.676608983465897,-15.569492665100627
-43.99660571451607,34.36691216147598,-52.88681860500869,-49.10133572220771,-21.814895393160647,-15.432721180152281,-21.672985130189225,-15.533764827252956
-44.99415992309535,31.490808643215505,-54.62017656157781,-48.576543350165544,-23.197975528689067,-16.56229499184225,-23.00642924509895,-15.779032916169692
-46.3610474648616,33.09547982320376,-54.04507112634176,-48.52691120465909,-23.545021286954473,-17.412505343530032,-24.16348908723381,-16.454797941589927
-47.638849476462454,40.51007930466898,-50.39426158990946,-49.13112985404158,-22.286489261187143,-17.180085349754673,-24.53702855906437,-17.452507836517917
-47.99500402467555,51.33093737381503,-44.51251254692366,-49.98241119458486,-19.62225159867749,-15.432907608866099,-23.6898003761927,-18.292557309623373
-46.42538527917659,59.70549085869314,-38.64030581916423,-50.02178032005993,-16.532357275047367,-12.45569442233567,-21.555211836632534,-18.196900612673314
-42.18722951023746,59.133516118007556,-35.23715149687773,-47.947368165399006,-14.264539480040035,-9.211190492398405,-18.465264053754566,-16.386142331309088
-35.3170484205967,46.307072092560844,-35.58370317525007,-42.980551963149544,-13.619214106947224,-6.926520963928068,-15.025667213459682,-12.50114866251487
-26.93746003614301,23.36275166383684,-39.192700268361776,-35.538367235079264,-14.558039258455542,-6.543278567989708,-11.933902979595818,-6.919177709692631
-19.058933565435627,-3.2259869713532576,-44.474006875173174,-27.29971492586484,-16.42477943451422,-8.322347188406898,-9.810937098324262,-0.7344706259546898
-13.81850754767839,-26.528087323098475,-50.08964113637363,-20.482765861986636,-18.573518126951274,-11.769526021927385,-9.052920516225093,4.653338770901275
-12.453824905800113,-43.100688187108574,-55.81372463731278,-16.679769508267064,-20.84624329274752,-15.850184221712883,-9.681531824994284,8.149352472587832
-14.552424247992672,-54.11058047555352,-62.04432171595132,-15.950517102978854,-23.437356938882335,-19.322764747842005,-11.211794488292659,9.42776594144359
-18.058033465934898,-62.83603657022495,-68.27316468702578,-16.775412501430292,-26.211341071880792,-21.030929061793206,-12.63684730508493,8.979670983948552
-20.14192172982695,-70.64154724506064,-71.91174299574702,-16.9378082778613,-28.096395567589322,-20.11938913846733,-12.659686563017294,7.738178316931128
-18.544845577540908,-74.81511972583183,-68.84440743506384,-14.794754642865469,-27.2357790463477,-16.23116444563285,-10.191619228587076,6.543359065082212
-12.677975004009621,-70.15462606447522,-55.753696079388355,-10.148538107062395,-22.000497452285977,-9.694656072524733,-4.920999087687878,5.781110071354433
-3.876740934602071,-53.11788031247097,-32.701065059634495,-4.225234663623764,-12.21416130370651,-1.5828626211603931,2.385575090858058,5.365696176828413
5.313161599588694,-25.307301004952127,-4.021224184739626,1.1373921238683482,0.3266610075834691,6.505576023706325,10.093801109672677,4.988350009069677
12.387323597626892,6.376974564547875,23.30718812793894,4.526367255473997,12.49781433098802,12.955039202225022,16.37246848792687,4.413564430534929
15.97452638086571,33.064072713315255,42.90373471138965,5.596101471372967,21.309523460261396,16.730082329742277,19.98047011817561,3.6352912242744733
16.23075436792386,48.42353353776799,51.85623338099585,5.027429186289784,25.28379838109908,17.747421719425596,20.74209946498439,2.838612974353406
14.447080695879738,51.418956571352304,51.55700479352766,3.964458223487452,24.932317888683333,16.803611870439873,19.468596608271508,2.2427669605508185
12.223852585525622,45.821603404726325,46.25889054065117,3.364701177441026,22.154069719156784,15.100685527159916,17.421999111651008,1.9563188451464266
10.726937940782483,37.337956224727314,40.5478349141186,3.6418807456384266,19.073967824865242,13.662695505857597,15.679246042075487,1.9360601109571745
10.368062029605419,30.582975165891817,37.36207120253703,4.692572610651501,17.09499158219871,12.97943539094683,14.7565014491467,2.0478780191769967
10.92059061643612,27.62570457248063,37.43244372478119,6.139239336910378,16.60612281262015,13.013106284012421,14.61482093163416,2.157722914752966
11.853112856750238,28.237550542364964,39.88321220647542,7.576675132439349,17.24308235849631,13.440731208535524,14.905026349126342,2.185216548084329
12.652013111215618,30.891622336144824,43.1924583768043,8.72685315845548,18.324129830303235,13.906109559876178,15.229697496435673,2.108342375319396
13.021578235846883,33.70801710444122,45.96322702237574,9.509606939904495,19.199793500004063,14.159123165670012,15.305272145818716,1.9479484906859657
12.94593752449029,35.19642738266473,47.40695820760727,10.039047786071722,19.47836223689696,14.102801679549604,15.030455760838066,1.7525357953069116
12.626540964069527,34.827502528274266,47.55325374290617,10.534444775685758,19.141034832708435,13.797412092295593,14.48856396027815,1.5782526453163601
12.33054726629014,33.17789957917671,47.09415380221251,11.176879844339895,18.49310115468352,13.415976986638396,13.878434403835417,1.4597773445177067
12.231627314672885,31.40354732214514,46.86961831033479,12.007948985131508,17.93266683749112,13.13772091517712,13.386377863123522,1.3904259024304946
12.340870869292507,30.359572488900568,47.31940266781501,12.947078813741184,17.681693936873405,13.035450151912825,13.076415043940743,1.3334829103768688
12.559222959581188,30.111657467672458,48.32586199434247,13.894125415907821,17.694401988197793,13.050891107380755,12.883848549244064,1.2570073020361383
12.782519569505187,30.210316492636828,49.51552940654582,14.806768307167248,17.7946873565903,13.077484420068146,12.706002888786177,1.157336601060297
12.961337717519154,30.293720629075914,50.64367316459428,15.690631970280968,17.866107104176947,13.059603227337686,12.490940206326043,1.049747635414821
13.088553600588535,30.323141320069134,51.68142815986351,16.54970558511054,17.898875680408395,13.00961045439118,12.243793489525228,0.943561761991172
13.167762228026085,30.330079289348035,52.64159128011886,17.376616718571178,17.901572488513914,12.95060004615371,11.975929290138449,0.8340830832072597
13.212323383262426,30.179835762636735,53.471288716136215,18.186372553616735,17.842462810519727,12.87612261050192,11.679957136994146,0.7171389158455392
13.259178913087869,29.727607489750344,54.15874202327943,19.02691867221023,17.704099017082015,12.775773373343972,11.35750914860851,0.6010493245050981
13.353101506926095,29.105811882112235,54.84511541280662,19.933758320919285,17.549701819879633,12.674506853527276,11.043516785829615,0.4971378337894361
13.504285665535146,28.658218435794257,55.714072121114924,20.88297982640858,17.47677535430991,12.61569337966451,10.777232133412761,0.4027244449106021
13.672791763093182,28.540442759150753,56.76858224439131,21.810729598105773,17.501224515575004,12.604376184895026,10.55309944656706,0.30276793623393383
13.808877995763574,28.51639553451928,57.80557472031215,22.683122312522524,17.530751826326597,12.592249509593989,10.32243513734775,0.1902277016530692
13.90672137033966,28.25672056072972,58.65907088364413,23.532196756722957,17.477778307636612,12.534186584216927,10.052016077721042,0.07733303490354572
14.007994001359467,27.77089541847658,59.41680383510235,24.415602352220443,17.372439763832165,12.446800462244362,9.766041757505425,-0.019685217863676562
14.15291984707744,27.405297673767063,60.329607610128726,25.35463029904977,17.327787924402287,12.391103313245052,9.515529250528939,-0.10393231696900643
14.339867831667421,27.40437423663637,61.52177753901644,26.32660155415804,17.400062538760732,12.399108718065042,9.31352727043793,-0.19827017558653084
14.537162418043977,27.60395629571891,62.85745052969672,27.307663345946274,17.521557309134803,12.436975430444182,9.118739575125975,-0.32069949121326186
14.719805793174487,27.634836858605063,64.09969972105927,28.294488653506328,17.58258804471711,12.447063007855132,8.884902108501036,-0.4645652871388819
14.87798701798797,27.33377721877996,65.12495901476552,29.272931163405385,17.544096953520892,12.408076131186846,8.608319381604188,-0.6060558768054968
14.996356311867453,26.822932723146643,65.93438110757263,30.190920176012533,17.439383191272928,12.337200781652324,8.316147988681646,-0.7259913264584935
15.054342874832532,26.230720303701652,66.53857704733554,31.000609111178697,17.29468033415704,12.247475864014946,8.024861990793397,-0.8182639562072734
15.0691884116572,25.543696096207327,66.98236613995996,31.740137045109737,17.114060014071576,12.137749166411641,7.737105178377532,-0.8818865523882558
15.129595924592666,24.853277056117694,67.52900194106964,32.552846840892016,16.964575875139833,12.037705371755523,7.480294459057414,-0.9197964086625494
15.354401296953098,24.602867302715858,68.68440611220959,33.59530259651484,17.01674751526804,12.033369740693187,7.315460483630367,-0.9551292980581008
15.788892316225356,25.307997514643624,70.83159171035236,34.90601802795036,17.41315082118747,12.20297417606686,7.273321131192586,-1.040345496698505
16.33048853363079,26.88445667274187,73.72463035815365,36.349027028454685,18.059966820629725,12.508070322564375,7.278243790778319,-1.2289800488313136
16.758794599128592,28.338736242931798,76.37148429000405,37.66919314277977,18.57961985956484,12.763501829106566,7.161184515380747,-1.5204669599126255
16.854229135378187,28.30665511289083,77.53835006075829,38.60759314741868,18.527772175057937,12.743520543704008,6.777099360170648,-1.828945312122298
16.529425941605375,26.055898202840602,76.55863800986218,39.024723302216955,17.716636431531235,12.345267225244811,6.130569409897405,-2.0156597045846922
15.915074993025515,22.135263468297268,73.91763151727349,39.021524803899354,16.400129707333633,11.68398560812748,5.406816091512574,-1.971278487303051
15.375693111435943,18.278719026684744,71.31683831203996,39.024039746734694,15.224448644718667,11.071303149576027,4.896826873893932,-1.6962263392514858
15.42041980561704,16.776129738476683,71.18493730179067,39.71656394903933,15.002156107544979,10.908749767180604,4.87208375507267,-1.3349196800322831
16.464528721110604,19.56329289917367,75.63810259965577,41.71618677169356,16.361699296814763,11.521866107061436,5.445384213576754,-1.1467452105152163
18.479226467173547,27.02183517928135,84.9896913745193,45.064020871706866,19.28853646794965,12.93401189608729,6.428917250109116,-1.4084270563913048
20.72098588929651,36.722852040815425,96.39176291589597,48.83590648591756,22.713697022779296,14.647436714654463,7.254629091144897,-2.252786150622966
21.79905131926098,43.09468829962492,103.71763173048313,51.212578744490024,24.525694002826526,15.6204094844197,7.091801051949291,-3.4944375536598695
20.18970349632838,39.14706210003666,99.54964127788823,50.11105615923746,22.323508897806676,14.614898411124885,5.231098268610032,-4.558476921173901
15.004105646779749,20.127942763477094,78.83967873534085,44.127571547270925,14.734997482881292,10.847363085298323,1.581095939292407,-4.633572455947554
6.59112837264684,-12.886103256312488,42.3140500472065,33.325545915260335,2.5463268790083275,4.577497892294985,-3.064937030207659,-3.0578342331649875
-3.405636291568587,-52.13390956115695,-2.668247650992106,19.445941466255377,-11.208831342783252,-2.791778286499175,-7.265255755698815,0.23346987786264767
-12.625153087994681,-86.22229179046612,-44.77546943871351,5.383960519227608,-22.465993742188637,-9.24840403504558,-9.614332662781644,4.475738870054036
-18.927094190966844,-105.59382796171487,-73.65844525429922,-5.865259387791897,-28.045204975236317,-13.06111505013024,-9.481644657205138,8.26354039640245
-21.215071928544155,-107.13602394764628,-84.45837246307379,-12.315888246306775,-27.15186223224515,-13.510711792602812,-7.336709603881909,10.135147268679532
-19.754546054094263,-95.14873871320113,-79.38667415996686,-13.655177973201216,-21.594315099450903,-11.076854512354878,-4.459559943693704,9.276797336515736
-15.900908327652315,-78.31610814965092,-65.76766255266332,-11.203950576982669,-14.67564148883912,-7.077859883381402,-2.251134088999998,5.959992113149537
-11.455852547648464,-64.91335799241799,-52.05436448872143,-7.252515231036528,-9.52639894234298,-3.089580627767646,-1.6037866866522181,1.4478891692733993
-7.978364213981139,-59.296959647353646,-44.20163425015662,-4.084989119302576,-7.857620177241738,-0.4891486366343986,-2.6792933218281605,-2.5919241239748234
-6.2952444816159625,-61.29140776977931,-44.00691327349073,-3.0866845690391758,-9.645792603749102,-0.21584960905423425,-5.08902321374441,-4.845210343660738
-6.328647195991732,-67.82427708917348,-49.53908819931182,-4.294891564500869,-13.592499603654261,-2.614965437023562,-8.206374302467369,-4.882170332249081
-7.270558367103459,-75.04777746130759,-56.80617998631936,-6.590767605340844,-17.88406074364713,-7.2749219420935916,-11.375156915825286,-3.2318276321469876
-8.043531883868923,-79.78703792134567,-61.73735859889656,-8.427876657088856,-20.90121196019669,-12.987879644172658,-13.99463139270504,-1.0280752230624775
-7.854324095425394,-80.2914153179038,-61.84780201727004,-8.68819418378815,-21.74844361131958,-18.039047449429706,-15.587224556790314,0.5650116847689916
-6.560237619206224,-76.6208527794481,-57.119036084167426,-7.187793754816105,-20.513829636007433,-20.816964943889833,-15.888224623313954,0.8900991331589982
-4.656226628333502,-70.61539561189016,-49.78439984999497,-4.6105328684151505,-18.145028467477406,-20.45357342504664,-14.89708822571374,0.07028765187684563
-2.9328527454486926,-65.23601838057981,-43.159606351133625,-2.028082754758687,-15.967465617286525,-17.156072541985385,-12.858716158570232,-1.11142382528616
-2.0532576931886135,-63.48513660363265,-40.19245891646941,-0.36110604801530566,-15.112999969948186,-12.107426672005856,-10.233156715411782,-1.6848525571192174
-2.2835225162254242,-67.42885156614955,-42.45297495977776,-0.04422605367050911,-16.164685401898286,-7.039696755161418,-7.687610175378261,-1.0693054743809667
-3.436205384063121,-77.49495591555048,-49.736734478382814,-0.947116240044436,-19.060980521946654,-3.641134762304881,-6.009095587248145,0.586610347975919
-4.950576768601884,-91.7614044505984,-59.95617453871403,-2.4885074943658534,-23.056389510915903,-2.926010261899363,-5.803452748611896,2.508569448353934
-6.042573503287192,-105.28954340405754,-69.1725707019465,-3.8822447987011093,-26.64260413146829,-4.740375696432368,-7.047755455977235,3.760905197283201
-5.926365633906817,-110.48575164364051,-72.2098277683497,-4.453518437783377,-27.67659800411697,-7.671345853235823,-8.826633761771228,3.762518831411493
-4.1030125935162465,-99.62283949971055,-64.3767704612075,-3.9092953100959913,-24.059416476911274,-9.568868309670219,-9.594462507262707,2.543495332480302
-0.6252038898651039,-69.17939809033815,-43.9846916551702,-2.4300688847563787,-14.904691633503795,-8.574050671771802,-7.967938492530272,0.6284333226864611
3.8087781605550344,-23.585961983707403,-14.271415661062937,-0.5448290685679005,-1.5502676047473625,-4.158830475371479,-3.6190151767954886,-1.331755768853514
8.02762059942408,24.620970953254872,16.833427244237505,1.1148631148110826,12.406644087140608,2.4472621136209782,2.323952640409769,-2.9281889427234913
10.79596799991516,59.34941808157935,39.5423722670916,2.044293799002426,22.368107196010712,8.764094257296083,7.692265494681206,-4.139770859254533
11.309396678077714,68.17660885738636,46.40554622176957,2.0103726112345215,24.756841588214034,12.259603166290042,10.319063333567668,-5.190548563083902
9.56486952070123,48.23652730293527,35.6432603614214,1.116427466639271,18.709434571622317,11.57118144250646,9.11471848666765,-6.248615436639547
6.421181129398351,7.464844094562658,11.820982423619766,-0.2119077538986015,6.497257237852734,7.089212104168775,4.569674532099937,-7.206097971264133
3.2823492325032335,-39.31186337301978,-16.407136141213066,-1.349794057563217,-7.531229709529841,0.653505401119691,-1.5556339677713693,-7.713354582741554
1.5191559765045566,-77.12704311833458,-40.18772504741037,-1.6990100502024454,-18.882431385169543,-5.383091578548688,-7.117685521270354,-7.434424152669938
1.9003867010387392,-96.97189277662157,-53.98248361928646,-0.9154908316375576,-24.72230503615506,-9.189066985600599,-10.534521503028547,-6.308982911299503
4.321863213916314,-98.47743706116944,-57.09469222400296,0.9948214028328053,-24.716150991075715,-10.097342217960874,-11.314807310637176,-4.607589639598642
7.954883025658302,-88.32747366412545,-52.760893253172696,3.7460140796116312,-20.633112568491857,-8.63892723148093,-9.995541431822272,-2.7503547598776397
11.68585324853367,-75.69958142877212,-45.67030002261409,6.908859038205624,-15.106162718685306,-6.06958985926366,-7.65663212369634,-1.0538909524670965
14.572146023489887,-67.44398156738039,-39.50199918387782,10.000175362091811,-10.331452753090645,-3.7038638193633755,-5.3600109811146615,0.395426207122644
16.09836691392848,-65.54839180793167,-35.75676574742229,12.521607553793581,-7.374421520228477,-2.3856348660904896,-3.7901919652696057,1.6778572896473745
16.19660825789994,-67.7521917531838,-34.088068300302396,14.02675342865212,-6.239123185737579,-2.274490407563259,-3.1608383861935616,2.8744371512795897
15.119406747773503,-70.21506714180889,-33.41053598863958,14.240923775126765,-6.386323344059457,-2.9497155783211317,-3.303136405491458,3.925688896097027
13.257183884579552,-70.33598571289643,-32.946413834133764,13.15087524964816,-7.293061954312677,-3.7426253404121432,-3.8558881934007747,4.5807688947557015
10.958349958001978,-68.36935342669511,-32.825013478627945,10.983558587371267,-8.83559580639752,-4.17598742722019,-4.522088234271923,4.446153726686803
8.423748792253873,-67.39672068121772,-34.15846000345769,8.112014530591525,-11.408460248486614,-4.325745002504226,-5.302712671300153,3.136030170697123
5.75759445957122,-71.671307179126,-38.45401579907791,4.99689721364408,-15.661843575434132,-4.857005887354047,-6.519124852383458,0.509618839386631
3.165279137586577,-83.66300097803104,-46.29344062839564,2.181407161566598,-21.80248134086978,-6.586669879159493,-8.490975690992292,-3.0988327611686706
1.1290200066698615,-100.93916909463096,-55.81543131661321,0.21972809570728538,-28.7527316528923,-9.747652111889867,-11.011111026062622,-6.828418941304426
0.34205328719348554,-114.94806815769316,-62.20801146326596,-0.5578092252463256,-33.83839011155877,-13.45387519811332,-13.031401623923964,-9.540952902224385
1.3519335664721341,-113.49829434454664,-59.21221943337989,-0.3334535460596302,-33.57401616117111,-15.855740092169214,-12.93692691574106,-10.304864408107056
4.133064899438002,-86.61309706360326,-42.31412022570906,0.12934047956199887,-25.39840888911845,-15.040811579448086,-9.385481842357684,-8.856849368257736
7.924947343980261,-32.741850009931504,-11.817109495383075,-0.18659017382329915,-9.388746225412142,-10.173528857669876,-2.2197427999024666,-5.7578351018732885
11.509919503375063,38.69133553196719,26.33384258797104,-1.9663574667962174,11.226083561665952,-2.130080197582966,7.183340222795636,-2.133562693518278
13.789336520887675,110.56469497909545,62.83163770799128,-5.105773302551757,31.26382719871481,6.821971953534833,16.43010728728345,0.8547718967580068
14.301353491012483,165.70265003139886,89.24095885898257,-8.719534495063723,45.9101646665057,14.12825168930565,23.22378047720558,2.505951055290737
13.364505688290647,194.55777007656758,101.72999102221021,-11.631168651275164,52.827040692801624,18.159465088504415,26.405010646088897,2.780431610131688
11.789099916206705,198.53447394772988,102.16653164709658,-13.019447236265835,52.84985703821481,18.81593839988165,26.315803959174243,2.153250665033586
10.381797643992467,187.40121945612142,96.18603917082507,-12.796069475623186,49.00571167167658,17.25225674192495,24.352999754456718,1.2730224888612305
9.571931607368633,172.99685220225027,89.74963959434581,-11.506072720132961,44.640697456919646,15.032899452412984,22.09356460469016,0.6517451128322403
9.346914554145537,163.40042339596405,86.40542056561875,-9.897295891899061,41.86511697797423,13.321274109937416,20.56246097346067,0.5205943482540858
9.436679077333041,160.6438631791264,86.56674593926732,-8.505593823670594,41.074988330645,12.532657956594122,19.990065945069937,0.8455659656128496
9.548601948783242,162.1714988601255,88.57045158102616,-7.504499281095627,41.46778840190048,12.470432885935933,20.022663512172485,1.423077327827674
9.507110037550556,164.08351615080247,90.37775886100344,-6.8095462061828185,41.94874255744509,12.687439972947294,20.12658241371827,1.9914834771229697
9.28362824863827,164.02459987699504,90.9312388572266,-6.266114837555763,41.8750716318552,12.820616538324064,19.9496937837339,2.3341569168780656
8.962540087014098,162.58192441041686,90.73601798563949,-5.784188316699733,41.38934858791178,12.783251864436906,19.51702482297328,2.3581715605551175
8.664053995921568,162.84498044110632,91.52584295440242,-5.3891844941704194,41.27503698675496,12.772092334989093,19.19696630088267,2.123492481941279
8.43514447231288,168.1622975179826,95.01519554629527,-5.191994885576339,42.34816953938875,13.066634253476888,19.41960373383202,1.810608185818328
8.16981454081878,178.87724810948092,101.188356374101,-5.266402769408801,44.61400302150288,13.69287797684093,20.257713725475416,1.6470763875663743
7.648211050903732,189.97168068118978,107.2017490375166,-5.470370280859688,46.723606447551525,14.18031145862214,21.139872720558042,1.8259191826821772
6.705773034862467,191.81262212358612,107.99476358057079,-5.353560375926603,46.27791621006918,13.664814364351331,20.963510727253855,2.4295984590397497
5.411745530144938,174.532963450267,98.68683107295402,-4.305328009245032,41.0172384875716,11.362138052174187,18.63005959944091,3.3619554143199664
4.098067548720855,133.843472786975,77.44837398398307,-1.9242485540305725,30.23025523412038,7.118191192216544,13.70558952133798,4.31891587901641
3.195899503303648,74.55529501295815,46.980930540556855,1.6371846617577006,15.441554099629869,1.6366440843495933,6.79021141293368,4.8618290026018185
3.0012217916325143,9.26673334804385,13.568567463109433,5.644255982761702,-0.12663030029886058,-3.792871912784549,-0.6425326763136321,4.624401260646844
3.545977870174925,-47.231731514336175,-15.754450667139643,9.143140495157905,-13.007224713102485,-7.8851184137617025,-6.848627875166197,3.5736615239663934
4.652307779097636,-84.52901942422652,-36.20379873745008,11.48389519644254,-20.96905778823766,-9.893154154850205,-10.531075281144041,2.144391835627646
6.0889857001915395,-100.35792592960901,-46.723295688520935,12.63150875828249,-23.69765974304303,-9.810226197794364,-11.32393715765958,1.0880533691876182
7.668588097448477,-99.80709687342569,-49.388326981523335,13.036720846612708,-22.454391791781603,-8.238777060822033,-9.868033700214072,1.0469987759048818
9.194816418442093,-91.23858188931645,-47.5548684486756,13.164876781439647,-19.164673408057332,-6.130477430300937,-7.52515168232074,2.080305771295523
10.338665101482276,-81.91429778514983,-44.15008650465422,13.048849091256763,-15.611322564468223,-4.570950734845334,-5.894431638308691,3.4662729678740547
10.627707397295925,-75.72072828360494,-40.96231918191643,12.224778018525255,-13.081690224195963,-4.589610836541716,-6.277827655336047,3.9854687835084937
9.644985642310909,-73.35550044833822,-38.82000866080669,10.114014031644848,-12.341100341710074,-6.873087860592625,-9.20603195356119,2.593348838756608
7.317449114742704,-73.81912407837235,-38.06510586308164,6.5658791496049185,-13.654111747435634,-11.403783674947181,-14.172997959552086,-0.8884380733582403
4.053167580901083,-75.94708169649236,-38.90682359192102,2.1643999025692624,-16.779085005171257,-17.27291059883266,-19.753393403839297,-5.490552887947007
0.6008055267151708,-79.33265192569948,-41.549864520174154,-1.9027843832999285,-21.04663916638305,-22.918143180933882,-24.14135535480728,-9.428455813656612
-2.26399165222721,-84.35884409226477,-46.04092934275215,-4.321284761139176,-25.54926608533185,-26.73429583311825,-25.878323902140203,-10.894408451821104
-4.015552590986486,-91.21700927800977,-51.80263332851378,-4.229781620275783,-29.3007199452244,-27.69016226356667,-24.377772149090152,-8.900392523756928
-4.511330768047884,-98.3588692856424,-57.147393030259025,-1.6811857333146736,-31.27904710660948,-25.589215302942204,-19.99758443549579,-3.7580673612196507
-4.0222431412703035,-101.66540845477734,-59.415762327614424,2.1810504111559177,-30.50809197881903,-20.927384545281306,-13.742642804135174,3.0109941509235507
-3.211289708430477,-95.6457652263364,-56.14623119215004,5.3686409798271635,-26.40057304794236,-14.594007425924655,-6.884786417916,9.269796111543652
-3.011468984472958,-76.59222104764385,-46.79263492373038,5.74992152852554,-19.29795234649337,-7.660639793782259,-0.6997005367909375,13.09593037779499
-4.3278614242258495,-45.76819051830849,-33.75120614575138,1.9929104969653475,-10.778107454077784,-1.2771049855271104,3.7042464365541186,13.499977253266351
-7.623102911796303,-10.142990353503675,-21.685540871729764,-5.711783769370752,-3.2973797896862216,3.472819636406577,5.584895570955952,10.742315602714164
-12.612241748622422,20.35818014459067,-15.292787198425394,-15.602686437397285,0.8248085212863687,5.847204117618471,4.803022153557706,6.131969325195304
-18.300601916724023,37.69318723113404,-16.817803681806012,-25.083052550847604,0.5412906793730042,5.751544597809199,1.9504676819235924,1.4199491542879232
-23.404217511714787,39.677564160120134,-24.884643230384434,-31.87618446730669,-3.382376302724468,3.8452545632323605,-1.7985781861555699,-1.92135439850934
-26.938699456611516,30.604839153206818,-35.39466287206551,-34.970696427944134,-8.808622887525615,1.288070340468679,-5.1325549484773525,-3.207165672652007
-28.639736346450402,18.226460321220166,-43.90186564378104,-34.86056706482119,-13.408778430901927,-0.798480125699259,-7.1507914104770816,-2.6415785415276942
-28.978997469333382,9.230087667004819,-47.922014595116586,-33.027996515672676,-15.84358648839636,-1.8467863033896326,-7.708232688759973,-1.032066625540517
-28.797661656090494,6.199546094737678,-47.75874002959859,-31.06126034428505,-16.2154969856573,-2.008024486425772,-7.347429144585131,0.6808317407313511
-28.815176858697622,7.648738544806509,-45.57074495258183,-29.945078260139223,-15.61279016956445,-1.8831190673735514,-6.87573855820337,1.8287466099999659
-29.315423373972262,10.34175033674161,-43.63746007807452,-29.845208376419098,-15.20709476105933,-2.0478594992704084,-6.877628472970579,2.1992602926859384
-30.150399300832916,11.81222938192931,-43.09631210865438,-30.347430716680023,-15.56533856155826,-2.702768564493764,-7.454594693748196,1.9928787031858393
-30.982101872280168,11.594416700066356,-43.72414693556718,-30.887243772079753,-16.504078639460307,-3.6143521755245804,-8.279287098695715,1.6473508958352694
-31.573754820854795,11.054095986158615,-44.47588368654526,-31.116591875496106,-17.369502434932333,-4.292504682599265,-8.848556071944197,1.6276723850626684
-31.974309740394965,12.356558138638945,-44.25789531643336,-31.075607611241693,-17.483721386708833,-4.276621255797494,-8.780973050729177,2.2352774804088362
-32.52398032076866,16.930229025091936,-42.6727408224742,-31.12902685371002,-16.608074424131424,-3.4480169139572823,-8.068770818819988,3.467226861167582
-33.670154330497134,23.815099213129262,-40.57305162024525,-31.687667989593567,-15.304574325439301,-2.276388438110048,-7.209672703206739,4.970846401257983
-35.64474112619413,28.900157080440785,-40.04536229253128,-32.83551675744278,-14.946148440475664,-1.8188281277716138,-7.100254462872509,6.144435246212158
-38.15293523803434,26.236250990034794,-43.466561921889465,-34.09457949173564,-17.140434925053857,-3.3085250908263215,-8.618959540591483,6.387405421621347
-40.30024196458718,11.379875518654025,-51.93539167240013,-34.545648911718,-22.720261993297438,-7.428723607335134,-12.042362311494697,5.418170145580478
-40.916181321186535,-15.20243093379727,-64.16772413872177,-33.314350177195465,-30.944540009990618,-13.698289042014569,-16.663261307223298,3.5120275167785704
