FZ,C3,CZ,C4,PZ,PO7,OZ,PO8
-0.9593737718870108,110.41067563829547,84.25396723155377,13.939373781645319,40.07011157277878,18.3647237912475,21.094087787401303,5.942860595435789
2.4366907523312897,258.2853997881159,189.37107116597093,7.952750199736822,89.63845819006202,35.054031539653735,38.25149861547758,6.577016949120198
5.043407735917451,377.05864204340514,274.0030324207286,3.205714168125557,129.40821699858836,48.40190353011417,51.95906371522391,7.050772192721224
6.402375242553673,448.59575081847004,325.3675925821458,0.4942690485244355,153.28755095074368,56.34688634485623,60.09502574992632,7.278605800080862
6.552207604524422,471.41961686186767,342.401270982797,-0.044093655068508535,160.80524065784715,58.76426269156301,62.5429673010121,7.28392396542261
5.934220887225863,458.70867769966577,334.35495216081637,1.1128163808774592,156.4203266362139,57.210953316210315,60.91972367918002,7.1701839698910685
5.120577440101597,430.45294998699563,315.2898188931708,3.143739453170617,146.8640285473907,53.99161393547516,57.60378758838775,7.054280551094915
4.5399659499962155,404.35746295661266,297.69006431242576,5.243639674117471,138.0754148128276,51.1030253170671,54.64689912722559,7.008780432436715
4.349145979302123,389.98032753786634,288.3302732633043,6.909398055747045,133.24300305516806,49.58463166138906,53.11148963217047,7.046302952808562
4.473915045204533,388.0092824301991,287.73792913605234,8.038773865669592,132.57837122322135,49.47317314372134,53.02937475204628,7.141642943423563
4.732652098590891,393.4678763334191,292.4264236241275,8.830533407745218,134.40006784510783,50.18864914620582,53.798556487287854,7.261194081018438
4.9461401331423875,400.03957273588685,297.9416053445091,9.578131124563795,136.58214459413648,51.017718101191,54.67800547902363,7.377042183766893
5.002534607872151,403.2007462090289,301.0870400393771,10.490887438571079,137.60262618579836,51.45075568824889,55.13595134129285,7.468635207581009
4.891756391973868,401.3995268502604,300.7627374566599,11.626307933217591,136.9420699930044,51.31013006283988,54.9874877926173,7.525556080232333
4.708258364736194,395.67085253618563,297.68356409849787,12.923513289312437,134.95717438324934,50.714069769146015,54.36074965743408,7.552635663310061
4.599002650044961,388.3809442420361,293.488094942434,14.273726048493986,132.4541185064526,49.936656269899075,53.549772680631385,7.5669885623927025
4.664787847577606,381.7552680466573,289.7201050430058,15.580185898451658,130.18468162422943,49.23222242780934,52.827575678860306,7.585070407954879
4.880762512903202,376.86976901622,287.1483995509088,16.799790552365142,128.50491619475434,48.717459881759964,52.32090947808475,7.613806789299459
5.105021064022382,373.6149846262392,285.7482266100895,17.965882480377704,127.3709327936544,48.381424807556584,52.018835093273644,7.656990622303263
5.172594265574646,371.4816402653694,285.2233568497747,19.172906147573766,126.61043207107902,48.19050352386288,51.87737776580092,7.726445831523732
5.002202512251795,370.30750027523584,285.48850643565663,20.51067311483664,126.17056453696966,48.16265723191887,51.89227612422366,7.836676937444555
4.649424869510801,370.19085028866584,286.5872528254986,21.982828847861427,126.07992246741179,48.31972323197506,52.05479082088225,7.980958830393162
4.297822269804852,370.70297584332314,288.14569613761984,23.478033172384983,126.18362651175285,48.56863921127681,52.24852066418055,8.114922979879903
4.205582309284466,370.36638358485556,289.0272438857206,24.83118936428639,125.98046091824861,48.65681184115722,52.22742276496577,8.173861236069245
4.6006257199708305,367.17899554037183,287.7335940812874,25.93829426620984,124.81041843421959,48.285252283776884,51.74059318676792,8.118056462664102
5.516944068646713,359.973003576601,283.41498790988214,26.846528247433127,122.30630185451767,47.316021761761796,50.724422350090414,7.971942895714311
6.642345273817577,349.6627540289648,276.81377108076464,27.765748278187868,118.79424254294635,45.933488514478924,49.42359711192039,7.827972629298995
7.330980719771156,339.5567226094782,270.5027258849901,28.99692373087793,115.38353889651563,44.66103545762693,48.3627323173088,7.8130812163164505
6.892771327873643,334.4458897959891,268.1508370185554,30.795798821556215,113.66075545740081,44.206847980679534,48.16757658550947,8.031942577446301
5.084966725387567,338.518045023782,272.85653359728377,33.19753409606826,114.99968395462953,45.1441195835949,49.259704830551335,8.500106424467305
2.539994093471064,352.44362553933496,284.89337095769775,35.86530491015084,119.59399601712494,47.478504068211656,51.4842084577007,9.085758572976152
0.8347170982038367,370.74983222726945,299.78906182045296,38.07907796487144,125.58899238452543,50.288106278433816,53.84440677355462,9.500577488577365
2.0670214170844257,381.4895435940404,308.22232459014737,38.96211278943995,128.99106299832226,51.745441520614456,54.61446533269123,9.384144144408902
8.04479193540633,369.8767513543872,298.88015402869974,37.89798387670225,124.904059964057,49.7342527508558,51.980510868207816,8.474674282294279
19.386366419677643,325.25054019446765,263.7146122159801,34.90365943901879,109.84877901236759,42.89134821184361,44.98808394821893,6.772755782890301
34.91751190561289,247.7410378804238,202.91197150018087,30.670528049605046,83.9320762470752,31.485077471727593,34.2171287131418,4.5657498460900765
51.69236212281188,149.99760047189775,126.19534339956323,26.16673261452863,51.33851917967201,17.48123373488843,21.632426557998507,2.2531886347147547
65.75088601135235,51.88012493985744,48.92435065084552,22.019245892415775,18.51253412542418,3.611403428050887,9.56877069448917,0.06984048909683212
73.426926785697,-29.165069486139924,-15.072603616178457,18.12433076451517,-8.986960968092319,-8.0160352980156,-0.5147212922397129,-2.0735959014968643
72.78132330960085,-85.73703118566007,-59.384982476018294,13.854788306199366,-28.837417979033486,-16.785267215430434,-8.578543187606492,-4.444758196410419
64.63220394206687,-120.63865170950527,-85.58142506379828,8.825399490037244,-41.764359817358596,-23.230544619635417,-15.336244279721937,-7.064817587322042
52.680463034871394,-139.44561852920157,-98.14950578932292,3.6958446233800655,-48.94746333182087,-27.710871461726978,-20.817451210481856,-9.296702025373367
42.426813803446294,-141.55558342556273,-97.95503639801022,0.3210648789782433,-49.20950897855264,-29.213471139951235,-23.358413869063106,-9.837070438757047
39.042042023018304,-117.65005270868971,-79.8793747518671,0.9206226188085708,-38.64630547190074,-25.45080937007125,-20.075506457455308,-7.295587598858737
44.981569029137525,-56.86701292044827,-37.24096834670097,6.6381229773684485,-13.582383681734447,-14.4656782660267,-8.804664869089597,-1.1261843034916226
58.5222715686422,40.8807257970428,29.889452216128117,16.390873193568762,25.022509413701425,3.2889331074575168,9.721282994172011,7.661485313180151
74.14116315530474,156.80053947767416,108.92145645978637,26.84572260836505,69.10078876086277,23.95939416167301,31.059296517281943,16.557254363139233
84.77042894894737,256.48001811960495,176.65591655196704,33.708311672529,105.293050582635,41.32329253470019,48.416810100121815,22.496597393763842
84.94136442577121,304.0970339418955,208.8125356645579,33.705462924039914,120.56667546733208,49.44716971067008,55.600834100384425,23.25967310020393
73.28408986323932,279.7655281569498,191.88621057186757,26.191769314380053,108.55396083692845,45.49323796957497,49.935378420888306,18.559168157195543
53.11691524647712,189.9553665353314,130.36453704527818,13.49019600874149,72.92983711039719,31.075113083401785,33.51230714040591,10.189770833373268
30.817887674556946,64.97923790750335,45.07953628766456,-0.23303281334436154,25.85205388336729,11.423149792578771,12.107453919204959,1.1359126138574336
12.817328725353905,-55.01011747263362,-36.39116061090398,-10.95963303387123,-17.68404481683961,-7.1290319371073565,-7.59282137457963,-5.875303746100711
2.762805634447966,-137.84665802713172,-92.03505138495686,-16.61825171341263,-46.508090913501114,-19.949808999173094,-20.933979117649077,-9.587088320112565
0.28559810234187183,-171.7238387000488,-114.0150925237457,-17.763956104432328,-57.48946070852892,-25.77335914395653,-26.901499548277858,-10.559533865714801
1.891203042679932,-166.3598047873676,-109.51683851333176,-16.852429367571148,-55.356507420729656,-26.513720447591762,-27.721118818719997,-10.524919026063627
3.3099746122030007,-143.68352935600348,-94.21171400912546,-16.61017804753678,-48.68937918445981,-25.56507124785437,-26.915870560205917,-11.180371900558614
1.880459589150808,-124.4598858102874,-82.73886778182508,-18.47470475708337,-44.72509028653211,-25.695804688754702,-27.08655237495725,-13.132814425914662
-2.335499051005534,-118.72370099465931,-81.79451406235587,-21.95633583202752,-45.991014392374744,-27.711219848447268,-28.688060974390165,-15.583311200658338
-7.115375686645439,-124.35154129041966,-89.07454739678441,-25.160130912156525,-50.28122413033205,-30.43695780246905,-30.31531760842457,-16.885949783931174
-9.717878200924899,-132.45084904247238,-97.29612478156658,-26.02828345796173,-53.262607387104204,-31.747981945490196,-30.04301451797247,-15.609997514250631
-8.53391260181751,-134.7378870780039,-99.82756342154035,-23.541371149409834,-51.656603782630455,-29.901577585797238,-26.847671687288322,-11.46608481137833
-3.900536347666101,-128.54950995232986,-94.59385166424461,-18.263997354387712,-45.17929408993621,-24.500156264788657,-21.312068534013292,-5.567763607151595
2.1772243754845966,-117.81949137706913,-84.84862183141902,-12.043304741435882,-36.57878404468846,-16.746990227243696,-15.364000567795735,0.09803403916136927
7.104977274836935,-110.47811595332972,-77.12411217003594,-7.09971351181912,-30.110170993640363,-8.961195383840701,-11.296845797851823,3.664962373767839
8.974703156024178,-113.56912572719534,-77.44472329709753,-5.015837007184731,-29.242160397572658,-3.547240887478801,-10.58676039792215,4.267088248882187
7.385168208441774,-128.04389780698767,-87.35270314154425,-6.149521503903649,-34.585105864642784,-1.8535892448017046,-13.098751685248223,2.315592951601889
3.3867947392191846,-146.0867596552463,-101.79937210498328,-9.749486561944396,-43.11702919906639,-3.5153389067271568,-17.14440618228114,-0.9385893375174864
-1.387237962578521,-153.5419177860479,-110.6909031361496,-14.6343082903821,-49.41689492248214,-6.719184630449041,-20.446860407966653,-4.236582746660542
-5.83569358320064,-137.35712091364093,-104.06104473897835,-19.948509709759684,-48.5639747551654,-9.308426517638237,-21.510227387279638,-7.006970665093336
-10.006802914288823,-94.23908832460869,-78.28621293126581,-25.482324930028568,-39.16840383791071,-10.08429910185385,-20.562275771612686,-9.521697877602081
-14.81226082738368,-35.01652772997889,-39.518135798618985,-31.37779864864166,-24.65191482794477,-9.498871147044811,-19.455380598311176,-12.474822729902632
-21.06615975939507,18.678444262753896,-1.8642292932736495,-37.50801730671515,-11.841116650581052,-9.32018121433691,-20.569991088790257,-16.30943161344711
-28.54745108616079,44.184322886517485,19.01993043342435,-43.062107134928674,-7.565438245728799,-11.50399105999814,-25.396142698734668,-20.75344617171786
-35.75913715732216,28.86107296377291,13.496068203014795,-46.713313833931785,-15.15378908591637,-16.978745858809138,-33.63792921043225,-24.861919022778288
-40.581084832898526,-23.590691115209726,-17.43322801345897,-47.31183600486685,-32.76160279610584,-25.060751171546105,-43.326848434048884,-27.525111924761838
-41.42601347111211,-94.91958210977371,-62.84526606373461,-44.64751611694137,-54.3844236611948,-33.80009776288017,-51.81870146983288,-28.11076405888871
-38.1845160421992,-161.1306437437451,-107.39050014365709,-39.74709250310021,-72.90053838820924,-40.99351527184356,-57.06218210565747,-26.83630670912367
-32.37089844353018,-203.4645243102039,-138.45068895878543,-34.456871561172434,-83.40607290916543,-45.23163916658767,-58.426120784310505,-24.640876057179018
-26.367315176582636,-215.75685613561097,-151.14906876999567,-30.52107460720372,-85.05691300108485,-46.384718783305466,-56.686650868169856,-22.63758015919387
-22.20926780931453,-204.72192128835005,-148.85322656128253,-28.69973310421527,-80.60470539166718,-45.32982781347249,-53.30235808707777,-21.49016364719908
-20.628791717754662,-183.91877707984597,-139.53459814981713,-28.46265969269419,-74.20797521489233,-43.21913097235128,-49.52149981705832,-21.110519937776786
-20.89914145045972,-165.6843293494545,-130.68576106065004,-28.443017136322226,-69.04891230531534,-40.84789930979683,-45.903978218219294,-20.86273819183551
-21.5078917953839,-155.8917952280627,-125.95063357727963,-27.353120763071992,-66.17662579939054,-38.51672826384047,-42.469595239601276,-20.108101973134723
-21.170435425654283,-153.74444612393464,-124.95850947623576,-24.780314047621932,-64.94765917269179,-36.33524678102892,-39.18704475495395,-18.68860728109836
-19.546259480864816,-155.16805986940804,-125.4716654864341,-21.397111353283314,-64.30461347608568,-34.57872148628994,-36.31646854217287,-17.02321182235206
-17.310938423966363,-156.6106676004047,-125.75825320643277,-18.53697839465414,-63.80744944163232,-33.76512420651492,-34.37091342965038,-15.819203098299576
-15.680569327774695,-157.03638855739285,-125.71196933362084,-17.466642343643304,-63.87922991169976,-34.4409199908988,-33.864172554571454,-15.679255137305521
-15.726531907214817,-157.86738419732677,-126.57511676900842,-18.7629573898678,-65.4203409447614,-36.87843186450526,-35.12015541830233,-16.86463716166057
-17.782067438641935,-161.57175931027209,-129.8321938558176,-22.022469467639688,-69.15024140428584,-40.83110434429336,-38.172463882198564,-19.230534020484203
-21.130232587714872,-169.47578794909606,-135.7969295480424,-25.941784178093783,-74.88635638444413,-45.36680001497182,-42.57728728098148,-22.19498091362833
-24.12580440065129,-179.5272223953799,-142.41707012847672,-28.741785731511186,-80.98708950247779,-48.845556610244465,-47.13611419982402,-24.719986456947346
-24.83671583044908,-185.49361183272535,-145.13945224040978,-28.86605217033409,-84.42745773901578,-49.24441764366814,-49.88652245989393,-25.487409234720563
-22.03201834794608,-179.0833083641764,-138.5660964626784,-25.73153938118085,-81.90863742005483,-44.94610646755245,-48.74020713712713,-23.410332011667
-16.002056781541203,-154.65036591257365,-119.50138261615704,-20.138242109133365,-71.7012332342777,-35.71089401720653,-42.62751594094084,-18.28780658636466
-8.62894101772533,-113.64850068955475,-89.56878021602037,-14.003888629921347,-55.09702373306827,-23.190438445851914,-32.40374531163223,-11.134052817255565
-2.532110785789462,-65.35520791867586,-55.34609356176963,-9.465004152942544,-36.292022751686325,-10.461666487719427,-20.741078637549805,-3.841775087670819
0.25479721215791784,-22.69402738597969,-25.49060468852222,-7.826475598689025,-20.50484594017602,-0.6812311818304713,-10.905560506720022,1.6886634304976067
-0.7305681983975671,4.423726304841578,-6.497828356422398,-8.97774536371667,-11.416099589595897,4.384206217017906,-5.1537424818331825,4.419464490256531
-4.3160804077168065,13.83404657574027,0.19219545046884035,-11.594641776317756,-9.55709626942121,5.0431784016395165,-3.7834787504226135,4.514842261564879
-8.517598654585408,10.764697112458776,-2.075674576211342,-13.937656649966481,-12.643235164458323,3.160080715130096,-5.405740746814391,3.003097280205169
-11.652240026760152,2.8339803494728524,-8.197469554365808,-14.715531746061073,-17.499581847514772,0.8047095717301285,-8.141150080593595,1.0624558760171912
-13.036671151087823,-5.783742399171096,-14.755262081921654,-13.53109051746866,-22.141820887263705,-1.0133794764447708,-10.833452596609206,-0.5745314732071899
-12.941969747552566,-16.681296603802036,-21.396937689709063,-10.783537050600332,-26.564176526222806,-2.7077483000704894,-13.452529002321494,-1.7637553743732899
-12.027928717350454,-34.535557376744364,-29.46132798091574,-7.265570360708213,-31.867626516446144,-5.429696526568634,-16.542475125749682,-2.6645056628162145
-10.780154825024752,-61.925648157313255,-39.438976185096436,-3.793350403539841,-38.66990933180421,-9.932751737350163,-20.3022882308055,-3.336076554156882
-9.33011626265864,-96.01488045795962,-49.68053797399975,-1.026417798840364,-46.199939189550555,-15.844413795221104,-24.099212646792502,-3.550421402140309
-7.638965994566967,-129.7025289388371,-57.46919684622042,0.5996242645156141,-52.761236018024015,-21.821414604918637,-26.790870242757215,-2.944875406928208
-5.740990686108517,-156.10602654449153,-61.381231901450064,0.9614301216919675,-57.03380426828679,-26.38239920526644,-27.560056787113922,-1.3724323218644372
-3.7841075581336794,-172.61903319828792,-62.69366671117823,0.3523526292735341,-59.00729354623141,-28.746657476261696,-26.57218376737822,0.8327752785870097
-1.8764191656192766,-181.29763122897134,-64.40443665970102,-0.5546134557301847,-59.710423353322504,-29.068843754271565,-24.91617782092283,2.8945294718985024
0.025428548037622054,-185.4427530760072,-68.5003196312153,-1.021689761948096,-59.971969110735465,-27.972484670162935,-23.850991281138025,3.945454438320467
1.980276636863303,-185.4616731737383,-73.72141812410253,-0.7559794470269368,-59.32772927134487,-25.852166456080752,-23.928921623025733,3.4776913480577845
3.7390128653059196,-177.75017314616255,-75.84292325811316,-0.28641096617059975,-56.125613140807275,-22.578402146441434,-24.672854744491175,1.6056009899646626
4.547949330977928,-157.79408674802227,-70.52774437055416,-0.8553357881036927,-48.88688688144153,-17.854352341255684,-25.04603657687129,-1.0227312240721804
3.3686611109984526,-125.05886194380845,-56.70565711087234,-3.761768344754234,-37.88436913165883,-11.87706812177484,-24.32433594194901,-3.5920619894363104
-0.519946507460666,-85.63587206859603,-37.95967787477139,-9.509342954282886,-25.64708086906233,-5.681508735451478,-22.68508759489574,-5.5159564137778965
-6.920892200807684,-50.327737162180476,-20.882825576845608,-17.313137514178376,-15.900019323904607,-0.8178306174153513,-21.086478378693087,-6.6240994596784875
-14.56499840852311,-29.301788159014766,-11.524866404678171,-25.318476624084347,-11.608121049146861,1.439394947284798,-20.574841355925237,-7.078204188758321
-21.56437741268604,-26.843419847151154,-12.237599091590075,-31.4237856957344,-13.406630504764495,0.7957030776596262,-21.561486168706153,-7.145443078978413
-26.230817846225634,-39.48010139103926,-20.755365522634154,-34.219820117078264,-19.379714058565135,-1.9116913751738434,-23.576005995736516,-7.020329861205262
-27.78851075622833,-58.29950284517646,-31.750108896535615,-33.517052967417236,-26.211248829855865,-5.168939902379345,-25.609220701147734,-6.795475517659502
-26.60103627405309,-73.580248444088,-39.58341354388244,-30.230983597813207,-30.876126672147883,-7.504787121107093,-26.73915983850373,-6.540833808824171
-23.857351461964072,-78.84364725842985,-40.582261693885236,-25.802621618907732,-31.857278681920913,-8.044933541310753,-26.604248536413895,-6.37990183217869
-20.979225912482573,-72.61805222914285,-34.00443547571503,-21.56305363521532,-29.412409908325312,-6.708456623109489,-25.495969660474465,-6.482932925704938
-19.097698073700837,-58.17576098142814,-21.983523871437317,-18.36933897552077,-25.127081337736605,-4.140074946761582,-24.142198147853392,-6.973396827105247
-18.776186218966313,-42.32114057950198,-9.043677631268661,-16.55818631142251,-21.243457577346383,-1.5304595967445622,-23.368422907098743,-7.798063553510122
-19.936377279506715,-33.59071770771061,-1.1853771616875834,-16.046006389900224,-19.97751418346134,-0.32245533596770776,-23.743647166029177,-8.631532175119336
-21.889205382999062,-39.47737464343369,-4.109399700778825,-16.414249767903993,-22.75658100549027,-1.7135010707464027,-25.25401419639175,-8.890665248740373
-23.48639917714807,-62.95175687698787,-20.725205228913698,-16.980413079253502,-29.465293324078683,-6.033386479507895,-27.127923191114075,-7.912311446026377
-23.48308884690719,-100.08621312000079,-49.22041134521352,-16.957044791526794,-38.17468592927632,-12.34836844244194,-28.021235783083622,-5.2674187539114365
-21.084464932059184,-140.99792696764294,-83.30179541379133,-15.73221602078368,-45.8443081942903,-18.680535328931064,-26.63994247456174,-1.0661249061285525
-16.42751616431406,-174.5085114445887,-115.03140450086583,-13.152083839498005,-49.883336346563006,-22.893776785741792,-22.54311611278252,3.950828971639425
-10.662207055224107,-194.0296603027957,-138.73917427662138,-9.61943051034777,-49.67861517309236,-23.8041298049111,-16.61192289203916,8.649668989720931
-5.482572798837168,-200.67297509539839,-153.41075703712002,-5.920789263646477,-46.96329133569474,-21.81143422279569,-10.762607822176358,11.980235693519216
-2.3116765051772115,-201.02402719328543,-161.7914222345805,-2.8823878818535955,-44.53990814999254,-18.567374860576905,-6.925556108373351,13.433274471900942
-1.603410385561422,-200.7549351047352,-166.79781297846893,-1.071227500956709,-44.03591718919016,-15.810700304899058,-5.834991977051349,13.223587767176152
-2.680461205385112,-198.64008149133227,-167.9713279166097,-0.6990712261952557,-44.230531358729145,-14.117700092282591,-6.406374012154243,12.113803775939278
-4.193549714600972,-185.76717153338103,-160.86111974827418,-1.7088126215886321,-41.30482806102172,-12.454700790175472,-6.196706029826724,11.000636037125144
-4.896736686592208,-151.16754422144157,-140.07336705953122,-3.89241037423016,-31.101417413695717,-8.897722746383064,-2.765069141217544,10.499356392638617
-4.26315501717827,-90.2380468618075,-103.87491729904811,-6.920118546178073,-12.002693904064797,-2.0472776451727963,4.871623849148043,10.733622386703072
-2.6133270245193905,-10.007282819203969,-56.95805479516599,-10.29851390095027,13.507975414990032,7.845839335964501,15.592446405474064,11.40299553701585
-0.759213309265937,72.62618169753819,-9.245583577547908,-13.371858054899064,39.69632741579724,18.816473713490524,26.726638120957144,12.045049459367862
0.5505808693863383,138.71939148057635,28.60543391024123,-15.453222360901428,60.32854828232514,28.197212820270963,35.43649669262363,12.319427027624108
1.027449560804795,176.22882780374587,50.14757831090753,-16.05793680032326,71.61075891595674,33.999989532483475,40.07353998076994,12.158675269523107
0.8810654453193056,184.7185576133306,55.55976457150102,-15.109867821851129,73.60407490823152,35.78935628389036,40.750253860052126,11.732968277162735
0.562415112236536,173.62822535342056,50.42815756484712,-12.977551323194845,69.51386569785855,34.612168009795695,38.936602207821174,11.294154698693065
0.45216042394996253,156.11063890340674,42.16303238245996,-10.292586559613554,63.615055175419684,32.21132685675037,36.49855895909259,11.02255079612169
0.7035206357587889,142.69895324985995,36.496090856484905,-7.650946582254871,59.225411770396335,30.12794445036526,34.82544869865717,10.964758446050807
1.269977847665649,138.09480185722433,35.83128788473199,-5.382404065261583,57.742529705078304,29.180955928272507,34.45581029768691,11.063643969698987
2.0079581156889894,141.56077810310308,39.59223627834505,-3.51219867618489,58.83207922517529,29.42570844118425,35.19169943647097,11.222399694075218
2.755510063562463,149.2831510130597,45.581496496999506,-1.8840414843404378,61.21238870166776,30.407184083032533,36.44596774695601,11.35317704305729
3.380203273544869,156.90255484655324,51.37030317981615,-0.31176100207588836,63.470178584383504,31.495977540754545,37.595240994954445,11.402614146064652
3.8252260994680998,161.36274470714247,55.302315353263616,1.3381873484766786,64.65130112625916,32.19063833113963,38.23979370894779,11.364964654816124
4.136917828794388,161.86534970784663,57.00820592258265,3.12893164966588,64.55341051159515,32.31327785468991,38.326996683337455,11.279952612067476
4.4288647824983265,159.75426914536266,57.3102521531483,5.051869715605586,63.6570856921698,32.02408536925866,38.09913018891347,11.205499558074344
4.792538046876557,157.34570653837255,57.52644749772572,7.0334236135950325,62.71840888926905,31.648001513601724,37.89038125181207,11.177069903685517
5.234261925526193,156.38774670834854,58.59618061019389,8.976635501800592,62.272346635634364,31.440032402296396,37.90929469819161,11.187034173462287
5.69872540167747,157.226457854032,60.65341520501721,10.829969348287516,62.39587523905206,31.465636351042534,38.16223338583236,11.202578855752952
6.142915522711001,159.15399098541184,63.27668589122327,12.622832423352396,62.85080344833648,31.653744363240424,38.54130318971499,11.201048208148695
6.571959326437739,161.32123007283812,66.01129561589812,14.425309618212612,63.376974650925206,31.913697555946698,38.95020270543838,11.18559650921609
7.0063497484959445,163.23941647658881,68.61050186161097,16.271280568035166,63.829923379006466,32.182179468616845,39.3423325921057,11.171455974735284
7.439194942692275,164.63325852721036,70.91665974231486,18.12726131634234,64.11973667916935,32.39431183468454,39.681191025669435,11.16737951539496
7.844943623021836,165.24119845493504,72.75993623120968,19.935111542212788,64.15655327650235,32.47633686457379,39.92342125465226,11.174413667077882
8.220716169115164,165.0397019679213,74.12028773323904,21.672884485841102,63.935280362565486,32.40567728442612,40.063850599639984,11.193468481599881
8.593912718510074,164.57241277065046,75.32140932293642,23.369310484901355,63.6348234330746,32.26417587061437,40.17147938590765,11.220795488014357
8.981244595801916,164.760514452989,76.89786425471131,25.07531582706578,63.54170630669785,32.19732421369179,40.3463850773323,11.234527154546404
9.359533328688858,166.20138602396347,79.18286927588,26.841674003529935,63.82878506625917,32.30657148643209,40.63634315261401,11.199208702318845
9.697574963515118,168.65886511821728,82.040360091871,28.716660601869627,64.41834267341885,32.584850599092434,41.01119271164948,11.099284622923884
10.01212712517749,171.2533837539487,84.99548428533306,30.724557895351516,65.06042347686252,32.94470729866648,41.41618647490264,10.972386772471603
10.369097595421398,173.0529061148721,87.54858040163673,32.80708182714114,65.50229181919381,33.274148757862704,41.820537073052705,10.90176527150772
10.816026410551842,173.44721956346186,89.3366696736506,34.7881723798801,65.56559042267028,33.45024510625444,42.19450754230961,10.963513051023503
11.320863295757997,172.224989501777,90.16216529004235,36.44491248021159,65.14794242252187,33.3456152074372,42.466025372990714,11.167428976321187
11.78751927625045,169.7863406209288,90.16790984170142,37.67763989224987,64.30885077128715,32.911354239507155,42.55671934891984,11.433277254074275
12.128374389418386,167.56146584253108,90.15226435031254,38.6575055709508,63.44252475873956,32.314379106173114,42.495606525773134,11.613006438188021
12.317764397948105,167.92583080863264,91.54766727681954,39.81772062262015,63.28122034895943,31.97217968629981,42.48292979337241,11.547590011241157
12.394533063829314,172.93060478757906,95.65740528548352,41.65893975904741,64.50688187351149,32.35765499701743,42.797411039252026,11.149535939837763
12.450497630822207,182.2971750787032,102.44887503945584,44.453955884994954,67.12388426815848,33.64481147458441,43.59311937402299,10.496772075095375
12.630849160782313,192.173820909007,109.79208451174371,47.97847763285027,70.05872942766648,35.42842346372118,44.73635175472146,9.888900140823168
13.103224699338552,195.86754194418367,113.82901011810284,51.38662471500937,71.34179775745308,36.71440027567468,45.779448981294564,9.791313554592888
13.945749557396482,186.35787152948777,110.3666998146061,53.340283371230505,68.80930098374816,36.20468791153568,46.051929298657825,10.636925282707818
15.005724939118675,159.23938085628546,96.58235379738761,52.45346629722624,60.959145673786004,32.76535720527673,44.81875095672898,12.56497834698117
15.875307127999628,114.70462675817151,72.3123653387409,47.952892117887025,47.60445085176142,25.927264143506914,41.50372048455278,15.261683026697852
16.07947909952348,57.88746377620966,40.49066573616129,40.23649590703628,30.1244857246725,16.247690557031707,35.96784728273935,18.035892923000787
15.392921891338721,-2.4358521439365757,6.552082846191505,30.94075397815098,11.219150627078928,5.332494089181727,28.72499295959531,20.117598222021783
14.063224219237208,-56.34701125559152,-23.131118842487304,22.362098439599077,-5.829964266641007,-4.61436180787662,20.906270090208675,21.012660129918086
12.753982275647015,-95.70116500321676,-43.32650740131026,16.499288665512218,-18.20335674445204,-11.61590305688985,13.888888765498887,20.704041780592085
12.209283462279142,-116.51276880076456,-51.74495209748655,14.259126625013891,-24.510168966575026,-14.752675624322318,8.738472499127925,19.594552678042817
12.838517013355261,-120.0208732031881,-49.78106524516357,15.260869418714902,-25.254663522182682,-14.539342475507453,5.785716109214524,18.259623240769443
14.482171422663193,-111.99014960221344,-41.77718162560276,18.26616197781458,-22.544171457377455,-12.591575461667002,4.611353790544756,17.184613079807903
16.492412411513943,-100.31471264100327,-33.03536128906912,21.862804538032822,-19.112774213725736,-10.739147088305199,4.445844370798741,16.621609380280578
18.040169724263976,-91.7938294913466,-27.505114169363168,24.92909849446522,-17.12955763813839,-10.109741523561942,4.6802121112915875,16.57250249079065
18.4330301985797,-89.67404325306043,-26.399223326318356,26.667017581007606,-17.454513832526477,-10.743541147804109,5.098707509451537,16.825723682313466
17.299232896917623,-93.30410618144849,-28.465613983661665,26.40531062700244,-19.729493275741824,-11.91504374694322,5.699733628972548,17.009230690947515
14.650759210334583,-99.81295334449554,-31.4773875234449,23.571966360762065,-23.069828387574958,-12.820998993454207,6.352851834404388,16.691399772340038
10.88797844049795,-106.29759417354082,-33.696866596159374,18.01223071057784,-26.712207797803917,-13.089691514757057,6.667489606284297,15.548828439651027
6.727135099192685,-111.01369972530387,-34.40025441932496,10.39212432587522,-30.18421637341049,-12.830582700993626,6.198080486455626,13.535028554108958
2.9919262775523543,-113.3725152552047,-33.599428819298325,2.2407885440053428,-33.13136384562862,-12.368707139614171,4.765044727841474,10.945318213877995
0.3190522787162928,-113.60035048536614,-31.696968555602417,-4.53896567428415,-35.22343714841111,-11.983313779878541,2.5934161210370834,8.338778266897645
-1.0424299487088458,-112.64424897485125,-29.432752340647397,-8.41460002969939,-36.302724582108375,-11.815844818240725,0.19132414673533765,6.367687353160932
-1.200660958051331,-111.99310611659523,-27.80816987376434,-8.775259327995226,-36.535277858737494,-11.891776956424472,-1.8800266453998125,5.580662512820591
-0.4239639852978008,-112.93057779670606,-27.638712890469122,-6.051798951845835,-36.30365419494379,-12.156713077434702,-3.187238568927877,6.225754134492929
1.017547508295607,-115.56911349921418,-28.973257596265096,-1.4656413423456514,-35.92475153528278,-12.524855794467083,-3.543029362297186,8.077869210203403
2.844221431812969,-118.62669053102489,-30.974465929342607,3.4117565946647024,-35.50938911509624,-12.983082378506245,-3.1125249245556215,10.37824182841457
4.667663292468033,-120.34024689231177,-32.46586224058535,7.144293786779936,-35.098791741178275,-13.709564123550855,-2.4647463747300513,12.01342607720637
5.976932047799207,-119.77579223223488,-32.69951887011655,8.854689126102816,-34.8679101350897,-15.07667381995081,-2.4335219587053523,11.976416831903109
6.295165453642073,-117.46710348445635,-31.77059299794304,8.474115686730578,-35.121624832242695,-17.459509378967695,-3.7329968817342865,9.957774428758634
5.425838829011161,-115.09828506882396,-30.55178769690841,6.735861884878461,-36.07955570144147,-20.935241606010937,-6.4886036150453865,6.747115221077717
3.6337601002574575,-114.7390354075568,-30.375336825009555,4.921108289079075,-37.672095409436665,-25.06273482305082,-9.980585782735796,4.129645743273659
1.6511369846762283,-118.01770581690919,-32.55659150302955,4.436397421479621,-39.4824614630168,-28.873476541667806,-12.808228832621985,4.176653569042442
0.4748433692841712,-125.09405318372721,-37.64901910755674,6.306308509527077,-40.757370517429706,-31.0725348348044,-13.443430827805583,8.160806184926882
0.9775914011202121,-133.50351266431744,-44.6066099633066,10.672630940969674,-40.423996251922674,-30.392805269173547,-10.941794991440153,15.606149759493213
3.4340959361937125,-137.85677896990708,-50.57885405039994,16.477475918030493,-37.27589526595521,-26.06653366669686,-5.516059923322586,24.037270427190357
7.179749088436705,-131.6077049275465,-52.02139206057919,21.589284495992707,-30.53117735048566,-18.329076821642296,1.2880786167141476,29.731410470330744
10.669646485320849,-110.721986882009,-46.831247099049826,23.521565029166126,-20.60486035329034,-8.705495451154404,6.977076372862442,29.267478484842506
12.055689946443286,-77.08884593011368,-36.11108399427798,20.548542195754937,-9.506785472203822,0.2503799570342927,9.01985230521406,21.158227372212444
10.07248800170084,-38.96978546165333,-24.10094415532055,12.665192324600236,-0.3194008032267798,5.863226273714735,5.951724871050174,6.687433176983417
4.748726922032061,-7.535411102622456,-16.033465392002434,1.7964689991064107,4.173076680664085,6.524559246811941,-1.873250442099308,-10.55644266542023
-2.510039238792076,8.688282242105497,-15.201874868130114,-8.95691917748044,2.9385923443161936,2.489462542519958,-12.330838876929985,-26.23058878573078
-9.561027818009295,8.052437502288221,-21.14609596584898,-16.673944586963753,-2.703931480879136,-4.231522843638458,-22.4093495322923,-37.03952611250069
-14.530443152243496,-3.920364898018035,-30.113211585734295,-19.8380260488036,-9.77109323936511,-10.858142563484172,-29.487169604577726,-41.86453797868054
-16.608713747614676,-18.19518527739808,-37.404436308820316,-18.788455369441905,-15.186169015723447,-15.143056459195364,-32.34932666503694,-41.75238724605816
-16.214905579010427,-27.29475582310085,-39.990372846463885,-15.236692140049376,-17.263791404095183,-16.26571632661572,-31.455538361563498,-38.95999507059972
-14.529439638591146,-28.57567131343516,-37.748803868577234,-11.229553811121562,-16.243092550618123,-14.891128549155365,-28.4160422855277,-35.71269834205657
-12.772863005369725,-24.154586010187746,-32.83089273921666,-8.191754754572358,-13.709580891140797,-12.510410330823957,-25.0761781910614,-33.36053196899083
-11.684323754080335,-18.39081694397241,-27.987649097004446,-6.5094839921282714,-11.47742268975285,-10.573608305637539,-22.76324504991912,-32.257389771917275
-11.41377384458294,-15.036233288571298,-25.096403137858687,-5.71155953759071,-10.680575052437417,-9.904354265402297,-22.014213601388068,-32.202934487558025
-11.725868205121275,-15.50534401839525,-24.516407521166865,-4.987199410451104,-11.42533448379176,-10.55152170497522,-22.701094715529578,-32.9830875881546
-12.275926291434018,-18.46788351869743,-25.159011900250686,-3.7188843537316787,-12.906553298946472,-11.939355345909481,-24.25919644514348,-34.58338632193698
-12.794946933532584,-20.5180539855687,-25.019240152750598,-1.8191211682144146,-13.802824742227953,-13.149334362447565,-25.842223555707363,-36.95701119329982
-13.150067659422403,-17.88777840712063,-22.13948772182771,0.2274856574691655,-12.900119013824407,-13.285419011682949,-26.468776332168552,-39.575983280991295
-13.29690472268975,-8.909926573726478,-15.854182172374598,1.6400796792112404,-9.84056764927668,-11.885177323436684,-25.28849313400115,-41.16601120000921
-13.143833523811184,4.037778710115261,-7.636258460440177,1.8427710447232402,-5.608419827628981,-9.205064034533612,-21.933513874069423,-39.94195076891834
-12.396133461580089,14.828980648659545,-0.6919207639277966,0.9351626371136061,-2.2708368690901657,-6.148685960240109,-16.75160405627071,-34.37365311458889
-10.518022410188252,16.647494916585444,1.8103977512442442,-0.19143131851229167,-1.9089310424503088,-3.7929276613027696,-10.741509450064411,-24.155277088106352
-6.924948869776221,6.13562174826873,-1.1706721092176542,-0.24835795457970866,-5.339955912728938,-2.778218517681263,-5.197073606798686,-10.811953043033308
-1.358772074712691,-14.25529182299642,-7.6660739925689825,1.7271407744959786,-11.523531092026486,-2.977197844862808,-1.2397662482183143,2.5527031604286043
5.774056475185618,-37.55270950446877,-13.780049632486993,5.758461288830999,-18.13335002996127,-3.686267982503695,0.5354907662791752,12.427588320004046
13.35016689815042,-56.40153994765671,-16.044047544927682,10.823214967633007,-22.94121218431309,-4.208063079594024,0.16043367752560955,16.452616389168085
19.8595697637731,-67.08333211259857,-13.33834593323925,15.3232043216529,-25.038699905000605,-4.382229919584349,-1.8445904207356452,14.505202167767635
23.976650674979766,-70.48270091736403,-6.971334730476818,17.81965216087435,-25.01811625902683,-4.630636718939244,-4.702256472971234,8.676632347885363
25.055276695521865,-69.474293881912,1.0276869078290671,17.568487647978717,-24.03941112338908,-5.462457613417027,-7.568789231359567,2.150206051266356
23.253934733233972,-65.16447267957206,9.852040753545142,14.576725947143549,-22.62117316522696,-6.866056184996581,-9.686273833419788,-2.375545696238412
19.23958124952672,-55.39624716199333,20.35806074357071,9.277137767211633,-20.22139429016673,-8.158718713183992,-10.587760201274516,-3.8645997939249956
13.721330055741257,-36.92057801445317,33.63496251567592,2.17791397068403,-15.964065775326416,-8.482330361642918,-10.343310337627566,-3.156341034982249
7.17415070043632,-9.364379213686373,49.05118565317953,-6.21772231389471,-9.835387373825451,-7.544961779533368,-9.651788346085146,-2.209900007702074
-0.07798757154743571,22.497943098327692,63.612415097373486,-15.231881804424317,-3.2551124724271676,-5.968609248691094,-9.577547180969109,-2.8819396757912887
-7.573506597991053,50.285552699871864,73.33905918280227,-23.84749523912942,1.5271105018392799,-4.933426912101475,-10.981924156836953,-5.931864256397592
-14.543347806035756,66.43045354875679,75.6936835188538,-30.831085744512528,2.781779806707914,-5.389953679761089,-13.985949688610527,-10.74820892197844
-20.066403768535476,68.3609108770164,71.26355678446409,-35.159632273580236,0.38820436841227335,-7.435225854009352,-17.841298994244536,-15.836928110350101
-23.469735892124916,59.59590787555362,63.48595295664182,-36.486587841721025,-4.115122872522427,-10.286385544600972,-21.324243178978218,-19.68992534082624
-24.679747837339374,47.22093535827282,56.65480239599653,-35.31184482788608,-8.499650446267768,-12.814779392692227,-23.40264063006409,-21.50604828141064
-24.25838012915047,37.76461164439,53.65117936798313,-32.72115065126091,-11.091707187114105,-14.209968385658598,-23.738774612485106,-21.415512476498016
-23.098598544790153,34.32557341371334,54.89365127476715,-29.867566015101662,-11.44728565599244,-14.318729895063797,-22.72949331648965,-20.20388361412914
-22.00334528594568,36.38383656889541,58.91754376227102,-27.527020156099187,-10.167169934351922,-13.528255213142529,-21.14028129725512,-18.805915767343965
-21.421306951454646,41.49788167547926,63.75494127317868,-25.95182755982152,-8.24248054336629,-12.419087934454751,-19.66058633621852,-17.88921876384427
-21.43857135344906,47.082742704117926,67.97697245942211,-24.995661282792558,-6.516135936769716,-11.489257526539372,-18.671419581579222,-17.695320362353364
-21.915894897768105,51.265708039349825,70.95694756049103,-24.328924205356312,-5.494553997614767,-11.0498591685806,-18.256775021039445,-18.107483859291808
-22.61368729631337,53.09505457421367,72.6955758540542,-23.606618413963414,-5.343480971763689,-11.19661219561215,-18.299756732299734,-18.81689206204708
-23.257929074484505,52.65284624632243,73.62863091518369,-22.575244102302516,-5.882297048483613,-11.779957743285417,-18.54705959989842,-19.48309721254657
-23.60080242210636,51.0008512438233,74.42539854692735,-21.14844049748274,-6.629135248525038,-12.430629874573127,-18.672428686950777,-19.8491301551384
-23.50755817909878,49.61044373961052,75.63644416386651,-19.43293446556249,-7.020744448737223,-12.717385003314641,-18.400275314116094,-19.804782993042497
-23.02361359106894,49.501557516812845,77.36314435193752,-17.665574280801398,-6.721675682674677,-12.378793702714763,-17.64451737598742,-19.397173708421203
-22.368369904378085,50.84166289836792,79.32263772134455,-16.086469520925792,-5.773624044359156,-11.471161635494795,-16.552685531419204,-18.80002106641401
-21.867133486744763,53.309856391322036,81.31811549376837,-14.835904998207633,-4.488066998064052,-10.348319023898075,-15.427085095502804,-18.267534255254596
-21.862136287385795,56.59637100924589,83.59168447771367,-13.926565516910047,-3.2625062795848367,-9.529583442611699,-14.607232641942693,-18.083240425622304
-22.59599709406807,60.27847973606399,86.58025301709554,-13.251673023210817,-2.5148463887727006,-9.531331156893076,-14.380182501446033,-18.476715685084038
-24.0345951610447,63.26385076437371,90.25855125155437,-12.574633337716277,-2.6612546013442606,-10.646936341336058,-14.876805068345288,-19.48252776233364
-25.684117264061932,63.779531249419456,93.7495448377202,-11.533865679736536,-3.9144066174437415,-12.658547806880291,-15.904662467991779,-20.788558348628264
-26.58067017774289,60.36854479494727,95.59936775741386,-9.75626775458821,-5.921537265852624,-14.63359747528532,-16.82103032447943,-21.70290903648698
-25.605106939110918,53.078010841198186,94.41538538744192,-7.08715781563545,-7.617755345720901,-15.093061166615886,-16.66633285410013,-21.352361147443876
-22.046192547397514,43.57932457041189,89.3027819009167,-3.7851839117728554,-7.638132047217049,-12.678006370885516,-14.643242429122385,-19.0820017461957
-16.086135922886942,33.96789712368565,79.9398269282793,-0.4912504760152329,-5.144393304709729,-7.03150556275036,-10.706138136251454,-14.855556972837565
-8.862017774871948,25.319130460919276,66.58643332452057,2.0584902120071367,-0.4708925300620271,0.6813007550631345,-5.832735247892969,-9.402510859438653
-2.017123078308797,17.28270546540503,50.240558327063944,3.3853598006623407,4.935265963191057,8.05843080971834,-1.7055104633672276,-3.9790747135289437
3.001578523963255,8.955095412707053,32.72088309330291,3.4322409622845584,9.266552441740705,12.492253788111142,0.069181072490465,0.16560172541921375
5.4859696314307,0.08006381045004675,16.262211398779492,2.444113358260226,11.262559847110596,12.385038242963828,-1.2535328680437938,2.34143670827682
5.575704014389386,-8.650830294690874,2.5290960895048964,0.7138407888421496,10.648385830006287,7.850295024194008,-5.237296774656752,2.688317746354228
3.980570153541517,-16.566610388514228,-8.46100435140041,-1.5454104491763752,7.88298811269441,0.5331270030845984,-10.562771324392653,2.03322595118254
1.609929473906463,-24.277354906081353,-18.62365478935781,-4.066934349891111,3.579933522544337,-7.2426235984413,-15.673442177159872,1.452391550528648
-0.6204295745869371,-33.627385377375035,-30.66192819527767,-6.272437153913418,-1.764688845716089,-13.398968374527595,-19.299255338163324,1.813602509242615
-1.7912981234026162,-45.729961304477435,-45.83048592343424,-7.198362537382562,-7.443419768135123,-16.589405600002227,-20.586406883758958,3.5254639920604047
-1.0157406579344115,-58.48876941956092,-62.07848000450601,-5.8104578072022,-12.012491011456822,-16.198508954615917,-18.973136728382418,6.53287395449656
2.3017543222293098,-66.1109249303053,-74.23370465687493,-1.5837936836488755,-13.336244720353454,-12.192115771701832,-14.167710504394497,10.446406657931725
8.073687228358397,-61.87770296372211,-76.62266543886992,5.053433502908385,-9.53856439794749,-5.113019675007136,-6.387605315602299,14.688465074412639
15.344889309237917,-42.67138071775366,-66.61242737258395,12.791302647563029,-0.31431478941809343,3.8400717481544797,3.375017513734169,18.63262002074283
22.593761654100312,-11.898949290772928,-46.60721546482948,20.060898730583165,12.45458521934801,12.962881968979826,13.45905465280988,21.770432440615792
28.436317115013466,21.736299655410722,-22.95043384426341,25.8235325012977,25.444112815699977,20.598243695640303,22.143771103923836,23.890751715317727
32.28275743963802,49.17163195002604,-2.362986240305042,29.97042940754027,35.64049094419303,25.855346902450645,28.424297617400246,25.162441572236396
34.45665536856335,66.27034077193625,11.636832012820793,33.023985288812234,41.90608432473274,28.971215534182967,32.36998558797812,26.001828986459856
35.65636506283032,75.567078312154,19.838670895120323,35.352207324113564,45.20665171801547,30.935683659951057,34.72225257175997,26.738780665008335
36.154781108378074,83.09220805790693,25.318945251200624,36.51147195368176,47.321539059757264,32.54275094456709,35.979309923734746,27.2797640114788
35.37782484319817,92.69279589093668,30.016182357045103,35.277068722368156,49.04943365102276,33.55560517934939,35.68996569144574,27.030976314610477
32.24584796078312,102.30287410691821,32.649004015218445,30.41770945676473,49.34960807209821,32.69602907672806,32.59822237202967,25.199064699609963
26.08475028086562,105.09637249114719,29.561459271791335,21.703112765968257,46.12227786012085,28.58508205593959,25.641888003268765,21.322276535335718
17.464064917366116,94.61117542007511,17.73661839038746,10.438897818457836,38.027377072985686,21.00383594281718,15.105996599907195,15.702864304259931
8.33874008131981,69.9409388094832,-2.3876562793064737,-0.8699131382221312,25.938776456317708,11.531547461057068,3.042934533098771,9.449674877783064
1.331266998825264,37.2158406242127,-26.396297857689397,-9.5615951947585,12.92606425672825,3.019000815585183,-7.4457336663074365,4.068093570335448
-1.4462797268161927,6.455222992553479,-48.02315021782702,-13.97176904750222,2.7445985560332407,-1.8334327476327086,-13.683114826771865,0.8029279851326512
0.6565758694129894,-13.846984567792928,-62.42829002324975,-14.065185813117056,-2.1404963840309175,-1.8954881615124881,-14.737613960279582,0.09154346842875996
6.62925596782537,-20.701470037809386,-68.42540595683866,-11.251003793386996,-1.6931189937148072,1.8784579586201364,-11.769399451191715,1.4329013001743778
14.394332535756924,-16.868856613018327,-68.33100866145887,-7.564104947506152,2.0456153017233514,7.134367641289815,-7.214325542988409,3.7429388249906568
21.773246031764078,-7.967060264149166,-65.87310200406844,-4.708268081886739,6.383492606623008,11.5136085740433,-3.3571805892288573,5.981756785625917
27.26526403196235,0.9667932463657343,-63.86236538518761,-3.4436453373331437,9.405852090125755,13.864609931117663,-1.182513813823728,7.685315888465041
30.316761111533413,7.244530918049719,-63.123444191342294,-3.5292379613322415,10.565962205296776,14.600719691906543,-0.1216479997894385,9.110188002705243
31.128378863699307,10.367531606607749,-62.89059123185927,-4.11694394633248,10.385686825095098,15.140777860987056,1.2978195341808498,10.9375983083219
30.26853099815101,11.110287942642442,-61.81584966887525,-4.31984659039154,9.7905134716778,16.882123469103853,4.381815723279707,13.722576773044743
28.343902133326925,10.810039978447984,-58.75962705210655,-3.6781051358417103,9.562920940026142,20.298303254416684,9.3735981682892,17.395750433481115
25.83932512540578,10.861425059634314,-53.19971194665055,-2.346153898886442,10.042141195207535,24.59266347090953,15.150852180266106,21.099239934763215
23.12026955020761,12.132117140757137,-45.44486867375471,-0.9556969037873877,11.024812353653932,28.0559626994522,19.654371923198163,23.480732284938217
20.521733012372383,14.54666147428524,-36.624162992237096,-0.24926729595345204,11.893989618872338,28.95403633004603,20.867412373477546,23.323853392294843
18.406296740875653,17.340956529641176,-28.24972936743073,-0.6970620686216071,11.99936575051375,26.471702273097886,17.85475688258993,20.171150647644218
17.088539661966582,19.869999045050882,-21.474676340251058,-2.324052538315029,11.088186927324578,21.14437112639849,11.261294779223823,14.567951347847215
16.63381609373991,22.144843399977795,-16.59760786870358,-4.8302009582017575,9.435849807320459,14.494850568864903,2.959447419837329,7.792804100806896
16.68838106657815,24.53067588010871,-13.225028120002492,-7.865368099462718,7.54850661599096,8.13918551397642,-4.898510293877782,1.2799755512366187
16.53503336124735,27.039821443342742,-10.837639620799656,-11.211397969607342,5.733485451313369,3.0059358595370185,-10.777111778949324,-3.8993511207927716
15.416143995502432,29.13588278282621,-9.107224265999033,-14.735747252950453,3.968853844893789,-0.8151660229400586,-14.089685361190492,-7.257264471724966
12.93917621874634,30.29539362441851,-7.691641119499027,-18.208077825212595,2.1668482752684275,-3.6124807814942193,-14.961208434793294,-8.822584810762876
9.2911456107492,30.611682978355294,-5.932584110481786,-21.19647152113859,0.49512927548628305,-5.467157133296527,-13.819031339163187,-8.948203373017742
5.127659265302161,30.70011402637924,-3.021931255349956,-23.17911669524139,-0.6139668747495132,-6.048223081431689,-11.179039195289839,-8.129868947757064
1.2396543513270133,31.070115310140434,1.390142735628292,-23.81242704112152,-0.7583896363179923,-4.89453585807339,-7.6567110004518595,-6.870901365757772
-1.7744411897294392,31.77521336320022,6.7730629073638715,-23.159257077195296,0.17168993445437858,-1.8715767801877181,-3.970535980441089,-5.5618840786990305
-3.6707765736054117,32.738091271710175,12.001441575484133,-21.700329435290868,2.0197888971201974,2.5905561245508033,-0.7612993335950181,-4.36391559004634
-4.550343320154817,34.25999202582722,16.18590226261344,-20.10435008230933,4.581479640617369,7.621593544146091,1.6876295774110024,-3.1496912387525993
-4.765369401802392,36.99446037893085,19.362099040749325,-18.909267615609686,7.725116095539352,12.251638851725392,3.57792675387496,-1.5863507141630604
-4.8181167497296045,41.31640222221508,22.463492503179626,-18.33989763709303,11.269511721353634,15.728680917467747,5.412812619107866,0.6160817478175957
-5.265898375508252,46.6984200762336,26.56878537756952,-18.381540790451304,14.75055199586667,17.668444547942627,7.5876208407832575,3.391789961734409
-6.600994737601337,51.67339568016847,31.943927354751153,-19.004924545493047,17.333249476296967,18.030958244358093,10.018692582294879,6.139686008043919
-9.082522050557754,54.419468941455136,37.56558437615698,-20.288930026843648,18.028556088247754,17.008591049367322,12.066216238418308,7.848112262923392
-12.563317375716787,53.61206237080586,41.54314071119649,-22.284351650190548,16.166432589130753,14.93144181842622,12.833326523217025,7.526509538599904
-16.43464099328666,49.15371409821014,42.256180604938905,-24.743982568120217,11.878730491882829,12.240097120367778,11.69101119358775,4.737297632936661
-19.810462231675803,42.44128658565634,39.435841994753716,-27.028764531272124,6.256152750996671,9.46911325763654,8.719639977770631,-0.07236992515515875
-21.929606232166375,35.88238684843128,34.34914044893509,-28.368250618600847,0.9704333072780095,7.1330340514765895,4.788988482879437,-5.630349475597719
-22.55067121617406,31.708915841428787,28.910998217447094,-28.314013099000306,-2.4962899455455267,5.5065262917284095,1.2272873193169256,-10.246440570922413
-22.051192471900833,30.753823956643753,24.45632252054868,-27.02101367281309,-3.531495737997815,4.46732312676839,-0.7048265658851541,-12.34880819961517
-21.13449282676061,32.12739456799234,21.181279534256433,-25.13761851256056,-2.5104807033284358,3.6051463112927116,-0.23990629432817928,-10.948912007474139
-20.359623654189495,34.10993939973605,18.589492178982454,-23.42765935913968,-0.3184590794806406,2.5840750623815287,2.7054637070609893,-5.971433599750264
-19.85428744226036,35.50761222265205,16.337517660341728,-22.440296152124535,2.2735998665973027,1.4675213875141924,7.501581271825778,1.54894477328419
-19.40420130337433,36.310882994971834,14.632635970337734,-22.423712202898937,4.87265621470207,0.6854580143967121,12.843613518168093,9.49088842844537
-18.79458109492142,37.229045305170516,13.949598803860525,-23.420262260542355,7.272508838920341,0.6199266567611503,16.91553764346217,15.070453725429553
-18.1011527288449,38.749167394830934,14.519166106209312,-25.35882654788417,9.147221771587583,1.137892448085332,17.824997682024794,15.730181463063786
-17.713423652191715,40.63931470522077,16.077399215156237,-28.04793428516186,9.994219542918401,1.4722506967992168,14.298208646814203,10.228613883319094
-18.09538157285703,42.14705661068184,17.914471033673145,-31.119198413017163,9.364197621534002,0.5817352171918511,6.344809151450202,-0.6118517840239447
-19.453130232589594,42.46029593933311,19.011745749289965,-34.021455788369444,7.141050137624506,-2.2386284511160586,-4.510938689948385,-13.984188115729731
-21.510923874898722,41.03327995184505,18.242858082492436,-36.121557427991604,3.663139291182064,-6.883500744323263,-15.642260650466449,-26.08111913181893
-23.537198203826968,37.81482274796846,14.782228361325254,-36.90728261522614,-0.3410059508499152,-12.374606099255073,-24.229474851131258,-33.56956627803478
-24.6497740452966,33.48422473198691,8.619846227049635,-36.233659941803104,-3.950117887509324,-17.237417120664634,-28.264193374642872,-34.86994851758786
-24.27585243974188,29.44249576454814,0.7296304998530322,-34.487379628258104,-6.357436125706772,-20.122828125824647,-27.21825176988708,-30.647733160593383
-22.50957827452199,27.216484710893212,-7.425831568489554,-32.51431066096411,-7.224878795008776,-20.367871864146935,-22.113318542692603,-23.317877214876763
-20.121226917447935,27.478605447146652,-14.753079573415942,-31.25823840926656,-6.891324422888217,-18.226692088228145,-14.991567058091368,-15.85572505726973
-18.178290661613055,29.467118373337097,-21.04151183316999,-31.27568498851034,-6.229269333191243,-14.683711469999695,-8.054075383932938,-10.539473727222585
-17.504376737893395,31.405478113958647,-26.738009569899493,-32.43491149388132,-6.170374993756125,-10.987974732648532,-2.8788772923754533,-8.227089396056952
-18.303346243225597,31.66918953443981,-32.26352592242066,-34.00909771642798,-7.191262372320146,-8.165075949278085,-0.050805723945705344,-8.415732175736759
-20.134048796259762,29.86173883158017,-37.44852127302906,-35.09933054128046,-9.072221474379365,-6.699740062564032,0.7333079490663671,-9.886776263659101
-22.183289139979088,27.194247297160818,-41.38969535722704,-35.11887959761601,-11.002591869100087,-6.433719518326985,0.28106092958085976,-11.485275471541586
-23.65165896566975,26.14319436370592,-42.68971489912882,-34.08921190986382,-11.89442322944293,-6.647581572721541,-0.49894803438679747,-12.62811206428714
-24.08089840465749,29.53973896630357,-40.03374114669838,-32.647164217956714,-10.782239426335144,-6.326104275314291,-0.8939304913042199,-13.372743257576246
-23.509076001070643,39.085812591253465,-33.116396922596635,-31.76469129007968,-7.289314294246699,-4.61673246513934,-0.5873038944337119,-14.12017583328214
-22.377331722062394,53.52385190137837,-23.614570628951725,-32.22358671910026,-2.070361935218416,-1.3610917539494989,0.23506629904627482,-15.163168733420534
-21.187730218566646,67.48212611576285,-15.40257678354939,-33.99716623166577,3.072433994018929,2.603176706066278,0.9572956594597171,-16.32623215586839
-20.071935891576512,72.43587071938862,-13.29032021369197,-35.8781429167451,5.722197057954072,5.671857846018034,0.8511910230406944,-16.89973107685555
-18.565394138494806,60.26134390994048,-20.556406713230302,-35.73214164411145,3.9712882295550567,6.240053495585149,-0.46746879507658057,-15.934954643940484
-15.812210776897492,27.871756896789076,-36.70776428463386,-31.448783879785374,-2.4447914634413626,3.6078307830612535,-2.7173646016740136,-12.763516561577893
-11.134871260210472,-19.93073145154599,-57.08930722255397,-22.148285315112105,-11.758199718029331,-1.5399061912906538,-5.008122183182001,-7.4478702889996224
-4.608266130311109,-71.60149142275158,-74.86633251975013,-8.903802922066333,-20.882692107973348,-7.413108542398325,-6.284271919360156,-0.8860816157933062
2.766997336532123,-113.80786109612622,-84.32794007452006,5.541694238387311,-26.88978523593206,-12.010535365651247,-5.902922532929324,5.510337117626913
9.444411291731404,-137.50175725910591,-83.5754566469028,17.969819824288816,-28.40028018095283,-14.092900873945247,-3.989895429267688,10.400693950823472
14.054298551894238,-141.59655644106397,-75.04746243479588,26.12200646904509,-26.07872808770772,-13.664690785475917,-1.3497777275138347,13.0552931607915
16.03783395750254,-132.24516462904646,-63.712329860244594,29.568148717492537,-21.989229158742152,-11.734474445953616,1.0084531842580402,13.581773410561622
15.823031367655462,-118.58994706463639,-54.22334975963081,29.5847017447713,-18.31144867124795,-9.600557340781503,2.4125700164354056,12.749167967988729
14.476781859494276,-107.99685457795636,-48.859707031657855,28.24455349557108,-16.286491443894167,-8.17341967293108,2.7866079095630614,11.542239163065537
13.102025755674845,-103.57455243265522,-47.27854217198344,27.35128349362622,-15.968396330127565,-7.712526385755913,2.5145021276715327,10.711558660037106
12.37035784341446,-104.60487501243598,-47.68112336444117,27.8080070349707,-16.67622652456496,-7.979008831162487,2.0949385605886595,10.547931523835883
12.41003874870807,-108.46718088176098,-48.189948325752574,29.59950733846035,-17.60148976204247,-8.540505775913537,1.8741433000828034,10.935870765820532
12.981718405770756,-112.37400109926328,-47.59074743523881,32.16282891893365,-18.156473830696957,-8.999279402086666,1.9833464502206113,11.567106048981634
13.725709224184186,-114.34383005833283,-45.457720850464554,34.81486780738397,-18.060259380424863,-9.106470825054117,2.3977687074839724,12.14704027463397
14.333866137838761,-113.68617510814724,-42.060293042411935,37.05299004201294,-17.345455222250134,-8.818446840971356,2.9941098808446993,12.504757122720376
14.637276160680571,-111.1098330064911,-38.17876814755788,38.70158453803703,-16.32521004279649,-8.293759170960232,3.5925851466567282,12.613993803882396
14.642361352516042,-108.1924136519852,-34.70087814892027,39.91100153418153,-15.424846041440146,-7.786282955862007,4.034377982736669,12.562936772845582
14.503341272467816,-106.29572727489936,-32.0913057751134,41.010548276033205,-14.906521525096192,-7.472236185015495,4.277638018309373,12.491709779653286
14.414852412458114,-105.71304440187856,-30.152440879343224,42.28322700497718,-14.71183263022249,-7.34798412870711,4.417869302853913,12.513062143129366
14.483075252388975,-105.7896347243028,-28.329762249594413,43.81127266576229,-14.585343161907616,-7.288331652800698,4.592207979616978,12.655797359320891
14.680191038242683,-105.79380104664979,-26.253778118868244,45.500527703256054,-14.34569243541324,-7.190699750735245,4.8589742453556815,12.87135733942772
14.915444289311152,-105.55837941847751,-23.959716024686085,47.22990984015047,-14.012007480202746,-7.048487345544547,5.176653257606334,13.094740460226697
15.136470169900225,-105.30896981941456,-21.635154769912745,48.962576809183936,-13.685033148222967,-6.899696401032446,5.487096149191668,13.299773622769653
15.353538719596767,-105.11825022061026,-19.300896319442767,50.72489556039828,-13.378857200604127,-6.748949510277748,5.7875264538024584,13.499448808809131
15.58279846664582,-104.76658498817845,-16.830743342287636,52.51827619446905,-13.021524579160422,-6.56929880778476,6.10823355811484,13.705300253160807
15.799262412415336,-104.09709782056646,-14.207809886292603,54.28476345718515,-12.5861450630398,-6.360637455983512,6.446563622172141,13.900492737462107
15.960275814991007,-103.2539525179221,-11.607556763805619,55.95235532191077,-12.141316088105746,-6.161841387534463,6.7600812455625885,14.05456109134794
16.057878308745977,-102.43961253202005,-9.186128525479827,57.48591178583969,-11.748351264025006,-5.991224413281283,7.027959889515873,14.15468805902057
16.126036214799996,-101.60299449166595,-6.8961096950809715,58.893676086649975,-11.36984829587633,-5.806761897738198,7.287255695228727,14.217322433715449
16.202227115240476,-100.614915320146,-4.611121331116607,60.22776027248752,-10.943942296010535,-5.560652915091022,7.5849026033107965,14.279381277369392
16.308884923479336,-99.7519307564638,-2.375906318003357,61.619305107949174,-10.530356007288603,-5.288558405213105,7.908435670561852,14.391802492440783
16.480989583069437,-99.73092176594045,-0.38138536934996203,63.29176153584522,-10.30138163383732,-5.108466324734934,8.19542621363064,14.615850799819787
16.779914462523276,-100.99988118235206,1.368678603043179,65.4520812141803,-10.33764007733799,-5.106442788275346,8.417576880739533,14.994442012249777
17.23358412647498,-102.97056687754379,3.2661463857906243,68.07431222222898,-10.458619288076978,-5.22884613420281,8.630940160449837,15.492326771886567
17.746146631480123,-104.1061413931415,5.835043727479654,70.75435327414941,-10.30945532269526,-5.299281372805156,8.922771231547733,15.955907082630631
18.093884113668476,-102.9267537042081,9.210562575143399,72.82558764254817,-9.640233213614401,-5.13971808935284,9.317329105519086,16.160725889732426
18.059460665215664,-99.10321372697102,12.898255912109438,73.73912406263806,-8.512864768152356,-4.679605247297027,9.751679805237025,15.95277995486914
17.61697138416531,-93.8705420009197,16.04214459898946,73.49988719903389,-7.284888601154905,-3.9904496054869814,10.137811591481581,15.400936514321554
17.021572698177764,-89.70144851785413,17.919336108403066,72.88953495424575,-6.456249301759608,-3.281129851193541,10.42343841098097,14.847449749262225
16.732349582938163,-89.50224380404853,18.299189909095734,73.30144073124545,-6.502281283214847,-2.878549683213833,10.590329817825008,14.795523900607263
17.205084922437308,-95.31686111376958,17.62976686648407,76.15436743000464,-7.6638482791265075,-3.127652440258197,10.637121251200268,15.657344854033047
18.631291838474702,-106.52967074143368,17.15447924520656,82.00567896564199,-9.637544107356014,-4.14999456153812,10.618040563976015,17.45311034469222
20.6985571944144,-118.39298908205133,18.775834662507393,89.69637483688899,-11.338608287290347,-5.564432667197765,10.705462184692319,19.596854126148493
22.48454005568294,-122.4823734717177,24.287454291521705,96.06445527569166,-11.097823827287986,-6.423211620858297,11.159948509960875,20.92670437759059
22.640812770262674,-110.00036763242437,34.04575054586605,96.7126791184897,-7.437299872059799,-5.539073883083518,12.164919677663843,20.08633270144387
19.935253211977997,-76.70272902843304,45.95163268934574,87.82009313198449,-0.042543183872967516,-2.0964415286583393,13.644215441055684,16.189729968528017
13.961882996526837,-26.409621717155854,55.81098228447064,68.23150686525327,9.767244228223015,3.7955412329390192,15.229322188632427,9.460032458911757
5.584873657687304,29.56475490617937,59.26765817039703,40.60338707713222,19.497053702886316,10.933145163089014,16.406705770624516,1.4123453793648746
-3.2688152844952785,77.1940844720342,54.21272064724739,10.71887376111451,26.6266237749803,17.32940465484382,16.707373710799274,-5.675392366161726
-10.460254280149234,106.05137704585333,42.03436175898964,-14.861689257937094,29.727127508146715,20.866846149406374,15.791227380356895,-9.825792005852866
-14.657738864002722,113.47882528917405,26.812689127487868,-31.567867246508605,28.881954535235472,20.04029296313237,13.431134358049905,-10.374266051858703
-15.888719682233408,104.46510932334338,13.021612867840366,-38.46068738334739,25.282388019761882,14.54814472292972,9.5381579193336,-8.297051418957556
-15.286207071840634,87.94836220095017,3.3439441883967524,-37.94368707636752,20.436545387532757,5.55205901103538,4.332080770250261,-5.6239779917374895
-14.235231503909953,72.3308419466064,-1.9795376892483847,-33.96429388707011,15.59569331558153,-4.505965250777033,-1.4298848129249664,-4.292358762645296
-13.513357093725677,62.78674889319532,-4.118991753255779,-29.94519076969448,11.662660094038007,-12.55442635935016,-6.418930580752669,-5.1472704090802415
-12.9746161388728,60.96608151353782,-4.094767609576845,-27.586176212693157,9.344790085365505,-15.892523284356788,-9.099375473580166,-7.656554458193026
-11.904182960956653,65.93461592865077,-2.052190975260827,-26.888356018213706,9.144850064205551,-13.218098003885371,-8.411276893083802,-10.406184493567482
-9.707668584382988,75.08955542435753,2.2435976371539867,-26.957402763710153,11.089312428272201,-5.217609753123512,-4.377587158226093,-11.957055100036207
-6.432142497187633,84.8555420428427,8.452301489415829,-26.871819869265718,14.495995263763321,5.647931443994786,1.8009642453571655,-11.513939131764973
-2.815137747508851,91.62477000078304,15.23754148384935,-26.16163179544413,18.117377828850284,16.139276500968087,8.280568593594586,-9.107897341518097
0.09351556651414095,92.99502705857034,20.694176981541833,-24.856264072521704,20.65043887338614,23.547046268477843,13.417728000184812,-5.36177481786937
1.4611952965934842,88.71404379594252,23.221519771817995,-23.294413491010175,21.293096464417854,26.668498967185652,16.412470923625694,-1.1110646036861282
1.056806810048305,80.81053961216486,22.312224209669093,-21.900043633047297,20.051129816015738,26.03560273395713,17.433916994680413,2.883789524685401
-0.693304664510461,72.95458054315158,18.944816704257455,-21.04834220257298,17.7126360110147,23.3953724377462,17.265749466964177,6.050993291671162
-2.9997460256061865,69.27641647988109,15.345390222448138,-21.052103820037498,15.511197415426063,20.752975828501853,16.732442217926423,7.991137135848859
-5.19396732816336,72.62536648388026,13.918234679736125,-22.18923717094823,14.497003502597694,19.385385852688128,16.18314532267297,8.424886690590437
-7.093745930220321,82.43738469112607,15.599440372607138,-24.615772062868405,14.775931129089587,19.213927672329735,15.245296200077451,7.1907128531213855
-8.968705232896253,93.32429900393807,18.64911687391972,-28.087303551169033,15.071882976480369,18.84193078800903,12.990914536653072,4.332024517890779
-11.097829017329504,96.08213712724425,19.081916855170302,-31.654728084369737,13.126011705651312,16.33182892453875,8.511833997305875,0.230976333423482
-13.264471961931212,81.70980548291192,12.931201873796548,-33.68621472426156,6.9568692439607895,10.391141905347332,1.6405150020495174,-4.33487866395609
-14.644182019975712,46.615892085096974,-1.0031511536890891,-32.43397453496059,-3.7397625887184165,1.2949604388777105,-6.644293838124332,-8.338334577994944
-14.253840536277245,-4.3972812374930745,-19.92522028684165,-26.934248844588577,-17.068184837546358,-9.068539720682642,-14.478790471274717,-10.855610820137532
-11.663752685148019,-59.790863556111596,-38.35790748889759,-17.664336445972825,-29.774765616725908,-18.11962574568287,-19.971509946046844,-11.460772283664165
-7.427463863513159,-106.9130607796432,-51.16747492854746,-6.449243540046499,-38.962889945762065,-23.923387221680862,-22.152473530119515,-10.417156047894869
-2.8684722284917368,-138.05537949111334,-56.21103310767511,4.386964450126275,-43.53471959481393,-26.101619856871196,-21.41075179373989,-8.520510771333283
0.6689757870337559,-152.996086160776,-54.826259525890876,13.080486347942234,-44.38995631087753,-25.759437614305536,-19.139881161943787,-6.668110080443843
2.6024354317798086,-156.54134855825825,-49.998700692602476,18.998542631850704,-43.30141447609483,-24.519405195252354,-16.831936516235658,-5.411098116759995
3.389834063617729,-153.20710472565358,-43.76899702697228,22.398034653807578,-41.35619974962765,-23.346158744353232,-15.22345444788876,-4.757638164626214
4.119529035601292,-143.27055838884294,-35.951335989517965,23.672454000107916,-38.16734896832806,-21.967252773707504,-14.042883779806658,-4.320890919115412
5.713901257543161,-123.22045370321328,-25.075633640741017,22.765932909851735,-32.437261114608454,-19.25326720755622,-12.465257499521936,-3.6749317393220378
8.307724764458694,-90.0047524389911,-10.566012106310307,19.251957957050458,-23.357729097692943,-14.22541900790855,-9.869882344456474,-2.6627988038804555
11.204628632946902,-45.37819662956404,5.8568118512065555,12.979194710436984,-11.661585325540761,-6.928938467581312,-6.313265393210485,-1.4706820475633655
13.379097398542104,3.351285900963015,20.842725167814205,4.68353043578883,0.5456699840075137,1.4442280045051765,-2.4028788693759164,-0.4669525280349132
14.121147280583742,46.8594681832846,31.63080420730956,-4.018605232456497,11.026805793471617,9.218797197106825,1.2513054804725106,0.04587777311999143
13.376315655312371,78.79701367092719,37.928785535696974,-11.32853288813556,18.69780603988085,15.153691719847481,4.510826449042529,0.0012899615185830108
11.608226710684034,98.22711176888112,41.744324334164666,-16.156252927608154,23.88706553407238,18.932793079777998,7.692985546825314,-0.40801942936143126
9.37255084525087,107.605768406627,45.088518088575995,-18.540593349672953,27.33884001852125,20.908026086180865,11.060065865581672,-0.8124752764511817
6.968461471389088,108.16898277333716,47.325644971497724,-19.30482370601109,28.810886698746746,21.372737276552808,14.237811877527893,-0.7764714807743596
4.411873477685357,96.96511551420593,44.51115764007265,-19.258719133337237,26.559669316017327,20.024459337129134,16.095572723087045,0.09139515503646112
1.679329292211177,68.63215956513123,31.718740155853645,-18.60749534474907,18.38249947627496,16.128524987040517,15.29425544291907,2.001705335088564
-1.038274145487823,21.113361924855433,7.037105265060169,-17.030752013486353,3.6334787007592038,9.321922069807002,11.19015042009503,4.814831314723112
-3.29576196248782,-39.00376088361336,-25.54768651517386,-14.314151262649213,-15.24846244129255,0.4553937902365487,4.487261739016064,7.927443965275787
-4.582027198853524,-96.06403074493824,-56.60690119886232,-10.947340891223913,-32.953397833140585,-8.215775171888307,-2.81857638206103,10.367443447971027
-4.577898189206498,-131.13226095439026,-75.14591091857406,-8.135468651805349,-43.38085117732941,-13.763391136766282,-8.205912651232865,11.174309334275245
-3.310612363523998,-131.0321194368774,-73.82405128345972,-7.156327311988792,-42.49161453850649,-13.902479250005609,-9.68822888328914,9.938323385554437
-1.1295728392933122,-95.38249548402057,-52.615488030739556,-8.510302943565437,-30.32877118904954,-8.16343567065814,-6.622516905073348,7.186768557228674
1.4713697981719422,-37.427792148181986,-18.893138540150414,-11.460557561471736,-11.070213073925363,1.752874747605567,0.10001092858778968,4.307128885537353
4.096562529721164,22.004985126804833,16.111503244030693,-14.291798450240293,8.929084370103151,12.666053025425718,8.508510592639599,2.935482494358345
6.622547311368291,64.28480702369907,42.568880505466836,-15.17954362900635,24.063572785632164,21.31234466955146,16.376172301477784,4.08081707868187
9.163067199350513,81.35509595498404,56.21529661838375,-13.235817349264464,31.830086770337935,25.7167570801998,21.9980720653781,7.468705780259667
11.786154097537008,78.3308615520896,59.233722300311506,-9.194500207741246,33.397242908304996,25.821216522502652,24.580560519622036,11.508767610574413
14.149967827187716,69.08006731381363,57.582579845793425,-5.321468229081972,32.19756570254915,23.08352500124877,24.148607636777015,13.956880439629941
15.373161467884009,67.52397415808716,56.6458803563454,-4.4699352573324935,31.50676648347754,19.38516588251532,21.16784697888153,12.957439119428418
14.358073336456584,79.85090982293093,58.037257617830285,-8.665907082980961,32.5442357515469,15.980592307906337,16.2112818723374,7.935913700644023
10.4511144756544,102.06770406133634,59.43341512916144,-17.9564966274446,34.18852297653914,13.100911378625227,9.876772823961806,-0.11386487810557225
4.013311716282919,123.75119730382525,57.12803347850553,-30.200985348960334,34.25761098124279,10.306188378613347,2.897811373229396,-9.080384200293928
-3.532486219309725,135.00942651404768,49.22065922791777,-41.981431505383,31.298671035309557,7.178258126910822,-3.7820558038814545,-16.667938683773578
-10.27701567407294,132.09690673349365,37.20249782810541,-50.15163187102041,25.647817960857584,3.8054129904160963,-9.153323968177146,-21.32880778412868
-14.695723605778076,118.5912053027212,25.073003224201354,-53.169663103361195,19.17512390177537,0.7616358544975876,-12.480878678588542,-22.757344672704985
-16.290807453894825,102.210275225705,16.88701915615205,-51.52222844246238,14.074594545743809,-1.3094287866861514,-13.626020315559641,-21.776201491039107
-15.648935995060095,90.00533403753388,14.556210116579633,-47.129643971447926,11.63120077571202,-2.131528902031832,-13.105715537359822,-19.762996963327257
-13.958336979065034,85.12814079187265,17.27169852874682,-42.21493561934022,11.752333270539287,-1.9293532422833184,-11.814673865080236,-17.966184187207478
-12.353799153926266,86.6140362424938,22.56217341692642,-38.33321437894013,13.37777106330024,-1.2233804512604327,-10.583774053504307,-17.052355477264
-11.481749234692762,91.28838518066264,27.8974946602562,-35.997557005211355,15.263441896488663,-0.5132367677569789,-9.862776597618959,-17.040318938744146
-11.43421949224552,95.89904780201762,31.722018270700644,-34.876524492837326,16.549297879556207,-0.09196347824390122,-9.689673017110904,-17.540534669432546
-11.93555180617953,98.31495808047988,33.61914202059575,-34.2489810590821,16.90801887254442,-0.04227980526437793,-9.869324628260285,-18.0842853371531
-12.585098565955166,97.85091854721338,34.01013087541784,-33.42283724122577,16.44622823762996,-0.30476724721722687,-10.16431281275361,-18.356527817900336
-13.045594779045336,95.1685752538516,33.7912706100473,-31.995832962803828,15.556949511447762,-0.7270673898455893,-10.38552576581121,-18.27057798921289
-13.158140096681532,91.82980315432299,33.94994839961594,-29.94544483424017,14.74260728731184,-1.1118631457252661,-10.415352342356526,-17.923527415953373
-12.973235614389896,89.43077593487185,35.115047508001815,-27.55152735055886,14.378976940193526,-1.3038011068336983,-10.228061331233906,-17.496091055737097
-12.678093628116414,88.69220733382996,37.24953873815646,-25.187747621770654,14.526141246167407,-1.2735128386135983,-9.897343493520252,-17.14545484065318
-12.453326420999188,89.19529842867773,39.77357570147069,-23.09969966867477,14.951496008724197,-1.1147131135546848,-9.545892092626536,-16.93212348053273
-12.363229439228853,89.96389847556917,42.051071910105705,-21.313453208585916,15.353584974560002,-0.9524849411772944,-9.259741541177966,-16.8158597701319
-12.364617898960093,90.26620648080177,43.79335709236134,-19.710806468970603,15.564741206073945,-0.8634203745655192,-9.054799488165859,-16.72038839548692
-12.40346232326093,89.88078102179385,45.05276024467884,-18.160735582024312,15.55393404470646,-0.8845327930053376,-8.93048207195456,-16.61300623540397
-12.483616814857825,88.81662960996742,45.97410130707018,-16.57533196712477,15.309552271346567,-1.061490096298374,-8.929469961698917,-16.529399789579
-12.638847261499716,87.11915684093414,46.70471811800898,-14.881486252166837,14.818833017467213,-1.429676117943291,-9.102457560219062,-16.5237612507675
-12.858119544534116,85.10406038554359,47.54050972065332,-13.00679105637185,14.193764545203233,-1.9199643493127851,-9.39644583016199,-16.594031209092297
-13.05969258042743,83.58246118129468,48.966900234557166,-10.937468375693886,13.748110518713908,-2.310130600181658,-9.600857158193572,-16.651375720332602
-13.138801676303737,83.48505168585027,51.33471972128629,-8.783557823667667,13.843081199094463,-2.327157936580687,-9.447557560312504,-16.55935157215092
-13.0317341689363,85.02638621892721,54.410590501498476,-6.7518683512377455,14.5872795858135,-1.8514894193034654,-8.807471324552544,-16.21543168302661
-12.747956941288358,87.2256007084626,57.304039886452344,-5.025441224379213,15.66377413212047,-1.0613972984778843,-7.83282540782594,-15.632406051614453
-12.384318414519367,88.33234451952964,58.944015420654125,-3.647586872690623,16.441542569035743,-0.40434229563601726,-6.947039526520171,-14.986550001877466
-12.140422714257154,86.84067615752707,58.75849841528707,-2.487530198601824,16.278866736790857,-0.41226410038375877,-6.690777295360416,-14.597741292736236
-12.288643654595296,82.36516607465815,57.1001762565659,-1.2744417197579259,14.842935191306234,-1.441243816559452,-7.473223220439452,-14.803550507841539
-13.02967898921259,76.03028603854571,55.266957035069574,0.3362855360979073,12.37000735995181,-3.403374413175964,-9.275536501902204,-15.733127542001528
-14.264319086084859,70.4375163902277,55.182505841450165,2.6410572524313842,9.824218230027082,-5.581950588555884,-11.413052311356417,-17.083785822628133
-15.446540797161076,69.09803533161514,58.701271140500644,5.677440825621673,8.78091257483526,-6.702042132981062,-12.566302996056702,-18.07438279081424
-15.68570115975151,74.94905441792254,66.48474573228279,9.011347844183053,10.818195144659784,-5.411500002587978,-11.261002164237215,-17.698104655721835
-14.096924831474004,88.12769506865797,76.85307948137827,11.73330195089374,16.516646284922246,-1.0782546009256404,-6.700122082792333,-15.218927047288277
-10.205672021038296,104.39122170772545,85.58695567774926,12.80844311704826,24.668151570799004,5.541494485776628,0.512141626371554,-10.6640615303044
-4.168871613425047,116.02146420172758,87.48437244344848,11.65534626717645,32.44002401838418,12.321873605684859,8.323621717700178,-5.0013229055294905
3.2930165028919,115.66752623142163,79.28487239418116,8.58431864408038,36.7073548768336,16.687491898877063,14.09546358361203,0.17924490928463815
11.169347629366932,101.12964691083866,62.20656418481638,4.748102373607363,35.86770610691066,17.018728077397995,15.98762112033315,3.3861519973220506
18.444225228921454,77.66705073393246,42.07619638729718,1.5625724753883645,30.911021040584846,13.666430830477298,14.026326518820342,3.984380812290383
24.236150474557746,55.520225524178805,26.367125342677678,-0.07296592424713412,24.85007185674039,8.81695946779553,10.09240175374882,2.540859439195328
27.794259647474966,43.50185677699477,19.604877155448648,-0.2538457433487431,20.69624331729137,5.158564287528047,6.727892167146795,0.5195447628762193
28.507412645135517,42.57545389619584,20.03078581650146,0.08825078483833373,19.26582018847411,4.15355902331485,5.488350445734233,-0.5063368105678601
26.07525382068339,43.95539542942161,19.95632129314237,-0.10853883797133543,18.37470477818834,5.073609818552354,5.948005949532116,0.3529535739272313
20.797640975626663,33.60775420444677,9.97980919567876,-1.261408387559555,14.108176305864438,5.477307870343695,6.047440487887634,2.9601587638887206
13.73863020021163,0.7146809679229753,-15.363514341773959,-2.833946956827439,3.40365482584501,2.814756335762125,3.532878719574591,6.386788698299561
6.527700441628781,-55.208086848007625,-54.016777546684594,-3.692146849070332,-13.762595262137934,-3.920885610912055,-2.513763238571891,9.49682238108418
0.7988093634275839,-123.08898331242588,-97.09837280194851,-2.8567105541181363,-34.023822490904806,-13.550716463392174,-11.058198645173007,11.498095763395776
-2.4522200141447863,-185.6709171859169,-133.367304177467,-0.13241745167147612,-52.28761234143245,-23.391580226346708,-19.72131713819296,12.194287823708077
-3.2169986402028816,-228.02160458955763,-154.67025366024765,3.781173473813236,-64.2957201350755,-30.7101097188668,-26.09686700049689,11.906492606874599
-2.3288787132795417,-244.0972548913992,-159.24058964537366,7.717353908978763,-68.50562849434172,-34.00859062334765,-28.900065243024223,11.208301211668106
-0.9398317210535606,-238.02686509203775,-151.37521588398346,10.681429510358129,-66.34224793478286,-33.477396625010016,-28.34202307092298,10.645282268642008
0.0375794566443593,-220.42041911904047,-138.37393954959845,12.297471403448116,-61.01342656374425,-30.586157332971307,-25.73091757762009,10.537909532453737
0.2184911401658675,-202.80881244883574,-126.99746789896123,12.86982046519332,-55.8754969727699,-27.273036213470455,-22.740765241672797,10.898534080430984
-0.29747843877469904,-193.4477081510944,-121.29122039768528,13.146791686931602,-53.26987892673406,-25.221848511866785,-20.790696580683232,11.46988023307608
-1.1462687801086937,-195.66254435521725,-122.13946368368464,13.979163601017405,-54.092523639962955,-25.414181897096082,-20.68703672474911,11.876481307590183
-1.9193005720106229,-207.92672280763938,-127.81200316858069,15.978301557557469,-57.821960535683054,-27.888123804310187,-22.45364343965219,11.834877453643628
-2.32111156980626,-224.62685324628575,-134.79834401937873,19.19701109925247,-62.740096388208556,-31.654099395403616,-25.296349464488944,11.322445990610378
-2.2769464840127913,-237.4793946600607,-138.84118163199568,22.920476958354595,-66.38275414884701,-34.87851264914828,-27.777045614769435,10.613975605453668
-1.9701078863849815,-238.0541381762403,-136.28894577320588,25.754114323770715,-66.3344970285906,-35.46018226153434,-28.275041556013274,10.16170890886597
-1.7542511495717839,-221.0324807725701,-125.46617601412648,26.11562507828365,-61.19691712213578,-31.903153899376438,-25.644513707882094,10.363790476769474
-1.9515486303318055,-186.68977509460427,-107.37345601725188,22.962770797072636,-51.26567110161167,-24.122413500138897,-19.802849696828883,11.301031453427475
-2.656804059690494,-141.0625780615131,-85.25510253322214,16.35839676209552,-38.5076159775662,-13.74380921382749,-11.957568841785358,12.54346149776726
-3.6787633337656636,-93.51709335447481,-63.224543197734796,7.531068107860801,-25.795878628254265,-3.6407784638128886,-4.299439671523822,13.156575327620839
-4.6343833712174956,-52.93161555382806,-44.631467762995406,-1.5916782083070118,-15.739376110322851,3.2043171375070014,0.8112877916185872,12.022337466196195
-5.097608268261709,-24.409015946397773,-30.912580607591977,-9.083100462785294,-9.630586249218045,5.057664637670934,1.8969867876517332,8.450709026897371
-4.711726859905753,-8.038565170485509,-21.392729902801744,-13.583977585907647,-6.995663787887654,2.3353743324267047,-0.8298386054626372,2.8114595185277036
-3.272048811495966,-0.03767228119864177,-14.059636216443058,-14.560437319513003,-5.975715944103635,-2.5052685939729695,-5.404462830680608,-3.2578456458520355
-0.8406633148595449,4.653335188093801,-6.892653213829611,-12.323451220043843,-4.37386041289619,-6.143149578494098,-8.982845926147665,-7.394373646481013
2.110855707608477,9.761758512405024,0.8841586132120005,-7.950029302453725,-0.8714743451008796,-6.081437037444051,-9.305074286992756,-7.686436860070744
4.664924092008474,16.08032698554861,8.15728012615942,-3.1039358422319228,4.1702185854871665,-1.9470769028064026,-5.975019927774188,-3.8583184583588945
5.709425387868687,21.242753149802994,12.21519659243608,0.3880618692187242,8.752018555048435,4.334205260406611,-0.7677208786202444,2.3319740632537465
4.512851303423293,20.995582985029667,10.108775658998429,1.2493796106110346,10.240850412314368,9.634986150448048,3.3439548594448647,7.88673011399891
1.3701501888799934,11.90735213137204,0.8141052829141922,-0.517494576609617,7.018315976398457,11.439899700606793,3.998254737091525,10.199553652729055
-2.1367619020927435,-5.337309896427201,-12.783936198624481,-3.38605618082194,-0.021174663456960105,9.381779146194473,1.0546866033749078,8.558916649258396
-3.607108955029825,-24.029150274102822,-23.587727586394266,-4.880779281203115,-7.120623722472085,5.603963784920459,-3.031698834705213,4.568266126720595
-0.9335277905168143,-32.974632798195714,-22.678333747658446,-2.8009901863874225,-9.031909095211605,3.6805131411288126,-4.429565470276966,1.1928800881090142
6.489445122211937,-21.760927266506027,-3.815237695559383,3.5509383972455084,-1.6856766325131092,6.6445074380308595,-0.12269586498903876,1.0172162870993167
17.163227431612892,12.70999694023098,32.255394660776595,12.849152754206926,15.218461715464022,15.196504589554626,10.186320326339422,4.771073536203246
27.903303144397086,62.43342496151225,76.42974492663546,22.246644561718682,37.27107675385574,27.079293110238453,23.587465407625327,10.960253401635624
35.13113657153715,110.23018684772478,114.1865267557656,28.62659744444357,56.830097307036546,37.9754308930795,35.206738476267724,16.726791773816093
36.405335644330194,137.14258753067722,131.7660737399566,29.92994670943691,66.3410075018021,43.477819730724796,40.52509182123604,19.368113900490744
31.429670317138378,131.61583904660196,122.50073976053504,25.907630157864205,61.839479390504486,41.131485846484246,37.54209638361888,17.666725194709283
22.069115690561624,95.36408632141884,89.91653936150486,18.027766030281384,44.80250269548594,31.52342831449724,27.667018725605917,12.39238703915285
11.4296811598394,42.515596184430365,45.9276515796599,8.722553281279485,21.384346861158694,17.909556421108054,14.922861037592702,5.823242839922045
2.5067486293895165,-7.475705647716968,5.158941801003339,0.40969557514854593,-0.5066293821640654,4.6346077584195635,3.9403140291116903,0.6011336504861404
-2.9432473907183136,-39.06996537737371,-21.496152527266233,-5.295665325860626,-14.70534986420776,-4.797433403162499,-2.18074384084997,-1.5027121563947126
-4.834425360973965,-46.96113789821511,-30.773092461181488,-7.935198852093337,-19.084487431441385,-9.028489647267907,-3.0561701426549917,-0.33893126166896964
-4.399474481111158,-36.498531931868,-26.767486360999882,-8.089535489122706,-15.66631492958786,-8.962935403757601,-0.727949275789836,2.6858935669929087
-3.3528129199292263,-18.87667353523838,-17.324742140458845,-6.92556395971422,-8.831343460164698,-6.816665562995463,1.79960933535031,5.440312873258463
-3.051549102871373,-4.583808772004507,-9.588221703572739,-5.6435081780615475,-2.8605720463056308,-4.773805238219184,2.283941392420067,6.232759688688361
-4.036848921751515,1.0707489210914845,-7.162166527843381,-5.046357269116941,-0.168059486992367,-4.023806229806372,0.2661705994115896,4.694245114798958
-6.060178691198352,-1.415656715668059,-9.854328126007402,-5.36388830308691,-0.9033940284795674,-4.581615229454608,-3.054647259850759,1.8969631644664675
-8.44751254806643,-8.061598891920113,-15.2713164363969,-6.354240218270531,-3.7019479155598214,-5.768586918079603,-5.83478709458273,-0.3609852162322139
-10.553883533632845,-14.46621223721491,-20.8072998601081,-7.598651118437262,-6.854723915601305,-6.912346737043018,-6.787697564698071,-0.6933250682323848
-12.088721847469609,-17.9208741220956,-24.947956248170144,-8.809291642646265,-9.232219309263916,-7.829763250998195,-5.8967016608644265,0.9951023917163454
-13.180891217595946,-18.10486290300871,-27.58834777503101,-9.950907144979006,-10.645689693182483,-8.865832664909174,-4.316010127625669,3.4366183547108333
-14.179423306500949,-16.629578942660828,-29.565503963076246,-11.104557025337515,-11.640708254056745,-10.515931652385703,-3.5851499031739866,4.795830101207274
-15.336103428524902,-15.813721963323664,-31.78747509140828,-12.21874381358704,-12.921256442934217,-12.881794747108213,-4.63079486924305,3.835827064535543
-16.604437401810188,-17.200461465333074,-34.450131569197474,-13.007522500663075,-14.753668375313385,-15.333507687724046,-7.1439103211265875,0.7134100107568265
-17.712445699927088,-20.610302202129706,-36.842780850780095,-13.129833413058625,-16.732392515201155,-16.665620412044085,-9.716912812058256,-3.0936484060251406
-18.4450633729016,-24.388675686735468,-37.9058960149196,-12.514016573542778,-18.068891225964276,-15.725174066263516,-10.673214641808812,-5.655407253662532
-18.88631741057071,-26.666921640925683,-37.105097560877084,-11.533038458275508,-18.1698466985618,-12.139737337737975,-9.086467942660196,-5.690244914730781
-19.399738724738675,-26.60008662552064,-34.876750167865026,-10.846708566846711,-17.039414094039376,-6.668978883447815,-5.374013173428534,-3.239978067670519
-20.35052918492342,-24.62436944362031,-32.27896539856671,-11.001522619093151,-15.218024923216714,-0.9496565084242417,-1.1393762319068583,0.417188887772843
-21.78974834359461,-21.76280345281281,-30.21570105506402,-12.066060599322826,-13.388730310005018,3.199395317515401,1.5962296071404871,3.4820559329256078
-23.342982024661904,-18.832830740790904,-28.938666132977026,-13.54106434092571,-12.019895495135701,4.514838485906996,1.3268547379702675,4.5284426634287
-24.38079626073926,-16.237406486716193,-28.164638606961997,-14.595075653425896,-11.27115695422351,2.7355762494100953,-2.282789979488702,3.1091771344279358
-24.356301228411244,-14.221379002812995,-27.545511176100028,-14.498665656641617,-11.092379887767908,-1.354638629146343,-8.249643205263022,-0.16464486031272163
-23.112687683627325,-13.063941219316765,-27.034771705202964,-13.041470666267266,-11.332586510022757,-6.233988504992838,-14.632655550677656,-4.004952267756524
-21.00230453696598,-13.01551679749508,-26.969075692527095,-10.712443001598306,-11.798325935512084,-10.187247435204698,-19.24426254376665,-7.015749422593292
-18.758576267343233,-14.238974208043306,-27.961459774856596,-8.510666887047648,-12.323181692675917,-11.943592883910243,-20.458261797921764,-8.16556446879704
-17.1755320409814,-16.926007581751254,-30.679613371545248,-7.4441179529829276,-12.863305426465091,-11.192035694725956,-17.816679903918395,-7.02924516192267
-16.745278718935083,-21.33968955878143,-35.469882368490396,-7.986675429664072,-13.5245036807672,-8.72385761927238,-12.195571875157917,-3.835165440779951
-17.432459168465023,-27.481674324032667,-41.901616140889004,-9.82612914065268,-14.447866206825617,-6.069479205318083,-5.463230999608274,0.5942497833581157
-18.68999782752215,-34.554642030794135,-48.5500177758118,-12.054230368917937,-15.627133958073458,-4.757246757538929,0.22485668772306044,4.996959322180338
-19.68428245393511,-40.77660489741043,-53.32655002987935,-13.653429152748915,-16.81250917492393,-5.551153962209446,3.219154025175403,7.986649102711012
-19.60659261025112,-43.87997560736167,-54.303334438493074,-13.97207029125135,-17.57304886271582,-8.050179775329335,2.9742833776343987,8.541005776977423
-17.958893043001698,-42.06884094349717,-50.620120832362765,-12.95993333144483,-17.465799902528246,-10.846068496839127,0.236488665844207,6.49566947604151
-14.754571711180285,-34.96179987149107,-43.05606133574746,-11.127651986571179,-16.24433315573422,-12.174468798391723,-3.2890579937662734,2.7387762097206374
-10.57223173687002,-24.219498088390882,-34.0770522960581,-9.300142429457033,-14.07951700451654,-10.780682816926808,-5.718976758861139,-1.1096768290395025
-6.360605264927387,-13.640195233346358,-27.27296007742513,-8.225197349301066,-11.699297826439988,-6.601743314472983,-5.8891400308118085,-3.429281552121816
-2.949112507612113,-8.285814615021117,-26.063065298545293,-8.111200767853779,-10.21474753790385,-0.8820272178805263,-3.862032403572797,-3.3251639681153478
-0.4375754369016765,-12.25340511110217,-31.779081975457423,-8.28557617340948,-10.45848173308383,4.43957552690091,-0.6789425575232793,-0.913229320569617
2.132905499040546,-25.632838573976457,-41.91570515240807,-7.263215099014982,-12.066003637574395,7.824224806344287,2.5259299691108725,2.9541118467042193
6.4524133289518195,-42.50170021813431,-49.915073849999246,-3.3886350184253637,-12.98775974562751,9.08495832039323,5.431845855716143,7.248418680182725
13.955768605056287,-52.083489367730586,-47.466659064113024,4.147270713048679,-10.106204860987157,9.539710931229495,8.753525619231572,11.18643901241947
24.669820464070465,-43.583444060548246,-28.802609673629004,14.466346285650877,-0.9596409029907185,11.151733305768634,13.540480555973023,14.270400280110485
36.628041397507346,-12.574935300235767,5.1946856675452855,24.927727470033883,14.326237741984032,15.120589895961443,20.020435936706004,16.052839789270923
46.3545394971782,34.8650289356012,45.735421474990304,32.043273720799476,32.205913897049484,20.82689312433558,26.860961829801944,15.96243716688121
50.32039841656986,83.32434193929143,79.07274294793888,33.03205266381465,46.79632354925872,25.886895565923354,31.499483421218375,13.464379175655376
46.662107926272206,114.64045883399001,92.58403527377878,27.219717885469393,52.53802659953672,27.38892667788188,31.4654700561129,8.520076968188402
36.21115878170146,116.63376236756787,80.845331004854,16.481989927988735,47.017961628790545,23.599015503569163,25.89226648607411,1.9984860831379176
22.204004024500097,89.09818240431203,48.27323856175162,4.4188177663760575,32.276920029028076,15.07270449467352,16.213069633731788,-4.367281780781923
8.77577371190824,43.53105383188596,6.756239839476278,-5.332449885680143,13.749764380863967,4.456560270058102,5.527965105078056,-8.614572587127657
-0.9390323345315612,-3.234589221671903,-30.370327520263686,-10.719892356414714,-2.576371465040691,-4.905798509552119,-3.00193500960943,-9.490676654918694
-6.029634686025786,-37.66673314330951,-54.494756598683935,-11.937742108567168,-13.089069786083812,-10.687630863864383,-7.729608190232382,-7.140485511855722
-7.700647031145593,-55.33910959700362,-64.56025352495398,-10.80822206755977,-17.831499667638788,-12.558108768355037,-9.088788091275285,-3.0833577784078297
-8.01067764097018,-60.73870364322847,-65.26729493524059,-9.354616789200074,-19.483790108700575,-11.886037458417325,-8.856896923849822,0.5554332640148474
-8.34690221042817,-61.81340075166243,-62.298374400387004,-8.514693060919983,-20.878872738108416,-10.480270008299586,-8.686465592997568,2.1247679084013766
-8.629567805489861,-63.326171062951644,-57.9790620164402,-7.783870717259699,-22.798414729461847,-9.28692183093392,-8.93298672851901,1.2138096943896586
-7.67617923156374,-63.5902509258245,-50.20980397950655,-5.897754134053463,-23.51259778178917,-7.91533887930661,-8.544456006350114,-1.3097706233630875
-4.340305472006711,-56.51533399447529,-35.0355642263477,-1.961790829591917,-20.256515236879324,-5.2189049007349295,-6.001819530365016,-3.9416317357142545
1.4425892715436908,-37.061392332857636,-10.667196653570372,3.7957781663022425,-11.492051189736147,-0.4053687262519378,-0.5790206668539386,-5.416972187687635
8.414478705852837,-5.957258273885811,20.070588747127186,10.115303825248274,1.664286377299427,6.163194761586224,6.970319847644962,-5.295280989455603
14.65021487209528,29.648856030675187,50.558910827637774,15.474569282247801,15.790829163688258,13.0201516982958,14.728091043476002,-3.9858945261682175
18.59119418050965,59.889845639060525,73.77603908311968,18.930724063151764,26.966095617015235,18.395127274321215,20.64774157520159,-2.3287786277602858
19.760117757667917,77.49751146396376,85.86139670774477,20.481122008088096,32.768844332137704,21.16855220749172,23.58707989061795,-1.0763868756568928
18.779715780666223,81.1286228402129,87.57270877034303,20.828510604332394,33.21593235214504,21.35139739458802,23.710941020830308,-0.579851986190919
16.83761797193583,74.87010908511952,83.0613871496585,20.868345494528306,30.24662364601032,19.869665356622832,22.14228728287081,-0.766525167568603
15.04605737432782,65.00082046324785,77.25920327105884,21.295811588735816,26.373571377292194,17.932343255923147,20.237511512212496,-1.3078613844552476
14.059675512753193,56.703333568711585,73.74309217607919,22.476763033718093,23.497295490963854,16.46145559731056,18.988317435006614,-1.8313397859465046
14.015182395210072,52.61299450427971,74.01088786621438,24.465427404463505,22.449007690059325,15.865574882168032,18.797975111165947,-2.0851772518441507
14.653965509337514,53.077179374457025,77.80680619947174,27.03388300526361,23.1375546546577,16.105281948049914,19.553875855549567,-2.018864466403408
15.501817736834433,56.911046063545484,83.70870224595893,29.725278733617703,24.887634243793343,16.85443348728451,20.80933251914776,-1.7630186545869302
16.071112582476776,61.97025714245688,89.67380187765067,32.00622073110776,26.755909855296068,17.65453922784735,21.98542943079799,-1.5190953953788848
16.05916407293149,65.7841761244478,93.70676816860471,33.49521222313366,27.858616499800508,18.078420771027883,22.591899252257363,-1.4217675855008238
15.464019317733369,66.49031916795421,94.65796212323788,34.14433464219727,27.707979522185248,17.899427207270055,22.428456784330535,-1.4646015974542854
14.554176755845774,63.63920347854107,92.77074174471925,34.291148519096545,26.395526073893482,17.181328914682048,21.668102566663315,-1.53395605509806
13.730790948310704,58.29311071330647,89.6394951054903,34.59703202924274,24.503795129058766,16.225337420529897,20.772813009093472,-1.5095661949400072
13.382513191754645,52.5140681855502,87.66639699830755,35.886747180240874,22.85381560679343,15.428703253651797,20.304987893880377,-1.3489249347972527
13.771818071542317,48.814569165038364,89.29320995209996,38.827292696807376,22.275673531127275,15.159307285406094,20.727178075349613,-1.1096558512843457
14.905797138328532,49.67867366050811,96.039597486693,43.43007813806222,23.39931587469192,15.66117893421379,22.2076783798615,-0.9217780888546447
16.383657375213325,56.58867761985621,107.28190468516186,48.597586158449104,26.308745137755924,16.920477118886406,24.419132053928948,-0.9330385516744137
17.352661126392864,68.376176673505,119.23224026666217,52.12965549540351,30.100403670439377,18.499950665356025,26.42506232805935,-1.2280814091827543
16.74408336986065,80.0364818553228,125.20998074821362,51.45245566138729,32.759008734947294,19.518133325961198,26.859469771801344,-1.7311648936810895
13.778403997228514,83.74133559138738,117.98601533335433,44.845707246202956,31.78753336397154,18.95953923961732,24.497496763281426,-2.15467257737453
8.46378569918303,72.46264950244523,93.51159353983,32.49951816218296,25.493234052218956,16.251264640274687,18.990745999073887,-2.078658963301258
1.734422868107815,44.304248296383086,53.88108359330697,16.725523281367458,14.177778115250469,11.740363706498185,11.285002831708043,-1.1747801119506314
-4.908260763254569,4.5364088566931295,7.379271161702646,1.1212027743046438,0.35716849087256286,6.670326396204097,3.340028320492501,0.5379476981826187
-10.050205136258622,-36.38244260053673,-34.82114721634801,-10.888005689509335,-12.274913466590464,2.5674798699289663,-2.7875282968119106,2.581200024521681
-12.927498069732327,-67.79821966213126,-63.56128975273935,-17.353118056788414,-20.579744799429733,0.37828212771160413,-5.980452627826496,4.158117780866642
-13.604533151919387,-83.82673444868789,-75.41845318807687,-18.319199026330974,-23.37532811716757,-0.08364312194051418,-6.5746254942275995,4.509015694252301
-12.751353777323054,-85.34781548330294,-73.29808227963458,-15.430292584418869,-21.713063301728152,0.013111837761098383,-6.01790977240694,3.3213970863883455
-11.241849950007992,-78.17371729670083,-63.95856399262259,-10.995339897609194,-17.979370058934258,-0.6874864183036622,-5.885146093791211,0.9947548911288252
-9.829784911045152,-69.0518267936001,-54.28085208447822,-7.057437304324117,-14.494804417407556,-2.7930787807557245,-6.8762543772641935,-1.395519328869008
-9.00826270843482,-62.26211670343889,-48.44643382359022,-4.826301631930638,-12.48630698631376,-5.709243769080405,-8.43251895689421,-2.4819625872346975
-8.989528918067691,-58.61340298445909,-47.1570506477321,-4.5425846420523195,-11.912965023541753,-7.985497872414028,-9.200994392280728,-1.2286895312391548
-9.709552590157946,-56.69733951945097,-48.6370526103023,-5.670023348680642,-12.017613998995174,-8.255284979692135,-8.037926705410952,2.4649007614768235
-10.85085705177163,-54.99231437283687,-50.41459446317456,-7.275961756688407,-12.121033694909958,-6.190219758757445,-4.922380018418782,7.5035665576496635
-11.940314395729752,-53.460246375725184,-50.93230326799253,-8.456431503467767,-12.199070410353755,-2.8954236570493337,-1.2225643632273435,11.900830292396309
-12.523329099690379,-53.94809888983504,-50.36798729986311,-8.653347308071686,-12.979578462529492,-0.5011082174985998,0.8692604991284196,13.604322788837486
-12.315972660887185,-59.174294012893995,-50.30282967686432,-7.763843770459376,-15.482183448570543,-1.1232869401393784,-0.5312467325537704,11.480250604759204
-11.233920330205473,-70.44795853487896,-52.25432923780132,-6.073612840128761,-20.139095047452013,-5.678833835030201,-5.879334721326676,5.926551531574866
-9.31558648929142,-85.05127889001965,-55.79355045802094,-4.146160439607766,-25.937869425489076,-13.152438701964314,-13.709108614218694,-1.2741121446195025
-6.663820298392139,-95.12187158741087,-57.575606811901125,-2.752597789205592,-30.226912184219557,-20.76835015274902,-21.109677684634132,-7.826137246771848
-3.4947263516321474,-89.73422882056099,-52.367178545835465,-2.7805226255709328,-29.602094362228225,-25.110653674864285,-25.004651347497067,-12.033012711617936
-0.23505014848383424,-60.05561732280101,-35.881261526438635,-4.997353213656008,-21.618080323581726,-23.71096130877037,-23.601350333149306,-13.512755073761307
2.48774681429039,-4.980418707111715,-7.779673445574339,-9.665642877606286,-6.382803875933723,-16.288614165824164,-17.239975519246116,-13.145038102472212
4.053647150478339,66.41525989719524,27.211539141181763,-16.210329123076445,13.023048252427573,-4.949321778732281,-8.185849487403457,-12.367397557757593
4.169359318554941,137.718800649075,61.04063513932912,-23.215878425408803,31.71727078738972,6.791384273582479,0.5032449639449449,-12.305611332131397
3.0776332362949312,192.16026140885225,86.01454847957591,-28.881576102121866,45.19068967069823,15.622627305709694,6.3928846880774985,-13.248647953069392
1.473653218230794,219.8389162944064,98.22229145115176,-31.768234101677482,51.24004478282001,19.804616031528592,8.608239177531514,-14.698473674970874
0.14881221342175877,221.17782852467943,98.74709340453576,-31.434982617576768,50.594637310694786,19.607269981195966,7.866558269885492,-15.857309924995125
-0.40520714491392773,205.17786160332867,92.32605140764787,-28.58478767010372,46.06929185971009,16.75375903364907,5.753432345529195,-16.190736756237506
-0.16853128445328625,184.34968438201662,84.76496596991622,-24.639409197949245,40.995712302644115,13.377215770652576,3.8012117958965845,-15.73245289105626
0.5313754879833674,169.64557542441506,80.78174228468104,-21.03442869578742,37.91849088184111,11.137127419550882,2.9055416453440133,-15.010038037342335
1.2824565391955836,167.4694295990191,82.96487169121299,-18.656651731388425,38.02161194116473,10.822131271091177,3.244037457295184,-14.696627544807404
1.781104841327264,178.62406954012522,91.42559381436715,-17.646507748320264,41.09832017597373,12.349216283631085,4.499844895007377,-15.196071487244243
1.8921703403105476,198.21628003995662,103.64084759862575,-17.49299581992471,45.72176801404094,14.924910723017705,6.120936116177756,-16.350633611434965
1.650720667800165,216.48692546477582,114.72274628602106,-17.257996518135652,49.58364663548897,17.2778176915012,7.506958551400927,-17.4029988774058
1.2564845280854686,221.45214591371357,118.71909146886706,-15.892025069154533,50.17977202620957,18.017907756375543,8.150515517245278,-17.279948400919032
1.0067510532060462,203.46846884718107,110.89910934153772,-12.678986121816155,45.786056777634066,16.11598969394889,7.741144778422155,-15.145590779094265
1.117041476004851,159.92582715179677,89.9689296610865,-7.700092757087198,36.2656824599251,11.323958522455909,6.183341483783005,-10.98542383499449
1.52063040910228,97.30941987320286,58.90398663328868,-2.005748044394409,23.194145969099736,4.309179417368378,3.5271634032717016,-5.850038499310732
1.8379868932087193,29.057733322958363,23.866541612099006,2.7617061571996206,9.196346803002147,-3.5744836967026288,-0.08691361738080342,-1.4845393469531676
1.6087618836327318,-29.871319733834053,-8.199707321589555,5.188817047925174,-3.114481427803398,-10.756773684615673,-4.369961892143295,0.5718925097867585
0.6507617622040454,-68.89446287595734,-32.05706145134026,4.87658327664473,-12.023529051099683,-15.948101745723294,-8.7586752052045,-0.07448654577890179
-0.7303263789542809,-85.21235166725668,-45.62208594673262,2.6714375066721034,-17.05440664689642,-18.486689350048344,-12.400485207653325,-2.31413252737803
-1.8731731149360435,-83.41230145232404,-49.94498645598079,0.17192100291346973,-18.764332153910416,-18.456046427095675,-14.393289510123422,-4.070564146907962
-2.177664544419666,-72.14921421102015,-48.090189847194964,-1.178014693719782,-18.275667865455407,-16.582900943828406,-14.225610990742084,-3.4700524688528356
-1.5210186590653592,-60.103327482001816,-43.688215277948686,-0.8352752578177354,-16.841064848344622,-13.971268089226708,-12.157668441987973,0.0530272316303765
-0.36333861504744885,-53.120428533333765,-39.75524540736991,0.6939211948099818,-15.541420952373718,-11.733225024412954,-9.241623409689558,5.394461592782086
0.5491925687729903,-53.1738250240287,-37.976544461703945,2.318305429897821,-15.046912061474035,-10.590105285755607,-6.867339775510045,10.378183426054623
0.6757563538265033,-58.79479400359352,-38.469884594400725,3.06932808410878,-15.417727219295157,-10.574233464255162,-6.041827024649197,12.939827340036258
0.024863541540820218,-66.42781485417942,-40.0822141971116,2.6093980977809217,-16.08057122830488,-11.005380560998244,-6.839300481870145,12.189665311044914
-0.8556912733073517,-72.27166758050338,-41.178955040823595,1.3253936776748894,-16.120852278950938,-10.838148425340082,-8.391725095434602,8.770230818754616
-1.1836522771313798,-74.00709732758412,-40.56763365284777,0.07582839307809286,-14.800670362845537,-9.259111277579537,-9.436787171283513,4.391093076202311
-0.3193229976295622,-71.61854999780816,-38.01915935147962,-0.21433214388685115,-11.985723114005534,-6.206521329340898,-9.058810822958701,0.9100267597296399
1.9770624925696427,-66.89001943953657,-34.12875989689924,1.0554390467299823,-8.206258244001631,-2.48469948707886,-7.1479692853202925,-0.47681812861625733
5.473763816462036,-62.039701854792405,-29.776240056373773,3.9022818887310624,-4.356442224685464,0.618654827874362,-4.335535214692995,0.4478589572847872
9.55915303067732,-58.5284327681767,-25.672223670504238,7.729310845177522,-1.2706166674624382,2.0036126491347437,-1.5267108530355435,3.1184716623817956
13.444336888147498,-56.73417359125313,-22.226105227592452,11.556880810088916,0.5859180708409452,1.3505393543247046,0.6287606721101209,6.6417171281665475
16.40187738463833,-56.33736585456668,-19.60826366508367,14.413433424824902,1.2193854120511087,-0.6791170312786553,2.0198149280939353,10.209541218452781
17.94246768204101,-56.82285158720745,-17.82231602217488,15.677136161059623,1.0108178759760382,-2.744125288396024,2.997124401327871,13.29820649572107
17.86044215439268,-57.77565212968288,-16.798799139416165,15.203496166287138,0.45170034157360567,-3.488933369327702,4.034881169632228,15.653948065314482
16.172294152054466,-59.05890384271484,-16.5858180929399,13.23940588304114,-0.19813010765406788,-2.2427700238100288,5.35991311272842,17.173854791709548
13.048788738218073,-60.93843836444305,-17.512621230926072,10.250114245265552,-1.1319418835765027,0.615220225347908,6.772133560116971,17.797948136875487
8.814714243049991,-63.952204455007674,-20.059044115227714,6.7695111675922,-2.894304086499035,3.8236534095671457,7.745531082251326,17.46600897226026
3.9850665870865214,-68.40388468659553,-24.38822937320157,3.2925804081784684,-5.961704350498417,5.840622618649568,7.717997205645805,16.132299477814918
-0.7598555912951038,-73.83466407132924,-29.907723537648128,0.1922778104305228,-10.28683714546384,5.545087449229373,6.380643922120723,13.822065641609086
-4.710987559617874,-79.04957747093344,-35.315782460999145,-2.3190075910060046,-15.151669591780598,2.6880824297709918,3.8248903650806545,10.727283812063641
-7.324613636534447,-82.80488177436109,-39.19061310493381,-4.150824933858842,-19.441359298729033,-2.0711941883461873,0.5235807500677867,7.306674228108661
-8.371642449683122,-84.5616660156247,-40.695245679777436,-5.256072745060186,-22.144349823272762,-7.491347910260923,-2.814713332270292,4.280270127781352
-7.982568873893068,-84.61996193915107,-39.90635057060995,-5.613221834304278,-22.77870706127866,-12.26583942462462,-5.4898100071813705,2.4061390618011496
-6.592678801504507,-83.60305192029709,-37.6435424327692,-5.31019589249343,-21.567746871514434,-15.531794260618549,-7.10708151641079,2.084393806732767
-4.8099305486440915,-81.89837989434594,-35.03512255749538,-4.627175137054981,-19.347231088268565,-17.169685997809893,-7.789605773410274,3.047044877161661
-3.2215456518364998,-79.578200130549,-33.08914415797997,-3.967815866508329,-17.25220439111869,-17.739304395822103,-8.119815930112603,4.421789401645955
-2.182814135280946,-76.72820269176614,-32.380863131035724,-3.6258429495113655,-16.267235011715883,-18.0591795326094,-8.76683779322221,5.203911142763874
-1.681586412093527,-73.76107723233602,-32.90417583655255,-3.5578703093815234,-16.81081519499071,-18.66682343666038,-10.017488161432517,4.837222080208638
-1.3659474869166313,-71.47353165657321,-34.1632287126968,-3.3548957254407914,-18.577316095872675,-19.50450423800167,-11.549437735905686,3.509717647462403
-0.7296947032736036,-70.87518159929819,-35.48108446625663,-2.4429246853820743,-20.73282153799803,-20.01917609791696,-12.608345224377954,1.998204619442097
0.6494051923898093,-72.77164992830187,-36.277128328251024,-0.38138186553383563,-22.30654537895144,-19.552016017407595,-12.432757800689188,1.2181908847416723
2.9282986457855014,-76.99451353043129,-36.03990548750496,2.8827332677524704,-22.496625502262944,-17.705960763287635,-10.61952772301456,1.772141377450819
5.902757114177327,-81.52731641696974,-34.08204126627328,6.861554789765046,-20.773284921700792,-14.482821054133327,-7.257010824107069,3.694646360689458
8.971517391985143,-82.37938823199651,-29.561218962312164,10.501158476536899,-16.93124861848409,-10.235676959006403,-2.8856829327194706,6.433163408646283
11.177917498066064,-75.03333122705877,-22.128792562557724,12.362889146408564,-11.282753257749684,-5.603984442061537,1.5827546252391242,9.024255863720102
11.412714733200554,-57.18836198787791,-12.880679104827314,11.083876605303407,-4.9148133758698185,-1.4837440095574976,4.980909214972035,10.417541449300161
8.81988829643894,-31.12281744184165,-4.6950789512859075,6.02431272639055,0.33814736901981035,1.0885977264321969,6.145105649772203,9.873721197466672
3.277637077619332,-3.700929147259924,-1.2568455429308498,-2.2157698123621192,2.478557861486682,1.256366688308249,4.352419721429284,7.296022352983056
-4.3286051474054394,16.575978640032204,-5.059544064334383,-11.785963342607209,0.32596120874381623,-1.2181965241787542,-0.24581841050035194,3.322023328027777
-12.292826404759941,23.940997057134116,-15.642232805542385,-20.225045127779808,-5.692755496307889,-5.6792705623605455,-6.5028930984574,-0.9153309458323938
-18.735598398827356,18.391380693153938,-29.39973624574728,-25.487184962528115,-13.549174340574394,-10.731586452131399,-12.654728240938123,-4.27010152700641
-22.39832990413228,5.347135298986653,-41.31501978991455,-26.794421445667606,-20.548053655304987,-14.827395478592871,-17.067799770213725,-6.063000967524562
-23.131889070598287,-7.777759578774412,-47.570092623333665,-24.818812575744275,-24.665345219058725,-16.971040356183305,-18.9469287088159,-6.299502294033225
-21.800251519549853,-15.629053009463219,-47.29461941289538,-21.124824606783935,-25.433115510345615,-17.10442663553237,-18.579425476615476,-5.529784436184796
-19.70495716882372,-16.889103291629098,-42.371112746122876,-17.289236236941584,-23.834593149969166,-15.94474113159277,-16.993389384640537,-4.481003781383914
-17.93568701105266,-13.395576271872475,-35.73977647822397,-14.269953129267273,-21.422415513234267,-14.441457851967028,-15.307456401916633,-3.710924607527455
-17.023299644813115,-7.8961685240123245,-29.67674591211045,-12.303724725753964,-19.39982797555119,-13.267202484278167,-14.217561085054237,-3.457529548067405
-16.970479016454124,-2.470898991197786,-25.160674378334946,-11.174126376000979,-18.25102205141712,-12.64373582916619,-13.873427087090318,-3.6806820394068094
-17.46623776515495,1.7034183936995286,-22.234585678298806,-10.50915120351858,-17.910368816328862,-12.47419769868765,-14.058197115493977,-4.1792968030427025
-18.079776192923198,4.018434939195696,-20.545685261617855,-9.929236795117198,-18.073795948449963,-12.548627122208455,-14.427057042520362,-4.694235195084154
-18.39522700404503,4.337968879906212,-19.575431289819143,-9.09944509524477,-18.38658801840989,-12.66489410018844,-14.667756915144908,-4.9909008280598695
-18.14486055122595,3.0594501140348718,-18.73020697626983,-7.782201848460211,-18.55664019662374,-12.682997357474141,-14.60390600168118,-4.94062948781128
-17.33120673769116,0.9217332464430303,-17.534856178402418,-5.884378301878537,-18.48406518798261,-12.567643864182791,-14.267030021593799,-4.578809042207321
-16.244067459673545,-1.2799743878266663,-15.757753047104123,-3.4588653755426857,-18.298417323817503,-12.382735667733845,-13.87452960999426,-4.095143539649943
-15.327311237798249,-2.5688459477387786,-13.21537331995779,-0.7023860415346984,-18.16080747229866,-12.184342552248818,-13.66528433925356,-3.7525418848055283
-14.97458742971738,-1.4135010442454645,-9.500552601999466,1.9865319475324128,-17.963970505685513,-11.887769399584533,-13.691618192721853,-3.780859049746967
-15.36311561279053,3.939676623610526,-4.204926824986898,3.963881769758,-17.282899362208234,-11.278511319103568,-13.751513169002884,-4.284391594479574
-16.34463113531172,13.948875997016184,2.3001633631724117,4.5097001635077305,-15.720655904188561,-10.217892454774876,-13.52435313123024,-5.16265809752359
-17.360215801426637,26.141891666986027,8.318016932763632,3.279518494849472,-13.338683654071968,-8.862396546983698,-12.77022824987029,-6.051204309744327
-17.43365253230785,35.23376342906622,11.393345988338085,0.7741116230664571,-10.70829563210105,-7.651451801918045,-11.409306710500571,-6.3490497398739105
-15.39679554803637,35.68158631261767,9.872735623993467,-1.6158204868451458,-8.487274724969176,-7.024997998162728,-9.459296902795554,-5.414869741368628
-10.404842584115192,25.170439445478625,4.268287158456589,-2.1988109840193797,-6.909733574321363,-7.09449384690267,-6.968432352828874,-2.909350113860679
-2.524325555184175,6.488039136992205,-2.75594965304088,0.08003650108386239,-5.652856283955029,-7.534042455071538,-4.052410419810971,0.896694023866332
7.009757957742368,-13.654638932693116,-7.858239103534304,4.961165975380431,-4.169916112812875,-7.759378828870407,-0.9850098517696476,5.080662885153689
16.140345690247074,-28.099174713632475,-8.900168001133025,10.923876484741564,-2.1683586695445487,-7.236703231906054,1.798653421827524,8.39190966359227
22.829018003110946,-32.74753903120088,-5.94330721121412,15.955674001511188,0.1723551192550033,-5.702871782005734,3.860840579955023,9.81107274386259
25.94063505335187,-28.015946225121766,-0.8017931106592876,18.557034528758773,2.39606313815755,-3.1923007353365636,5.012112072921673,9.059041351403067
25.67144701442513,-17.70206209506001,4.350545480581913,18.3839100871607,4.180660141484389,0.06698888978092278,5.4843708068985615,6.782794022960596
23.29266526317997,-6.453385861537513,8.221527835233521,16.213991213482423,5.589273151352686,3.7411427869790375,5.869866266454661,4.30306614846003
20.395081087211057,2.345047643986283,10.671840651234692,13.371123786437217,6.930249219918206,7.38031168669974,6.806211380289599,3.020675221793223
18.104772020493158,7.249167643758255,12.0862416947445,11.027593304763757,8.357905011463288,10.385475083945693,8.576917247647467,3.7503870474866794
16.710248388047198,8.32676836710223,12.629017866981158,9.76683020306384,9.605910796676442,12.11090385874557,10.896434684703447,6.306957727785126
15.834160299804505,6.556077137537638,12.098024546965153,9.53876641812421,10.136441334321514,12.153098300465501,13.047420675939488,9.567740861750265
14.93289470738547,3.517782188983451,10.39591367137093,9.905644168850069,9.599395581465323,10.658924965059086,14.290792156917524,12.00900628437392
13.75487265186438,1.1185915968461961,8.045301538719572,10.381873797346518,8.202914991253634,8.384749105938052,14.273219699877924,12.459639985941426
12.490415785410647,1.00787476013011,6.205052324164088,10.685263836148025,6.670978682987468,6.3848780078242955,13.16742011635842,10.670802312263366
11.577574970294018,3.87276068300985,6.137095897496729,10.780344972731475,5.808286388461496,5.483182278736431,11.47557805414832,7.372431217068539
11.330301857431355,9.135125885602307,8.498628795765775,10.7102362702007,5.984486512207191,5.845489750334163,9.651059419437637,3.7791945110070233
11.641826782036688,15.283630760627412,12.896008842532236,10.366687607863973,6.879323789411784,6.902781460418266,7.8002119240025,0.858194730033343
11.965389472152898,20.5554490147648,17.94176656963291,9.424066317917177,7.64216857205024,7.6592000358770775,5.6622303772823175,-1.1691166035048153
11.604120294522675,23.54860429063191,21.8144859586344,7.545567115093148,7.378891820673141,7.214386655487508,2.880395581398831,-2.7817461399467027
10.133131126644844,23.614874293532825,23.093505431563152,4.7189694227737355,5.703239867646828,5.234468342422781,-0.6151017344264837,-4.637847441211176
7.670469206678812,21.070259712226218,21.445766862009208,1.4274263346439384,3.033098966788209,2.1378601618934576,-4.374758875502233,-6.960182028546322
4.807599142671017,17.14046602190783,17.73336236817738,-1.5244497591514594,0.4206301037825719,-1.0978167131294987,-7.521299383556819,-9.2506201359631
2.248517051974096,13.47367641454169,13.434371272159902,-3.42467081681487,-1.0238760562310893,-3.404076826286524,-9.130106786431316,-10.51830878038617
0.40557573042953887,11.3391030950549,9.76639547516556,-4.018187883074925,-0.766491540531013,-4.106896282709512,-8.676832748377187,-9.876754822594172
-0.7900038603711576,11.031084698762283,7.136631867403,-3.5985211708409026,0.8769352654247905,-3.1650345121359864,-6.295521353122889,-7.152443946562503
-1.7689422475188292,11.948120857073345,5.255534700882944,-2.8191473488273013,3.003449221175674,-1.0586929108304581,-2.7187386806431757,-3.146898127659706
-2.9958475615403937,13.240010659822548,3.696789869572414,-2.3695070319917804,4.716457136259837,1.5570331987828934,1.0469917567102522,0.6257311356781918
-4.630025140382755,14.42583369511914,2.3875703733757003,-2.668354492731586,5.641994597454824,4.202889234475879,4.144211612273116,2.635117517401544
-6.356994365772233,15.532316400354361,1.6984603827579368,-3.6760848700757784,6.075869075296697,6.746849772777298,6.208943259901097,2.130186944009893
-7.48940987831329,16.864850491882116,2.195959399177833,-4.901317381476189,6.752178020584983,9.351157749549436,7.5034762209584205,-0.4010851785153622
-7.316581208686655,18.800302100275914,4.3129129945494284,-5.6378398005548185,8.419806661455052,12.263631718354079,8.765368540462571,-3.408445826960627
-5.544449367728408,21.718978503528604,8.102503761492134,-5.35135508650202,11.433019973033199,15.565120472933941,10.794412062111622,-5.057082548997385
-2.5769416754380865,25.856851681784,13.111691406769333,-4.002665743779609,15.503490539162842,18.988455681171924,13.938023823392577,-4.211120222388912
0.5605247332954315,30.980737466481894,18.414440457756847,-2.0967476970636145,19.71748402451711,21.911157902080358,17.749008306817192,-1.0783543726026121
2.650326684811344,36.19189428460346,22.87182422058417,-0.4287395711496587,22.857811560768234,23.56824994504656,21.05674910858595,2.851000230828297
2.8316208832624725,40.22252036547836,25.56350136673189,0.2941487961720294,23.925440456757006,23.416738066653195,22.475961142869156,5.536922980652391
0.9618872889112974,42.11990122338288,26.143727253851914,-0.27210489647463726,22.602037551424157,21.47013052803538,21.102638780693855,5.388069330123039
-2.3819109019483897,41.766914778668934,24.875814538452268,-2.0385554354996533,19.393248128688093,18.407074934439656,17.01507417584351,2.0030872659798713
-6.211908915855343,39.83883176209777,22.360514719423332,-4.578137602060495,15.389206936479216,15.370516325805724,11.307100758348664,-3.6900821952538143
-9.55041849260642,37.36992461295301,19.22863320380004,-7.300941182014622,11.815564327753737,13.53581407620901,5.647967461049178,-9.903317526504946
-11.761325041100081,35.39605481107502,16.028350498396886,-9.650594696749767,9.623805213761232,13.633040332084205,1.6051602306293888,-14.77509005000458
-12.676435704152633,34.839829071067314,13.264249266010653,-11.269618208469701,9.256994751528183,15.616770526126693,0.04757901693901374,-17.07678013774489
-12.509405184575177,36.38150442103054,11.375110643724662,-12.072190533478473,10.58288553577596,18.61462833389874,0.8624922946474091,-16.550507568587154
-11.643289696324674,40.10811006791414,10.561655187757651,-12.201036548541312,12.951300801104255,21.19726379347505,3.0609004704422897,-13.824095958585088
-10.428332584855477,45.18044173562576,10.615916435309469,-11.9259698971326,15.37903049302143,21.90911280442134,5.200063524398901,-10.053691159574278
-9.097449286120415,49.97470782653646,10.961755874450027,-11.569953797412017,16.868016522064647,19.882845481177252,5.9547260590663,-6.508294198551717
-7.803414543259133,52.809260554967736,10.937960510719591,-11.476573692317181,16.77908633928921,15.279497241977834,4.628978385862928,-4.235068982244847
-6.686214307387422,52.84699727049649,10.157665729939879,-11.95211796962996,15.104956365273917,9.335262375863326,1.4276856714357815,-3.8346997701649523
-5.881818856949059,50.64721020953134,8.748255929117954,-13.147374912330283,12.509861267787352,3.97317984682274,-2.6064552134473415,-5.338214881785471
