FZ,C3,CZ,C4,PZ,PO7,OZ,PO8
9.777324071486557,10.19758618315435,-8.37387235888281,15.83795528252925,3.7918860572370363,9.33322060404459,11.802794005120488,11.232946450824377
25.16110775786325,227.65243656312003,374.3330400557885,46.79844208674039,205.3470991646953,44.08493557133563,56.69129188773427,19.85728696897483
36.361912257307196,387.33858765833116,654.0531783087191,70.36134702104046,353.2193646505078,69.67190158972674,90.10722619752829,26.81073231880274
43.838350084823155,467.87106108778295,788.5625444312369,86.26468757221586,426.3805948652943,83.5587663622995,109.53608010712027,33.30140506857156
53.34821152106633,495.85130496907306,817.5447924948039,102.60578900825897,447.37015107687637,91.60818417553531,123.58116762220139,43.58955194550473
71.95927622558732,525.7865862525896,832.0998518222732,130.08022343386446,465.1249614529118,103.8134497112711,145.78376775289092,62.08864879601271
102.57810411561317,603.7049160208304,915.6787516402788,173.8055903441519,522.7906082950943,127.30357108077219,184.91218640349356,89.69547777561199
141.17497566989755,739.3936085239363,1095.956674792509,228.8956198140875,632.2986271204348,161.5954928997539,238.73861459366202,122.25238273401649
178.60799966047597,903.6329870533368,1335.4685482711168,282.73793508151033,770.5528778330792,199.01433567830188,295.22549540622737,152.31423083367807
205.5436956495342,1048.5402912262216,1560.6432314110102,321.96447679808887,896.3202114453402,229.40730766755888,339.59689368568854,172.9437434154595
217.10175495089388,1135.2425910100876,1705.7952709873832,339.26893340259085,974.4700568644591,245.68608452400113,362.20987784781704,181.01729413129098
214.5418606299917,1151.8427584381288,1744.6337175765755,336.09192611794475,992.5394138663869,246.86017740411972,362.531226320482,178.165895995305
203.58606000670912,1114.005148612394,1695.1379467803101,320.4314665167873,962.3495922022973,237.3983837880336,347.77631733722114,169.21831935378336
191.00778718727793,1052.0737147034815,1601.8396151168884,302.0231312545882,909.4868553433181,224.11538896527537,328.14741531347016,159.4896474830203
181.66741200801147,994.82722044394,1510.4884521107886,288.02187903130033,859.1963019953256,212.81157658175874,311.96780858518326,152.57486974881652
177.27809017394264,958.641246659103,1449.476361212448,281.1040099608459,826.5005083003722,206.3431260469028,303.067670844155,149.55193144671478
176.8590678653933,945.2008052607596,1424.314439647501,280.0131036076332,813.6671694806593,204.5141746381191,300.8462527161874,149.47055926976438
178.06548502764608,945.8243547843135,1423.170853540972,281.42897505447394,813.6314476585243,205.20119590168716,302.04151283428735,150.44742558516614
178.58348765720459,948.4650064977022,1427.5327191926435,281.98807203695026,816.0076147634112,205.85666278333903,302.93919041712695,150.73570972820883
177.1061471079937,943.9468834328226,1422.2875257070398,279.72971357463035,812.603235651731,204.7354564147961,301.10358779790516,149.42357825806755
173.65967667866502,929.2951867978741,1401.5290288458602,274.61179114452466,800.4794354797748,201.46427358647958,296.1290102147346,146.6234852555029
169.24810525187215,907.4150956893676,1368.7128715068282,268.03526063984356,781.856012933483,196.84590664945554,289.2886849343255,143.15840579163384
165.0734219073635,883.9655066305281,1332.2621712949167,261.73594326498534,761.535128012833,192.12256871634315,282.42519067234156,139.9539408190266
161.83621014898898,863.6298430584931,1299.8132276113915,256.7642970291439,743.6821991603862,188.1992036172947,276.8208295318796,137.5172970817728
159.53151320428248,848.0364142073541,1274.5855682482315,253.15886232955057,729.9080565172651,185.28957310700557,272.7174037176069,135.8052066858761
157.72534094833415,836.042864215992,1255.313808240489,250.3153300513935,719.3664003843917,183.06691520019473,269.58074431949217,134.45475253902518
155.93856206444966,825.2988027064606,1238.4563839555155,247.53298993818987,710.044584610721,181.0227877203425,266.64861617117145,133.08463832884172
153.8312163451723,813.5892683130602,1220.4302816505603,244.29511068824416,699.9732000137038,178.71728775746786,263.29019331211316,131.43442703557386
151.22358485138412,799.4950238993113,1198.864471694218,240.31845889138313,687.8679216006122,175.8791131167308,259.13318332684116,129.37626903999924
148.1515530872202,782.8361044138209,1173.332875787896,235.64391521606936,673.5296262081297,172.49470729129717,254.18337253413023,126.95462304480071
144.9610428774535,765.0634637143289,1145.890324221683,230.77679735128837,658.1649007223549,168.9028464712869,248.96250210247052,124.45665413796685
142.22571216820532,748.9421666941055,1120.63203343608,226.57060482330715,644.127234361195,165.71676912469331,244.38978134805524,122.34437996950818
140.38680357305904,737.0142377331033,1101.5104014227015,223.7026802930832,633.6409675432673,163.46832990435865,241.24567798808187,120.96939817468171
139.3559647955078,729.5833803078048,1089.3089803265225,222.07935296710926,627.0750187687622,162.1740204387364,239.5237513768221,120.25747914391371
138.44838890975794,723.8368893563431,1080.0905809580704,220.70649390051068,622.1130903768209,161.18516863549138,238.2192867329673,119.6510107262883
136.74195560489886,715.032885126567,1066.7104834409245,218.19001270070328,614.6778173948308,159.48317941616676,235.7908584270092,118.38994522605653
133.6061232774762,699.1153189624641,1042.7227328917118,213.52119181448765,601.1596508011675,156.2376497241719,231.00935311436348,115.9388606004523
129.09439180482175,675.2867599303638,1006.4943241065752,206.70143638524533,580.7073525502487,151.31916823226382,223.7243885654457,112.32128545208363
124.09151293358812,647.4265029988875,963.6038960909511,199.01652868570912,556.5483309593712,145.57701790804833,215.26484148934088,108.26248582990392
120.19258264403535,623.7563215721876,926.4312166263554,192.88892729765448,535.7529762359002,140.77688535892958,208.3211883245282,105.10017963307548
119.17445248753172,614.1326897691648,910.0718022408862,191.08455830710682,526.9145675921693,139.03361326076654,206.06685745054617,104.33828360692574
121.9517588920803,624.6848796230755,924.2889537823877,195.11781912353118,535.5365923109408,141.64291069592073,210.38395817014393,106.76496957794198
127.35962659323876,651.3654127966662,963.7699517981139,203.36913384209032,558.4471354568451,147.66739440998987,219.74539965779906,111.43141896246829
131.63580544036967,676.4282753238388,1002.5040184373297,210.22441306591813,580.6302519611435,153.19257968707504,228.1441374553278,115.21482010340787
129.4004993949133,672.096604085181,998.7444407328062,207.46546982034047,578.16787202194,152.17734226104506,226.44893624774056,113.62384537702675
116.03113170658271,612.0319434051607,911.9534626477356,187.82864823238975,527.9899732616193,138.96722526509066,206.246480756342,102.77201191776658
90.2245468036984,485.55813483863164,724.619616363074,148.9774111996492,420.2683373347734,111.32103508848124,164.38806260306447,81.53637364948325
55.15672616353719,306.2632246303861,456.2443756153268,95.47079992956048,266.2243325629128,72.16994061645956,105.53952428218226,52.57866601716328
17.374310938742752,108.72283104035641,159.32264209086054,37.29316961671431,95.69858467067348,28.86214326752369,40.89315285185762,21.465263642553605
-16.062044273156165,-66.06666843036916,-102.63963752116723,-14.42912750181047,-55.338672834301754,-9.902121156493143,-16.567487381641254,-5.742411994148318
-40.530563183324254,-188.64803447376556,-283.3699482671029,-52.09589900771071,-160.6553785810026,-37.77664031716851,-57.65321157249749,-25.073176622260988
-55.18273687923253,-251.99807278117544,-371.83900424301225,-73.99721879532915,-213.76826108188797,-52.99736660221729,-80.18810720745763,-35.921533400959525
-62.09876192885022,-269.5649260820246,-390.06859197795353,-83.30972990449197,-226.6502160318383,-58.0155880531249,-88.24276327089622,-40.43034903620755
-64.2376965318446,-263.4949237029343,-374.55818064323466,-85.01121351379159,-219.41356152634026,-57.194714583524515,-88.49321135971863,-41.69434839380216
-63.784727795614614,-252.0840456647429,-355.4181165677544,-83.12758855771867,-208.83518238510888,-54.355636152047815,-86.48239227130969,-42.12290083086337
-61.76224272782576,-243.95350204561365,-345.96493537206834,-79.8011446508219,-202.6711475270348,-51.58619554890439,-84.91003835621062,-42.806515561539804
-58.58333153768715,-239.85622846061162,-345.3135729298029,-75.90686341932732,-201.02084161624163,-49.46669145829313,-84.10502497853257,-43.78686884184165
-54.77419728630552,-238.0001521277493,-347.6261917441053,-72.12429986334953,-201.25972596730819,-47.9905880976578,-83.53234622544585,-44.68931325147385
-51.44570701190556,-238.67225833776033,-350.5730898503018,-69.75511114743091,-202.58381627451868,-47.467202100119664,-83.25089045810068,-45.355262503917196
-50.38631520984995,-246.20779558426423,-359.2678721746004,-70.99757472352658,-208.15502700553324,-48.99222752167146,-84.70735008949453,-46.276863533770985
-53.492454168404464,-267.41609271882675,-384.41685863777633,-78.23655771580943,-224.00776761165733,-54.12943790877946,-90.31247568118415,-48.49369617746413
-61.30837744369617,-305.94625530482926,-434.14064047238793,-92.02471208385418,-254.30240419555022,-63.59766138076079,-101.45320252380849,-52.66123180911362
-71.29368687025833,-354.5017209369073,-501.92142854486923,-108.62590256071742,-294.458033380246,-75.51040030002059,-115.7499791419121,-57.68618882083628
-77.38365952624943,-390.6616491086844,-558.6746005871373,-119.34001727660855,-326.94904385318995,-84.61903518112591,-125.7752790273256,-60.11648565402297
-72.08796826447282,-382.49683677408296,-558.565887064504,-113.41495572248868,-325.2070297722704,-83.8744873936511,-121.27620011863908,-55.31689877516328
-50.527009488948835,-304.1278557878499,-460.4446153681416,-83.76156302782503,-266.28622402210357,-68.03231579891197,-94.54364535795546,-40.130172578228986
-13.932980813313401,-152.74684137026412,-253.86486737721572,-31.996941462579333,-145.57764574295368,-37.17669430305116,-45.74347895695339,-15.321096924786298
29.936931250322687,44.68860852667362,27.898575443014742,30.852115501951822,16.474391232635806,2.3358452122458706,15.589833441454395,14.024607812279369
70.06453280754017,241.0262431216227,318.52560088363504,88.91799854285325,181.29446060852584,40.41911164587351,74.31977117100703,40.62514457131613
97.23325711860043,389.89149818200343,548.0361579590195,128.73282176933722,309.33951145189616,67.86231438468651,116.62393079535045,58.397967747765854
107.9023942065947,465.7610317626103,673.5963835787046,144.88056784660768,377.4044333444879,80.27635311503667,135.951056036781,65.07644414754614
104.8457759925017,471.9989742787943,694.3607037361861,141.064335857627,386.3723996715234,79.24553657055148,134.7687301067588,62.62962749472103
94.67342706886203,434.0107247468187,644.2051169602664,126.66241070289337,356.384642924566,70.4504839229675,121.72912432616552,55.56165315498791
84.160040799186,383.76135799089076,570.0005668107767,111.47016053270757,314.18540173509086,60.33111108530233,106.62250639406764,48.41977804728614
77.57459110243877,345.58373642308015,509.8406334422311,101.78624182969486,280.9211956834598,53.36321449489164,96.25872951831899,44.017938318961285
76.01818261978174,329.8768661117906,481.97428882226615,99.35444032634378,266.2693413010088,51.10362729360302,93.02444262561461,43.039162827358226
78.29838253139374,334.7703929795464,485.8267370058362,102.54994539510011,269.36498535388586,52.775687302243846,95.76859463930793,44.6523505881023
82.2441278792844,351.55301136956314,509.48442216696156,108.25786242905548,283.1830498954544,56.43767324694316,101.56815286458676,47.38121941870159
85.72847497164382,369.8618526207411,537.5002584464672,113.37077829466716,298.9448168561051,59.98857202048891,107.24797670614572,49.76080599169995
87.27273172741613,381.16480326431616,556.3980357172853,115.69540054525963,309.1751334828995,61.820658348129044,110.36617023378237,50.74429307646667
86.3267445272286,380.73875073238133,558.0035073481426,114.39137991564628,309.5171570931503,61.18659301534521,109.7657717309548,49.93358754669288
83.24897513780888,368.3974212592959,540.9985102999633,109.97011030219214,299.5078257884505,58.293004777094716,105.71495372538479,47.60993712200555
79.04696744409951,348.06638454485693,510.72368578954456,103.92673430088942,282.3480168924225,54.12745115388029,99.65671973155504,44.5617435072478
75.09342449830366,326.70260699645115,477.70909796146145,98.30186350962401,264.00872797604967,50.16260216646542,93.79126997176371,41.84884626882521
72.9563132373932,313.0591718428593,455.61326591174213,95.38333209271734,252.0890798397992,48.07678317811301,90.68896137455855,40.621401178021074
74.12301345263428,315.7509095938498,458.0274528736073,97.26980236438969,254.06482231167604,49.36935944976085,92.72162741789968,41.868813988489755
79.25322472577628,339.39065349872385,492.5785171844726,104.80627006917909,273.9829702295156,54.60788368666976,100.89016377831587,45.87088716156462
87.0719722475734,379.13541996127975,552.7371888852779,116.05261152987022,307.86593712729035,62.41759804809037,113.21730380232917,51.46105486570466
93.74732246680016,417.1066586639506,612.1891627565149,125.46714552842397,340.6544222568084,68.96619323230739,123.8768507755243,55.71575478952666
93.71262856396743,425.3650567370912,628.7645071974151,125.14653405369445,348.62834642646897,68.83065138797265,124.45011149179301,54.713691289285414
82.01150879944096,376.88021831251194,560.5974163489765,108.20933553701376,308.64656599767847,57.3328909268546,107.48432708119267,45.316710777438104
57.00960301616379,259.93352226158635,388.23188609553694,72.64782886752612,210.47393019925534,33.2223257474979,70.67138593766742,27.032356885478336
21.796171580464314,87.47195030618316,129.8603516018763,23.232790378229815,64.97241219091893,0.007928428047838831,19.048408024432195,2.7302385396951263
-16.73322315413388,-105.29415252966896,-161.195995701448,-29.959063585238056,-97.7422153293712,-35.12304069269273,-36.466468700832934,-22.393691536839718
-50.72373694010715,-274.99390810289424,-417.5976788212077,-75.77579888399654,-240.33748098760734,-64.39393804521396,-83.68740037798389,-43.106558809105216
-74.56880294738106,-388.5245735359876,-586.839428386446,-106.64174216581833,-334.2447412988557,-82.82678268837313,-114.39805069764213,-56.36691588320541
-86.74205954548373,-435.65135787313574,-651.8850764910331,-121.08091201979497,-370.74227475789377,-90.01131065271262,-127.2800056233989,-62.22865952348169
-89.49749223124915,-429.59146762175106,-633.1360236572384,-123.04689399601561,-361.5960355477556,-89.43083549192274,-127.165067145237,-63.077668322263456
-87.06058907212118,-397.2325874712669,-573.4996055610978,-119.05521763619026,-330.533430617008,-86.1185223150125,-121.64028414163383,-61.960247041606266
-83.59170002943429,-366.12808145026895,-517.608516912782,-115.0941398128008,-301.7810304088172,-84.2384732922567,-117.35175847042632,-61.14410056251164
-81.76714890640714,-354.6961579520367,-495.85366182718224,-114.61656831181598,-291.4393779190334,-85.68602518006688,-117.72121280899958,-61.49530584154179
-82.08628363392357,-367.5366219971395,-516.7289450706749,-117.74132628886477,-303.4646223854442,-89.7687188103285,-122.30055835398284,-62.503904231471886
-82.88109042549428,-394.98838174992767,-565.8129369291107,-121.4976027405716,-329.3389087003506,-93.61755619915887,-127.32392446143234,-62.65471218540224
-81.28922249182554,-416.8345793310909,-610.6164003504035,-121.35109488287048,-351.10572318057416,-93.29341318713499,-127.37434740049672,-60.18419289175177
-75.2166766385396,-410.8771333182039,-612.7014737223905,-114.0204192061688,-348.4515332219666,-85.66199047781959,-118.16872176923249,-54.283183032658705
-65.36141747000906,-364.5081475498617,-545.6148837895605,-100.33663894898885,-308.6502330432262,-70.45316032936334,-99.51355002697352,-46.22424611302618
-55.73980223173367,-283.3112645775949,-410.58186914364427,-86.00665209947925,-234.59969674745884,-51.19221863177201,-76.50964465449707,-39.4380260306818
-51.893101764042285,-190.37049222173286,-239.45602282131864,-79.10417691624613,-145.31809646059529,-33.992844472749546,-57.6353144836166,-38.03889993214325
-57.67922658847344,-115.33065833243194,-80.89191493506905,-85.50195371749122,-67.350872556761,-24.600843676775284,-50.424340703799686,-44.49254350567413
-72.76101485970028,-79.35003096411583,23.19005117595081,-105.19487235115649,-21.685655256600533,-25.4198170819593,-57.340690144437104,-57.94400305705359
-92.50844374894916,-85.04568386324587,57.03437898318284,-131.98660776638778,-13.950626286743596,-34.367877297410374,-74.4733284926456,-74.39191527210448
-110.38341956851615,-117.14790802079888,35.329009273869495,-156.73334231582768,-33.467911154808874,-46.22031729380958,-93.81683466498423,-88.65910948857807
-121.25779635064305,-152.59388015282812,-8.80810149474268,-172.03094726424763,-60.96151439359135,-55.50592571500281,-107.59994045735526,-96.93334296792588
-123.63934403370168,-173.16467836555697,-43.35278842122227,-175.4836035553671,-79.50245483166007,-59.14563805966554,-111.9723935118346,-98.3574364705868
-119.6728954536011,-173.13347753848853,-52.29392683946345,-169.87647761509254,-82.03717123470132,-57.38535198059186,-108.04535166161479,-94.87701590398127
-113.32117789540956,-158.69084150297456,-38.68044776804343,-160.72321571511824,-72.03537989204077,-52.830616149117546,-100.19011190943539,-89.73144739386358
-108.15620786393035,-141.48308381441598,-17.06405989892315,-153.15149063144568,-58.59153449382107,-48.558492935609166,-93.15971701479486,-85.72135558939796
-106.02783595868351,-131.23671102594759,-2.1504996343415144,-149.9300849784174,-50.0328041547172,-46.53841338759051,-89.84533511577614,-84.213755296149
-106.90437808458934,-131.1256162918029,-0.1306630998480529,-151.118031683072,-49.451620031026096,-46.98758545869169,-90.47783089630119,-85.0759327217646
-109.40875572184088,-136.84004370681282,-5.654467196257425,-154.73131407426226,-53.440508992502366,-48.58155798512428,-93.03055860403161,-87.14091207342953
-111.55459709984022,-138.9577214971534,-4.8001929535661985,-157.77281851737706,-53.97113700548009,-49.21824570464323,-94.326277829974,-88.80979893985136
-111.53768595812251,-128.04277877182912,16.747098430139598,-157.43766496448518,-42.93850628876416,-47.1218928376218,-91.57908548237549,-88.6785363144485
-108.49949914502636,-100.99042589330364,63.01540754913903,-152.35614125475362,-17.94384768925267,-41.97561562448865,-84.00893525887248,-86.12710997511628
-102.91314913215766,-65.28018140665883,120.30958650429679,-143.31025399037023,13.766401297760478,-35.46799304255812,-73.69922008276976,-81.60360371033451
-96.20831009442438,-37.40157324778417,159.47856172546483,-132.7726242756649,36.65294150406548,-30.664810283636168,-64.83720463451728,-76.3090778771208
-89.764229366655,-34.75167504993503,149.556608918283,-123.35948723086582,34.30173274252057,-30.30650050268391,-61.415162905270066,-71.38415399285326
-84.02506843605312,-65.25113898425461,76.15024524955193,-116.27230091269725,-0.8136092304817217,-35.04626090918673,-64.7664683073813,-67.18305996552252
-78.52918044846453,-121.65309319650186,-47.34192127124301,-110.98905483912016,-61.63865994979088,-42.93065966758693,-72.74275716586791,-63.26016925591603
-72.91853810374472,-185.15319631040506,-184.59119659968104,-106.51440996273416,-129.47050830152045,-50.67301194460242,-81.31642319454839,-59.148761024385365
-68.0440365065388,-236.5406698355052,-295.82560452375134,-103.09290184584613,-184.37329077116658,-55.92767379902238,-87.54545094823656,-55.279040819083775
-65.92110534512676,-267.2351715667538,-359.6920733778761,-102.5931352993765,-216.29105647860217,-58.842184366425485,-91.56222899911526,-53.07290029614569
-68.02314189644389,-281.9709031535861,-382.4174430596109,-106.60419422538224,-228.96538984538057,-61.50573462898308,-95.73943864287527,-53.762736804038084
-72.912770764376,-290.99096271172647,-387.76701822355,-113.34903355920744,-233.79778717011067,-65.51671388115874,-101.41479133321408,-56.608934816935744
-75.28347577247503,-298.14938123065696,-395.6890048819875,-116.16800255321441,-238.5842563427431,-69.59264129346145,-105.869122929514,-58.04435572114934
-67.88170220584112,-295.0098690969035,-406.21007813694644,-105.7417562409803,-240.18721137966617,-69.39029498191125,-102.48225488138434,-52.90821862534482
-45.63011793365822,-266.19983316739945,-400.54254289131273,-75.3996535696221,-226.91421981487238,-60.04810766370049,-84.58457959105262,-37.38046199632316
-9.303590883266136,-201.9361932060583,-357.4213232476484,-26.080767608140828,-188.4203529998786,-39.72668131562718,-50.41527966237751,-11.730947754834034
33.89745589239756,-107.88505564791471,-271.3210981588144,32.69727985808195,-125.18177276952771,-11.535569354126006,-5.502354175750026,19.101947027746867
73.4785385529508,-4.85089189130917,-159.09069010785456,86.8560470259851,-50.44889090138798,17.591519546756434,39.39813113147659,47.64753417808634
100.60420693449989,81.41343736999113,-51.23666264983416,124.36825438651302,16.38552990157682,40.324002773871435,73.5106160159433,67.46245365320263
111.90579341929548,133.15558800995572,24.90382087852753,140.4792522536415,60.00504791352411,52.425888245321694,91.06379714433282,75.95715645182825
110.11938056424772,148.05349853862137,58.39909152683894,138.71110963935078,76.14260413502603,54.24579974890743,93.1934597937117,74.95807753998457
101.66564315034952,137.45004847506328,56.83618245222994,127.6864255812801,71.55049550731677,49.65258940197283,86.08160858234929,69.0239734691614
93.0637351849868,118.15955963177461,38.406062405103704,116.28087801609475,58.37773547593573,43.515314152615616,77.09203273126096,62.8656319851875
88.34266227307512,104.02686994118885,21.183843970506455,110.06056809475248,47.583831793320286,39.45274543427714,71.48518489276739,59.44907288986235
88.43902739759268,101.78512940923223,16.31918779836358,110.39945533152645,45.22673985712307,38.91740980076771,71.2151451829079,59.51926967026791
92.09981439777943,111.460874967639,26.75495820152237,115.65720497530504,52.22200342437643,41.51646640207252,75.54991936517168,62.212303514250614
97.19212087859842,128.80264906896085,49.02196601014814,122.9334376500949,65.83931541755415,45.83155861282391,82.34550251022269,65.97828528268602
101.69643321489218,147.6814241315445,75.70555073158548,129.42037043549524,81.40038537264194,50.17357319828511,89.1341456554953,69.30859260413679
104.27324186445385,162.19118628530083,98.27955559423614,133.21310080677458,93.97735039146977,53.15458848400249,93.89967074266005,71.18784167423193
104.50584576125762,168.68677061567308,110.5371494295214,133.70726579732016,100.24906822717871,54.10216825951824,95.63195696056317,71.31715467245948
102.83658751151387,167.17215461871217,111.4419234445092,131.563791134599,99.91861741113748,53.21950754031438,94.55381265058767,70.08232655843535
100.25304585374784,161.16790889952856,105.57680102790235,128.2680642457487,95.78998952507476,51.40751981631363,91.90797667102869,68.29110325350757
97.96196687324105,156.2011835781681,100.94196062581578,125.59955583949879,92.4872052382441,49.89238018414201,89.49946320606703,66.87195457488531
97.23791113858435,157.95294382168586,105.71108427400993,125.31593343902709,94.7218567485122,49.89711982561607,89.29182564059957,66.7096736192521
99.26380161792498,170.5524724584132,125.31312134820874,128.8746472237084,105.72906306212113,52.36201334969528,92.9867775412079,68.51819280992255
104.57650177926382,194.50274559917273,159.67082476743397,136.71198114795132,125.6246610999634,57.49104944500941,101.20900220861792,72.48500965262625
112.134183781667,224.23858003562296,200.5093004504252,147.10454590815672,149.65712531877278,64.11867516931567,112.32571837803769,77.69642811377899
118.72281760749989,247.25749910159632,230.87809381775622,155.5526433475919,167.7586401520709,69.40948178824456,121.79055839382697,81.83547474661397
119.57931222629428,247.4552395563639,230.08712731616998,155.80606782848983,167.38493052345675,69.54739833802367,123.13877132165432,81.72446458026141
110.34459941135141,212.7676746030963,184.09867916872085,142.57887454068447,139.67583114805655,61.44758466709943,110.76112127514712,74.71138052371255
89.36563489198774,143.1239401739047,95.8861046509402,114.51795938512001,85.68526237673328,44.59466446935226,83.06445362500541,60.14623638194333
58.927395280937695,53.05464040018399,-12.051364741130236,75.48911423287583,18.09282484627287,21.768587483250663,43.98764705553382,39.97812486732117
24.611431287783923,-33.75221047008927,-106.55561441156382,33.24234847808917,-43.70766364208955,-1.935261754399662,1.7530623746465477,18.050632341361144
-6.843269999997545,-95.0803972105876,-159.44995683565477,-3.7615800185071464,-82.57066847355331,-21.231169739419652,-34.46870509156419,-1.4600085540320753
-29.93247272885663,-119.34441139249984,-159.9254884190794,-29.449456798553474,-90.92352630331644,-32.5966085308638,-57.98224453690035,-15.50420323271887
-41.83590436510146,-107.80793112066246,-115.7845237917541,-41.540323502918255,-71.92006555441702,-34.98112296874743,-66.23736258330544,-22.774284975452147
-42.619631573741465,-69.92192115034273,-44.3002141531491,-41.12553036564372,-34.727131873260106,-29.271598493012903,-60.429659965123626,-23.505638216783662
-34.815739522417516,-17.266478315960978,38.191182910206045,-31.673776164773802,11.076021484781865,-17.503782210818972,-44.30630404645651,-19.123997323564563
-23.043684724180554,38.14958599993944,118.4658970746781,-18.617051064464576,56.81377815305061,-2.7439879847780033,-23.577952802833675,-12.231225573807345
-13.494573531290516,81.0499657173153,179.76010217212587,-9.192998290118071,91.51427689622356,10.554803283679144,-5.857741627360427,-6.606891592350418
-12.50281314104151,91.34181532203559,195.91777792488352,-11.124823579379127,99.45821223236679,16.894304824764255,0.3347291116918629,-6.425451624094636
-24.057852573059513,49.55396620463306,136.95944781026404,-29.55406191443823,63.98147842698908,11.56758455109622,-11.538378442259821,-14.482121820660138
-47.47495186551905,-51.87195460535307,-13.656593755296562,-63.74868070314407,-22.828435502151496,-6.732217216391577,-42.404287888792666,-30.39068468461086
-77.02050834062754,-199.54865723635976,-242.0964875271623,-106.20615283891293,-151.41027754937468,-34.40868161887265,-85.87155685876873,-50.19854481610902
-104.24229899951243,-360.62574389702695,-502.0421034528202,-145.49004791598907,-294.66722574775054,-63.999051448627185,-130.29274556549117,-68.03277498931536
-121.88194822997343,-495.9092094007439,-732.0106832091466,-171.48659912037445,-418.41386343711395,-87.45013606913527,-163.87524722984776,-78.9280537686547
-127.10509905348178,-577.3226965165716,-882.707249258564,-179.9861447662104,-496.5913750199791,-99.74587233418455,-179.93221249021641,-81.12852823945278
-122.2326327694039,-599.3067760000818,-937.9361286478328,-173.9345716286542,-522.1262282724836,-100.77098070994757,-179.2460440992405,-76.53109331227817
-112.78771246924832,-577.9320691155634,-917.2135752508588,-160.91114097052477,-507.3641545515982,-94.50395634757197,-168.44066295799774,-69.1861057173404
-104.3053499980398,-539.5595998514361,-860.464434065776,-148.73301874653546,-474.92115123373907,-86.34293037962804,-155.77304717799734,-62.97163203863229
-99.88719325753137,-506.9446468811681,-805.9550263620533,-141.95913515396728,-445.46668121641636,-80.37086892318737,-147.10308859392356,-59.901269382054124
-99.65435466790375,-490.7555605831095,-774.6529317539321,-140.99410114151877,-429.6050887754899,-78.04315660419776,-144.16343536691284,-59.85539618157337
-101.82206252080002,-489.41739988087215,-767.4438351291217,-143.49825126554592,-426.9652547492776,-78.55980347904226,-145.35950356475172,-61.45381772787953
-104.25193701951213,-494.6578818325343,-772.6404944221779,-146.5377005338074,-430.6853268496753,-80.13646726478055,-147.80667588188777,-63.18519937616722
-105.52909329468228,-498.1382824226283,-776.7842374130654,-148.11875829215674,-433.3384014932999,-81.21997098227556,-149.15925744738828,-64.11280545367275
-105.32971064820924,-496.0271921973601,-772.9820867470646,-147.74046818659787,-431.29998701624476,-81.17351797654732,-148.5756501725503,-64.0460707053279
-104.2714796846075,-490.42829429703386,-764.1200564363919,-146.21235934909862,-426.30656765138843,-80.38652908121777,-146.8124682743463,-63.37783660790526
-103.4021289047188,-487.4586724869873,-760.1740570453792,-144.94933034987196,-423.8761879591867,-79.85793165175747,-145.54457826118667,-62.72808712432091
-103.44217478975463,-492.45851096364447,-770.3261839021402,-144.90785452285834,-428.9905206802271,-80.36655976419468,-146.0765913198019,-62.47419123002432
-104.13346899964252,-504.5108153386718,-793.440844804885,-145.66546187681095,-440.98594418082683,-81.63299166655221,-148.04502229384534,-62.39451931558757
-104.20192368319802,-513.9821043189517,-813.1483070375649,-145.3762353248453,-451.0387123458131,-82.101143918114,-149.05526131632644,-61.74066403576072
-102.07802354284115,-505.71745547022846,-802.5010758683666,-141.81896308831693,-444.82173277122536,-79.66026799990986,-145.74162030666977,-59.76979775624066
-96.83974695972249,-466.6302955120023,-736.998642659408,-133.77023893745925,-409.4916042246466,-72.87937629525756,-135.6220446878058,-56.297863025113486
-88.57700061830148,-392.82367814005175,-608.1674141665939,-121.52727131357634,-340.71054166560623,-61.831262612088466,-118.3863520172116,-51.72231714336963
-77.89656540242883,-291.4451946484741,-428.7015551969732,-106.14095646978004,-245.04451507166527,-47.88349659995476,-95.70250141135394,-46.43774977879633
-65.12553463840513,-176.36504121320434,-225.87936867228137,-88.15842550508003,-136.32891059577452,-32.69918108614598,-69.88651748073872,-40.20702648251499
-50.124158129062785,-61.36672958400611,-28.338007769038192,-67.24287333750918,-28.960040974703883,-17.364409759618763,-42.739475954235324,-32.22022627140142
-33.13891217347972,43.71237802617578,143.9632497475961,-43.382632227391845,66.75971667541576,-2.474128915405068,-15.702826591292872,-22.062875206475013
-16.154681673674567,131.06484418986943,279.52236595265384,-18.967795273319496,143.92148477537526,10.812431572678026,8.71016165812173,-10.986432655721158
-3.475482178954331,189.77022622928865,366.6793058783801,0.132264499378556,194.467805181551,19.72076088162522,25.636603765498755,-2.3648095339544573
-0.47845446336826547,203.81709433851898,386.712348973261,6.141070163302586,206.35980062807852,20.107755977334637,28.548333311986504,-0.5452531527957002
-10.768598389707131,157.902583669379,318.39571957442564,-6.580180011099667,167.22966836098823,8.453427484994748,12.39061735830609,-8.433754426480455
-33.44740373224352,48.7305954964307,153.685223676586,-37.41961217241338,73.54053333518956,-15.478298040795927,-22.554993783677965,-25.310395807472236
-62.554047871580494,-106.59270928454785,-87.14366559398132,-78.38334271359773,-61.57672704320956,-47.278599514951594,-68.98897218975057,-46.50667154161304
-89.42804012520094,-272.88955059170274,-354.5983779851802,-117.2117066022565,-209.03085860118946,-79.13892848602426,-114.8444175196568,-65.40999265426166
-106.73386719041432,-410.50679508262317,-587.3771585140549,-143.09406762798517,-334.4555421558749,-103.22515663092743,-148.52135319536578,-76.65811209200768
-111.74385418885275,-492.5706539561425,-738.7349206406259,-151.55527645651702,-413.02905390928066,-115.19990695642183,-164.04037816146467,-78.58781414165631
-106.99599312695092,-515.5443914033551,-795.7784919262899,-145.69391184900806,-439.4801166683588,-115.80181665648743,-163.08232962393134,-73.54430139166868
-98.16885199125663,-497.18598017446817,-780.388525176749,-133.3733304380006,-427.53021928443553,-109.6870826527321,-152.9367623243528,-66.06919129110044
-90.7204577848852,-464.21765010980084,-732.7008068927967,-122.46579174667706,-399.9818481847399,-102.48193571300824,-141.96049484004925,-60.26830537651332
-87.39029223558639,-438.08788911111765,-688.7940825421347,-117.15883161870259,-376.3063624386376,-97.97200493276081,-135.47330936228715,-57.983746364920606
-87.78058772702273,-427.0622777404604,-666.0253732074995,-117.16734369055385,-365.06482015173816,-96.9558760429754,-134.2771185821567,-58.626141226320385
-89.70797989708545,-427.3978786812227,-662.1838815928733,-119.52956461015334,-364.11687679871176,-97.97072693698472,-135.94893880169855,-60.3318388914619
-91.05871388744904,-430.3933138397285,-665.0773700138576,-121.23323710860504,-366.3160779281942,-98.96535287386908,-137.41071378328434,-61.42150617477938
-91.02661836385819,-429.90177073437354,-664.4636658059868,-121.0465566160818,-366.0971697772388,-98.78562935019842,-137.07077386123217,-61.31236706216868
-90.34875227569192,-426.4913731357774,-659.6934118951602,-119.94132904078204,-363.4400781067086,-97.83040231980804,-135.65409160427367,-60.63462759621649
-90.67518185805183,-426.93624129011454,-660.1695762519031,-120.25254209402691,-363.8200998422221,-97.74563383728238,-135.62117374232696,-60.698529349717184
-93.35075422506827,-439.3211831037044,-678.5596960662617,-123.94872501800121,-374.23985311321314,-100.27888013350855,-139.42587945250216,-62.54602479010288
-98.05955632311263,-465.54397910005383,-719.2331342613134,-130.65421255379144,-396.79012384628953,-105.69608268235848,-147.23559664968695,-65.93375689235214
-102.1259841413018,-495.18570100449176,-767.8800627638154,-136.57336499050544,-423.0974280444546,-111.61301883988786,-155.3607128854054,-68.83922984601163
-101.2714785367951,-505.8162233812255,-790.4043191071504,-135.50142001600372,-434.09589173984307,-113.26074562200623,-156.83321501111234,-68.07012787917307
-91.82519745352943,-472.1090288249071,-745.7365962188586,-121.97857016463682,-407.46397362823785,-105.54097395668187,-144.54229620912196,-60.94301075767702
-73.18973103382962,-380.06642020162695,-608.0400453637588,-94.90471244395266,-329.9068913954231,-85.94844847328605,-115.44961146856343,-47.10889838066267
-48.85108803561163,-237.72146017174043,-385.27438384102976,-59.13005421435685,-206.95754502228982,-56.55696982702659,-73.20520692336562,-29.254483146976423
-25.041122986287697,-74.59448310568969,-121.02966535122407,-23.64783645362544,-63.31703308234385,-23.652550905892586,-27.209968637704968,-12.054849445087529
-7.786076180080863,70.86210441202932,123.4789127030462,2.6493483968061655,67.49193144723176,4.908325491641541,11.523936922757311,0.03161909376746996
-0.23487511147582157,168.4862460800914,297.07667013386765,14.940753784427537,158.1960922808941,23.032008749420573,35.18802414901417,4.709462190723914
-1.906266004724445,207.82571291858577,379.1047241723808,13.725646471636914,198.38682504348117,28.456850527505164,41.777642537302924,2.3539642885558503
-9.972110590857465,197.72771972424943,381.19664277318674,3.038711031458177,194.8787822876818,22.656875292770213,34.35706201876084,-4.952178830862933
-21.120909345160896,156.79789874713688,332.47506608699535,-12.344654960421384,163.54678547349252,9.31203469293277,18.38056671403288,-14.750292556885373
-32.3119919840356,103.39179983327446,261.48219214922335,-28.200895722564717,120.05734937102308,-7.102221959079031,-0.41340582052304137,-24.68683089635616
-40.11881512715646,52.050550432847515,187.81579725450362,-40.01892668125444,76.06664414564497,-21.74947568348597,-16.265249318443725,-31.992078620814592
-40.054218468267855,15.843311796612609,125.55185160271533,-41.88151739951412,41.218868565756665,-29.472571387377574,-22.88107601583704,-33.04024626440443
-27.511795146052492,8.317869313020534,89.65402053089478,-27.46324842518502,25.765919123658666,-25.63769311237854,-14.2009545882825,-24.184056275712297
-0.37809864549015415,40.09787100520901,95.56053982056876,6.538785850142213,38.92864855948536,-8.074774652463141,12.914071538178272,-3.821332808307359
38.529991668409515,111.69363978288057,150.6973903891545,56.94038536713819,83.3348172272083,21.07812800738361,55.80919754227573,25.762655846595916
81.40959307683693,209.0483831793166,245.70048608343254,113.67365155643233,150.54464904308253,55.316464103663456,105.60912960746575,58.441162525868556
118.42817139344336,307.1143410018941,354.4183563380334,163.538592304956,222.51882316558417,86.12783930455434,150.36923564825915,86.59718474467688
142.12232487897518,380.70685250503914,444.9422545076458,196.14157539518078,279.3678213492174,106.66412449042208,180.31807743228424,104.5236239981832
150.58169612821843,416.1860621819133,495.1604874292369,208.41208950467603,308.7964504158192,114.6081526265411,192.0851846785959,110.82735482502846
147.55837020897923,416.5893067622149,502.6099231528217,205.02123127536498,311.18001127095584,112.57630703754616,189.3954141893486,108.44654022952095
139.68861513599217,397.3299891407158,482.47195416882386,194.7794807998456,297.25460277856916,105.9906150130736,180.04886555071917,102.47381841645687
132.80060864342883,376.0399141661904,456.1430906318274,185.61972401179776,280.589366877482,99.93179871087551,171.37259516458292,97.32670234361373
129.55208718510443,363.5381084691618,438.9138312829738,181.2688567335247,270.21738942304296,96.91920047953967,167.00260398912107,94.97504294037661
129.37975853492728,360.8758868988435,434.2325324735918,181.05280900083443,267.6743541948969,96.63819665763972,166.49422296035092,94.94356762797068
130.13366380174273,362.3784446740966,435.86438755295825,182.05917103246685,268.82589807567075,97.2320010983059,167.19439342139555,95.58189187467961
130.0397512808358,361.20044373658584,434.2540945076751,181.82573997430106,267.9935847105153,97.0144261828819,166.71236488297706,95.56009864090684
128.94753402496772,354.10210638107753,423.06136572858134,180.11187813904786,261.8549483373589,95.64877013685216,164.62014721984033,94.80358390326471
128.44282204346376,343.88990009154753,403.8182981391042,179.14082505093901,251.8744028925202,94.39070920299257,162.8074213037465,94.5550958885582
130.79359687152268,338.7102318924295,387.1815135208436,182.2096246565356,244.46637310286326,95.33915236154536,164.3839942719525,96.54347508085063
137.04606960468283,347.5508801325598,388.68976952271197,191.03150676092713,247.9774347231037,99.87734968167373,171.36416012941214,101.5113943746885
145.1974077377726,373.02268035961697,418.8508257924983,203.0553577730195,266.82946785066173,106.96710034540355,182.11435894466308,107.82770041232841
149.83838441043252,405.5958272563663,472.4429382253706,210.74697910096108,295.93767896445036,112.47024554302924,190.33939440980603,111.25524238118355
144.1675700651585,424.5722283505085,525.3675162667408,204.22556292513107,320.0296203306536,110.47479940491002,187.07932378141183,106.53993670301048
123.72711952485685,407.5152508293259,544.1252474231734,176.49882442216887,320.12908069054185,96.38945383024195,165.344140424518,90.28283707578005
89.68891427875486,343.5284225491295,504.1116341674921,128.31738836389098,284.29424976243826,70.10812343736428,124.82574527944425,63.413539153446976
49.39766067831094,241.91520174493004,405.52539162909386,69.3416761531005,215.9115998452019,37.10020205411311,73.50348202866113,31.53734095961845
13.467278999639293,129.9440958708418,276.1147652885368,14.428403522723983,133.78891997238605,6.399960098994473,24.674268612220718,2.679541782444265
-9.056010163889846,40.35148217380145,158.25889482210786,-23.038849693873598,63.46737794316013,-13.56345048671009,-9.137286715513687,-16.364815174440004
-14.703659494108527,-4.1519717689486235,88.01545963479779,-36.97172127811354,24.8443421784317,-18.93237822308822,-21.90026741207566,-22.968429663565583
-6.6161319992666625,-0.4925461778431961,78.51686516750571,-30.43527756197966,23.31643056006409,-11.95866219481727,-16.25394170449117,-19.318640008581028
7.581662731271028,35.51455936385519,116.25265909273894,-13.100170517548248,48.82278355252797,0.5282261095773406,-1.3484968650158935,-10.738018202820852
19.41993241493759,78.01281122775669,169.85032748699223,3.5779439266476527,81.85612454557294,10.527519026986074,11.824521738043465,-3.007980362289742
22.75203611629796,102.13376377246355,204.47558901752882,10.733898156855183,102.0959169520862,12.204255806034828,14.889353197068624,-0.20924525682876371
15.513308610442508,92.79761710536734,195.3068287602888,4.688479906346697,95.96971596917084,3.8725985496013173,4.739758810240263,-3.693746861660606
0.24366431578671582,50.32166722133526,137.6099142164264,-12.051148884876786,61.99354895360031,-11.539070873983437,-15.605624592326228,-11.89679138439605
-16.36301371773291,-7.266617552082915,52.422400326610656,-31.09043593510783,13.503259842842272,-27.241451168546387,-37.532624085944114,-20.65550568314102
-25.17987295402598,-47.24297662977557,-15.545860647472848,-40.26130668041516,-23.09919246221578,-34.49784683286225,-48.98403072014078,-24.230686936250425
-17.892154740177336,-32.94758508616542,-11.940817417510512,-28.021055358080943,-16.82275228406302,-25.679295352475624,-38.60556992796429,-17.327007361829164
9.09991925434676,59.52649884329197,102.98560085794517,11.006134881125803,53.94639318474934,2.2919828393386004,-0.9625745908601001,2.3525201206339394
52.168021784066326,226.67673591118296,331.00647344434196,72.24975018527019,188.51375667544264,45.7714859350911,59.75212282981658,32.37559141426765
101.21295855731363,434.7238077328676,628.4378633221669,141.95315813733131,360.40986186591334,95.09404527282683,130.1979446693423,66.00415463224243
143.80518595443363,632.5742347708359,922.2850477802306,202.79932848493607,527.3602293497216,138.3370583424454,193.1102858010757,94.92524691256142
170.65830481106087,774.767519347471,1143.1682428581837,241.61364767413275,650.3285706247142,166.4286908678696,234.8271041969247,112.93670827670526
179.42597413397883,841.6167484195399,1256.6350401086368,254.8731393833831,711.0067496767313,176.86917329049098,251.00305742888818,118.53234973940606
174.79335635556745,844.9724148698974,1274.6052841349813,249.02773500064404,717.6254945044336,174.02334008411736,247.34979808666145,114.97609415826963
165.11150859263913,816.9309671212144,1241.01523738097,235.84230377108827,696.192483677499,165.96984027338436,235.27277800977683,108.0228051261146
157.8137604667789,789.3590898546631,1201.9959300589114,225.8703568145044,673.3667890361914,159.90979088904396,225.30977966493356,102.82026827765773
156.1954023708217,776.9541224224993,1179.7367958322159,223.7770465215016,661.7893023615098,158.76195619865982,222.2033321979635,101.74162001428255
158.80245225943375,772.6920072818792,1164.652742037588,227.3999617901695,655.8190306279402,160.483623833676,223.81033153320448,103.9491302202197
160.94968537561107,755.7025338418301,1127.0805177024365,229.9477136615533,638.1123311164184,159.86166157760417,223.43569167865178,106.32649564391211
157.0922643848605,704.7939202948148,1038.1462482638185,223.50234277354977,591.283281856829,151.37615634364022,213.61105997950736,104.96086935280228
143.04849619975175,609.8494044287486,886.9007374647101,202.30030866477549,507.6906384997613,131.73368110173814,189.45832801387877,96.62187531731489
117.58201423768986,476.57648683435673,686.100623263678,164.99397307181167,393.23143301354935,101.25734292932968,150.65796967413587,79.99762998507981
83.01403172371202,324.0142387591103,466.30850786860367,115.39383870901399,264.7277636942454,63.85729488402156,101.68506725686443,56.403687581907036
44.59513274499848,176.97410960711142,263.11691795658913,61.356543179718834,143.1230957509572,25.699847908162376,50.34412570310231,29.574791285190187
8.754263744271213,57.09874030985966,104.17401732615586,12.087070560904877,45.91003943067834,-6.893683599635222,5.1212643477488005,4.422088618142288
-19.05524158489562,-23.669001192840387,1.4724458788059465,-25.01727629293596,-18.022189807153943,-29.45925363387932,-27.585362673244603,-14.764370417160283
-35.88393643530474,-64.81776454072026,-48.90993873820241,-46.460515505691156,-49.391282663701574,-40.470345509288094,-45.139848802062936,-25.745458071960694
-41.476908371073336,-74.05008094090164,-60.780763959510104,-52.68386856098154,-55.53183514352102,-41.07370458802356,-48.51594697118239,-28.607878698478718
-37.276244642160364,-61.214688037005416,-48.90499201413422,-46.34179445029112,-45.20820810062169,-33.77761774001593,-40.61505007356267,-24.853143187796732
-25.28680176233143,-33.21781355865865,-21.93600306264147,-30.433862255729462,-24.24396930011367,-21.075944684732153,-24.444806091123098,-16.192671083024045
-8.01020061178781,6.199999698749599,18.02242300610157,-8.12076924100113,4.916428327212449,-5.1239499669701365,-2.810029352282464,-4.233715628046589
10.383466103924734,50.99814978112262,67.81722400666415,15.469832914658806,38.8471839976457,11.24783971997119,20.07299095961981,8.58257706738035
23.029682311506047,86.1069796147923,112.82635730527339,31.44865727330054,67.28347096336377,23.274650341903417,36.72062357706681,17.834401109655523
21.42653018658556,86.91295534488933,123.72611171712384,28.284584454484122,71.80995842908749,24.53121161207164,36.982483025047216,17.46676223728397
-0.8318564177952987,29.19913919309523,67.36003149445521,-3.1154918956703574,32.94924562338943,9.576971166439186,12.317841820132918,2.3869631547051036
-43.43574437396392,-94.5064970305085,-72.01371718204332,-62.78325674844775,-57.02386877431455,-22.228807281706796,-38.18127322822529,-27.894879365789773
-97.05727555255069,-262.9975295976841,-274.80271968835467,-138.11452056298708,-183.9612577165503,-64.38942993630809,-104.15730954177741,-67.10771362585706
-145.65234953643318,-428.83774886511077,-485.64215042172805,-206.7803397227233,-312.6495852648616,-104.56636866515635,-166.0912172891549,-103.5483299452363
-172.89169860591724,-536.594361769951,-634.2137750111058,-245.6556000626396,-400.24943815043366,-129.44921796678355,-203.03040675962927,-124.78287535802708
-169.52482782013456,-547.946763209934,-667.2275120800455,-241.32299227353306,-415.78706927524183,-130.7621969996266,-202.10199407280027,-123.3625318785366
-137.66078057225664,-459.8744437068252,-573.8726902707176,-196.3917884777671,-354.9082193769065,-109.08617840774615,-164.56909137088155,-100.37882186097724
-89.6017421811845,-305.8799049682879,-390.67405418193476,-128.1133059815008,-241.72066536428318,-73.37737012084592,-105.0599246838539,-64.85671715849219
-41.93448126998556,-139.9218950206435,-183.6682217915807,-60.12972168030657,-117.03520700735517,-36.53114906782775,-44.492424721968575,-29.37107107468695
-8.143219723290565,-12.108971225368816,-18.178328720974285,-11.913208785264704,-19.728245963102086,-9.484096364510043,-0.6348864284420431,-4.344944143216089
6.432145962581541,51.16490308769121,67.89751597369929,8.625056045143015,28.978352073587537,3.0672282194614517,18.790367862439616,5.973955308471079
5.077852136292175,53.44617114336792,74.6310338531197,6.061530386726071,30.948056016679306,3.399338223129713,17.34839230930479,4.046721326546199
-3.889123325517151,19.691590553845042,31.400488739198543,-7.554578334905481,5.008440783895541,-1.8985774558466317,5.685136452193148,-3.638839180251774
-12.167843964478234,-20.12816732937709,-23.419831451536307,-19.9963664322661,-25.65946163332579,-6.027437559241589,-5.035342026064777,-10.485046060160812
-15.029876740011568,-45.167430358084665,-61.451100502421006,-24.17338793147706,-44.71528199176448,-5.105215735718324,-8.185441002492704,-12.641276606691713
-11.991547642933547,-48.88877730585348,-72.31270886883534,-19.304521216986146,-46.93475143445485,1.0366576991585914,-3.032658339384902,-9.648473522497019
-5.29528750884056,-35.71344076231766,-60.138750659825185,-8.788896664125884,-35.66623264592803,10.041411623555192,7.079588672425931,-3.3237763140418344
2.0903755314946144,-14.550626245100577,-35.44049688686601,2.8021804010026643,-17.734491190830703,18.83761886972649,17.581870982857726,3.8323764170641703
7.759011119785173,5.894374882214207,-9.146581671167489,11.790220197483396,0.18545244392286392,24.951548830020094,24.76956015706003,9.752333481003376
10.346868895173515,19.030594306075045,9.629916494651916,16.216801712884347,12.883525636695163,27.07821218787058,26.713720734885193,13.280484835323488
9.626255126320109,21.124589305288886,14.54463323550581,15.94528389965862,17.056359988480303,25.194806060335093,23.408276720830433,14.25622412191652
6.415210706640187,11.951124493536126,3.482102149369423,12.353946902235496,11.913232017656442,20.407799399232946,16.464772325212945,13.338977973898833
2.254038034824569,-5.078919990928641,-20.254191781340868,7.662232581903526,-0.4079961248661694,14.526778476674945,8.408600214469736,11.610022670524248
-1.069163374689867,-23.745582724861602,-48.258673053131474,4.139115992828823,-15.162167241205267,9.468861874729226,1.8160185167746095,10.135411351582896
-1.902940092470682,-36.314240318935774,-68.64946935357149,3.6190421066152823,-25.863050842408168,6.776786370743436,-1.258955235363369,9.752784643337701
0.9792112959432535,-35.05963387458908,-68.61463104241204,7.315903353825606,-25.567266947092318,7.363798057813738,0.5044195405631438,11.053976903976256
7.864644211046497,-15.039156619757986,-39.02363922129062,15.354764805703434,-9.378707100245522,11.2311913781909,7.302820585378762,14.193586514108109
17.274279059446147,21.21112357812077,17.99154941387286,25.73609931189831,21.30047384855922,16.940336431163878,17.2425813902146,18.333916554951653
25.48879838029078,59.38586818367676,81.71078601173608,33.5882396479736,54.737397008616526,21.21529335154195,25.476723292974004,21.19454987601855
27.424271865302742,74.44576815633779,113.17585719221022,32.176061720047976,69.31844393542295,19.507853181321206,24.90725862104368,19.519993485881383
19.03154367209644,39.97055703826812,68.56845637311794,16.08068011815174,41.312866053135835,7.89931215720627,9.142791371475923,10.699143646429727
-0.03544890785286692,-57.460747687558204,-78.20129903324256,-15.075862805902043,-42.53301338906835,-14.470848794339192,-23.57028488700051,-5.329664236797361
-25.38742220188489,-207.54222662248654,-316.59988834019833,-55.0419151022137,-174.9636227188184,-44.070208266254525,-68.07693737525251,-25.298931865244285
-49.51584446369412,-377.0847279737699,-597.5962449890359,-93.0428124629729,-327.95362463840485,-73.91314354760244,-113.65037648752137,-43.74940511213551
-65.2849112588991,-523.3829184753563,-852.36032662299,-118.65112410207851,-463.68033537967983,-96.50729548102038,-148.56317079160505,-55.55780070210341
-69.24920961798814,-612.9904191813973,-1022.0353974613722,-126.58830445158915,-551.0149937371758,-107.18732907803074,-165.34552819742038,-58.354332821239986
-62.89840426045905,-635.4362958575055,-1082.1442173582477,-118.70171488659238,-578.3784493208361,-105.95596258268824,-163.7507692326919,-53.41436358223202
-51.33622599806216,-604.9727253022819,-1049.0644076798194,-102.2732662469895,-556.3992059496209,-96.94308488410717,-150.00527503506174,-44.64934526260775
-40.50905590711448,-551.1196869562433,-967.5688667614295,-86.12231062133354,-510.37478507293787,-86.09603090915708,-133.27923015881316,-36.53155775085253
-34.737683118044416,-504.8548886655568,-889.0440950386284,-76.96997105924912,-468.1789014815731,-78.61602303206058,-121.71779945828159,-32.26533441237692
-35.604055592867105,-487.6212209467383,-852.2628860977378,-77.6294673923941,-450.072878647575,-77.35277513216785,-119.8960981492371,-32.980071011170914
-42.012133533212825,-505.9338191767433,-872.6787574291216,-86.86723029060789,-463.33871385924346,-82.33597189602763,-127.979417495591,-37.79261657418297
-50.69959664035764,-550.3587569630167,-939.409317441643,-99.98309183858323,-500.98506148778534,-90.95573091131182,-141.88493199095097,-44.196607177897796
-56.957872571977376,-597.6140164131888,-1017.8328829334057,-109.80633178108201,-543.3800552947828,-98.53911187156096,-154.13285320207862,-48.61424391890413
-55.93199421518304,-616.7653595100724,-1058.723662605221,-108.6607109872577,-563.4564468205351,-99.60382895251813,-155.86807362968182,-47.39709770455896
-44.626658795982955,-580.3755182600315,-1015.3376392349934,-91.47877963262476,-536.2554891408391,-89.9477018702069,-140.26653987098516,-38.348065513945926
-23.786068480258812,-477.54413136981145,-864.4942211883881,-58.81605583689462,-450.4224800028448,-68.86340561163104,-106.13805712344016,-22.105586991867682
1.7259353295354338,-321.8246771124188,-621.2024148305767,-17.663723571916,-315.7484339961988,-40.094198071409004,-59.496804550370484,-2.359070695200047
24.741562721097615,-147.91113727128078,-336.50597207202105,21.093112664769315,-161.23887690207462,-10.573979252521902,-11.581139693215846,15.573097708202804
39.020737413925566,2.655539165763396,-77.16605688753799,47.518989887510386,-23.384093956403248,12.617283808270004,25.99330933077681,27.147595813710016
42.04797293862544,99.238923076191,102.48413874292983,57.023843162123384,69.30259031120677,25.37931029009723,46.25808947113108,30.577016742549038
35.76696855668079,133.3173880896263,180.79188756556218,51.76853072058444,106.81261295434473,27.980234717186036,49.21687368877799,27.241238455038552
25.021732665065926,117.65642077510043,170.93964644553182,38.56800101949097,98.00176364996537,24.08518834482861,40.457589687514904,20.480593264911462
14.992086633138905,76.1653984940339,107.30324533852767,25.10748939603194,62.54502348447345,18.413524568751075,27.559621049235044,13.809266395588917
9.334777140918717,32.62319922120049,27.982238533991787,17.051393977623544,21.300210530782795,14.748364500408313,16.96091287936267,9.769546727606908
9.749968337384699,4.862736844765436,-35.385868167497755,17.252129479281443,-9.01046747743816,15.29633146988511,12.83608968415,9.788864404649043
16.308065451435535,4.4614613596034935,-59.02939731285252,26.191344347471,-16.37221319228418,20.980247363843006,17.364287807069886,14.379311264098678
27.513231397662526,37.213674797132896,-26.615396487050255,42.12441368999171,6.726890986880293,31.58324061077839,30.766880512511502,22.910716470473428
40.01946361295311,101.10765395671903,66.87297595882674,60.67099769626888,61.17732658706978,45.345261724869914,50.562960250715264,33.07643714300596
48.93959965914074,183.7701485251559,208.8779307278785,75.12701745477206,138.24360311682616,58.74060548803311,71.20539903738035,40.98760695317027
49.49579237861465,264.10147453086006,368.4416059149073,78.64040080213981,219.96368402299294,67.37964282589667,85.5452728038979,42.55352915440448
39.45904201681723,319.9912804965617,505.93590672672644,67.61556524628449,285.2493617861258,67.99537886356487,88.02754082406021,35.625757260401784
20.767010045400735,338.50917541045243,589.8933386136088,44.14609269992541,319.15885408486895,60.320251889819396,77.73328938256823,21.47998711228276
-1.0100543778228794,322.0940298773954,611.016840182968,15.532455433014388,319.7001616003508,47.47924518104671,59.1082374567598,4.476891521018087
-19.260402221008647,286.5078195950074,584.5341861540373,-9.139177706117328,297.7648088000193,34.4862592221483,39.707331517610285,-10.031016112111601
-29.457998725935564,251.82758611445325,539.7297607569029,-23.34544109569878,270.3407590494847,25.736854626307252,26.324138451414562,-18.278342210687004
-30.949429127772806,232.34029391853093,503.9006248314667,-25.773250584410277,251.5590022405171,23.053634083894668,21.92314751479172,-19.593951819337665
-26.485836007741163,231.45893952993833,490.8606745838486,-19.87779085055272,247.11287639437978,25.38744124959653,25.101572140613854,-16.077282795005893
-20.13036981834832,243.60934330058765,499.5062441909624,-11.106620418643281,254.52747724532517,30.070717808574347,31.940047190355568,-10.945518155643196
-15.103085314929812,260.0324316119204,520.1562544784327,-3.917410038317294,267.38420684164566,34.524656133618464,38.56941628795267,-6.803257530139977
-12.779402796994626,273.78240303414424,542.1630504729392,-0.31888972721332454,279.6447077637047,37.307078335743995,42.764188798077825,-4.810339873620001
-12.927039870951734,281.5804713065662,558.2755928124762,-0.11772363096217556,287.7518290328597,38.196030056640765,44.10511166754377,-4.829829393616115
-14.467362922702414,283.3970418458996,565.7217738570579,-1.916347351142426,290.8212725088471,37.751690165828336,43.369806124321855,-6.010276641764318
-16.138409072424725,281.46572918455183,565.8773195840078,-4.0027875332820235,290.15595426446856,36.85980154366655,41.880298269441305,-7.320517485816138
-16.949293398480616,279.15181716964645,563.0970493649711,-4.979306980894351,288.43019177267155,36.374462406971816,40.96017166085612,-7.939191085767716
-16.509987818564785,279.3368432650009,562.2536154698378,-4.247794768940429,288.284438370915,36.787118404276974,41.40091722963224,-7.540347175703394
-15.127336809245923,282.85792290369903,565.8179516232301,-2.186974390385234,290.80855336686346,38.02225207358731,43.1236937354594,-6.372751217452922
-13.503418487757614,288.34647924687124,572.7855661186327,0.23787923625813648,295.15045111608686,39.574111846944426,45.37924109149535,-5.009197537977499
-12.205219612280924,293.79672426722453,580.5205810464222,2.221171994191237,299.7048464119321,40.93855602545085,47.40326100539591,-3.9153206700666234
-11.368935670027652,298.32807090094377,587.5666669545917,3.5627221899097425,303.6762595410133,41.954152361037885,48.9259636838846,-3.2102028635228756
-10.877762064366335,302.36566592566356,594.4505441654778,4.442685288038304,307.40286230907145,42.74175218955268,50.07475207539254,-2.8017047905622565
-10.712461492614548,306.3529822865837,601.9745832446501,4.920022590472226,311.32672360586673,43.390340920101984,50.91924433702962,-2.6566763294878815
-10.993785687845921,309.8019447998388,609.4381714269384,4.837952119094457,315.06385677320645,43.81391324562026,51.30361062938982,-2.836164629119924
-11.660580709496033,311.8632491178506,615.0095681921944,4.248665355072084,317.7228214981788,43.94648195049029,51.182832621560976,-3.2609520137152477
-12.221861297541952,312.5690645985656,617.6092703620188,3.7658578790910346,318.9552644180246,43.98959624402734,50.988505456264924,-3.5450686760703665
-11.961900684830491,313.13408876245194,617.9935228237495,4.310273244895079,319.41065742240227,44.36208336017739,51.488600735987646,-3.1721051195309506
-10.460014899384506,315.04842502700427,618.1714652984234,6.426383085102082,320.2303508206143,45.38203828145445,53.221884533131956,-1.8872475169248963
-7.966379751093219,319.16510682704654,620.4573236775178,9.79968803232229,322.44135243792215,47.01809001583079,56.06154382969124,0.05063776664482453
-5.38482900648497,325.60847430176364,627.2223124475829,13.305467438213663,326.8769541423951,48.90653247060281,59.235390072738035,1.9283819673005786
-3.974186393196984,333.87952930087835,640.3902635504634,15.400080649864083,334.06106864231015,50.500598800202084,61.61824217263336,2.8361790475683546
-4.905925579700143,342.32261847904965,659.3533253761433,14.635892662746238,343.3090039924576,51.183111159495944,62.04748477368049,1.9999057139642633
-8.627153313737535,347.5920727574683,678.4505389619027,10.39569880172406,351.6548029549011,50.43727376165736,59.7722204452525,-0.7766977302608173
-14.08893264114789,345.7088747162311,687.2942555989841,3.8519877850390785,354.27263731767584,48.248862255528955,55.20018852757991,-4.5978746827120105
-18.376846879636474,334.89919087505166,675.574770514274,-1.4950799993100932,347.02278039585684,45.55663719953403,50.536970589513594,-7.2758363894798705
-17.481140782672647,317.96067102565064,639.5849014336845,-0.6931530444414065,329.44047442648366,44.197326591598085,49.42042394598755,-5.961329501986452
-8.302112238535218,301.45283287380494,585.2981015452701,10.167463191106133,305.528094310333,46.0022428148503,55.1266007722139,1.376605022144967
9.138344326282304,291.53276158686543,525.2107580520776,31.124357275468213,281.36407692308524,51.457080438121075,68.19950260135903,14.425172599755847
30.858988486787705,289.37576162271074,471.09000248054934,57.235771886855424,261.2270068762001,58.91251726218237,85.2269569704018,30.101874343025646
50.34611728614366,289.807218972273,427.79178993624083,80.37980587412527,245.13935529349112,65.10645858733517,99.97656088278276,43.77771518359917
61.6298079885973,284.4482369769401,392.25149339068236,93.17512273977509,229.57991690440173,66.85293001222334,106.50172685930949,51.55606344323348
62.20488274584765,267.3139261684143,357.8337637144062,92.68112919323643,210.706731461822,62.878279567618364,102.36521432360573,52.21078122876318
54.03421566437322,238.96712412522803,320.42845877319814,81.59911249588217,187.61582450305798,54.6154473573256,89.93681065433127,47.56855019348676
42.165505530047525,206.47813694385292,281.8729402170044,66.40131828128541,163.33546042955163,45.46532629681992,75.01288428638783,41.197303027181825
32.085644118064906,179.80031997580713,249.18798529231347,53.90479330993173,143.3508284212183,39.10615558738622,63.85312762906107,36.43074052281351
27.550906934994494,167.72106246429016,231.7389487083051,48.579855462799024,133.43930183676594,37.99173615709884,60.62393374219715,35.056355547282955
29.80226172525123,175.63030302300706,238.5791894498231,51.71744635688535,138.22357774372625,42.72405251115604,66.40737184481713,37.17708824869957
37.74227238697943,204.15529441252173,275.0547426235302,61.76357475083686,159.66715446492643,52.04485413109919,79.32647070824899,41.673693438596146
48.23811591271134,246.59424140279526,336.5552490435486,74.63096576656412,194.04321430073978,62.86272015696707,94.76077397992793,46.48142264963975
56.502398167742136,286.12945930306955,401.58311032963303,83.99314574212345,228.51865047481905,70.37455583741949,105.63682303048917,48.678721267011944
57.272284039050845,297.4077449376305,431.75230081524796,82.71337806632901,241.60711862348444,69.03371722772987,103.89578650910721,45.09353813409934
47.05407526563034,255.80334378918658,384.8800360945536,65.91732869623748,210.75507849075422,54.75001691007562,83.71958260346966,33.77443106179486
26.371890725568406,151.1853921325422,237.4480375045226,34.254519560005434,124.66986310963257,27.413323864000034,45.16277068433801,15.569099796642345
0.2884284164405748,-2.697528949890401,2.735931973833248,-5.176536680382424,-7.350136813721153,-8.040731709445875,-4.431454418662762,-5.526616876859574
-23.617685018973845,-170.94024719201676,-269.1048078427876,-41.53798926219452,-156.381030607364,-43.18583859091454,-52.86691604992235,-23.892895157511663
-38.83029906670414,-312.2474195418587,-511.56806847135607,-65.3100512814189,-285.9155187754974,-69.70468965806498,-88.41502379992309,-34.93343416936928
-42.88914777833498,-397.4392204752126,-671.6110510648954,-72.66803483455804,-368.26190713216977,-83.00807582513899,-104.9823100523963,-37.2223045893769
-38.05091792997546,-420.9679760375636,-731.4827792936924,-66.6055963161808,-395.7751541370569,-83.80930757249612,-104.15578051079532,-32.85650747023719
-29.442067975303303,-399.5674443205896,-711.0187730603815,-54.42946348723454,-381.05846906020577,-76.93758869592455,-93.22702671345819,-25.940475434471015
-22.09903731496916,-360.46564631586733,-651.6461837684266,-43.53681524283886,-347.4590196055576,-68.39743272479295,-80.81264633188445,-20.31141098228619
-18.76897394259195,-327.40179626785306,-593.9009050201956,-38.16098304323726,-316.7018507626831,-62.572318915268355,-72.88825342034589,-17.930223628505797
-19.492742181577146,-312.2683383325882,-561.6244413318944,-38.62941386615311,-300.76548051461947,-60.99762812249013,-71.23133296182668,-18.667156925985182
-22.620607165530117,-314.833298658497,-558.7096068165722,-42.723724790652376,-300.7657336407163,-62.83037220448776,-74.30836229970417,-21.155511363609186
-26.163630593556906,-327.62522296056244,-575.3600373228908,-47.60671306035306,-310.78045345541074,-66.13665275648292,-79.21944404879817,-23.847299296527886
-28.673121776011943,-341.58221523716406,-597.1220433562451,-51.13178730297646,-322.829078830618,-69.05777934511867,-83.33818253715934,-25.665713482114196
-29.555891174524533,-350.0162527476161,-612.036720538695,-52.35395832166144,-330.62105625273176,-70.47862868099945,-85.1817703159661,-26.212435588858245
-29.063160828749027,-350.56525848619435,-614.6418744859102,-51.556267985425436,-331.5515967938342,-70.25279884715934,-84.66263125475781,-25.7303926467352
-28.04044399547183,-345.2380158517492,-606.7618654110785,-49.915226867668046,-326.96369779193833,-69.05668663206382,-82.83982965132331,-24.893501649468085
-27.420500755237132,-338.5152470396537,-595.0074786017765,-48.780974095125416,-320.6378279474379,-67.89461212481457,-81.18495469740039,-24.411714116576498
-27.66856031646775,-334.3168662706099,-586.0778189503221,-48.86716008390875,-316.16301166527956,-67.46767569977409,-80.66910259632206,-24.61484252125922
-28.591295921710742,-333.817230164486,-582.8347677744802,-49.94404382819223,-314.8774120260589,-67.82735501531764,-81.29332307452378,-25.32668881215843
-29.67003427738796,-335.6593802022781,-583.8837323578401,-51.28681650414252,-315.8236266063309,-68.56005090186275,-82.40781259421564,-26.138044488592854
-30.568093051969598,-337.96023981299516,-586.3186385887718,-52.40009169357987,-317.3750624855651,-69.26616144652326,-83.43547074455452,-26.796931902367618
-31.31084743078457,-339.9213353441005,-588.4928480314373,-53.297814894353934,-318.71567475706263,-69.84637310941096,-84.26630383312855,-27.33393546448348
-32.05227188242342,-341.7076695729951,-590.3509956850457,-54.18950129747276,-319.89426743214756,-70.39230722281813,-85.0533225272317,-27.8716878474628
-32.807325001610856,-343.40813744901374,-592.0158963014302,-55.09725696506716,-320.9843699430184,-70.94027668889426,-85.83629415710416,-28.419981727307075
-33.476045324168716,-344.6694263181251,-593.0099952114391,-55.87821441193657,-321.7014781454139,-71.422255425157,-86.49536371849905,-28.901602964273746
-34.03885870031757,-345.26582268079255,-592.9231447448727,-56.500124124300726,-321.82920154929707,-71.80280443273284,-86.98383720615503,-29.30517625416064
-34.59213185916648,-345.47818498756664,-592.0799571570326,-57.10059386972138,-321.5714051555049,-72.13550085451259,-87.41313277899567,-29.708683971440404
-35.181861135864146,-345.62582089503445,-591.0027512659434,-57.75439560088247,-321.20638873672056,-72.44701541301986,-87.8581941569029,-30.148776301428942
-35.73230557892213,-345.5849433539797,-589.6208999849607,-58.36290296976097,-320.6608226986616,-72.67075618407178,-88.23830348922075,-30.568013155019877
-36.240958674582785,-345.31264582299076,-587.849360730292,-58.92146190554095,-319.8967799959062,-72.812882901498,-88.5545830190994,-30.965907056447847
-36.98028099100517,-345.84163370687537,-587.0959780562703,-59.81035099200325,-319.7636726752686,-73.16231515767169,-89.19448644774656,-31.548335391860654
-38.33673020244524,-349.1035234278694,-590.3060372271871,-61.57909070304133,-321.937366105945,-74.18291107656064,-90.76662376100408,-32.5970489659488
-40.3461820837949,-356.07657610462707,-599.3846015378593,-64.28877900615196,-327.3953119017287,-76.05583697075674,-93.4435489090131,-34.1172531111773
-42.42457076315631,-364.93466142389826,-612.1325579347096,-67.11480024536598,-334.7431417744,-78.30096826996392,-96.46577948920265,-35.64910670934592
-43.65877123629147,-371.3382380011598,-622.0948965646652,-68.74598783050321,-340.27806540917743,-79.91389366865486,-98.42177537236923,-36.50906908896763
-43.45566087058225,-371.0563689128349,-622.2062531575219,-68.31312753652304,-340.13936556530484,-79.9793215176547,-98.17323664790437,-36.28759398462027
-42.02342598840175,-362.99958082607856,-609.6914137398419,-66.09603633846962,-333.0165694586749,-78.31466875543177,-95.7163211061053,-35.19554270375133
-40.39604301368434,-350.69131040515214,-588.9882108206435,-63.57520633180584,-321.64678154285315,-75.76070967301692,-92.4412373006822,-34.05080875670093
-40.097447057259444,-341.6394754100744,-571.3696256724546,-62.950054568702356,-312.47099317819084,-74.0395631367961,-90.76867290730739,-33.99685430560647
-42.57942548060185,-344.8593500407702,-571.4099986733539,-66.32226634630634,-313.575294690332,-75.20080251482655,-93.29632422204615,-36.06741363359283
-48.400496415984136,-366.547345754164,-600.3352372329658,-74.51306311293376,-330.92019682145366,-80.60607113451782,-101.43789822889337,-40.57886374892196
-56.27778393795511,-404.45753438989635,-657.0134099125032,-85.70356446595154,-363.31535010296545,-89.60759094761711,-113.77179472257083,-46.454895595722824
-62.67216530040398,-443.8015387254109,-720.6287321606914,-94.82934126654422,-398.5122729927282,-98.64962166986918,-125.0842307525478,-50.97915683440798
-62.74105091320118,-459.13437459823496,-751.9881730171342,-94.92154551433225,-414.32974346289984,-101.83154497651036,-127.46182684398693,-50.5785758441166
-52.71847708406928,-424.41000774894405,-707.7713300610167,-80.50266266164485,-387.01352482306686,-93.32872826805722,-113.79882132237766,-42.63113188423065
-32.49984309444648,-327.43980633394096,-563.2456617174352,-51.30950606722461,-303.97653196590994,-70.68349087624497,-82.13553352862472,-27.334001766179917
-6.615005405147693,-180.06747571851668,-330.5081008212325,-13.733397165862982,-173.50674633846862,-36.97273738146005,-38.01350852286866,-8.276523905069181
17.40408600881895,-16.368170817470517,-59.19494955505958,21.48487700620741,-24.358804546794765,-0.22052134079593216,7.149529873264362,8.946743505546081
32.52934923281825,121.70270023640124,183.44769417263,44.28501186374285,106.0056875074583,29.944047328393562,41.16345718516109,19.41824179481441
35.55487111461057,203.4568098545824,342.8128937975936,50.071789779225405,188.33565787668317,46.6020848275611,56.76282928913851,21.257852957473744
28.241184847258275,222.24352598236734,400.03536560711325,41.35931473791465,213.8783480586949,48.38920089020346,54.51873951501977,16.211450911569795
15.755556529841064,194.85143513529718,375.10938670162443,25.48702213853149,195.26655868790408,39.37558767805551,41.41689091177887,8.218496886088573
3.6616700322565343,149.4201522097203,310.46231942661433,10.237052365530928,156.79155364926584,26.388761061694826,26.417250939926475,1.0708488790145712
-4.530221989429924,110.66301119231983,247.4637213979083,0.315939849754518,121.30653049204548,15.640272990148468,16.059471303304967,-3.2518159603145387
-8.038741241428891,91.08324032574721,210.24329742520797,-3.50171889212053,101.61253956551629,10.516786725573738,12.544398481163352,-4.7420211782537995
-8.006897865765131,90.75973629082695,202.85184147215625,-3.026512306340579,99.282986846948,11.20125013978456,14.506974525613602,-4.439314721634351
-6.326683062446941,102.24527472426372,215.79670121333717,-0.8250359383837718,108.4587526788196,15.600157176334035,18.981347778773547,-3.4433866315914603
-4.8186980006632725,115.9417709773646,234.6265100407542,0.9199407362393465,120.61027769424713,20.729668887980186,23.07481597387081,-2.4785962818698604
-4.7264018900615055,123.9862930181203,246.56636850005313,0.9046687319033105,128.25569277678866,24.028134153071893,24.910888455644034,-1.887466558636152
-6.325524338980152,122.79044973706279,244.90126863421457,-1.0222897282709789,127.51990250699448,24.29305015465149,24.022428414923,-1.7041852742974601
-8.841982536706777,113.96803382235683,230.8827754478383,-3.894997786792609,119.2587849207618,21.915807358704278,21.20414531487679,-1.7522700484316682
-10.97163338141689,102.70693949393016,211.84784059850608,-6.295015061799457,107.89842927183204,18.264472852514594,17.72108037327318,-1.8881027812984787
-11.76458245062053,94.05764468349378,195.88005928023262,-7.367279571132113,98.25924699001277,14.633481378012538,14.273519924942482,-2.272844223914874
-11.156018489390469,89.80036536028221,186.66610957818327,-7.318186024766442,92.57955511693731,11.580216394857672,10.586601823269735,-3.3308812368603764
-9.72575187631924,88.32858879110037,182.537570956686,-6.937914075283923,90.00754343388715,9.100578257739889,6.0381154395769165,-5.314465340044591
-8.06226879511547,87.0324654064373,179.67579329486094,-6.734043753694557,88.43129276546965,7.242155016379881,0.6639573975134482,-7.897362717588438
-6.428331608047012,84.37262418858232,175.55099408522196,-6.633618902824803,86.36741801992228,6.363766988054193,-4.545788069591369,-10.28679586295586
-4.919019992540142,79.90181250758165,169.46752518707305,-6.430975303545477,83.23224085946373,6.7642155678767395,-8.350792499685275,-11.803393264417709
-3.6859403694485016,73.31276236599194,161.20071790747963,-6.256825554497279,78.65462777429913,8.172919158280727,-10.175809447883774,-12.361773053469106
-2.868785416672124,64.43478996955876,150.6437165025997,-6.471404792239601,72.42442603363375,9.702841158220949,-10.363322117897711,-12.421231811061284
-2.435318223663886,54.125399503582415,138.9402286473384,-7.274318722756898,65.1869519522734,10.274412771825531,-9.779614600657485,-12.577168194143205
-2.3202087048244895,44.255199569902324,128.65386529627511,-8.69736516890319,58.451473086574474,9.046175551880946,-9.433003621000035,-13.271838572317556
-2.7744554046562153,36.081999229664234,121.5250822359192,-10.993943036436008,53.233531599906236,5.585084657423797,-10.39623990744101,-14.787061603418758
-4.3868021958492545,28.776874453702515,116.02527512899539,-14.718837322950316,48.72473351533201,-0.02864659374039532,-13.625717959108414,-17.24435462468224
-7.531382841973861,20.168872266210553,108.0238371601923,-20.09207019358903,42.8117169662106,-6.965723905699397,-19.339657152251508,-20.399576022698213
-11.737215219922293,9.238136446034183,94.5288282088996,-26.242426116571927,34.220999528069584,-13.543744812401929,-26.408173798469974,-23.46453475267372
-15.711101301371853,-2.2965605426150417,76.79025148522709,-31.300233429961153,24.086587300779144,-17.71105710360424,-32.576429047738884,-25.34737083982358
-18.128518088943398,-10.989322883131218,59.72805942817796,-33.50114288172949,15.342608987743263,-18.08479665843978,-35.64947364116889,-25.299367371319484
-18.56042866347858,-14.178010346548254,48.62689982197696,-32.43781141979892,10.683365993418791,-14.861070550733372,-34.79921189691752,-23.48971771198923
-17.863744335131038,-11.782669295877083,46.1923233879952,-29.539573907716328,10.938066542184208,-9.910317166456188,-31.07429260234616,-21.080464196600957
-17.916632583465276,-6.6782854773115,51.242628895074674,-27.642121189432338,14.547132763896963,-6.026520491846608,-26.99082895411211,-19.81543670309658
-20.933064695814853,-4.37434384649593,58.02959950940291,-30.00889202734183,17.530802558167423,-5.840976696058938,-25.657776778823838,-21.37414020499612
-28.442161430384207,-11.96558353123945,56.1935859270679,-38.932017658389235,13.928146999621418,-10.81940671515965,-29.646366848769677,-26.590984464875742
-39.952901580634396,-34.99744242006299,33.873471598110264,-53.90098688935198,-2.022869421621542,-20.420313920047388,-39.475962262593846,-34.56931537089005
-51.85207147072155,-72.15406181155433,-14.55679968723623,-70.04442329357305,-31.477641385970223,-31.56604868138598,-52.08473422171963,-42.085190915537005
-57.67863741189238,-111.21079802366333,-80.0579786720934,-78.4260747269479,-66.86754832273512,-38.9900657326653,-60.58405353542709,-44.05879038158774
-50.52429263655276,-131.2053653776797,-137.639680634358,-69.30046616391526,-92.37256753082598,-36.9834381321442,-56.523550998524826,-35.51871589609991
-26.771588288313307,-112.14878062924743,-156.64024700237377,-37.31571311831481,-90.84213600760081,-22.154722482104287,-34.21842236910444,-14.354782482000989
11.060937818422245,-47.22633155148924,-117.95002997082568,14.411154834342124,-53.79581138773627,4.281505350019698,5.308637215414519,16.807053058855065
54.48727526332235,50.803653423280274,-26.929234476130368,74.3562429313935,12.148549121553522,36.320395834560244,53.58264709959357,51.05994763763919
92.5410180245805,154.11981436791547,87.28687390906639,127.31849918916383,87.24644410048839,65.55239062315438,98.07447580400407,80.05102036023581
116.69183681791607,233.08199126284822,186.28833931067044,161.26354271176785,148.21427811224277,84.9139772049094,127.9463294000287,97.67387518378608
124.35636840255042,270.1821081064523,241.59847198992566,172.32802870655667,179.53110546729732,91.67162700073008,138.78038598110524,102.51524267519957
119.12645479347961,266.4349049319976,246.73225488714655,165.28910568879772,179.6117256135928,87.9992925410503,133.64334515163756,97.7679975039922
107.97763426119646,237.33219126643078,215.798793141413,149.77037396346586,158.80186508150112,79.07503690168794,120.29019469201926,88.94604745509176
97.49707705526487,202.4213543290538,171.83139611157014,134.98497523510468,131.75086114330978,70.13865798598508,106.7006225213582,81.00946533708124
91.36029105216014,175.8294840298062,134.03294098435867,126.15453300024843,109.82403844956512,64.33213869291326,97.75404122277425,76.55733183474445
89.97029778334618,162.59626989280008,111.38988736605482,123.93932055434216,97.72663717822866,62.228930591781655,94.44971507478293,75.69244412583883
91.62266305146133,160.47071615060025,103.4782562216096,126.02770134505403,94.45245320062766,62.662943363155684,95.10271636154515,76.99747809894758
93.9928419077689,163.72877899274127,104.49352826871642,129.20169607905677,96.00045212196682,63.88317739472916,97.0628390947995,78.68557553540852
95.21371250359486,166.35706038247224,106.98305672473347,130.84132078968085,97.75143996636467,64.39523337925581,98.00607160591157,79.39139555407714
94.44182697025985,164.1654495156602,104.66720095802357,129.7246761868257,96.15205219049028,63.41519615910918,96.67326355238863,78.55716466458216
91.96562618679772,156.07678524547092,94.72992010779689,126.20331455597287,89.92042897080512,61.01964954237904,93.14222902536433,76.47332731181308
88.82022075828473,144.1121271459953,78.71323821884123,121.693736774448,80.31740898952442,57.94372685027652,88.52898611385952,73.95727499649708
86.0438861306816,131.65749834591568,60.86156876748914,117.65130526911129,69.96484227278897,55.044988727234596,84.15325964420583,71.78244865038468
84.06311729372261,121.09026791863009,44.88050152541821,114.69749860057928,60.92632342856335,52.765663051019615,80.70463634431675,70.23056544588145
82.67407538355208,112.76103906217546,31.95220927660455,112.57152487874248,53.70051157748678,51.02058439720455,78.07256595080577,69.10870131470148
81.53762182064399,106.00580244110208,21.55411131373035,110.81393410122782,47.86488895086862,49.54630043879789,75.87853378173452,68.14503881267088
80.6013463492039,100.62799081951566,13.394254068772426,109.36318202208474,43.245520040943816,48.27020314934453,74.02381791440948,67.30627252645272
80.01261531992542,96.92177156613886,7.676965229786225,108.43565711142408,40.00887474336816,47.2837451942301,72.63124646063743,66.71655306423884
79.71272687705034,94.32215883171095,3.408316428750693,107.94398546230907,37.62202862905735,46.51237429929062,71.54654830160528,66.34114142149787
79.24570214112268,90.62179413025244,-2.688731398021135,107.21570809353227,34.22360285050559,45.53967618535158,70.09914358430571,65.84431497749928
78.00839217863492,83.07904191287292,-14.566992543085945,105.3535376169544,27.55373036424888,43.835738249645544,67.47791389596185,64.7814906784037
75.66798938722076,70.54098397015846,-33.648856809925064,101.85479218031739,16.75908004035357,41.16537440283358,63.35630806727761,62.90814887720021
72.39946533915627,54.684832182094766,-56.96251534061702,96.97724280628066,3.430809519357589,37.8072733503967,58.20794445609098,60.34912411721073
68.91149979921914,39.60588618958938,-78.07069704731678,91.78073634711463,-8.862245587462947,34.49462069340368,53.1953261509198,57.61894755372117
66.37713077518778,30.391101386576196,-89.77275592170334,88.00386399375364,-15.970486344612318,32.222758189761215,49.85974817075274,55.583641272060596
66.15092494724178,31.217322637037185,-87.190747427611,87.62416569124798,-14.843044505252129,31.94801087624613,49.64091299225864,55.26118110097474
69.01140492410431,42.75168736352238,-71.03952030429689,91.74917086021604,-5.511674832422861,34.02859783068462,53.003848879836355,57.250772383170336
74.08121293933522,59.277016274063264,-50.62942025839301,99.06373678516151,6.916051641228672,37.48831901021265,58.32751019279493,60.90899854232139
78.22771794165124,67.86964889168692,-43.960442274275955,104.98310347543502,11.95051485401111,39.67593843140334,61.456738452311356,63.889623955183886
76.79317531678552,52.319654236877874,-71.66730896692057,102.7345927706451,-2.885304087064148,36.96757423395002,56.88703964491188,62.6889744075608
65.63052961871105,1.4321835044825537,-145.5170404555097,86.33875518484054,-45.33729950481763,26.462598116621027,40.44180590697364,54.16933884299892
43.32756220304886,-83.02697693628484,-258.1742704037836,53.86602691555736,-112.27835570719847,7.692475998104579,11.881470642379936,37.21667117278897
12.200393753332364,-184.80248591626224,-382.7880319204299,8.879114652440533,-189.08859951824348,-16.878194749760304,-24.435829292680694,13.482630403840313
-22.57933820846238,-280.3215337910219,-485.28877753757774,-40.90023149171468,-256.2748945169792,-42.99679863239079,-61.48131705133678,-13.243224438541272
-55.12499434362848,-350.5410057515823,-542.7346440719379,-86.83088511787618,-299.67653764878025,-66.64722884467993,-92.85571035160874,-38.58138391525067
-80.88783906503019,-389.5813260391358,-555.2863430393155,-122.46580679597042,-317.38483326077215,-85.53123463979715,-115.25078283304558,-59.05050054051569
-97.5249128974667,-404.18841440421545,-542.721940935532,-144.84339502289018,-318.3317016633846,-99.03706119535978,-128.54134344671357,-72.72702231534663
-104.55832444022127,-404.86051874687024,-527.3770282662816,-153.85198747602425,-313.5288196985885,-107.00611324851299,-133.90097823631024,-79.08629607788312
-102.78602573394718,-396.1057249415522,-516.1498565340725,-151.09223057238285,-306.7774809846273,-108.68946578325969,-131.97536964864187,-78.70561985091453
-94.32976451550057,-374.0308149689317,-495.7300090757063,-139.66966498209038,-292.35453794687464,-103.12746587589616,-122.96504863170827,-73.38951518583559
-83.09187495306853,-333.06198510688404,-445.07104596110287,-124.77192906695757,-261.5374282668635,-90.77245423352713,-108.45527373823053,-66.44504846333763
-74.46171951010056,-275.41959300151944,-355.0998518402156,-113.4391562590103,-212.35975036471854,-74.77732696113124,-92.86285894841502,-62.235962580337436
-73.53048838376978,-214.44951200937,-239.70746518739506,-112.36016751297052,-154.23867351658478,-60.402365624544,-82.4698312645179,-64.59183636721309
-82.55861958684456,-168.31224972343682,-129.29990473579358,-124.54635068436139,-103.48480277487376,-52.53145076036905,-82.19148265836695,-74.8138892332909
-99.50424022092838,-148.84092639570522,-52.171199289316135,-147.2997164643867,-73.23564570058689,-52.968659238822255,-92.43560373757366,-90.72375129133269
-118.9514175284549,-154.43789018990807,-18.13045292925249,-173.37608355091095,-65.71155043747694,-59.53615008597283,-108.63573275455695,-107.67669905271275
-135.09960504998142,-172.6931949724735,-16.48523055401499,-194.99573546023584,-72.69352447326683,-67.73871819127626,-124.11350338606877,-121.08624076709687
-144.9276276844562,-190.82947477552057,-29.14906419323963,-208.17692283292993,-83.67284756172818,-73.89484247267941,-134.40871423420904,-128.8697992268741
-149.4201841886074,-205.96088771430098,-48.05329066975949,-214.45463731397905,-95.19551696743954,-77.54547370776629,-140.0206636435978,-132.19510812173456
-152.05959367887752,-227.13660198181785,-82.8559234959877,-218.79372055424125,-113.96878013263851,-81.44125743281813,-145.54986057940718,-134.0468632853817
-155.73364529406734,-267.3704388499033,-152.6088990144336,-225.22603392019792,-151.10561233330083,-89.14473055298772,-155.81667024962437,-136.6636061390493
-160.34164072967044,-331.5937994259694,-267.64864611921115,-233.40802003070607,-211.77954746502002,-101.99096966511418,-171.75068768615273,-139.69116129654603
-162.80501512419983,-409.63390370020335,-415.6210360224531,-238.57976002474607,-288.14280405934517,-117.56005366206428,-188.99417113073827,-140.33962528842088
-159.36434320264797,-479.5580276133063,-562.4901155300082,-234.8606519028154,-360.94622484462593,-130.68460017109535,-200.17330383895452,-135.35222253626426
-148.41099152272946,-519.2067212015063,-668.4462096908813,-219.4397657828932,-408.99702575269333,-136.26473475135919,-199.23979159947172,-123.34477284226352
-131.86051738989144,-518.2049330375111,-708.2921053849567,-194.76388785267088,-420.23471191101686,-132.0547814902609,-185.02992381076055,-105.9498599604661
-114.28285276360191,-482.9843297464456,-683.4793489497979,-167.46900290279063,-397.53071963577116,-119.79507410231257,-161.9725575636565,-87.17664183216625
-100.64876542621538,-432.7339864519537,-619.6278057276318,-145.1650437591377,-356.4391033291852,-104.29856223084988,-137.9465567365307,-71.65180809022291
-94.34583718342068,-390.26413684922494,-553.38969004807,-133.4199932965409,-317.5770561530491,-91.36366223866841,-121.00411812555659,-62.971356642543405
-96.47834912308878,-373.6506092601811,-517.7357196068041,-134.4880661729185,-298.6948356902642,-85.71655576390741,-116.75860193121497,-62.89494440100803
-106.08813801786711,-391.339591352642,-531.7556282130184,-147.39771103626703,-309.4027187940637,-89.54566318351162,-126.92847660706771,-71.14177200115942
-120.26579540582115,-439.40159137048295,-594.8353634671299,-168.00947381887926,-348.1079322721498,-101.53004799135455,-148.47080696901958,-85.16686944700122
-133.88368285296394,-499.6807769108623,-683.4395952301708,-188.6590282318047,-400.2378415274453,-116.43388289460738,-173.18123060675265,-99.9341067875137
-139.94082612221794,-541.2095777486333,-752.937662321047,-198.75838585845642,-439.468185014417,-125.97798623134885,-188.85451110659443,-108.54850361686522
-131.6169077874387,-528.8377413677202,-749.7672318305113,-187.895605817082,-435.06795621589987,-121.60526364813074,-183.11819211315267,-104.4533523360073
-105.64818665847997,-438.66671776778935,-634.0683938747803,-150.86478043240214,-365.11326135677155,-98.45781843213186,-149.11134890413743,-84.57344742409225
-64.96214273216704,-272.742275549714,-402.6905975037469,-91.630730454969,-229.40089274296187,-58.441267726979696,-89.92675544971104,-51.518708783006396
-18.415784998216544,-62.86157719302346,-97.50249314144267,-23.05767542125315,-53.432778766712794,-10.216295554497382,-18.580058424130424,-13.111319013672475
22.732624698097318,141.03860070872346,209.17899817381686,38.20409061649171,120.75594808837539,34.31520940217688,47.194750922063754,20.866390040558
49.74848326077357,292.4800670191442,445.74205340561826,78.98988621991084,252.76615382093237,65.21715940884357,92.66059533452416,42.95580209454097
59.921160652571274,367.94046874453403,571.7253352637538,94.90760041024609,320.8884942351506,78.530308007483,112.00601081777124,50.93036404353137
56.79720801803264,373.67075328629454,590.8949832085924,90.86151160761418,328.7725707423114,77.02372338315871,109.41502463375525,47.868832267220924
47.41752410428892,337.53281364407445,541.6894069075621,77.1115605402548,299.2309962158073,67.69290178432365,95.30605666168562,39.7359517462225
38.54677861712945,292.5260071251015,473.5074165851881,63.72773973446691,260.4410846246803,57.862155086283536,80.53065816198854,32.19196036454363
34.0739943019902,262.2206757965117,423.94417319951737,56.65931000863532,233.214560296669,52.18211233594949,71.9425646263193,28.43704933136122
34.53125597878259,254.81460245384076,408.0849733272189,56.89267588124813,225.38119674764923,51.74841404177256,71.12893618895245,28.84123028087684
38.19462917245592,265.7721042893442,421.0841151815271,61.992142985413615,233.63489027375502,55.033721442581,75.81046991344955,31.89226805969796
42.62114796691521,284.5234540295563,447.791852058532,68.36188289432083,249.13998285277822,59.50118435916287,82.22456757572711,35.50528826150107
45.836814017366855,300.7803631720698,472.4696626291735,73.03885450838226,263.00806695578507,62.961148447183675,87.12387334485335,38.03294128341646
46.973836093320195,308.5056647528527,485.1686719709598,74.67403842809924,269.8183822926099,64.33113133593334,88.90525517529554,38.7913150277283
46.37294237463382,307.2899406502738,484.2355666178937,73.70971402017275,268.91983678164576,63.79830424582032,87.85903751061574,38.11265834780041
45.15932574404427,301.2160372640221,475.08135387226264,71.77319257753568,263.59400469562985,62.43650540951971,85.59588669463598,36.957723504620844
44.47008891751312,295.75335515958267,465.8597424569912,70.5496724151766,258.49966589320735,61.45301421875534,83.91234078481487,36.26553554593703
44.803385545693175,294.40923593253444,462.36237991196657,70.81427176590584,256.7904720163843,61.491078165631635,83.74900221828148,36.43233412358707
45.929727798275046,297.31505807443176,465.4107563331246,72.27061250266091,258.76466603475563,62.436069639893105,84.91768206416202,37.258300816357654
47.324779889365715,302.41450634520675,472.176716960908,74.15962920862661,262.74181276487406,63.77200092594493,86.65008139082714,38.30707225743589
48.632827294064896,307.67603335973064,479.4723603398338,75.9416248285319,266.9423889760142,65.0701949202664,88.32329846268848,39.279035753096416
49.76155322298648,312.2136751129182,485.7551077491645,77.46005628675844,270.54276650243105,66.17449117401245,89.71632271056352,40.088685695308186
50.70033703790254,315.8771570468828,490.74929934711105,78.69354114219422,273.39877685089203,67.07059109155144,90.8035603593072,40.72579133914044
51.42394479843812,318.60158127658184,494.38307198410416,79.60969125515031,275.4650896865038,67.75686864370137,91.5717160872726,41.181907232966
51.999836911436795,320.551748228023,496.81875727292686,80.30754949377848,276.86001016508214,68.2983553112259,92.11603216982554,41.52785463392876
52.658101233404665,322.5384393657801,499.1157481132177,81.11817232008241,278.22920580109417,68.9007784708952,92.75090823913472,41.95533835359767
53.62410484622342,325.6422428979642,502.8850704327222,82.37132248396071,280.49036512139145,69.79149933772385,93.81835922225409,42.63835423796493
54.8810450543978,330.1843436502945,508.8098455169583,84.05328031420203,283.9770676895047,70.99546863184159,95.3474198660705,43.55311214394078
56.18113710533826,335.3340316535332,515.834711321865,85.81195769175271,288.03917802707434,72.29684501945026,97.00885224655791,44.4987017308929
57.3212341982864,339.99555804255107,522.2681229803206,87.34703410068907,291.7296492891792,73.46821787515093,98.47127103550534,45.317126231662606
58.34718090846825,343.9679115244922,527.6007074019227,88.71293435817252,294.81476226252715,74.50049903338721,99.73913898556467,46.04698647995738
59.440791920044546,347.9812964379282,532.849137800774,90.17045550014852,297.8912436609045,75.55974329864112,101.06766084039245,46.82884010074822
60.66204268292613,352.66531473449123,539.1194942320454,91.81676247095258,301.5413346140896,76.75255246826644,102.60143137002663,47.70641371468986
61.89868803526981,357.85328308606233,546.342539156146,93.49865497554396,305.67519238099516,78.0203356917705,104.22889532267263,48.5945174755961
63.073321746080936,363.06137538711823,553.7335602287341,95.09919351275042,309.8625180402175,79.28338831577533,105.81853096382291,49.44123385722572
64.29428142367128,368.31584561249883,561.0831264265705,96.76082226535084,314.0529670978618,80.59963880798254,107.46276683881452,50.33712174268059
65.71703923405214,374.0576389732299,568.9043032470665,98.70105907660185,318.5823882241239,82.08674330000247,109.3527266354193,51.39967870109197
67.29707187940416,380.24261725160596,577.2325598101824,100.862128171244,323.4503517307225,83.70400875251745,111.44547931766238,52.58369232469717
68.78690365881053,386.0167646711237,584.9779795691635,102.89771973894786,327.9920142292862,85.21596179416576,113.41211823598103,53.688632437079235
70.01224792267232,390.65711106104294,591.1255043485028,104.56185515369492,331.61137624799966,86.43651326704914,114.99925257597472,54.578726287763786
71.08411639518353,394.7030803044901,596.4710143448746,106.01745475696042,334.7536004018295,87.47272943425259,116.37016381924245,55.344604696311414
72.28249653283363,399.7742628928205,603.537238337874,107.67520281732479,338.8090584781367,88.66524049675708,117.98882832618432,56.208621971888235
73.7741118032456,407.12718678727623,614.3871168016367,109.78071975250535,344.88628560175704,90.29170791717324,120.18193512614785,57.30737099427736
75.51750287375285,416.5154486578596,628.6023116692382,112.26123497961437,352.75896100852555,92.36730917681327,122.89229238487354,58.621000928264365
77.41352035390702,426.4378550864804,643.4408962204767,114.93797439067117,361.0202978828068,94.7014577068235,125.83117604536676,60.08390114767054
79.41019505942123,435.1588636096658,655.6313884856005,117.69975938671908,368.0284134065392,97.02855807764273,128.7063157422253,61.6511507014843
81.37476620726595,441.3178150714636,662.8784479060902,120.35307069264421,372.58725662610107,99.01568654836011,131.20230785083,63.1906862611296
82.96122494611522,444.1218377347586,664.5169520218724,122.4461927295039,374.19577570364635,100.26563537261318,132.90005227661885,64.39250793123578
83.81643761108454,444.0639370935932,662.3837372177462,123.54665128953555,373.57544342205716,100.57495740858647,133.55516277991575,64.95681613636835
84.05233728092817,444.1254375285952,662.0365370974795,123.88075504517575,373.51448590212294,100.3779497669211,133.67304363183942,64.98474576761436
84.47508004668325,449.70517830505327,672.0796903348856,124.62449726750164,378.66334532071494,100.88840484531107,134.7052806411708,65.15938591881815
86.1953228993709,465.7374310558154,699.4514306830579,127.31734870662362,393.01860571909003,103.53581955694777,138.32321222342742,66.42291861431362
89.82755243345619,492.0717254780101,742.287348609225,132.7074492483363,415.98880298063955,108.89584793782893,145.07955015116582,69.31872537012269
94.84254897201397,520.4772711790201,785.6378233174948,139.85861671572368,439.9388079442942,115.81079857888078,153.4047374028299,73.44614145227361
99.41648540481413,535.9453871302776,804.452431656294,146.02676495582136,451.5764234185688,121.28550198603816,159.62271600581002,77.3104761889923
100.71410444173988,521.9226400454066,773.1860158238338,147.18752095972232,436.83340945991966,121.22649041217937,158.90851801367478,78.54710764905688
95.47650228002234,466.7040390681764,676.8323671745941,138.94984496914543,386.6061035786457,111.71781021283498,146.70335126167217,74.44329637810462
80.96990965812498,368.18121546342593,517.7828533988156,117.85577317509538,300.6201652636712,90.46982840096156,120.23505719299278,62.789843403395956
56.27256590842983,235.49491231040528,315.8660088901543,83.02358257089413,188.11683382531612,58.057644770409524,79.90342973313898,42.980609388586196
23.40840211626087,87.29310121028188,102.30861595373763,37.519299617446926,65.48808457852826,18.435792415888493,30.05426723711934,16.892583610069973
-12.495400526110648,-52.95612994020936,-89.51292531519977,-11.57993349338407,-48.15417905076473,-21.74902185222052,-21.508619759590516,-11.131748876057669
-44.536921493464945,-163.36667232328244,-233.0646755145858,-55.05183691061527,-136.06179557065184,-55.07535474964258,-65.55036505328388,-35.536270823735144
-66.52240660402238,-229.90701868285663,-314.8392429416642,-84.84402989793332,-188.19801623377595,-75.86220835071641,-94.44791805460291,-51.6405352924305
-75.46577330737132,-250.5602069719174,-336.76036030266306,-97.31787779927136,-203.79597039411598,-82.2156856910653,-105.01476444175294,-57.55761300034616
-72.74064785968555,-235.60103439483697,-314.55011124389426,-94.63073392887877,-191.26100356845296,-76.60833804444249,-99.68798536182751,-54.87258645908586
-63.15130225840172,-203.11843270940295,-271.80047851838606,-83.32615969406609,-164.83933684987144,-64.61573680912777,-85.27624957159026,-47.64206578454723
-52.445096480349704,-171.16892498807616,-230.8510930630005,-70.89511663347285,-138.80549548585708,-52.41638769013361,-69.80788840826278,-40.298865733556354
-44.803128615093854,-150.57234052061523,-204.47236871746014,-62.43479898206576,-121.93409849825643,-44.40988386224736,-59.254274062949406,-35.748376325316116
-41.7140616898773,-142.54278060126126,-193.29135722608703,-59.320629475282196,-115.48792208854243,-42.15480494311889,-55.90800876510369,-34.695733006896766
-42.438224746892345,-141.90401857509727,-190.19277311258278,-60.11144522348033,-115.53447410004038,-44.80024184983995,-58.83006579081087,-36.228807078443175
-45.157679009462555,-142.4645281153173,-187.45507230622275,-62.329940904192526,-117.08660618053672,-50.20201158239741,-65.32637421485062,-38.84510311529221
-47.87709510323307,-140.37313879808067,-180.94846791823227,-63.72160221631854,-116.7604369727505,-55.85871984004615,-72.22468607981399,-41.162981812655495
-48.91700676171666,-134.3519318547374,-169.7904355779621,-62.74628456080441,-112.99828406643516,-59.503611619169575,-76.65419648914917,-42.20760860836211
-47.32919945860923,-124.76070815693949,-154.4555697063143,-58.84089668547189,-105.43137014187023,-59.66226609842387,-76.7210471150272,-41.55273388180122
-43.267433620749365,-113.23620294356517,-136.3231846567038,-52.64426168231844,-94.84287106433155,-56.19465110144198,-72.13735239563741,-39.39397425499806
-37.910627189766295,-102.40344519368062,-118.08883409970701,-45.74935178173063,-83.2588789926368,-50.343835864015944,-64.24034544600254,-36.34089627634466
-32.74887391049365,-94.4780507930993,-102.73937023387272,-39.76606269072954,-72.98115124317576,-43.96517972910879,-55.06147165645438,-32.89965982460404
-28.711087715850855,-89.38454117411455,-91.13945203107713,-35.325634882907906,-64.88755249771573,-38.36977203068548,-46.060259075607895,-29.064894139263732
-25.83752660358813,-84.46091767102388,-81.00446929641346,-31.915147895793897,-57.77403821025759,-33.67713448687383,-37.587298899322064,-24.470331989380774
-23.634501517802516,-76.4798190829941,-68.93020833169155,-28.61619235335436,-49.63407783528764,-29.135665449099964,-29.41175565365477,-18.99282119771323
-21.58502335282707,-64.10486903890322,-53.46157401844163,-24.907296940701006,-39.55427277435224,-24.003797631008812,-21.571744010706897,-13.195058385855285
-19.323926094599592,-48.43794955667829,-35.88911575586455,-20.799729729155334,-28.253776780319246,-18.214848688667697,-14.639392599475363,-8.152860462432978
-16.565768193552984,-31.616757381113786,-18.346275801434757,-16.48389650598812,-17.04360600667621,-12.433246072756452,-9.31172930317271,-4.84569927725837
-13.159610418270706,-15.454872618996921,-1.9571059157543234,-12.139750590527795,-6.771027186097636,-7.65963621636109,-5.932812379126587,-3.6468828177227186
-9.291671917942589,-1.3495287730838204,12.925700057298254,-8.069256767838384,2.1463604405254912,-4.691030464212548,-4.351764427001526,-4.200931619627605
-5.462567753075787,9.503289300721722,25.68480151586406,-4.67914807212922,9.320923275005265,-3.6142419244390176,-3.938859754999603,-5.564813817935546
-2.0824939913926253,16.90034113796613,35.99138698935548,-2.0538730153875284,14.827872816332926,-3.5306571792422226,-3.5473646714283347,-6.453396906581352
0.899615463885654,22.75415879006018,45.585386527372165,0.3826871907131147,20.09626845336038,-2.838918024957143,-1.6916153038685642,-5.659106418834011
3.8219728405600084,30.520706865859456,58.294269948223956,3.4736427990303484,27.605794596334402,-0.18366825923892965,2.7013760406620086,-2.685947883583581
6.6984077766587315,42.48134985720399,76.8582041441953,7.395558833196057,38.84535821324772,4.455669385024392,9.304967422180788,1.7530137299993047
8.861253313913362,57.2031395357848,99.26504038064492,11.165781858689325,52.29767038803026,9.456836380995783,16.142443244480784,5.924498723964214
9.33591227978513,69.88322668404606,118.68760025717864,13.237683477641383,63.71454884774818,12.476683180752676,20.623889068504635,8.052201933471682
7.6477877701011145,75.59247706641575,127.77236440611554,12.710979834861575,68.82327301950887,12.020547781707313,21.23032541863211,7.450961950152049
4.352003994103197,72.8081466202506,123.90945817675401,10.110967602827003,66.33546118716674,8.508768808616825,18.57131434628767,4.984857093101494
0.9408066976720647,64.87814875334702,111.80739737733089,7.251168172670223,59.21132804965901,4.153037698738787,15.160957124169736,2.593253359863838
-0.6605660843354012,59.17039032378467,102.56562782592049,6.528198694064291,53.911098145155634,1.8888098648673792,14.310664856487783,2.3316244982829666
1.2519707907348405,64.62491759477038,110.17521945564475,10.064201709573751,58.28848501132579,4.048379202291857,18.81760614915087,5.484430466398803
7.330401706431622,87.69616764973209,145.5118035411677,18.63686375905368,78.17712293187164,11.214900267574333,29.64316125410125,11.932194080285482
16.233270646788526,126.80825574296007,207.82577173985834,30.404476934137318,112.68492808242668,21.446324485664523,44.621546757853466,19.77898419971523
24.224665254901012,167.93151428215072,277.21973731390216,40.27806970932487,150.2190143796619,30.25320202827965,57.90440281720688,25.51544961238088
26.19814607113996,186.04966367201646,315.3518019254906,41.224488619483374,169.28092348161687,31.878952196001098,61.33786128012933,25.1422999141621
18.1776325716503,155.1056486849664,279.32506769762375,27.694807056196126,146.5708322266075,21.85249463761241,48.06708094702885,16.13913905106387
-0.036404895222625286,62.63705855657811,144.43915212441863,-0.6060540688059621,69.63491918250271,-0.34401142973524346,16.72139902513896,-0.7455557966211526
-23.977872252726858,-79.93154106690798,-77.52666749469769,-37.32023202622123,-53.522605023059434,-30.230989453354507,-26.612380980755407,-21.211317312528454
-46.30617833961369,-239.15588155562045,-337.76275538553915,-71.84194718829268,-194.97466953711077,-59.900601423080744,-70.4048441798687,-39.140291103668446
-60.368689665627684,-373.8932999533486,-570.3603845894614,-94.36411622700906,-318.5317053322582,-81.53784975585174,-102.87786902698309,-49.48454877965804
-63.38237514603324,-454.0917105150882,-722.038451560493,-100.53637042009181,-396.15949018033035,-90.92006200134732,-117.39406479822733,-50.60086557313087
-57.34490985509306,-473.11735430791964,-774.5040901621459,-92.95756964342067,-419.6406959833398,-88.91069663945879,-114.91050903041511,-44.665929878928445
-47.32086217005535,-447.1008454269149,-747.3358769591036,-78.86316480365078,-401.2190576411239,-80.25341883597011,-102.31623521022023,-36.063623421623525
-38.43688327350251,-403.25768026911925,-682.0512436267433,-65.82425497117298,-364.1811214301821,-70.66261138018194,-88.10777538476903,-28.91300919710639
-33.550371207377225,-365.5334251413473,-619.2160640840016,-58.2801736285201,-330.25896760823207,-64.11075904501178,-78.28929010127449,-25.294482341347205
-32.74175980623288,-345.8561081453506,-582.2893376607157,-56.64535743903246,-311.27688599700906,-61.731812206478835,-74.6705961909189,-25.00240097822998
-34.32416362912447,-343.74396429161243,-574.4023620867206,-58.6524195676851,-308.0114365142315,-62.414397410550244,-75.69615519888869,-26.484677017910126
-36.23525962544642,-351.30452424966995,-584.9121103139887,-61.342119207654235,-314.1407058953728,-64.13779126838472,-78.39898133704662,-28.015159956637696
-36.9696112313686,-359.09988461177875,-598.7674358221184,-62.46055195073006,-321.3897466416769,-65.10759636240375,-80.08482114509019,-28.429378527619917
-35.96019066021851,-360.42201149891633,-604.0449022489884,-61.07830486796729,-323.49906227327745,-64.38210679680847,-79.29154080452543,-27.378227689118084
-33.627212109067415,-353.5971185548162,-596.3919143182663,-57.71430243471582,-318.4843106838435,-62.09005718987065,-76.15334848756363,-25.30416235720838
-31.10613092496135,-342.10566569534313,-579.9295940204876,-53.976664350574254,-308.9631649487414,-59.26157858473827,-72.16854690841875,-23.175544621235858
-29.576480130257778,-332.0881166887205,-563.9397491824999,-51.60429979731145,-300.1687060505171,-57.203137446741806,-69.25875402151108,-21.934327986685258
-29.46206468754765,-328.09279517418196,-556.3752864688071,-51.28881251037577,-296.301064238625,-56.63281579334235,-68.4704912607664,-21.874243335419898
-30.097914006812204,-329.77340962179915,-558.1359216648905,-52.13900819328711,-297.4862415042108,-57.15012277085922,-69.20421043828827,-22.40757741363706
-30.19512841802833,-332.0780724797852,-562.353441358517,-52.298674275191324,-299.6378279956318,-57.484017549414034,-69.61985900342717,-22.462525639652203
-28.761061384956943,-328.8165462918479,-559.262510846902,-50.26440329807875,-297.3506420597821,-56.35547687928228,-67.92869610129074,-21.228246576298723
-25.78582576487634,-316.94824191216793,-543.0111952379511,-45.91984300511103,-287.66472415565937,-53.333391365035304,-63.61631829803858,-18.704274886444118
-22.31843058927925,-298.9379453675141,-516.0532087374376,-40.71300316268531,-272.3244434474249,-49.19167008283322,-57.88676204193096,-15.761641961975098
-20.052094218414595,-282.377438183285,-489.293771901017,-37.10780177477615,-257.6612914635189,-45.70407812023387,-53.29018176799271,-13.807342272568789
-20.638269290482974,-277.26304111099455,-478.3110561509628,-37.60407133710589,-252.35682337093107,-44.99511026844934,-52.75651185077922,-14.217251962480095
-24.769100363535188,-291.18807753833033,-496.1218600741497,-43.379147358524826,-263.3370951347957,-48.48046848671344,-58.098617067192635,-17.56974316372898
-31.184235545440632,-323.1543471030982,-543.5007737615886,-52.77526233214832,-290.39036172709837,-55.56354869259084,-68.21989017611801,-22.822173514625725
-36.25547499231919,-358.8867184832981,-600.9260980032353,-60.5849489835401,-321.8894057257995,-62.77219567371269,-78.00596375036206,-26.97402224483371
-34.97925540839217,-372.25645166808437,-629.1778395907819,-59.37679445654161,-335.5692958603273,-64.32771017189798,-79.29682923003381,-25.88787561637384
-23.442442404018603,-335.291128075832,-583.2335998388395,-43.03485449665954,-306.7363707428981,-54.52990378377512,-64.40133623228455,-16.31013856980712
-1.5307724038731227,-233.2807985017845,-435.4459021873025,-10.7948680064401,-221.286719648337,-30.991168294758253,-30.650415598253105,1.913020484126349
25.98541870473431,-76.24456108247873,-195.2238203442149,30.941898736504108,-86.18393957343373,3.24100835228271,16.858013958238484,24.937848348546225
51.066386775054696,101.48112897499374,88.33984117714819,70.6945254880411,69.97371768702065,40.27653784825535,66.49564683372503,46.22197925818168
66.05712320358619,254.9625668690011,345.09868830876354,97.07399114440521,208.10753915247057,70.67461008652278,105.06617924706224,59.49139159045811
67.31211606900953,348.61012539751,514.5463229216465,104.11660455986863,295.8964341914835,87.66190250115145,123.77924141741184,61.69618697652982
56.69676225002023,371.156814478494,571.5195670640031,93.69562550878886,321.46960725790416,89.88078515572936,121.83174381545804,54.23926525227998
40.26555374121015,337.84708899993575,533.2998147583634,73.86485637335457,296.3344794338907,81.26095294121464,105.80116325891326,41.892878999280455
25.209678525942273,280.3409730778348,446.67858967797383,54.59786247820094,247.34992331261302,68.4920300895741,85.77603293970571,30.296257219558857
16.994492627155857,231.76698263178378,365.1409698869603,43.67080876686423,203.82450718033164,57.905253698787924,70.8895212754663,23.628586033993855
17.924270994510927,214.86662253781418,328.8300091082452,44.52683340913454,186.75983529650708,53.384049310410674,66.44817287749862,23.50267035658023
27.026331808473156,236.28420682160035,353.4740095125536,56.02395845669359,203.3144942953355,55.66929892584398,72.99907207687058,28.99693229431438
40.52811962927878,285.5970587024398,427.1966355835197,73.0332190142247,245.5593634554452,62.496829222859084,86.49624031721903,37.17962937644161
52.70157252547642,337.73559253240876,513.1556692087407,87.55621227502417,292.3125028012915,69.18806407779347,99.1780762945068,43.84590488231056
57.469497493901386,359.89760220747803,559.3944657731026,90.96015785354562,314.8787948854131,69.96279050027633,101.70736833100737,44.718889159475815
50.82218412925719,323.7435973783399,517.4514825394208,77.464250438684,287.4784964251143,60.18536554741629,86.83431784801243,37.17400141271015
33.009316677160406,219.21007869886236,364.92673331609564,47.416135049902394,199.48889576038405,38.811629070558574,53.25959923495427,21.75967771205443
8.952226487772178,62.208680669506876,120.25011129468616,8.054277929967826,62.90909353355065,9.529427309533805,7.252586382705333,2.394728931871512
-13.812149309540924,-109.9711284910719,-161.1686128571242,-29.364399841948195,-90.65730435442843,-20.47860692931888,-39.55728505996401,-15.237034762676952
-28.68521043051366,-254.56622583060093,-409.92713751037405,-54.76484273305318,-223.2631470392834,-43.733621245710694,-75.37728022139468,-26.34524784381404
-33.00425862425268,-342.11627327787886,-572.9605109956223,-63.79607684450033,-307.2184459734722,-55.843040548099715,-93.53574988672538,-29.20790508237902
-28.772575532428412,-367.66903806021963,-634.4602096840607,-59.118515488884036,-335.8345255672766,-57.12817272700289,-94.85305782305944,-25.610740638629405
-20.903200306029284,-348.8675619398335,-616.6976198650007,-47.97622064621784,-322.890990518596,-51.71150651973289,-86.00957598597022,-19.43277463260961
-14.31149173569288,-313.6138417622844,-562.7417572614343,-37.917300056241416,-292.5032066436765,-44.89679441899185,-75.34393272590718,-14.419831976115823
-11.709195418464892,-285.7472355025841,-513.3333954557933,-33.39212497017167,-266.4482348325448,-40.592759659111174,-68.8525958841137,-12.550458519678534
-13.140773298389739,-276.6509718000147,-491.1862104615588,-34.863868132327575,-256.09837821321884,-40.14858050510996,-68.46884940108647,-13.753892521173432
-16.94236498247591,-285.193660120559,-498.3596989553746,-40.086767727730994,-261.61609184045153,-42.75220593298525,-72.77589809178748,-16.696416130952965
-21.057375706095687,-302.96383216182676,-523.3113966248537,-46.040680266255,-276.16923826284096,-46.58514253963596,-78.85714247864296,-19.80091003520056
-23.934626168929505,-320.3070345347966,-550.6298507800584,-50.341840869311575,-291.26645377400627,-49.88626967688976,-83.96786430256562,-21.914974965594
-24.931422151369905,-330.65943741492833,-568.6843967712939,-51.929904808020574,-300.78306066044564,-51.61362383869698,-86.55527970937148,-22.590588397824703
-24.416799330983455,-332.7161056465488,-573.7890960735612,-51.26585305931749,-303.077985192801,-51.74560007432272,-86.68985627731567,-22.142177674069604
-23.562505193873,-330.2882447662093,-570.5610024446349,-50.028298981272364,-301.0505173181875,-51.1957120815517,-85.87233824487846,-21.477578942510036
-23.71597713109261,-329.6295572172769,-568.212004761207,-50.18170843552047,-299.96735630359296,-51.25344090410287,-86.1113949769345,-21.617772933927178
-25.578587985832844,-335.21676046317367,-574.1417722369442,-52.758663314867626,-303.8575389879801,-52.74818910125788,-88.61752444880953,-23.074597533764543
-28.742277852314988,-346.59245812619827,-588.6822278373153,-57.16997412022372,-312.6690649580501,-55.47758303358378,-92.9630881692944,-25.509419661227845
-31.94262317445364,-358.61767574483895,-604.8382444534434,-61.5769283263317,-322.2792131150211,-58.3345755560618,-97.35061788979414,-27.94214335111008
-33.8119533712913,-364.97426261118534,-613.2917233707399,-64.01752537823826,-327.37797362462214,-60.02460207110446,-99.77717059607205,-29.33576536926912
-33.60674246070331,-362.4030573209111,-609.0123563128875,-63.49789065415836,-325.12889547428637,-59.85284569955196,-99.26702688310334,-29.147947035406204
-31.610244631398093,-353.1576304400486,-595.2563667624448,-60.565590704558446,-317.34524024898155,-58.165900024177034,-96.52818902039884,-27.623758692074098
-29.232825252215164,-344.81823034479504,-583.2231425211023,-57.372063050742,-310.3326400393573,-56.37535440662804,-93.92077209035962,-25.856032180103636
-28.770797594854297,-347.67843000067876,-587.8079420540942,-57.20563041145826,-312.61726222096775,-56.58481820921728,-94.77368178310695,-25.591191669325653
-32.55703215350639,-369.86166318925405,-620.2151433321936,-63.192884787536926,-330.83462787980113,-60.714104745942535,-101.92080949663503,-28.58009575262838
-41.470837915211746,-410.9320881719315,-678.8137183805158,-76.1882330424196,-364.4654444965377,-69.16109497398614,-115.5980807307166,-35.45163203677619
-53.542303395078015,-457.01012299424673,-742.3546911815082,-92.91460964396427,-401.8261829526315,-79.63058249173493,-131.74789898265269,-44.67390081454575
-63.888411020898175,-482.07268624881135,-772.0097447372752,-106.0765779604245,-421.1166831276539,-87.19275589530424,-142.36478449215258,-52.544771939870174
-66.64865881125253,-457.93362563648077,-725.9207109670967,-107.3120891403214,-398.658765307129,-86.16828630388552,-138.6841182916071,-54.703315314271556
-58.15181726162081,-369.4145123645653,-581.5367157393148,-91.78611618721544,-321.56817610537354,-73.14950760701727,-115.97521511668052,-48.5448476062433
-39.390407050578155,-225.91830098938323,-353.0604515106622,-61.613965620379105,-197.5949359876812,-49.36432086469784,-77.05794792716057,-35.046688427089194
-16.038336745789778,-61.015106118493975,-91.39138373026059,-25.614831586901584,-55.0131785077756,-20.6907450207712,-31.96321907025737,-18.661602775278926
4.258632611979031,81.52380388701869,136.32026102929208,4.872219098598986,68.95717098365927,4.974543870256017,6.549937744313113,-5.115886500798862
15.761070852187379,168.00516791777923,277.26056707005233,21.72710039448706,145.28813340722957,21.53667157302805,29.160387108368617,1.6271570239467195
17.28563158801787,189.6844806456665,316.24763432836653,23.81623662577191,165.98716965062587,27.410859683551045,34.15962803995626,1.345168116357611
12.0747332201223,163.81886155475829,278.5600832883534,16.579481046741815,145.36792224227088,25.554929783133375,27.255857880649636,-2.7208316886331
5.265537611930419,121.42878524180333,212.16069771216306,8.082340559557634,109.91335091330065,21.074365975539525,17.53297718654492,-6.054044317385696
0.818995702385924,90.27293322276819,161.58402039607967,4.336180320070819,83.76811446729678,18.143951762904084,12.388677343529523,-5.442898070273751
-0.29429494773091136,82.83483849863819,148.61634298442402,6.570909989022141,78.24991273366169,18.07164768601365,14.318386053649311,-0.49705290357490217
-0.07166571457000848,93.94667843066277,167.58983774556773,11.326846452313122,89.5196212731052,19.206114182522303,20.627699444889334,6.391430122116444
-2.094934372698001,106.54897135404589,193.47076045661808,12.635460417078825,103.25308291651386,18.253123160725412,25.432485755357646,11.283146787055173
-9.464275409227014,101.68275823959837,196.6417470512849,5.222973362407508,102.96976391042813,12.243668937680543,22.844223270998594,10.567426492632944
-22.607944403647373,69.43050513375042,159.23674721236577,-12.140683005907006,79.24019257485895,0.5688157656897928,10.451918530238926,2.9732742269021544
-37.79180958235983,17.52413810166691,88.51748145431927,-34.35899662818439,37.16415969636772,-13.584760478950878,-8.033831496731386,-9.020613703689852
-47.49999995968534,-26.98383230958,20.952038803951396,-50.47933090740064,-1.6293939351261526,-23.373687049200107,-22.656533100010815,-19.36796185132453
-43.313779088709516,-26.744997804885575,11.01930954716224,-47.83881194815444,-5.828186343368254,-20.687387796219767,-20.779929168150353,-20.755135462847193
-20.29555002334863,47.959375775008205,105.95166172940773,-18.49339116523937,50.86463967815637,-0.14374740488817928,6.63797997319749,-8.23433114522963
19.594387129108828,201.34475718095572,318.35467660159406,35.62543465831722,174.2979018661557,37.42204715676204,59.39819599654713,17.797976432569765
67.38153306302338,405.4884978009737,613.4112362179455,102.25874487138073,343.225647503916,84.28086987707151,126.69790359281059,51.19780622629746
110.67314231788417,610.2746777054341,920.289929687032,163.79344614503404,516.5550159768803,128.70973000253437,191.31936464744746,82.67619643537712
139.0500016989049,765.0839825235688,1162.640767396271,205.00250038634272,651.1022813961607,160.0100619338827,237.18759149885975,103.98049355160708
148.28936865098197,840.2722655930144,1291.3795592364995,219.28742327264774,720.0645461198297,172.90359445257388,256.10925245317463,111.33399673911862
141.34370919458695,837.2671585634299,1302.4393082201161,210.3370728968122,722.5086792475719,169.08226467034808,250.26696944820108,106.43797171502277
126.06983308153771,783.6927928057013,1232.3747420556736,189.06083825795312,680.238479720778,155.52403129374986,229.8307071501278,94.92710746436212
111.43121869588158,718.5367207047503,1137.7517017629311,168.19457825503267,625.7620300810379,140.9731169743306,207.76394916896666,83.54040298866295
104.17071486083682,676.1350657744337,1071.0879211529395,157.4707636828817,588.6691062337671,132.5350010152658,194.73956953342685,77.53841312321744
106.94116556904098,675.2517298374224,1063.5099112308385,160.85619045735433,585.9848439288303,133.56927595108058,195.92932099764988,79.1649898383117
117.78839750432952,714.5649207033555,1116.985400327719,175.77016176984168,617.9169224848608,142.97068167917115,209.81414261056733,87.12677352936461
130.6716274033038,773.3682754022659,1204.4955395807815,193.82212575773104,668.0785563355329,155.53020400383812,228.6070530572341,96.89505959002527
137.13350767915605,817.2186133744156,1277.3497994515074,203.17247921180436,707.8939383022808,163.3718001565775,240.35551059246194,101.94515352918903
129.26048531751596,809.159809911056,1280.5723094686045,192.68440225357077,705.7525594387802,158.59227711210238,232.95488050181157,96.05175757894871
103.22132480303289,724.7859489351974,1174.586951273093,156.87893079000605,639.6814755803549,136.58731922821465,199.2735772270904,76.08597197001234
61.67255480767836,565.0598123576997,955.1155393622392,99.31808179552226,508.6204456615084,98.59996694391629,141.12467773955112,43.97230730041485
13.359882565475159,359.202987648424,659.9034864575892,32.081818301179204,335.72173631341695,51.86512615270989,69.57162353573877,6.47496192033026
-30.32038517523253,154.20120806821325,355.9119966774927,-29.003402730304188,160.30771063162132,6.8641955692537415,0.7912488517834433,-27.424500485188585
-60.11480180392702,-4.542873369448474,112.00962382023243,-71.04087074972682,21.79466479323003,-27.011678729674067,-50.57133515220455,-50.3013347589498
-72.41944621482928,-90.94477792688018,-28.205601985076864,-88.95531660224954,-55.77825353712136,-45.00429848401087,-76.94489077570228,-59.16563244615557
-69.69656440725107,-104.89711919786969,-58.79664897436142,-86.07694121169389,-70.32435192307749,-47.889946599968944,-79.4123556176292,-55.96619376178061
-58.097668160933495,-66.07161640848499,-4.774155170324269,-70.8336405237895,-37.29243472226549,-40.240832305010876,-65.21209024835788,-45.81758750394298
-44.32077379111159,-1.6207751547138387,95.0790859763884,-52.3988386756338,20.468488854266155,-27.7596500776186,-43.64514831115372,-34.42990025505323
-33.69154694968625,63.04371579705867,202.22759202955055,-38.089335313449375,80.75643740551638,-15.566939567609424,-23.219547414532176,-26.32647019203121
-29.846209734922596,106.62030511956786,282.53165055095894,-33.021185785449006,124.36940798438778,-7.913770570107106,-10.859161636277634,-24.321845358799685
-34.896410844973,111.22670261799269,305.3451778923296,-40.388913262128476,134.66450429858438,-8.282609020876361,-11.798067973136835,-29.58661321994588
-49.02602204252593,64.58665452401685,246.87099541150778,-60.826172291797626,99.47301612138733,-18.73645808477273,-28.595933089133098,-41.54570133721872
-69.79579454597949,-33.940238916714215,100.38218391758227,-91.23578369916902,16.557344527261595,-38.654694345190315,-59.507473129277145,-57.70374245645426
-92.37105319949355,-168.824650662409,-114.36628272456021,-124.8966111419972,-101.80249279769637,-64.16644401513628,-98.04399058104646,-74.1265685008131
-111.33012841475696,-311.4311230290882,-353.0493465302687,-153.91217123185956,-230.66835964548127,-89.34967393307635,-135.10873060204202,-86.92310883708271
-123.20923956884091,-431.0756819662964,-562.7641062433298,-172.88859717191178,-341.7221168908964,-108.81215534955112,-162.94657209126652,-94.04664053791305
-127.99216105887645,-507.6619835571563,-703.5976042039259,-181.27205902156885,-414.8322417681273,-119.9920038004058,-178.37817801507026,-96.13869593349789
-128.3000379804721,-537.6552554458453,-762.3635942201196,-182.45457015650157,-444.5799879085715,-123.57252219183152,-183.04045589897075,-95.62362363569233
-126.71495378115151,-529.9105166398432,-750.5872488934115,-180.12189116123878,-437.97314206644245,-121.78259936612143,-180.50695417862627,-94.51996459861385
-123.19214874800784,-495.41755474282616,-690.209679474576,-174.54486478060477,-406.02455238982185,-115.97282246932886,-172.5520566557748,-92.50758733992345
