FZ,C3,CZ,C4,PZ,PO7,OZ,PO8
1.788650395718823,-14.55686148729892,-0.037923951722692806,9.009560671410252,-3.2775303150519766,-0.8695417592704505,1.071474683833704,1.8788921627814925
3.145270016397003,-121.45202133776831,-46.23890223032745,21.769409689078874,-28.38885432652044,-15.940696505224402,-6.3751983931659755,7.568097363788013
3.721436977530394,-199.96587397167022,-80.75227564661111,30.55529034454074,-46.830609511288465,-26.582818652743732,-11.328044978108148,11.794691116966439
3.1402178227920077,-236.68562154016274,-98.28377557200159,33.4313885098543,-55.48440031961866,-30.62284177752942,-12.639816920347407,13.823348810077619
1.7224096561195668,-238.96524077846314,-102.06989708172833,31.498623470871863,-56.05597830801129,-29.005979755327267,-10.94246297476307,14.018448723478517
0.49878187717273254,-228.54893613799507,-100.69099914150809,28.285558197480665,-53.421972853359655,-24.845140044800534,-7.961839331281336,13.65956786109734
0.8102964140643657,-227.86414639277675,-102.16497134277029,27.861653082308415,-52.39109527741777,-21.43017955436701,-5.312378095334616,14.275311610329313
3.6122659153101453,-247.9200332957195,-109.45833802073982,32.71480028676719,-55.095693723065295,-20.52953390218693,-3.6485631247568238,16.84040767004952
8.869094650821125,-284.5851446245462,-119.97021672535192,42.566857695947164,-60.47676707812025,-21.9109751893687,-2.6425519612409896,21.277109604582446
15.446631218402274,-323.86241014095117,-128.48282330043628,54.71641935380794,-65.72491474740495,-24.072922808253722,-1.5898031861988253,26.53073295628079
21.610646300783127,-351.36498245659203,-130.97852251359475,65.58153683580814,-68.36170743602176,-25.455316290341557,-0.0695305739847639,31.146707058217313
25.844417412577243,-359.8399829488254,-126.81408535907782,72.47651444053822,-67.5853868776284,-25.314362382649314,1.7936426535578052,33.9931302529628
27.505205209304357,-351.1820144571544,-118.4058661138366,74.66403310336345,-64.31518487867226,-23.87940316438559,3.523204852759039,34.7293180435792
26.972116483892222,-333.3553343308099,-109.31350370064497,73.27826204249422,-60.2958373055074,-21.9410494133082,4.674233911686894,33.817327533469474
25.277404646200058,-315.27446023859346,-102.2848315906542,70.39657365831219,-57.05202999294455,-20.290740987011436,5.095702732371061,32.155741216288106
23.513368151656675,-302.81293742859685,-98.32129465019688,67.92467923353405,-55.29363736221108,-19.35877304471845,4.943263987398022,30.601112455524785
22.37475049498139,-297.4355859231059,-96.85189402093975,66.88554963621894,-54.89368996471127,-19.148188587145455,4.525488246922192,29.639859154885848
22.025333402691412,-297.110407046469,-96.48435043007905,67.31926825844016,-55.21510531747849,-19.368361146853196,4.13816794187547,29.32303402178316
22.237205121648678,-298.29366095716523,-95.79695645668446,68.6261417701872,-55.516241744406024,-19.634604865229417,3.969828638049033,29.406426997625903
22.62910161134346,-297.883936278439,-93.90914880045966,70.04200454124084,-55.27887237815783,-19.64963383996643,4.07119298640483,29.559263956472535
22.867135064115082,-294.4612039735214,-90.73089348064113,71.01043070290271,-54.38103736570224,-19.316185505418723,4.364998511663193,29.530682874459156
22.7822422805843,-288.48592273773727,-86.82764839641847,71.35498816317444,-53.06298316140118,-18.739167777000862,4.699698499594836,29.229406187484063
22.401291613986682,-281.5315940321202,-82.96433223732924,71.24753885472933,-51.70738138124536,-18.117178588747553,4.941621455576651,28.717822722622152
21.89053836386499,-275.1104757133051,-79.61639775358971,71.02648431642434,-50.57969198839336,-17.599337069964296,5.052465760017554,28.14197909311862
21.434919751079608,-269.87929703543415,-76.78923469578905,70.97546712190562,-49.713672485495245,-17.21381800429494,5.089462490635407,27.636521514265564
21.126387707756788,-265.64731917129166,-74.21721453087159,71.19356864974294,-48.99554389950321,-16.90596007495512,5.1319908185085685,27.25688357049197
20.938990045488765,-261.91109613576765,-71.67073438944225,71.61896791157004,-48.318126294085204,-16.62023960367851,5.211661880081041,26.974818669604836
20.79475028269151,-258.2945856011077,-69.06502460882932,72.14517949427615,-47.643363865628515,-16.336349797933384,5.31140400711085,26.726248825697294
20.64282305495897,-254.59230608511075,-66.35942904005917,72.7082043986935,-46.95434955609967,-16.045455565803167,5.414395292098666,26.462953068226817
20.477837696005725,-250.6410215481453,-63.479572419739476,73.28423425330404,-46.20973524525679,-15.72665396785475,5.531382432046236,26.169692109105778
20.30442001093245,-246.33736402137058,-60.39549511173478,73.84378655483162,-45.37583302264032,-15.364779714488021,5.677173779973975,25.851317963564405
20.11147788628548,-241.75967491696764,-57.21960342397865,74.33762830743673,-44.47801106669747,-14.976884311414652,5.840893137534126,25.51921081941944
19.887516556826302,-237.12418993050537,-54.13893255782642,74.72672526486808,-43.57946639804893,-14.596225523443051,5.998416104429007,25.18974577207982
19.642155267784545,-232.5534449950937,-51.234775464180146,75.01125218451334,-42.70773529776645,-14.227184747790837,6.147932201434832,24.880948149057613
19.393902379134946,-227.97903908192916,-48.42371893639323,75.23393440772445,-41.83962123289955,-13.837606749351231,6.310247095063419,24.597079062903454
19.142784989456377,-223.3824813356359,-45.60431187886024,75.48111108937427,-40.9805764433324,-13.412484812706017,6.4847147115118,24.31732143847591
18.877840008952855,-219.08672732272578,-42.80636788010748,75.8930202882824,-40.2274411865332,-13.004324156806993,6.623168868494216,24.011047712915957
18.62062030915295,-215.62311754063782,-40.12119945523914,76.63571216176341,-39.695319468810006,-12.703472983520278,6.673362814161397,23.672367735099012
18.441601188991836,-213.1562101690662,-37.49164565280242,77.78582300907028,-39.3562875902664,-12.543741813910279,6.654408293610922,23.33760464449872
18.403374773182783,-211.03600421046858,-34.66152698960791,79.17978577059131,-38.973299201512866,-12.4422364422047,6.674101477045663,23.061997584963958
18.47417357205705,-208.01928459612802,-31.40860160916408,80.37754535625652,-38.23422709774725,-12.240643755678326,6.855261075314319,22.874397330642452
18.506481884398596,-203.06172659446565,-27.82235612206897,80.85165177778013,-36.98468210126174,-11.808962842752406,7.237048910318297,22.75022699503884
18.319238624981768,-196.07794418019947,-24.308626710814277,80.34120808494137,-35.368796736252484,-11.124104668955487,7.737204074402292,22.62073825767526
17.823086671045793,-188.2077869260488,-21.310220606732575,79.15799545679617,-33.79753353644484,-10.29002085804186,8.188692941132036,22.403870048213957
17.09859370553476,-181.56385828720047,-19.024949952602732,78.22616376354064,-32.802062168213865,-9.526572684195102,8.40410563345043,22.039083070227584
16.391901990288623,-178.546294963598,-17.323212241361052,78.75783094263723,-32.82658351294693,-9.12956285416396,8.244460727782771,21.52605904113389
16.042340799861478,-180.65127365566886,-15.786368835940257,81.61973801311257,-33.94833772741603,-9.348523775863349,7.712779238600536,20.963036541534297
16.34804797467429,-186.91295829283027,-13.741200248958826,86.59281935050463,-35.5797343406546,-10.170271506414409,7.0558464899946625,20.547893243117898
17.36896869416686,-192.86443362588835,-10.411266179625976,91.87355462139654,-36.39564467796707,-11.139474640081504,6.764482908632119,20.493165568024082
18.73723700994086,-191.32524449315895,-5.4053488998382315,94.23326384862791,-34.76080453092361,-11.426748852881603,7.357261102282347,20.857660739598362
19.640999480322172,-175.47801736841674,0.593862122059307,90.06389586413131,-29.615471322886677,-10.225936636745615,8.989928024747542,21.381816061237245
19.11883602906842,-142.88762910567377,5.553753456073939,77.0402463599961,-21.319586095492348,-7.297595709067296,11.13215193867966,21.450422952814982
16.590804987707312,-97.88730328918774,6.790499332763498,55.584624539274785,-11.809247871438298,-3.308070789839422,12.590827781947603,20.251295717958286
12.309802300823094,-50.40053383473873,2.4838048608142405,29.196982134473792,-3.8043870233377386,0.30429414273326744,11.969182051830659,17.090880453619086
7.379574784576687,-11.511707980231371,-6.93497222499376,3.257474101511082,0.5383634381247853,1.9338685317073672,8.369756388764305,11.740614639054614
3.237809938098281,11.688175641387858,-18.572080010416496,-17.16711749993,0.7153295459002753,0.6057157674998855,1.9737483953878818,4.659947163588203
0.8783038864449638,18.912597524937553,-28.363686623841744,-29.33282026538321,-1.9643314322313978,-3.441434325135485,-5.837956169663405,-3.0258409026969293
0.29883448811389635,15.6459671862897,-33.15472797260177,-33.582011758943615,-5.215901972634222,-8.717167443986924,-12.937137476012817,-9.827837920128472
0.5341694345544917,9.333424833379077,-32.252869969870694,-32.59949977221476,-7.039502585667229,-13.055212983079896,-17.294617636205505,-14.387140625430838
0.244838413909963,5.510687440816685,-27.48402193737819,-29.793737610480427,-6.617481786641125,-14.558041464287923,-17.831907866891335,-15.967904160755031
-1.5313881777330116,6.098113305555067,-21.850280592591066,-27.80719660216661,-4.417855120885368,-12.476674359576434,-14.886466378264045,-14.73875643093754
-4.923565754479809,10.086225026582483,-17.849665450939554,-27.833184406218805,-1.6605766873925458,-7.619236368059786,-10.088409677196605,-11.711639126903208
-9.266414077968513,15.247023814794705,-16.547026879596313,-29.756201588382776,0.3812901705578188,-2.07349014931314,-5.699029393399564,-8.348097173292432
-13.49472549569229,19.52894004728548,-17.65226726529065,-32.69201793488956,0.9000305854070914,1.7030114389635282,-3.665062046599656,-5.990147452041225
-16.610922830427842,21.80489869277822,-20.07312974300999,-35.528452553395674,-0.17984589558119962,2.07483636964424,-4.768023156887493,-5.364531207309382
-18.035975098477934,22.212785563681603,-22.39890251102559,-37.33784923408365,-2.1754672609814745,-0.8789472289607493,-8.267531373105836,-6.382685806342237
-17.795268376685648,22.05642035323856,-23.290752037438445,-37.682337809437975,-3.922025685721393,-5.319663943261128,-12.27096639432306,-8.305664207440115
-16.52313384493324,23.017310938844282,-21.989516681368986,-36.770135280008176,-4.350956696813719,-8.576445519498165,-14.697231342360405,-10.155013194252225
-15.243884388381556,25.952472799996617,-18.80998747321455,-35.35489168303779,-3.1053256567439895,-8.564846616276022,-14.335796244901912,-11.156007576635838
-14.948862170746407,30.21719387317973,-15.142230319588203,-34.37597801837471,-0.7700035152873373,-4.882073385022535,-11.426241093857703,-11.038569687662955
-16.14162497603186,34.19482419314852,-12.736931431958057,-34.52113543238159,1.4811301574625155,1.011782068847199,-7.485510730200642,-10.11538282209065
-18.60090888777676,36.59368653510622,-12.7088518681574,-35.93993126670637,2.5726759289408405,6.528770728994154,-4.550010197714084,-9.121164455381676
-21.494585112897216,37.332166062107504,-14.98040971008857,-38.205603126821536,2.077441466171729,9.128266338410004,-4.249694166136439,-8.84355258132963
-23.75853699398246,37.34144778458822,-18.4691485029777,-40.47858915451625,0.3496171862615487,7.371982050536347,-7.097425484711199,-9.66668512286711
-24.52605316766854,37.73339708063077,-21.70456093129246,-41.79754786326295,-1.690834484959561,1.4967298028837999,-12.219978566981062,-11.262685635390495
-23.42901697871306,39.20456409199411,-23.4063089161156,-41.44869396215693,-2.9181798359923157,-6.639177135863084,-17.62800505910773,-12.67158984934144
-20.69575599556633,41.95897891024125,-22.86645534740884,-39.31594084725111,-2.395905994049451,-14.22562122326499,-20.98716116634649,-12.808749232824225
-17.03641465750247,45.78023097146535,-20.20231976864661,-36.02295342631492,0.24136779372158262,-18.58833228186397,-20.63026407152732,-11.128598294832656
-13.346588009993816,50.003194146277224,-16.405701655507315,-32.71072407763334,4.56544574106036,-18.26217012733685,-16.337001892660712,-8.01093750820027
-10.33255158386826,53.656840559020964,-12.963148995509385,-30.513216362101172,9.497601157247333,-13.529150866950959,-9.438530460599543,-4.5936522516580975
-8.237760869083555,56.03897561744402,-11.073266378552809,-30.026914158971394,13.829665607621472,-6.139614418794155,-2.164786062699515,-2.151061572591831
-6.826530730884075,57.34917319082353,-10.945622196742635,-31.085891075494537,16.815145545835033,1.59793424703043,3.390328965489456,-1.4118042305601892
-5.627252122122303,58.66332279785698,-11.734943205851863,-32.93061663224937,18.429967401237743,7.8212431596349665,6.112528486362727,-2.2105442202256156
-4.270725641349792,61.10415079694324,-12.159185133010748,-34.61053457372484,19.171984574188436,11.697162643740297,6.13478672189562,-3.6223219942016036
-2.724030388083141,64.93517194625868,-11.293200384161402,-35.38986875478195,19.625315880004628,13.395210297571035,4.518790217060584,-4.454283865441141
-1.3255726402242678,69.39724725749718,-9.003001395840274,-35.01527377775647,20.11122635299354,13.621269305862189,2.613474426421555,-3.8304392170246064
-0.6470744597692863,73.30449750011628,-5.910691060899963,-33.79472899173068,20.56880669806303,13.057613968413344,1.4201388479053838,-1.6120205710496092
-1.2476887254668672,75.72247098217099,-3.0912323572799236,-32.46227112118183,20.630567798036843,12.027538397550767,1.2236889299199931,1.5140089439458186
-3.3837443931712383,76.24047695911113,-1.636088864506691,-31.844826585798884,19.84081787418739,10.535167126553038,1.618158529491992,4.312487871783526
-6.777022874194273,74.98811967982773,-2.1069944444748536,-32.46323011464268,17.977154772710886,8.59100876359027,1.8750714442904985,5.524648913803306
-10.597706355614346,72.69102372999555,-4.083250412718297,-34.291375343067955,15.326607343940838,6.527935773448001,1.4205318814028611,4.404690248281352
-13.763461653366836,70.61090146109116,-6.23471320874444,-36.825364008825325,12.6609888965685,4.999708885058145,0.1265473586690558,1.0264671424227243
-15.456285325399895,70.00356967471842,-7.117677708307838,-39.40154971093946,10.80202057595831,4.604224434782027,-1.7307266827268908,-3.7649302294959983
-15.562339599028594,71.25284154755956,-6.225654257980037,-41.53949490567468,10.037765835136252,5.414168620763089,-3.7363274333921206,-8.711435358596841
-14.745606296514618,73.45434152945573,-4.4427590219746165,-43.11482318368542,9.868765162183891,6.814490990728361,-5.575984721118028,-12.634958652305082
-14.098205658713704,74.9894790796957,-3.482308284380775,-44.32292848686531,9.329907320738506,7.80327955117076,-7.098094746585404,-14.85194958903702
-14.580493057975097,74.65923992361844,-4.768967205275708,-45.50951830888834,7.642512486204144,7.5310704874396395,-8.255210147202249,-15.348563981636346
-16.564191126240743,72.3716804527824,-8.633768467543263,-46.955564279669325,4.6946220470442155,5.695418071115128,-9.069034593260222,-14.668008553436843
-19.68578837193692,68.90346012012482,-14.268217069692817,-48.68741780570673,1.059998976286263,2.589128433401034,-9.658764790958404,-13.589703702815662
-23.030097771935115,65.23606894769425,-20.185145748934374,-50.395555948150815,-2.3264770345468953,-1.1092012358722088,-10.23998146494154,-12.767661884035151
-25.523837033073985,62.230453447792314,-24.709565169390807,-51.53558413631932,-4.5405068505918305,-4.598406966043193,-11.017410106985084,-12.499091287251792
-26.361271742641353,60.7460106138763,-26.335656164091407,-51.58991626754891,-4.924810671321533,-7.155931292550037,-12.030330219809978,-12.71068929543839
-25.29127268228313,61.67770232531057,-24.081148720886397,-50.34486068260038,-3.246632433794602,-8.272122045363753,-13.084559766961968,-13.124760125600345
-22.664398029766744,65.56830857298792,-17.880022499315892,-48.01755560128702,0.21935451491468105,-7.729647837501393,-13.831013214129877,-13.473054773802074
-19.258955476838953,72.08968038004194,-8.817628177209977,-45.18383032226519,4.7329428996626834,-5.618944805206188,-13.927843080045298,-13.621277912499917
-16.007454276917773,79.87515076889382,0.9807872635846888,-42.58701877902546,9.275170801348532,-2.3035187060373814,-13.18738195121973,-13.552094843604216
-13.745342493794675,86.76524261392206,8.789240948868121,-40.91992861386082,12.788260948566968,1.6179720137309561,-11.661873010180873,-13.265140594185398
-13.012386515871153,90.22703209292415,11.960603123091836,-40.601085583133724,14.372703481178348,5.347095863794365,-9.661123494242021,-12.706657980276947
-13.872489841901636,87.98367786904865,8.87061378088979,-41.55490300033439,13.486843898969985,8.00673615364291,-7.67533559699767,-11.802884811300492
-15.772982761785574,79.17949308869821,0.06443572803021107,-43.0971220841268,10.261047469962543,8.942434074964751,-6.1699307260385154,-10.575482167134322
-17.57631373859843,65.91244402192864,-10.927345993655011,-44.08742369473705,5.847268862933589,8.13264907897058,-5.302976728710348,-9.23908969330773
-17.899210749274335,53.9667664771093,-18.018026651350535,-43.39607277955116,2.442058699747697,6.424631274777807,-4.739080003348296,-8.180326616754598
-15.711625980406778,51.35957667799027,-14.742445133047758,-40.48801081564938,2.634647095542609,5.302613252458833,-3.748743841413578,-7.7994168135253785
-10.907835136227533,64.63601541240318,2.531275816849004,-35.77270053344269,8.185409900823611,6.182851033795697,-1.6147289505033395,-8.302549570797177
-4.486381905310002,94.82385318578287,32.16333865632965,-30.466138528246127,18.89584038937717,9.612782570428203,1.8766472649354269,-9.57978656624789
1.8339560600928255,135.80127581429207,67.3045714374126,-26.010639867897776,32.36834979967027,14.898545782524195,6.195934292119815,-11.248108588805108
6.3927965663067345,176.5945214877045,98.7853156300542,-23.38083152170311,44.97318153896544,20.444804045657023,10.28498438886722,-12.828812542697998
8.33642157810743,206.57314734904025,119.358728325449,-22.66899760651093,53.551191173530306,24.62136983301855,13.119944231327835,-13.952808502918257
7.925676230679341,220.48000199307873,126.89841085401035,-23.146820417629225,56.858424736596575,26.61094191979835,14.262298194902522,-14.489044460761043
6.273296884029201,220.2489889206541,124.77378806862767,-23.691387471746012,55.90633876089252,26.710661592268675,14.042299521229035,-14.543062492564173
4.722360241284792,212.72412335618932,119.39655772360919,-23.2803483109206,53.08747985633494,25.95120624353939,13.289185326709609,-14.33595404760835
4.23372418837559,205.12853045431564,116.59359976168669,-21.33270912014133,50.74853724296572,25.35962606301114,12.83210788875517,-14.03513197017541
5.043117647846979,201.3224904477386,118.86124846414678,-17.877428865897766,50.093380931196585,25.367350403629594,13.090110725683921,-13.647736790971514
6.633485676026615,200.74330567541634,124.61533332477204,-13.62331186342663,50.87802760450916,25.660439306939498,13.917986278575423,-13.061787049424451
7.951703855829217,199.74124381876334,129.26820975813263,-9.89676729162581,51.77218073601461,25.4290142643943,14.68150055150261,-12.215911935472855
7.810347079605133,193.8121574980907,127.32883107806335,-8.301280915634461,51.02023879621354,23.795292657861232,14.483911705798453,-11.264221149825245
5.411375287676011,179.5934841200623,114.77309894730163,-10.066043481941774,47.16363472060666,20.23466618789844,12.514495917350283,-10.584280443138894
0.8190318344938425,156.34995020300641,91.03912112386236,-15.353557104153566,39.719685263529634,14.882745655983001,8.472493108213332,-10.587168136721685
-4.8943133758317074,126.86424397285259,59.8896172161103,-22.984133012932492,29.629644220962057,8.629439287742198,2.89879338160619,-11.445843919532411
-10.017535628957654,97.25786886695418,28.47221247772457,-30.86218651150668,19.172024308594523,2.90719879499684,-2.8264288677565914,-12.93415375406616
-12.976675704691692,75.18257026788963,4.602424504005811,-36.933309569406624,11.168998607141965,-0.8185130295354833,-6.946410125173695,-14.501860389182939
-13.1085849605325,66.51070992500559,-6.680265723472652,-40.10477389061301,7.703850109330397,-1.683714000910477,-8.109493795084486,-15.547180233383967
-10.963146070458812,71.78551251369656,-5.588160999552553,-40.54341590725883,8.959047569274285,0.1056037127284677,-6.08378352346412,-15.703499240588709
-7.920691624442037,84.49695096060996,2.354927565253247,-39.172331730901874,12.88551999469815,3.2508094790894804,-1.9710946357286223,-14.94212396926969
-5.33818870207002,92.89529444182662,8.969901895815127,-36.75307329932666,16.066714021183557,5.887840100146313,2.2845043179863294,-13.433573883739722
-3.7573147962916313,85.23336593643901,7.55952273939629,-33.245718288983525,15.44800344028204,6.4656533981917805,4.87869968315991,-11.305694643138189
-2.6815539969124003,55.94141414468124,-3.715090187530307,-27.92876024984468,9.981552701831852,4.517128190654922,5.060001109705598,-8.522626990590597
-1.0479016389231208,9.101603917786157,-21.142545336538834,-20.17438629871798,1.1870740933515214,0.8669893479969437,3.4238638375309325,-4.99899525589771
1.9536140450857475,-43.11446272197667,-37.79506508750493,-10.26726374208959,-7.727789122569201,-2.8589419040986424,1.431925522067042,-0.8472573543867418
6.276412859445208,-86.34323860080696,-47.41218557991964,0.37696956142227006,-13.638203484058689,-5.130013656440714,0.4978433510295334,3.4739146386656605
11.009934555970329,-110.86816211566085,-47.523363426573724,9.78293396330606,-15.084161975379073,-5.279673913231546,1.2249806174700149,7.268434471314484
14.922459620871301,-115.50896000949088,-40.13609465078401,16.38971402302979,-12.769396052760477,-3.718192254835255,3.2246467208482494,9.916628089022618
17.15432782386112,-106.67787319345409,-29.931814154443302,19.776479012415805,-8.823538793482314,-1.529922937246302,5.52868542174493,11.178229235256184
17.612660580033726,-93.82471652700467,-21.415691569977383,20.706712783147847,-5.452013441250315,0.2175782013205952,7.23718640132224,11.281713656108384
16.877369951857066,-84.49761734284368,-16.866201169799655,20.558571682158423,-3.879573044917958,0.9896363847524641,7.961272960370236,10.76115321900967
15.777400152157353,-81.79890607052856,-16.037578184337043,20.588810311384616,-4.115687807447935,0.8663063363843861,7.855795581188253,10.173810160244638
14.96755039797573,-84.7881992372961,-17.208598545771732,21.472131977028408,-5.402323119804527,0.281754900680295,7.361488818482612,9.88009353220889
14.733743740600458,-90.45094553648785,-18.480507712279525,23.254009011834516,-6.827072912314274,-0.2970597069386182,6.916875560933307,9.979530630019884
15.02734722379565,-95.62617950877346,-18.572093510503997,25.570190961554836,-7.723818834523642,-0.5601942596395603,6.795822386033211,10.373509950998718
15.600418870507893,-98.25958618460344,-17.076796051194748,27.930340242555612,-7.831140541764096,-0.4151997254996082,7.0595254852763505,10.872870012811662
16.14809896667696,-98.04282682482575,-14.423417122911104,29.9624795585079,-7.317017898125462,0.012109610705662875,7.5682286343986,11.295608477020277
16.440159919968707,-96.37360641840405,-11.58549639982424,31.57657204230735,-6.672153668136585,0.43878486842749725,8.057589487708286,11.538888418630945
16.423554661735896,-95.41979213812826,-9.498008913412612,32.984390948946476,-6.423111979412153,0.5842462506845142,8.294565216671163,11.613302908068716
16.236883928813114,-96.6121512123768,-8.433262819448183,34.53141327371301,-6.777712539124324,0.36943913344155255,8.24005881146255,11.620684051053038
16.10475239854869,-99.60009286828739,-7.828301065285216,36.42344012133391,-7.472084646554123,-0.0007891879568849014,8.086250088161945,11.68120759235734
16.17987673496129,-102.5315493636408,-6.766678624507114,38.547346271692525,-7.97081435781159,-0.16634147003088393,8.119387531100392,11.857563824196914
16.454867773743675,-103.42569253752144,-4.720091759017382,40.53407586767773,-7.860983543045373,0.13601494755927632,8.512265966521573,12.129454601354245
16.796474637715935,-101.5478391920203,-1.934569763076987,42.018725037925684,-7.12838876882673,0.8846669201819487,9.202391727786647,12.425070805836645
17.041502910929147,-97.93659608791795,0.754953321635937,42.91012065617645,-6.165922088849058,1.7563467048957322,9.915480403648251,12.669068160759563
17.069532125411495,-95.06515331939035,2.396889591170787,43.5118995013388,-5.602530742351265,2.2507295537233536,10.282989945276311,12.811592242995962
16.842175603554196,-95.95170457617282,2.363044846647768,44.453136140366084,-6.066504057845804,1.8949622101567571,9.999122143406574,12.843315181640733
16.448252728037957,-102.74506607940441,0.7348698921188697,46.443703326154036,-7.868468268177866,0.5123990576832489,9.01192965933089,12.815058484812328
16.140282860373436,-114.84512456223096,-1.3421733662967628,49.87441034798952,-10.609264258618621,-1.4954781692456458,7.707863168044921,12.847501198297461
16.274233079052113,-127.46079881708776,-1.6570061289608697,54.361361083659425,-12.956781026074351,-3.045864880314584,6.935515334990913,13.089179340340076
17.106549965043097,-132.1962332381334,2.2520446026059604,58.49893492999234,-12.965582307015367,-2.689371656402546,7.701097840167448,13.612648970134282
18.55158997227666,-120.44684118447573,11.55918268312363,60.137254458732556,-9.017722629246983,0.6437401284898997,10.574010434837687,14.305908668511863
20.09503734489317,-88.23305596222811,24.84731865939532,57.25083133576597,-0.9068402508788473,6.8347419745087095,15.129100811117546,14.842407546072732
20.972153677619172,-39.45699162717468,38.19913742065366,49.02082074106488,9.691699503768925,14.264690042610727,19.841708509951747,14.763784401011053
20.52349073840602,14.863058270905432,46.96708753479872,36.48203326381427,19.792614380189622,20.329467574059343,22.614186196258387,13.634575866067737
18.516212736501938,61.27258877593487,48.221250866589806,22.272695774052316,26.440138488494018,22.59169253608054,21.70986936196007,11.198019515232362
15.262575012719294,89.7797961301396,42.28965544372693,9.578913405327059,28.02717842826477,19.946842798908857,16.598505020428842,7.487027223045014
11.514779673810086,97.58837776291747,32.419798453858434,0.8784680701488288,24.859088724795726,13.148227076853912,8.260685626381607,2.8771316164947844
8.235454954151804,88.91496389999213,22.9080287340505,-2.8261890862777577,18.768293387031218,4.430143115306958,-1.18197278251837,-1.9281828495549929
6.353429757772992,71.79589381817979,17.037714851059675,-1.989262344966367,12.186154846945401,-3.4843298566678316,-9.268951780324103,-6.003573262381129
6.5353398435034356,54.423179061414764,16.08523188880868,2.0313611104667,7.288230991898773,-8.397867586020844,-14.015911565826448,-8.420411986774779
8.941086831685245,43.024419445147345,19.623623659888416,7.545173024428605,5.540514901576268,-9.218489167101618,-14.439083521193615,-8.556900667895873
12.98596148652179,41.39202960933788,26.326055966076204,12.802028574423494,7.530613888395835,-6.045144905456981,-10.736907772836338,-6.403157405949581
17.271925402502603,50.83248242629903,34.37037259017189,16.07807076923389,12.832466296913545,0.02662277320852518,-4.210968394502499,-2.6991935981654085
19.898290950336488,69.7079293028974,41.35373133765353,15.904371479227631,19.915237800743892,7.208179961965932,3.044827950796959,1.2377799109827556
19.178100655674815,93.1159225128198,44.400821739994214,11.56846449435164,26.389032034034585,13.440515536077442,8.720139101102657,3.996434004409729
14.461848425996337,113.88888093739038,41.04334554595832,3.618819852989473,29.782678791392577,16.973489877982082,11.054379194881564,4.661452965207713
6.583437205588008,125.22789764660297,30.590298349794192,-6.081933885245055,28.609073007036923,16.962779397295048,9.503609283647545,3.197785267081446
-2.4021196815966697,123.76499464798896,14.990948749643197,-14.972992511949073,23.114098984028345,13.7850004142149,4.939279907533646,0.40877548463639907
-10.09988034389585,111.13059162442948,-1.6677063644296357,-20.826071129567033,15.190136765026102,8.840894722835266,-0.7889846475833,-2.502971820947563
-14.798102896175104,92.90754903820206,-14.96108855598135,-22.6168085176448,7.443732126683334,3.905126310894201,-5.7231766717850965,-4.510567396900544
-16.078708583836118,75.64258099088525,-22.161432189651737,-20.758394465528994,1.974912956896002,0.3772773693566881,-8.621677180082495,-5.157772060816889
-14.744066277784553,63.95693062359658,-23.18709023125895,-16.656850480967044,-0.38341293608446914,-1.1461144855827383,-9.29584480533684,-4.608141980041023
-12.224382986513042,59.52515930022427,-19.929312192775352,-11.9755220626168,0.010875740967384188,-0.8038630142888549,-8.353699951876811,-3.413202936588002
-9.897680033209605,61.923319811023696,-14.66883449801906,-8.074796142679597,2.240142296201197,0.889844723954803,-6.644639708523609,-2.2020930583669234
-8.677288311549654,69.76258982125593,-8.916718671313635,-5.804047541345511,5.362463207575792,3.3132730948114446,-4.8423294428616055,-1.460388602855377
-8.920788670271723,80.74262553941409,-3.418504948742039,-5.489323391746078,8.466662716503198,5.72051786914706,-3.3833338048045127,-1.4341509453171077
-10.490729091829728,90.99112961910016,1.1380333873722472,-6.909875939962143,10.468370116144452,7.121265188741974,-2.621062012687444,-2.1086925350684718
-12.828576674377754,95.29679890518449,3.749063860443215,-9.277024998156167,10.16534558886953,6.400146787603989,-2.899725535293681,-3.2297056703325535
-15.074983904810724,89.12629162566917,3.5420020555365985,-11.408037787336761,6.756867601309119,2.793703124519978,-4.412380052662768,-4.388092468633351
-16.33496999108793,71.38189138687548,0.5606833067581297,-12.186733570730238,0.47294055554759934,-3.5427893370485464,-6.97331251202908,-5.183112006286889
-16.05755528149098,45.753387694039134,-3.950995642303598,-11.117082798867996,-7.252962776468391,-11.314030495030623,-9.937789805812892,-5.407192306920196
-14.326942431565,19.35670707246976,-8.101606204275928,-8.607807276270323,-14.310189010598636,-18.447391291758578,-12.382283703431836,-5.144203179553148
-11.846409298442426,-0.6590845085173394,-10.321094827666103,-5.756693768829466,-18.847856158792414,-22.896402334885682,-13.463141134693872,-4.709675588353943
-9.574767838085666,-10.400623972329456,-10.014363152965768,-3.7362022127770587,-20.045471015645507,-23.465133418639645,-12.760041370340138,-4.464881106550885
-8.210603052209075,-10.437005525707919,-7.488177344929926,-3.1552334473436257,-18.28497336746692,-20.23045695031636,-10.431468516622285,-4.620170911907773
-7.8341167534684795,-4.503072653042755,-3.3747120442294167,-3.7817711474745175,-14.725821298596996,-14.389246306112216,-7.122898834010675,-5.137073573567117
-7.924546005208929,3.0128296003907313,1.822456173203808,-4.760025791353429,-10.666375687257654,-7.689868582975135,-3.6983636187187434,-5.755611257824186
-7.730793080236694,8.981687699033014,7.638395085270319,-5.13964761761917,-7.11450955692984,-1.7973935862489225,-0.9370418694973656,-6.097345047847155
-6.750008767804879,11.976511477906215,13.223065894622879,-4.380839821667778,-4.697729936093101,2.127590084714984,0.6820410821490915,-5.792723980736615
-5.020111640971551,11.740119387298211,17.20191498319361,-2.5820472452801675,-3.732240547479958,3.5837583935175124,1.05651262939901,-4.622945947617037
-3.0782892671588993,8.654643580675643,18.170121316858353,-0.3796556799262507,-4.23682532997594,2.725083798382315,0.41410122816829503,-2.664782686727146
-1.650084855880544,3.592756438090573,15.509045182115901,1.3753911801044376,-5.883054048223909,0.28704569765891264,-0.8066365470939166,-0.36367278616242005
-1.261829717856051,-2.178458037462895,9.873000879375795,2.0105186142133067,-8.026377224778082,-2.5715156559461723,-2.0883989100077245,1.5731625917146481
-1.9675851609923676,-7.353806777987177,2.991929519804692,1.3457517204568397,-9.8904898515834,-4.559080413696524,-2.9353435128428735,2.486481722957422
-3.3040805309676866,-11.021700858168293,-3.0200123257128473,-0.2024142276406018,-10.812487974014848,-4.651344816285339,-2.9432757848864894,2.1325891512349893
-4.489177316683117,-12.814236128902616,-6.424663480741043,-1.7974083218501724,-10.420503625645956,-2.4830281472966367,-1.8896925429315388,0.8616548968727183
-4.778065850107382,-12.785091627362192,-6.412836412167555,-2.5725862501265584,-8.720006977000896,1.4260631750486576,0.12363715837999785,-0.5541029958663115
-3.8106547683938516,-11.338998509052024,-3.3580840048206717,-2.0303760625917646,-6.129483256298624,5.743360361638019,2.545216961591653,-1.3645409088181395
-1.778487604440472,-9.32178311592753,1.3085574923780792,-0.23512442410618412,-3.4402047532763667,8.742512339907835,4.426848881624277,-1.2751041960104839
0.6633831259842122,-7.968064251262736,5.65943797879213,2.2720247338926205,-1.610741906758724,8.970246155110322,4.75975238867782,-0.5894328252689621
2.6750138556176704,-8.443361356635087,8.090542490274881,4.735616662643067,-1.398727727781634,5.89487314766206,2.984743633515039,0.013905254323679596
3.5575988107118874,-11.2241468093217,7.960374010003754,6.469534909986328,-3.0123328573195542,0.204629894696952,-0.6253494270082649,-0.09049954652181161
3.0038014577785663,-15.860624062860245,5.670621552452031,7.070855266208616,-6.009724622364394,-6.431962678701429,-4.985520874925628,-1.102097692330956
1.2090891788850666,-21.32482655525387,2.2271216801364266,6.541635117295979,-9.504221130355985,-12.032811243498816,-8.643051163272972,-2.667744814551325
-1.185628228507388,-26.570651955763612,-1.3232101881424487,5.295002060274061,-12.520017578602117,-15.047479032882215,-10.396555974713026,-4.037771867809127
-3.326917965961388,-30.83086410019856,-4.232373715899704,4.008134518085038,-14.2981469982652,-14.832922375687364,-9.755603622885523,-4.401920125768983
-4.495503298807975,-33.609595922270394,-6.136610086449221,3.3451061139959113,-14.467010642609623,-11.714398241399625,-7.038417657534282,-3.236545355690247
-4.408639621121736,-34.67047423356582,-7.030509884672678,3.678536123020958,-13.090923264980404,-6.706901285020541,-3.1201971442481504,-0.515884678559541
-3.3037759145475833,-34.147874097673295,-7.17932035875307,4.965758666230496,-10.607368483577835,-1.08311888644887,0.9934114752407296,3.2752610069892696
-1.7559231639365254,-32.56414494676263,-6.924858256111305,6.827338367355596,-7.652733236447669,4.019706879854852,4.538635430126041,7.29588814152439
-0.36145227605626556,-30.584909532325273,-6.462354140884176,8.735749194241679,-4.845138928083769,7.814964729853122,7.1384138352422255,10.590020999638144
0.5087047778956518,-28.735369554655236,-5.8166792878201825,10.190413961937457,-2.659623955278248,9.869012790133569,8.6937446300646,12.345523259611783
0.7771927201068627,-27.431015460224863,-5.111326324202848,10.83494448442748,-1.4592189836412948,9.986086546527257,9.163468356762788,12.129823457853778
0.5858338117072219,-27.276128293574804,-4.868197723907222,10.536784281280575,-1.5740245981623762,8.138539513080719,8.441988357983112,10.057076371074675
0.17398538975337235,-29.149356767933416,-5.937187372587771,9.423371142399956,-3.2531150826947735,4.534186006762877,6.4436916655067655,6.811134560854464
-0.2313403473520501,-33.74238914424704,-8.970195949112886,7.827541654518054,-6.455780088067786,-0.2457122660131428,3.3156021134182256,3.4617480501659683
-0.49140982231097224,-40.829537178992446,-13.809575580426703,6.14164644302153,-10.647536752150726,-5.199978576467807,-0.4044706447222013,1.1080892059688356
-0.5661291599386108,-48.90041794328346,-19.25911036176832,4.679328839523082,-14.796347879801285,-9.060053767315864,-3.8101316864256263,0.502152928959502
-0.4350403881417873,-55.49596315369595,-23.38849685406155,3.6538851772669574,-17.612233406033862,-10.615509330223915,-5.830405784669143,1.8286507872527735
0.010472908826870266,-58.06964088160047,-24.20594465298695,3.2525736110232764,-17.940128063800017,-9.112516397392312,-5.562752958193959,4.707196392294362
0.9539779196600765,-55.04693946942436,-20.515064290262725,3.6546670299359447,-15.226861152496948,-4.642713728408911,-2.6989905948194286,8.33277768617441
2.4217042939950004,-46.90982429189626,-12.836128869017612,4.880653541970643,-10.009933355489704,1.5597055681572694,2.0363822406711245,11.626325050257535
3.949993450913003,-37.0252686257732,-4.062325941099835,6.560883751343382,-4.239744357769133,7.093530001128841,6.679413439570812,13.370044017468148
4.468256575579374,-31.47833025759587,0.8202168240293038,7.868711032708325,-1.0478657200783916,8.901459082041718,8.405558955145203,12.431400788672043
2.6565969583742732,-37.11208925862143,-3.5186512477675023,7.792624000835219,-3.663464311144274,4.410311567941703,4.641916285347551,8.162769520010329
-2.299146572928639,-57.99392218639113,-19.928092598713604,5.662546052872287,-13.726199803565553,-7.068346090422947,-5.472040618807982,0.866789951662056
-9.99785259531346,-92.10305640467502,-46.391814424452974,1.6194846306522173,-29.897564925739008,-23.47178139141419,-20.128582988560318,-7.98431196264258
-18.677608028003057,-130.6696096093843,-75.84705842486557,-3.286931446658203,-47.80284261881237,-40.376165672432606,-35.1740018339457,-16.063729715883
-25.836813103612183,-161.31098302793072,-98.83605682950851,-7.474267839792675,-61.65355089141599,-52.686203020555666,-45.769293570108395,-21.030631445477365
-29.3290379938112,-173.61498310170992,-107.78013821814748,-9.501043082918098,-66.81498645344391,-56.8191211674127,-48.57124242387371,-21.517876885128082
-28.32073313011432,-164.0339724869713,-100.49505961693659,-8.69501615739243,-61.906395212835044,-52.203595797063,-43.22482910985893,-17.72981634210635
-23.58418202644078,-137.32345765439132,-80.98471315705592,-5.419603115448898,-49.28106373748531,-41.31079829845014,-32.355039755397684,-11.301275195019354
-17.01092849135855,-103.95163108062735,-57.23813696719671,-0.8616063758997207,-33.727883461010244,-28.309176323128888,-20.1477626546641,-4.492758400952724
-10.679030580004941,-75.1986670567552,-37.44939441872433,3.516754964774562,-20.22866260700783,-17.16762533896177,-10.388731520760002,0.8196606940016472
-6.00803498982663,-58.57219419432209,-26.699241371435036,6.5511183244387565,-11.971776712636956,-10.184895514364303,-5.008019027118302,3.810228586751741
-3.4032747714485745,-55.549599472790405,-25.56098130365083,7.696060031749781,-9.4885198861621,-7.523559430026569,-3.7422295200642623,4.731626186132368
-2.450877853704957,-62.28545186038159,-30.92146118128946,7.023227620800619,-11.090804891359715,-7.727158439850047,-4.841555844634957,4.429873991135314
-2.40527014703717,-72.50900180270777,-38.21169328919436,5.0380755631333445,-14.146652689547274,-8.753293196467446,-6.238426868170193,3.754853580694619
-2.6092916977850575,-80.86612302219766,-43.688816998400924,2.498612568085054,-16.41115605297786,-8.936743371746998,-6.498667823030967,3.239204537953608
-2.64502568956552,-84.91189492173723,-45.64431104920682,0.2835864918377641,-16.76514515767994,-7.490609018217562,-5.172851712949109,3.128389359492211
-2.2755093177239796,-84.99547957963306,-44.27086722840561,-0.7787319954907801,-15.197851322423958,-4.498880428478877,-2.6089214734980373,3.5592317899810126
-1.3745033189171478,-82.73308437382424,-40.77646324619781,-0.17900635826741218,-12.350166290378146,-0.621339998975903,0.43862320490665435,4.6305460168677515
0.038010760162745676,-79.5047982486684,-36.559284553569164,2.0112379118663735,-9.064454512955063,3.227643241921997,3.114211717775861,6.29193396814143
1.7090723755060093,-75.94351121621021,-32.82844009677692,5.0825775195578915,-6.153753756045719,6.105214773773114,4.626355459553467,8.19372250499973
3.145926853315603,-72.35980935967457,-30.544025305602958,7.937877696264301,-4.322530759085239,7.194185241757427,4.372776346197025,9.693029592589534
3.7518382466170332,-69.45893652668094,-30.43486933177166,9.553692178883301,-4.111381450745293,5.936738973586308,2.0856084142343545,10.081691406289965
3.059264022486576,-68.7884308271773,-33.01366983059386,9.434093758089785,-5.84151759995815,2.148111701368172,-2.059815849680013,8.928712359452401
0.9693788728148784,-72.57967109844047,-38.539103719482235,7.854062354070279,-9.571405471682759,-3.914035830803128,-7.451620443269033,6.343083850410364
-2.0894485440144743,-82.70234269937299,-46.73576468237046,5.774123383955497,-14.997101250276737,-11.51809316958255,-13.154732386745865,2.996035932317978
-5.174847599102224,-98.73628483126679,-56.17051729491248,4.408018461304133,-21.224246586036784,-19.44718543999238,-18.05273926004082,-0.13815355788559314
-7.094541199911055,-116.03669386603768,-63.67822660222766,4.569111960770838,-26.5449663339805,-26.059761067978517,-20.9847660324638,-2.214560545789291
-6.897979205964319,-125.5160336750693,-64.6540474625398,6.100519254673306,-28.578628423693893,-29.554560327873194,-20.940771623658414,-2.9094072450206285
-4.38971908556544,-116.48420726878199,-54.71254964613268,7.766568137183034,-25.04350784032237,-28.516319576310952,-17.37883551770083,-2.561278334668135
-0.34875804697127377,-81.93553553482738,-32.15565284546996,7.792944099495464,-14.952608792967085,-22.588872450963954,-10.581807591304319,-1.9781305303261723
3.7497673147976656,-23.44730016127234,0.2580598503076614,4.837863865141781,0.46332328225473307,-12.89399681928937,-1.8108732934323317,-2.0102110873563728
6.413702373615195,47.687814206262004,35.668176759263,-1.1605343686479295,17.836391582705648,-1.8297170431598442,6.970344424504182,-3.1201802254378532
6.843040788231385,114.5298885194278,65.7934113379938,-8.80149935608868,32.92664409337474,7.794354779378874,13.78752002069921,-5.179256502968746
5.259484683398572,161.91730114096924,84.59264479576882,-15.853820347041028,42.469142087902256,13.893159263609794,17.443734348598092,-7.584876060138989
2.6779452429771164,183.0764989929524,90.80071078737306,-20.34358263738273,45.549815787151836,15.896549431009586,17.957267782914276,-9.612089144216569
0.2897063782307487,181.61609188960293,87.8751960954928,-21.454935158938714,43.70791720655243,14.7556615628656,16.387270089977804,-10.784825707203874
-1.1428421016311503,168.06849676151467,81.55866168864114,-19.738266192131416,39.785261807561035,12.216748536966456,14.17542281736349,-11.058945594093096
-1.53003348073522,153.60321369350936,76.75134646190294,-16.58724493152436,36.3390927283162,9.863294409710695,12.433099488971724,-10.743859017639478
-1.2748131883393214,144.92843640762237,75.57702835127142,-13.408364293993097,34.595904645498976,8.497094363093874,11.578102536967519,-10.261352740872045
-0.893878229782608,142.8684278320119,77.38604067095167,-11.02335275291116,34.37993068091105,8.097846255389879,11.41943036482367,-9.923103718818851
-0.7270122543155381,144.27428746278665,80.08450002474368,-9.564079254943714,34.743717423161684,8.187042309237139,11.491434681924657,-9.84811300049893
-0.85815423140535,145.20700877200082,81.69794253963993,-8.729423452114988,34.74328361042477,8.259618464480058,11.380705789884427,-10.009504693489243
-1.1870019438332104,143.54690746119562,81.47709424267967,-8.109136048554733,33.986449400296976,8.065165541237048,10.922371052149819,-10.320702874920567
-1.5472999520230641,140.18892281998268,80.32197301251118,-7.393016567772501,32.839183184208736,7.690464438556322,10.256004379976511,-10.69261346530852
-1.826287955894183,138.52278379163187,80.37293074222937,-6.453915191009665,32.23393025414801,7.4516533633302675,9.733649300254005,-11.05543349767958
-2.0604762758004718,142.14002490987247,83.6807571300637,-5.3359711368684755,33.05096965811015,7.617580634647148,9.672940735574544,-11.36324735334523
-2.441215687738007,151.53242641297925,90.40277776025168,-4.148146184774072,35.287216985303616,8.083419450827204,10.051791020088649,-11.584767672569225
-3.1715409162001267,161.76423773513102,97.65390498388058,-2.903146672477857,37.55063177439838,8.236004837835,10.36035961917913,-11.681646201540989
-4.236364904831698,163.27547946192877,100.10279074443417,-1.439105338789517,37.39747312492351,7.202406861516256,9.780745245981777,-11.601130295276725
-5.2710382070547395,146.21294471038948,92.34880836959381,0.45114459656253286,32.506419047071674,4.400184364402581,7.6344974764264855,-11.313757976513271
-5.67768521908817,106.07510551720202,71.82433827648406,2.7451746503442735,22.045067917360615,0.03247050807335898,3.822183256094006,-10.875251442420389
-4.944808171939737,47.18502312752556,40.51746152277238,5.01792546326025,7.384221052440353,-4.83539810444739,-1.021497734164788,-10.43335589384722
-2.9535212576835503,-18.307232684877047,4.51411445582166,6.577652704600928,-8.288722494138055,-8.695872462719702,-5.734065999247816,-10.119719434970236
-0.06440072133179421,-75.45671035179988,-28.385321189140313,6.858329747671814,-21.248572816306233,-10.261267329243154,-9.057456823067488,-9.87482387718759
3.0502517921730385,-112.82354660113558,-51.74356053959436,5.782362676493222,-28.73297806629454,-8.993312352670765,-10.084850565965997,-9.354881684863853
5.690654385608639,-126.78423670562378,-62.81222370700762,3.818563885437325,-29.963188993448846,-5.27466991943754,-8.572822919452125,-8.052423740504294
7.34897065475651,-122.05251415895603,-63.20594937308286,1.6987094846719537,-26.31975993565607,-0.25612119432908864,-5.069747785791862,-5.613827220726759
7.782613003487955,-108.8318543415965,-57.89610948334222,0.01580559329380981,-20.738457737121777,4.447408740418009,-0.8510685661524818,-2.1629502791659254
7.003934916073219,-98.41706486465924,-53.10031155758103,-0.9987807510269316,-16.6279130805227,7.119266621795809,2.382564119070853,1.616128932892612
5.296267402639777,-98.9607202717129,-53.77123267834999,-1.394281511309011,-16.609595037083142,6.420965053463248,3.0898947561338064,4.753257773582253
3.2611834573056804,-112.34538745721501,-61.37936120016044,-1.2706415616857178,-21.37142469130599,2.011554492914633,0.6459088700777097,6.492522742156298
1.7590718544988098,-132.84279661772166,-72.83587868481398,-0.6874456853053178,-29.061962619077516,-4.942004145388459,-4.096201165998468,6.705152712695056
1.6159856939190689,-148.47417108039667,-81.39187219846572,0.16507898640016022,-35.718180032771166,-11.820433886083046,-8.89369494457416,5.937222130312374
3.1777123947717394,-145.54441765839388,-79.62230823056595,0.7289447217153083,-36.8674659594149,-15.442492917143898,-11.017840985450903,5.059583758995835
6.005659604901077,-115.10444470959003,-63.288565598183325,0.11454284314727466,-29.71062285590194,-13.505572901477086,-8.594741755480488,4.7591667600686565
8.990972253457006,-58.21419875205189,-33.96561866554556,-2.460596454025304,-14.72239220300256,-5.801735754572454,-1.6282118798864122,5.202187358558086
10.888367211053493,13.276371569280991,1.24607184046937,-7.085473258754847,4.337422438620031,5.5543626773212385,7.930416674037591,6.0539920599608426
10.960574475283837,81.45363194008435,32.932339056640885,-12.874759701772247,22.11602936781574,17.086469079464482,17.13218734155456,6.785181694114628
9.331906722670421,130.27383715200992,53.719024799528306,-18.268006915954278,34.13891118568676,25.576793378309045,23.442544756537963,7.022408095262906
6.843787168409609,152.34004006317582,61.31127992298821,-21.769206300066198,38.67345471797403,29.427029852833464,25.806140659729532,6.721109260946363
4.53633656169356,150.87336639534865,58.658945138834376,-22.664470278797527,37.02480061113126,29.054355810302493,24.830104588537623,6.10190780088577
3.1085715442126074,136.2955014081117,51.53576338086751,-21.27202698998665,32.31615530494552,26.257737222773383,22.135790165231597,5.459321403438074
2.6773834037466484,120.10346093306676,45.32027707584394,-18.617711053141022,27.688668195648237,23.093544892626824,19.399793504746594,4.998998361610355
2.904600881137874,109.85950097848028,42.886572638608804,-15.820320037649495,25.006570304814296,20.959540573372465,17.657599030054573,4.782775146774645
3.3081927250886745,107.55171096196295,44.34908967796053,-13.605631863413697,24.569508536806545,20.27244081765514,17.12420042483404,4.758394895588721
3.517715942231503,110.94842494223325,48.084970544365795,-12.172441374568473,25.596042949767345,20.67128677380878,17.41711051529917,4.815545636764541
3.3711609541130527,116.10157082981375,52.02044408160396,-11.333919559845409,26.93661398180543,21.44631422391575,17.922623465879852,4.839571781293712
2.900016685765475,119.51488006203736,54.59748221886486,-10.730810676185246,27.65276414157836,21.945068832785733,18.1216038982731,4.760503183453831
2.2726037912385957,119.50440416682775,55.32757333719009,-10.002026340658604,27.365889717481394,21.844939243437185,17.79785825396844,4.583451352662626
1.70692126522158,116.67160724619062,54.88878130502551,-8.915339431198317,26.34222856091346,21.23914280729272,17.082893849815463,4.373785040567146
1.352332095754089,113.29312057740802,54.63799035082313,-7.457381848888587,25.257810531316046,20.503821337786203,16.31372631672867,4.198621821982761
1.1976478255849137,111.71740748391016,55.671118612248605,-5.823098546188407,24.716535845377297,20.006752109236377,15.77594802284724,4.071935027554726
1.0869111639231068,112.66611364912947,58.018469767975226,-4.27676739719682,24.82090115522745,19.845083375658284,15.505654586321707,3.9531226840995237
0.8445803860318996,114.68835935952858,60.59832818583875,-2.975552132107625,25.118321640184874,19.80235027121994,15.294327941315043,3.7959013543731923
0.4076549521393131,115.21786325012707,61.976933941318045,-1.8957832840290696,24.95742935778411,19.54422088410913,14.875907513534477,3.5953164063995535
-0.1398516870105989,112.41529992262409,61.358421348547424,-0.8987225296742348,23.96406181285272,18.885320497461695,14.136079754328515,3.391466135690741
-0.6328830158175908,106.51640257810647,59.172880205462704,0.16351438729143253,22.312775279381714,17.93782690342573,13.20289758196065,3.2394928113727235
-0.9154403698577411,100.02603508719706,57.050160141664456,1.4024894290185155,20.69563472469381,17.081405646979885,12.399009367972514,3.180368282569845
-0.9057205572168459,96.85131896143531,57.26699520817197,2.8893473847056175,20.063771859771016,16.801907462238262,12.104866116650252,3.2233350583468936
-0.6526043018001686,100.59314866125833,61.7143537690014,4.609223221180032,21.192603902269163,17.44525797416933,12.559771139726928,3.3257286117017317
-0.3892332779855035,112.16994177095552,70.48235152321007,6.37761397729591,24.101588378691073,18.92206953738465,13.625157203428502,3.3737080749054122
-0.5147901045111843,127.55575255517361,80.65040209093549,7.834393431910557,27.551227331246057,20.485545719718665,14.624884463818278,3.2012433274292507
-1.4283953348035372,137.34354811900698,86.35426467909062,8.592889769089556,29.07056371920592,20.80455816486781,14.451457563213193,2.6709092037283573
-3.264159713001502,129.65565721421035,80.83756596831797,8.451088102003819,25.83517583840905,18.464399942881187,12.017156325697792,1.7722275350190198
-5.718155598558641,95.90192280839557,59.860926165769385,7.474011334887861,16.129453717475258,12.716667159111466,6.853900841729198,0.6460152299075336
-8.141936761511122,36.348461207551956,24.5419624252966,5.864417742004061,0.5427511816633392,4.017660984381244,-0.530829741749416,-0.5135810377705479
-9.880973226419723,-38.261115930454,-18.332101977070423,3.748400318503926,-17.952749226467382,-6.0553975615371725,-8.82676350151779,-1.617501140659116
-10.62921916340112,-110.6664058526852,-59.00554741387004,1.0964954517928502,-35.212612679091194,-15.512680310089657,-16.538156788446738,-2.762301790367305
-10.543427600707181,-164.67990039516408,-89.00744133776656,-2.1132563444973713,-47.727019348317995,-22.8319848949362,-22.627388703208055,-4.132435921941691
-10.045126477094401,-192.05173361316366,-104.50641930333383,-5.607403435052107,-53.95464265958531,-27.439696958180924,-26.75648833431349,-5.764561258550787
-9.485863314358026,-194.81253136879374,-107.0031344354729,-8.672050759661964,-54.499193114259675,-29.55245257535286,-29.038345700706383,-7.3556851708658835
-8.954477113031967,-182.361031756537,-101.41737017040069,-10.35851204682383,-51.270606089658436,-29.647431474212812,-29.61783310837113,-8.311687420390873
-8.366141945938324,-165.8229476743662,-93.18781351712649,-9.98339550823864,-46.38373771726614,-28.07586655034216,-28.51437074950135,-8.071110480787393
-7.707170950410273,-153.30872633070257,-86.18754631145666,-7.5934319537963075,-41.495010560740106,-25.112304654793398,-25.86135420656631,-6.507028775691447
-7.165565507129106,-148.1636882301571,-82.1754773417594,-4.038559837503849,-37.71228497722539,-21.270023141414317,-22.253746888736433,-4.108609198151249
-6.999252517154628,-149.8289403739877,-81.29310000817479,-0.5729515052583626,-35.72091544602587,-17.457321180405074,-18.776202913921725,-1.7813244524123257
-7.2627357218276805,-155.64134631687352,-82.76414999506915,1.753845185585524,-35.77420310610404,-14.72454679983172,-16.563733776336974,-0.3743736416361334
-7.662391075832206,-162.34862672543858,-85.40260687385488,2.537667215440419,-37.56129493528808,-13.755667027341499,-16.171658287032344,-0.22622663276435703
-7.7034308251480175,-167.1398550146683,-88.00827441857491,2.0774145722342094,-40.21680372902032,-14.496089619686156,-17.212568301466085,-0.9914860304747936
-7.044819531576452,-168.37145625044909,-89.75145515736298,1.0849319289217265,-42.62425543453381,-16.190814366495758,-18.526957973070374,-1.832072574406576
-5.815794916578391,-165.93199215493382,-90.4523079518558,0.23655669604169774,-43.886320238783185,-17.792183448653102,-18.792874648110544,-1.8621632998904116
-4.673654377807103,-161.1126178746966,-90.64491560037624,-0.20397531531178587,-43.710378863631675,-18.47417408488914,-17.232578153823,-0.6224977592549545
-4.5315523777672055,-156.1470561568328,-91.44285513016295,-0.4852159135996885,-42.542016744932596,-17.988490559341155,-14.055668304149057,1.6514954357794724
-6.049061693457528,-153.68677623304254,-94.19671790133393,-1.0917444509893086,-41.38740644688207,-16.725633445142503,-10.421092016545899,4.1149992155772
-9.109069521929037,-156.09198786792268,-99.7939428878373,-2.2188699775773473,-41.31088770563008,-15.469442067587647,-7.907473408132256,5.728847724974938
-12.576200151035277,-164.1756467552814,-107.60397171020267,-3.3602996089818506,-42.70439026871885,-14.935017846199745,-7.706711109084878,5.792396944029629
-14.573723655483418,-175.63825916929736,-114.63116140353037,-3.3840829121731097,-44.672852018287465,-15.29278960744863,-9.938228614141437,4.294062828834597
-13.270114986947833,-184.44668265403647,-115.82733047018162,-1.1545643256445193,-45.040868898810054,-15.956659610276887,-13.490282569185345,1.877319804725137
-7.823563489601026,-182.5139578049742,-106.03875843066308,3.686271751799759,-41.24616551125302,-15.82941276156371,-16.541312092177797,-0.541346916370446
1.0607025356053195,-163.5941851274067,-82.83422390665343,10.353897231087071,-31.777746474876956,-13.931551078284821,-17.507128493961716,-2.25260256732658
11.345949857018793,-127.34457840012523,-48.49730479270063,17.28378088076014,-17.30698885113851,-10.058468262504077,-15.873082013045508,-3.043946612919402
20.580973780821,-80.80750224662704,-9.721460198951197,23.00120625462836,-0.7231352307865592,-5.039584282089704,-12.41979067807464,-3.1586829634644134
26.9972681210848,-35.923214941098145,25.037707551739746,26.89297926056527,14.058191667115281,-0.3901963203305421,-8.71592134509352,-3.003999994274083
30.142455559629923,-4.213594293475836,49.04983893396749,29.33292837551406,23.84793751755858,2.4753093850875025,-6.199596378317946,-2.834171813991
30.708395771013258,8.305053543776792,59.5911161849818,31.08159731073389,27.45899087571269,3.0047734560883534,-5.415814346842747,-2.620275180471894
29.74467628644484,3.0024072195977634,57.8445239265959,32.42867067418793,25.788561889789637,1.776037983306685,-5.856085474410693,-2.161031256604615
27.8461862700132,-13.553632989115021,46.91075960064587,32.76116647168406,20.802878004481823,0.11579507223121777,-6.434294886218604,-1.307896204502417
24.87956752436606,-34.0370560773728,29.634598623822345,30.93116315784914,14.232217319990738,-0.6707167045036314,-6.22286853146302,-0.10778908281946661
20.38302690758025,-53.99500041732609,7.779454607932479,26.181568350303237,6.86468445102597,0.014349450259716963,-4.960800123239127,1.245735975797487
14.26772901090053,-72.63398444253542,-17.24925539978462,18.947290355795218,-1.2442241120546023,1.8161905347020255,-3.0776823941330993,2.5988266465629186
7.252030883249633,-90.98418440307096,-43.22072652752437,10.92670238875278,-10.037666935042688,3.674530931844991,-1.3307724564819767,3.9989252679272527
0.6968149393417542,-109.33765443659804,-66.73643773068197,4.340363479982998,-18.8828534907138,4.365132216013836,-0.3553352777898062,5.689686781468492
-4.034068647882091,-125.93939552341152,-84.17907820521535,0.8535801783823074,-26.59010920571225,3.061482216621646,-0.3904358691461321,7.920983547511644
-6.241500422091386,-137.68799726694337,-93.31458443298128,0.8343752008447066,-31.95813915039086,-0.2975404501213631,-1.2638738341889622,10.691675514501338
-6.164116918180024,-142.09000857838714,-94.40865782333614,3.3430196187832046,-34.412600447855,-4.942450755375964,-2.559963136078514,13.598227299124309
-4.7454301263102145,-138.9644855815876,-90.10290729868711,6.746268806774292,-34.30655779784283,-9.527894123323545,-3.8459062198638017,15.902711391700896
-3.120294119104047,-130.8583451422732,-84.21487105667615,9.505951619773688,-32.76698057806962,-12.654083917796394,-4.878221000351635,16.804014212359395
-2.1555309896337387,-122.21624852232652,-80.30315687922915,10.722674186185518,-31.28956790740253,-13.510416102980264,-5.7536419387188555,15.783286927380178
-2.2275478808368194,-117.9296038127276,-80.70042402368186,10.298349597001963,-31.306540229701632,-12.368293847361722,-6.939711296188968,12.863611233309655
-3.201713538142582,-121.59632979987862,-86.02047286646217,8.81165030710985,-33.73355892312941,-10.581476648945129,-9.07452638519263,8.675562183555769
-4.508542503558761,-133.50376555180586,-94.76833304509937,7.218812187057343,-38.4158394650263,-9.914204036451835,-12.504083347700941,4.3034490899717746
-5.301490386837788,-148.89013331221423,-103.09655810395661,6.421808911049867,-43.657113346654384,-11.442311003440464,-16.7656030217175,0.9542310174520439
-4.751155970577025,-157.97355341463563,-105.3854535754648,6.7888639045094115,-46.339597349999536,-14.690849175394174,-20.426740948792666,-0.456918956549036
-2.4431876850869907,-149.06936373661154,-96.19375383049314,7.860291640010035,-43.01475008310739,-17.673249128455407,-21.57688458794909,0.34256967481867984
1.319330799075614,-114.20344294319257,-73.04469234497188,8.501001003801422,-31.664046560810114,-17.947976482029013,-18.81873179778322,2.863492852551956
5.547930488231953,-54.29568502908433,-38.43435732051314,7.521303052629342,-13.134930753260845,-14.076274634511366,-12.169110860384809,6.060636769641787
8.99308125211746,19.584138046558422,0.4916856431123626,4.430231654862098,8.772643275673062,-6.537600230006052,-3.2476536111234964,8.789415710759462
10.744536885494975,90.31439041777058,34.79413173892161,-0.17094947141317912,28.818254853533592,2.4849542758306256,5.424511709862211,10.285747130999438
10.649618584027456,142.21223261096713,57.651142199376984,-4.839061490855839,42.64254788623935,10.273916493713015,11.607161823782617,10.421869095553504
9.301919272197345,167.69720528698574,67.0987839981647,-8.038210471053738,48.57107866284028,14.92792414146136,14.299129846001032,9.62771763162157
7.638444911337601,169.43809414850628,66.12261379863439,-8.911704876430969,47.92576948799168,16.092583729274985,13.957207040942139,8.567276495716763
6.432189021821313,157.26345516530424,60.348022800073636,-7.6076198909273085,43.852207446730574,14.772743501284161,11.971420802499205,7.7854411355190365
5.994418186421184,142.37051256187274,55.019277912586375,-5.021729992469285,39.56328749564543,12.54047275367561,9.835831345583328,7.514524104815292
6.201158898995212,132.53704179619268,53.0697826709023,-2.2173572410908045,37.06844878258556,10.728632777418728,8.5271367605448,7.688768737365093
6.717771111187163,130.50091609417336,54.9392046773568,0.0672304449390364,36.87993870581022,10.015726321538166,8.325749306750941,8.081808232590006
7.216626790674005,135.07127051393763,59.50572351690626,1.5884202962695688,38.44706759047144,10.427615973483771,8.979037612834665,8.450785601149185
7.486402249054177,143.1430701096771,65.12438779419782,2.496545517836201,40.77291744388192,11.556156697399942,9.97997184314671,8.628432054865183
7.460398444886661,151.28737663662446,70.28081504944406,3.146742396899971,42.87899654049356,12.821653672883972,10.817907301104817,8.564471126257331
7.211713232641938,156.74825638298213,73.94256820626629,3.9267547078202685,44.08939785690742,13.714320220183525,11.164400204502067,8.327123369332918
6.909494781421266,158.1013485542515,75.75022275782653,5.103464934576093,44.17876466516981,13.974896549550026,10.970173896221743,8.06151781279187
6.722788220752068,155.52630609422803,75.99539696210833,6.70226548870269,43.35748328800423,13.65062569785629,10.435176780198912,7.912890439232363
6.720907141366047,150.54641165078903,75.38287634237795,8.496357528792359,42.10230988413417,13.009275532178743,9.868724597495447,7.953374416738594
6.85197189956402,145.48236581662894,74.81385882717636,10.150064964130934,40.97295525880598,12.397874793258818,9.540431291820301,8.154982945609355
7.014136346743336,143.02986831361468,75.37751701535126,11.432065791889123,40.54537801245436,12.153665830784467,9.613853984746651,8.413544253467194
7.138910216282611,145.82852977117162,78.31032807927222,12.34619843220412,41.37616451915797,12.561774864767854,10.143669703077508,8.593027511268595
7.205030971270318,155.36968910520505,84.45271629721552,13.110317117272198,43.76941133636244,13.75278209259895,11.045195572497931,8.568573737577717
7.197040876940107,170.1334976485342,93.19339172983067,14.043305293317784,47.316407469129786,15.505038762601655,12.01881510798352,8.277503345201163
7.088344261493963,184.19958649154344,101.67654379251657,15.440405838920784,50.5623219785812,17.103742646525298,12.542893473418896,7.7837296314950954
6.877939782595587,188.15987911937978,105.2376989246486,17.436557084825196,51.26235110067234,17.476139644984084,12.051161115654509,7.314334689502695
6.616246308117191,172.88439510372802,99.24661584160135,19.8342520232262,47.306596752157425,15.64299531943932,10.242679582792523,7.200319162176976
6.35342970574508,134.39999407379,81.4229404781478,21.97854170041465,37.83532438818537,11.251835265316863,7.306658231723835,7.703585277014846
6.047009768622486,76.87667942147978,53.24546843782626,22.857587123701293,23.849644641712263,4.853429892813168,3.869529666460247,8.811232086397705
5.544204115458188,11.654197928724276,19.628125773108184,21.512374291914732,7.928432522774927,-2.255993890540606,0.6784691228602978,10.13532094199221
4.700555343198869,-47.31934961203881,-12.921987148757564,17.583414309682848,-6.781714932412612,-8.526787705333216,-1.7625014666905128,11.012716846966908
3.556336068871856,-89.1037578097256,-38.65541744918131,11.642706284230911,-17.738889146865986,-12.703544977238755,-3.357652143374682,10.783273542117017
2.4074381924014085,-109.45135028502445,-54.31708057776423,5.046372442092518,-23.765079718881168,-14.173285277563972,-4.296885011402956,9.114315002876872
1.664574074308969,-111.02960871820574,-59.68739648213889,-0.6526797260823503,-25.149382157786775,-13.03664327685304,-4.779955576562377,6.20107976155173
1.558402513464913,-100.877728869922,-57.09285762727412,-4.400100502744258,-23.26018068800413,-10.004670400983162,-4.84034092038097,2.7290570418380744
1.8970457835092638,-87.09342865098485,-50.41005179861221,-6.03998324830527,-19.99728893984622,-6.25220067565284,-4.423559178253498,-0.3922510516747907
2.086320238485676,-76.33000705644427,-43.898996659765274,-6.214651161973142,-17.268505228722585,-3.2267814712286436,-3.6281182302587323,-2.3943059748239968
1.4451438415323814,-72.42108878852932,-40.942516283608335,-5.887942067285579,-16.484232093974928,-2.303783247782286,-2.8491492570696995,-2.9402398912508643
-0.3856732580145233,-75.80721140677093,-42.913771577004454,-5.831710949186347,-18.106032899708808,-4.277297061291689,-2.6475235522437948,-2.220925461246707
-3.2265155503462672,-83.75252474270786,-48.7245414427124,-6.365425648298015,-21.47342012579395,-8.91862020153539,-3.422146481154123,-0.8368404405748626
-6.466907068292164,-91.63712642479841,-55.49022176959038,-7.399082768398234,-25.130106998559516,-14.940215617573253,-5.1378632728617175,0.4672529922152833
-9.384479704879215,-95.1143137972597,-60.05957426592853,-8.63030305237444,-27.561707268611254,-20.49806945776188,-7.305267753602633,1.1034782008597874
-11.444073691804272,-92.14220106198695,-60.54440511871581,-9.73218554522408,-27.936878840121647,-24.00085617154924,-9.213951596266156,0.8619248994325142
-12.430370985257984,-83.86247250830604,-57.07031360125036,-10.470029969288214,-26.454410157815044,-24.78972650268609,-10.27677165633326,-0.034232745894459515
-12.420540961378428,-74.08765023725955,-51.577628077853824,-10.749100380840144,-24.198727438532497,-23.351850006747085,-10.31773913509993,-1.0630259004914548
-11.669772058893004,-67.8280446922605,-46.94038433447191,-10.589439662673431,-22.652978661054647,-20.995648042988403,-9.665706195055995,-1.6715951540139593
-10.459309579848629,-69.24697710324348,-45.66748424415988,-10.040821069797865,-23.032700085367054,-19.14507029295145,-8.96488070158808,-1.560497634038506
-8.94838502659223,-79.26645698658133,-48.42883484364116,-9.12830915309524,-25.56930809995478,-18.549208508010622,-8.734566251261475,-0.8581935428417686
-7.111452272383666,-93.56537392711957,-52.984239502975264,-7.944512871896601,-29.005639474680383,-18.77656618119068,-8.90571891499967,-0.10848760231451558
-4.839746324738006,-102.52341584384514,-54.41046284769201,-6.870009636290453,-30.72442949802053,-18.313223605577253,-8.675237057850591,-0.07213898988073308
-2.1723022284696674,-94.38271061402614,-47.0998568829836,-6.701587074826303,-27.755850112152118,-15.32000448490603,-6.8764686150148515,-1.4168415089429032
0.5205800863522757,-60.94538837931254,-27.802806233602197,-8.438696861143235,-18.33447112719843,-8.70188038021892,-2.7064798107385624,-4.417538098653821
2.5894215460905268,-2.823123087839947,2.055394357342623,-12.727307432420726,-3.1302009738182948,1.1204866252240782,3.650241033110597,-8.796800478503158
3.414786369668146,69.26139562473159,36.40785915922157,-19.295221708541664,14.702457408612698,12.230185329853887,10.942653885869168,-13.787231930846202
2.7832377135699033,138.5240346052299,67.15809099048037,-26.81685825911306,30.834937431102134,22.05620035980732,17.410578058684315,-18.401797168134433
1.0636485457063745,189.55340300354874,87.93130879654511,-33.39321597111477,41.73869148529578,28.566708490820723,21.6448464246235,-21.79833751991844
-0.9557318941325574,214.93028019218255,96.78266997544466,-37.408300000188184,46.18574985202346,31.133440947616087,23.222065778749556,-23.576478205826074
-2.4729368043988114,217.35740504342903,96.38752702224001,-38.251167489056435,45.4526131921646,30.60991819579181,22.75635682985557,-23.875471035131593
-3.0552309889242064,206.5662886561393,91.90050105071742,-36.4780535379057,42.2567579460935,28.670230360536962,21.412742228179674,-23.237535918746993
-2.763782680647834,193.51403041738888,88.0852130104638,-33.369806745370354,39.22892923726277,26.89225870221088,20.257999050003896,-22.31985696274665
-1.9896372725656786,185.58604487029586,87.46597540297476,-30.228730813708054,37.85995901073443,26.136936722405395,19.847626953394837,-21.61591080071348
-1.173827948408689,185.0224759100275,90.17347240595258,-27.861113793922463,38.332511874449196,26.464863250492854,20.1922598022707,-21.3270646218143
-0.612984496090671,190.18298333996518,94.90872626802079,-26.459984925982738,39.985093372791404,27.44055573505725,20.97166429043079,-21.41297256853559
-0.4133143317136617,197.80628793085043,100.05186278508717,-25.78191360544852,41.90745939969585,28.517179477557878,21.789109214513648,-21.729330880666506
-0.5218116307781834,204.82568841179963,104.3954807983891,-25.387114398114218,43.37286301932663,29.305677468057322,22.35874692961437,-22.131944520705733
-0.7642826100605284,209.40003123055368,107.49550594919008,-24.82095679052345,44.07780878369569,29.69612775826025,22.611735820451848,-22.498984171732793
-0.9018259169655582,211.276351665844,109.68940422427258,-23.75384702044835,44.19810302557268,29.84544484042483,22.70308673069996,-22.713540084576586
-0.738874535648918,211.44453918220762,111.71728875830749,-22.09884953175552,44.20931834505127,30.02875557286724,22.888580121115012,-22.66971671530818
-0.24356663971489015,211.16919811857085,114.07219300671586,-20.05040177918243,44.51606374755061,30.407035893292022,23.31729356176225,-22.31911336585943
0.41429636508309914,211.0695318392798,116.57139262440279,-17.99068396922662,45.14290585408275,30.87042909236401,23.889072923361372,-21.727535367976664
0.9499822846666228,211.08750309773197,118.59931424937702,-16.3111093282497,45.75852123459952,31.11201707084789,24.310030305480023,-21.104149129841446
1.114368084004724,211.35363168832254,119.86789069693961,-15.25664943867129,46.02034950893609,30.90697461407725,24.32042230158391,-20.774820611695024
0.8167529559289437,212.90226798372103,120.98009590945287,-14.838734360970665,45.92312831540887,30.37731344642301,23.92250890398373,-21.072842608593138
0.1870900073593348,217.19862705067925,123.21633546310852,-14.781136458062049,45.85033088605352,30.017488008147147,23.44606450065286,-22.1396790553093
-0.41280857136128035,224.63850461272668,127.65170716176743,-14.499731277530598,46.322217549787425,30.440358432322128,23.41802106966791,-23.701792907069898
-0.45788926438040517,233.26360742593783,134.20899214831636,-13.224502785367182,47.65276255444689,31.983693506500313,24.30063939559913,-24.979669760119645
0.5278865215162138,238.7574353623432,141.14780512137418,-10.355919347979713,49.67376697698004,34.358637239506244,26.17542379473068,-24.884576247532973
2.638827112398755,235.71017380269086,145.13729827438948,-5.934132064687034,51.55019550172747,36.48341233736717,28.4666153472453,-22.50503742599578
5.32901510948607,219.41126974431737,141.95148499519377,-0.8816015371261966,51.754457087691605,36.6345214310875,29.874883729301665,-17.658228336510565
7.485263509824931,187.54427641534255,127.8616133713867,3.273896985610106,48.40571658932017,33.01635842227481,28.716626390180032,-11.15980748846757
7.910741046907813,141.47080463722617,101.50543833731695,5.145405859566803,40.08754254191497,24.660768796108563,23.682944169909494,-4.576290409642257
5.985521595025367,86.69708080858062,65.38950246915265,4.274279361582593,26.851016565247598,12.252474436811992,14.69414291698349,0.4713372233745663
2.0852593794294467,31.957653595734875,25.903559996463816,1.437269376234475,10.750407505489006,-1.6878767644776644,3.311724735076599,3.078414833886719
-2.5429176588201803,-13.239670132868634,-8.653608485122186,-1.7615354694349221,-4.6305921316345575,-13.587591472532653,-7.671255992996421,3.446225938996636
-6.39637673837842,-41.864423740665934,-31.31719144585392,-3.773100468640181,-15.604538404556722,-20.320133967257956,-15.358653434360376,2.6656025365654212
-8.444247643267634,-51.962422607959354,-39.315358288606035,-3.898863844855408,-20.03047866171172,-20.64499001787411,-18.018226031840452,2.0608607912959633
-8.524156104504872,-47.19987060478992,-34.94814092506865,-2.5172679837844507,-18.222323414349628,-15.74895772107518,-15.777915002959169,2.520151950537845
-7.219424599805711,-34.86692499137416,-23.984591876059984,-0.6765779252826285,-12.560813257447593,-8.533912332597879,-10.369773721786984,4.186440654918269
-5.392136177979665,-22.307666190596002,-12.572657649771845,0.5944775971250611,-6.081499928138511,-2.055067510306874,-4.118719642504261,6.6014067986353115
-3.7329095106113614,-13.828401732339113,-4.538300500209191,0.8067902547007035,-0.9652413009916313,1.957274792303084,1.1879739135488812,9.117937282737888
-2.5739200120086476,-9.85241775954973,-0.5291126796377212,0.13562574371532027,2.169548549216719,3.647517298717268,4.915118893555362,11.294622942206834
-1.9499399324323268,-8.437566897958343,0.9429692256928288,-0.7856341056429443,3.940015403382778,4.459681046023161,7.448622255946426,13.062055259597495
-1.7361498465908385,-7.6054259758387825,1.7247865712366348,-1.213184852570124,5.324210766526828,5.958491954714521,9.567432413745314,14.612558270138445
-1.7354502149082824,-6.694006265972135,2.801654131507481,-0.627665219441184,6.933516357082798,8.84045717678196,11.787867424556847,16.12377204918468
-1.7108955310996168,-6.1421717400033025,4.133467805977877,1.043409136035163,8.801031076223666,12.651699731918962,14.049924686338366,17.522344547593583
-1.4096533760550989,-6.398504610070489,5.241248933059251,3.3968166650331986,10.619937884358876,16.217526218840398,15.853417481396232,18.47205338731494
-0.5973549318244744,-6.944945285052158,5.9814654242440355,5.744164056809786,12.160861981986436,18.414719599839444,16.696376488251097,18.610688758650838
0.8920629926299952,-5.990656658286655,7.037786188861401,7.418762429479779,13.59028631933183,18.816572817280473,16.501504732988625,17.850493877489413
3.063577285455906,-1.0656584890285603,9.743546738235963,8.004268382392086,15.446981883299777,17.85194747025185,15.701874562329882,16.477047441402643
5.61999868224323,9.372155289557089,15.038609722931083,7.366820205263123,18.149285043563598,16.37537507755172,14.858070158953488,14.936122646354958
7.869008313100622,23.730818135849766,21.958541634058008,5.566798412227358,21.228693389869015,14.894908092405775,14.038105774956167,13.47384507441672
8.84442800272733,35.88801811343023,26.780989738613368,2.8271767193785933,22.86977879180704,12.987945333937498,12.457133267214463,11.940027473299919
7.704863430194478,36.37394320504247,23.975476076477378,-0.3822844107203461,20.35763587419313,9.397374328260119,8.771214788768692,9.935620732701645
4.2296329918532685,16.571008641814288,8.97619287610113,-3.2918381515360506,11.462088115129653,2.8525683999593414,1.9450260491002975,7.194245109700055
-0.9317075885643762,-26.07372341081566,-18.765473116388492,-5.003775560904678,-4.0193483056840025,-6.913521171741472,-7.881540264395626,3.887622606661665
-6.493500585796589,-85.3051797670971,-54.61458300864946,-4.891919894723699,-23.67011586748018,-18.701089011995336,-19.18904323996172,0.6001094153404881
-11.157180535643722,-148.1585192397911,-90.58285795404365,-2.97668183936775,-43.390983857312065,-30.32285003834891,-29.757614001609333,-2.0211098446517557
-14.225272424186649,-201.07149162503578,-119.18889132135014,0.04133564556720154,-59.370449103365125,-39.725109568263036,-37.80190303920154,-3.675146083807635
-15.782830513142208,-236.21651450025942,-136.840879566181,3.1919989916816176,-69.79707039965683,-45.96141852745566,-42.77478620797585,-4.557341619511411
-16.324629756295483,-253.85390031134818,-144.4713605579435,5.845301709559119,-75.14346187232155,-49.32579670697845,-45.272096299648766,-5.125802379275306
-16.130436497441792,-259.2161283084278,-145.12435332485856,8.07037967332636,-76.87783225293867,-50.583886212702346,-46.13175334340063,-5.654410375213534
-14.908250760996816,-256.4536215892257,-140.49332646893052,10.436095664962926,-75.66327563388612,-49.94979138881122,-45.445082468045456,-5.912115033973831
-12.03581319327943,-244.452121231991,-129.22650164674343,13.366700638614493,-70.53838813594675,-46.68806534938387,-42.29973848202947,-5.228842241787844
-7.255722323023345,-217.90389447415455,-108.40898955714447,16.535487911186713,-59.82260960321506,-39.75054655261295,-35.53821065825398,-2.9448334251808097
-1.2920295050055621,-172.85001636883302,-77.06847444597535,18.77722045476002,-43.10075504522743,-29.020936680389124,-25.026690287411427,1.0186897567451045
4.131849251660263,-112.33004295841998,-38.8943094005825,18.624032393200718,-22.719934178949405,-16.194918733370155,-12.485023979504787,5.824183892187949
6.991182864896852,-47.6322007233886,-1.9042272638435536,15.133256022396894,-3.5162959700739362,-4.5135165468375,-1.1702248449585533,9.866328965865575
5.997366370815795,6.0916391989183385,24.972170882207426,8.5038608620539,9.255063730153084,2.64278957619154,5.537514697500778,11.406714818389032
1.3558179010156564,37.06658212161201,36.25446959944975,0.14092853629646637,12.546756649135528,3.4891733504265625,5.855247088381408,9.423779433646722
-5.215152673277174,42.417922250082775,32.51498574016365,-7.844485288492507,7.0871958840071985,-1.1520320667367039,0.6041582396837939,4.238486371195512
-11.223341239394236,28.86904568809154,19.807829240601194,-13.43899114998482,-3.0052665869584927,-8.15675372314956,-7.093231283805322,-2.469333083722678
-14.49581158472495,8.816600438981054,6.552552281206368,-15.477923977940385,-12.224912308075718,-13.514053074843808,-13.244658551463187,-8.339986004797542
-14.080949631772757,-5.436286965996964,-0.19555441086251363,-14.065215199404815,-16.104421911656914,-14.065470887836128,-14.75928687986348,-11.396751850099406
-10.586064313616426,-6.305658716786836,2.6760468529307113,-10.534600998300881,-12.89233062806761,-8.755060016765407,-10.689434140256571,-10.936954066639451
-5.876671103516643,6.938229180844699,13.583610943442261,-6.955499859677125,-3.9719077880922264,1.0304021841308129,-2.4697645864114657,-7.777360579387005
-2.2971283452118714,28.318178336956894,27.092762245076763,-5.298324608464559,6.83798913680718,12.011230105649336,6.79866710199485,-3.740603331856206
-1.700385669192518,47.07439595638282,35.92562043010871,-6.521983963041758,14.706430334534133,20.186662520607843,13.630355808942076,-0.6827083336384898
-4.6462152235374505,51.20685294036203,33.71252086670341,-9.993980655086418,15.537560607532559,22.26102149719133,15.502380914019929,0.41055652306722773
-10.12316941125886,32.16005832631535,17.755565724267395,-13.630492035797877,7.564104609596583,16.877968603534573,11.79009569623061,-0.2018651468761829
-15.979749985845375,-10.967600154862255,-9.3912243618531,-14.826990201527156,-7.826561876382283,5.186102763729884,3.9401422506466997,-1.3240792423387182
-19.912795008861888,-70.00720563484916,-40.58636031726833,-11.769670356970202,-26.529212023864666,-9.571940269752561,-5.204466142074345,-1.5915434222448275
-20.533735236232314,-130.46746393708924,-67.0206007712385,-4.415028730618769,-43.37750926916667,-23.344690286846852,-12.642891365629636,-0.2430224331445159
-17.955162678022663,-177.51102892984088,-82.04034734790531,5.435905623904858,-54.28984498106347,-32.87389941933014,-16.446429008267334,2.5244170928384118
-13.599308993359012,-202.14152633216273,-83.86179376999583,15.016642063205392,-57.83135938722997,-36.856947151843144,-16.401520412654232,5.762102311554754
-9.376166032711192,-204.30006394858307,-75.75093261973984,21.91106101278497,-55.41564357049805,-36.135582404142866,-13.800331204721664,8.349662431231597
-6.728383640641219,-191.43418708752625,-63.75581443659584,25.066630066620945,-50.160508369664434,-32.915853389652,-10.57586337050018,9.576745831348147
-6.07063072866646,-173.90769212245073,-53.51960323217194,25.02146724342293,-45.19148204510119,-29.550369624063187,-8.312932188989853,9.416181875766794
-6.8542886131784515,-160.32499665348175,-48.06144080362199,23.3857954931911,-42.40717539106687,-27.579216925984717,-7.6595179634795265,8.410325367536473
-8.085491414008384,-155.17690580335014,-47.4507987558496,22.011119355411264,-42.22720035337219,-27.430074859999387,-8.333694500910637,7.319059715325502
-8.90642715627226,-158.9511335036526,-49.875622400446076,22.28698252167881,-44.07138078179123,-28.68397953977843,-9.53584668676343,6.755343428373623
-8.93520735450425,-169.18812025392813,-52.93522601538492,24.735266948296847,-46.93596660995454,-30.52729571934235,-10.426291692367672,6.957833293432172
-8.302054558102228,-181.27165547640527,-54.45293662312227,28.85861781843133,-49.68336038708252,-32.09899328423915,-10.457948581821055,7.734237525474262
-7.480925075249852,-189.16727523322857,-52.913807324572765,33.223552314604795,-51.14539182692028,-32.697198561391765,-9.542921629940343,8.554964652738573
-7.018443648612135,-186.9329936568821,-47.835689359213845,35.866497095679485,-50.304831088745836,-31.923010894499377,-8.075417742333446,8.774519035953203
-7.225799030927924,-170.94507580000842,-39.961274213986435,35.0399522448847,-46.58369036575353,-29.755776403902832,-6.770870519002927,7.931687254267792
-7.93704719437156,-141.61254897748196,-30.897693664965992,30.04555124581373,-40.02117068457286,-26.47372992122598,-6.301196179950074,6.008822071183812
-8.491393771389992,-103.3485809548831,-22.205087201456273,21.697340952859715,-31.18494664722154,-22.415628104905377,-6.866722436610949,3.492516573279442
-8.027978432739648,-62.73624293746782,-14.52243035996363,12.075935872386562,-20.910385277891216,-17.73930123636025,-7.981342176766904,1.154941018136064
-5.978331809867696,-25.9979505949917,-7.40280132679011,3.6373875517185383,-10.08872362513857,-12.378115920698745,-8.67313468917638,-0.35374979298401094
-2.4668584958630206,2.8660873427933686,0.012878838453965383,-1.8584238235177433,0.3782986228152779,-6.260231032778329,-8.034791965254955,-0.8675812817100227
1.6506186441040007,22.543396985919273,8.010347172889945,-4.023768611253914,9.526919499407418,0.3539146550819555,-5.799199881728066,-0.7889799881952712
5.162084849528963,33.708281414840926,15.759447829471561,-3.799759797296564,16.354205398161287,6.682644241330189,-2.565653226552554,-0.827396198374612
7.073769369380866,37.99878447956558,21.62463039081204,-2.8062584088595517,20.03206889978497,11.579930430919934,0.4881962700789376,-1.5485982850069702
7.039069542024401,37.36793469004053,24.08453271478166,-2.513901196072618,20.24530020779598,13.99648414825234,2.2360828719639794,-3.0168268531609503
5.402159358180955,33.82457486145379,22.56428921718323,-3.667649847590085,17.419361691554794,13.470614331012605,2.177236057557155,-4.747145429673941
2.889697996219828,29.16731584738779,17.63501402757412,-6.142453870934705,12.640628372336575,10.351152596089003,0.6186974221257896,-5.979647049253651
0.21406455979409028,24.618644966184895,10.638856970986575,-9.156639733313238,7.30939455741139,5.654873696778751,-1.5818304360949378,-6.093047697379075
-2.147817721929793,20.741429615474168,3.2156729609540196,-11.675079564119974,2.7534538905784753,0.6856678893486917,-3.490146727480088,-4.919903645231622
-3.9403912544401285,17.86475893702728,-2.9760880009974824,-12.858132015089108,-0.034128543177649795,-3.3869218708925195,-4.5047604574551805,-2.8180244331444175
-5.01711787612899,16.57464512202818,-6.506872190291882,-12.422904762383839,-0.5643478322891209,-5.855349951522064,-4.542887561609646,-0.5015061895214068
-5.282498177793981,17.583993057058617,-6.629815773685202,-10.764509820275084,0.997906056633845,-6.6386062900821114,-3.991476019699229,1.2569102884018681
-4.7125427367386195,20.958687080234796,-3.76102699926278,-8.743049862864808,3.791150031819667,-6.233221020684334,-3.48574292056308,1.9081962170003641
-3.3754700342476354,25.512670699426426,0.521241769198232,-7.221055637458045,6.510538261714553,-5.4400265063068725,-3.6078820455421092,1.2822283633609164
-1.3945221323132935,29.155524332761892,4.196619213041503,-6.6089157718848295,7.973569508086307,-4.961090068955687,-4.622797533450882,-0.41642039669294734
1.1235318282766702,30.07895732220725,5.860393283273119,-6.675374854994488,7.719200750071663,-5.056614497963446,-6.352376615752764,-2.708430417716259
4.133399397220154,27.93016945675075,5.4538729502368115,-6.701829138307055,6.280800183688684,-5.424438552268607,-8.206758836235153,-4.931711810909144
7.6340723038907665,24.261648667042014,4.303687120131216,-5.866345597256445,4.997962777707722,-5.323219461076506,-9.312771256370977,-6.295029931982661
11.585299250987495,22.144222063835343,4.549925720984086,-3.671672073025462,5.4973830776601895,-3.8476654864137676,-8.704339906055779,-5.988973441958703
15.77129851574309,25.06717739679798,8.164634040050775,-0.25452581534156843,9.026424343783436,-0.27915862100309813,-5.627441095142392,-3.468149226106113
19.667494233604508,35.138952394519855,15.705799114089091,3.560436508365005,15.75265446970728,5.509752852288216,0.005649470252744153,1.1491490898607892
22.43075852031517,50.89785433110774,25.1638439653608,6.55762386850702,24.207568043704875,12.6803118808828,7.175657644518961,6.832513105308995
23.128289227230155,65.9319223151264,31.68833507920746,7.7274676600341365,31.252461587334356,19.325248251069493,13.694389489475833,11.833868791435243
21.175008409398096,69.9711543370156,28.96939302252672,6.882391626851243,32.94020193898738,22.914286290818808,16.81734634942052,14.362844921612616
16.75030796842734,53.035875771127095,12.146481562287589,4.896384754671049,26.187586516421124,21.294259042898474,14.419244896559308,13.426586185235005
10.899871676996145,10.955648759274846,-19.163104240780598,3.3451033654018496,10.499558582748183,13.813104372654625,6.147972695170983,9.345345088234847
5.188703140099231,-51.0503213612033,-59.660040077645384,3.7033933936374437,-11.314313036543952,1.8949673514793755,-6.164574190590147,3.6150857624428148
1.0528572406947536,-119.40059458457881,-100.06760689840863,6.562183526588252,-34.04614540042845,-11.384784473559051,-19.18197115435996,-1.818827164415135
-0.8012069892445021,-177.72793797758882,-131.04987632193004,11.328159337078402,-52.26778191613964,-22.584907439383034,-29.517577008966885,-5.456871590081729
-0.6164377741666235,-214.0093771119526,-147.1910812989665,16.57043842218881,-62.60881682272536,-29.352536886623856,-35.16041132213117,-6.812825439541718
0.6816051483993376,-225.2260522738421,-148.81466859432624,20.78305712533197,-64.88726735653867,-31.248591784450266,-36.10541617325435,-6.397185475721985
2.0463059265315136,-217.19619734701118,-140.83602151501725,23.101287012046836,-61.593672851004534,-29.569139113664768,-33.94908460468771,-5.229710791604604
2.8104805324202795,-200.3976273256471,-129.73429447298426,23.59531345905668,-56.269520897073676,-26.4250958141622,-30.842794646975488,-4.2330844180368405
2.8600325371066484,-184.88173156144407,-120.68560539814133,23.08479416285843,-51.88533451846909,-23.723335495807145,-28.48574880900744,-3.8401402491148806
2.4751958618023515,-177.10901721436147,-116.2786617334164,22.698934506845674,-50.03611047181989,-22.572415534793993,-27.637871559327156,-3.9479003662622145
2.037944406080907,-179.3091056605082,-116.76237624265055,23.43379527824998,-50.98866539726983,-23.202753984135718,-28.187552085996867,-4.149591458380325
1.8057380178680442,-190.07872417587546,-120.83506039044231,25.79669484577195,-54.07526017201836,-25.16235566342607,-29.50610014224185,-4.078783918544317
1.8199773520908098,-204.98423369610012,-126.22043950389494,29.531247155987863,-58.0126452284371,-27.555637910805387,-30.822525228291333,-3.6930501333982857
1.9237311899665803,-217.26353555385955,-130.06065459130474,33.505967253076385,-61.13775063704867,-29.28749656667557,-31.506447764993233,-3.356689485561776
1.8670127775600867,-219.42239723895975,-129.4880052638568,35.95543324329692,-61.74999170326331,-29.366775596547143,-31.23412385210474,-3.653260142482064
1.4862552476749953,-205.7696774625039,-122.40282387806774,35.14813650178695,-58.58364118895621,-27.228910002882362,-30.00345798366655,-4.9924634843617035
0.8806527458227013,-174.76363027994202,-108.10312831415077,30.235854861665914,-51.21024126840897,-22.927045786206378,-27.984528785026484,-7.228371845482966
0.44283158035574993,-129.84240482368423,-87.48298080762676,21.804780920125157,-40.18060891093231,-17.077957370180137,-25.29532631809277,-9.557015049539709
0.6631241324101386,-78.3240340357464,-62.838744638338476,11.754593997696427,-26.890646997436544,-10.594826262451434,-21.869749392356702,-10.825790656724115
1.8103853431503043,-29.028643601578988,-37.44144269092445,2.5341517256819484,-13.260907702647406,-4.346842832735091,-17.523562122712523,-10.12285522897813
3.7303680759579394,10.287771582359031,-14.905724722400716,-3.8379736715319135,-1.299330763301469,1.1090112686492988,-12.164471636872687,-7.301708715123283
5.9417241084282395,34.837195197252285,1.6824733375321679,-6.438649496031762,7.4089873512924145,5.637853998872779,-5.9770955285126535,-3.1019650598048876
7.9766716687097245,43.74480025106517,10.762127525731376,-5.524203969002176,12.195095666371872,9.469989278791273,0.5673115920478645,1.2270211969333376
9.69597109708111,40.15802897544354,13.037707179797172,-2.1779162948306228,13.609990887106978,13.032141716201368,6.891485705603625,4.565311678192758
11.296323085559086,30.586423087723627,11.434676294978045,2.112204018879046,13.320139231106186,16.73370233849827,12.540713688277647,6.417711890457984
12.96189603363291,23.21547460226491,9.93096118116569,5.713759076183846,13.461681512578558,20.74420183398602,17.262790227412037,6.976982087127603
14.426564278913713,25.086348197704634,11.55944939279449,7.031432436164009,15.60617711158439,24.800956712200794,20.868348824394694,6.7845598903796684
14.844394814027769,38.97446679001093,16.63131013534433,4.831327059304682,19.849967558817323,28.151119948714644,23.022781360857117,6.285356087923271
13.167990381991045,61.71149527652406,22.40823677782054,-1.262403989667708,24.63898123756179,29.75744666303382,23.22595033234657,5.593744112113189
8.83923841643641,85.3784719329361,24.659441004177594,-10.38157488167691,27.56565013649798,28.769136459109628,21.091002326168624,4.5798390195602
2.3215192662291373,101.1229818987813,20.25225858374639,-20.50957289391293,26.732025421294246,25.03823701941927,16.75169605380608,3.137677400416662
-4.92680955149912,103.55105140547079,9.149337194877141,-29.169845091761097,21.85676554159191,19.353080806085263,11.067851285081462,1.3953773989078846
-11.072514868226726,93.14851301319172,-5.457064594185286,-34.410190699657434,14.446289806815347,13.19374844322172,5.411471303433596,-0.2834616449741075
-14.764821817247368,75.42019992190563,-18.908269123538933,-35.553158469100204,6.956109700014692,8.112272482416023,1.1145493947605996,-1.4789797597729586
-15.726073026131756,57.570556757463784,-27.528067117585152,-33.31246367045136,1.5187363161703518,5.091065209104964,-1.0886799149879496,-1.9266024536013082
-14.75609811514162,45.07503809353223,-30.15649059351087,-29.2796898436938,-0.940764394909158,4.2530062694628565,-1.2805095905040667,-1.6288004132516238
-13.205496478275284,40.21770803764127,-27.940628065582697,-25.16011348607515,-0.729581550467268,5.050833979892035,-0.13970080277662925,-0.8404383390758075
-12.269425105243702,42.79345763279078,-22.913613130154655,-22.195710594410983,1.2380410408507252,6.718926860346024,1.504194390734494,0.019352432274050205
-12.479312092097944,51.39636898997592,-16.70444672319499,-20.949593642725514,4.06665661038688,8.60998673929441,3.008786609805386,0.48484819853603245
-13.565001988063853,63.73735200047721,-10.292560174168555,-21.32579720749022,7.040141791331974,10.214326387610628,3.985260611593582,0.19400850792270602
-14.63773764252964,76.10499709729373,-4.548091152032572,-22.646486390789565,9.43233630062759,11.004608190686458,4.206928929798935,-0.9325417818553865
-14.563768745456366,83.47258794226572,-0.5903662885446729,-23.786063402009148,10.443244769623886,10.41748961965255,3.577841045891681,-2.5600075672487095
-12.42009208632423,81.28124548480761,0.6110240627295633,-23.490028810135062,9.526267653775136,8.110394413216232,2.229924233378961,-3.9778915366954184
-7.916961253975438,68.10191145982782,-0.973006928820602,-20.890061248977407,6.8676179850527115,4.308328010878222,0.6083702005707481,-4.364423265990624
-1.616151194673302,47.13190064085272,-4.08783504953435,-15.979696966887166,3.529525720225597,-0.08607952138338773,-0.6281762019933124,-3.17927776126544
5.213681663899329,25.074111664860602,-6.750963344052653,-9.719404268714717,1.008035993231919,-3.780044951159838,-0.8991705389966734,-0.4688065192436232
11.102299076459209,8.852497327633486,-7.367569696016742,-3.6319490475943357,0.4384707767020021,-5.631916244590223,-0.002723527782362546,3.109195754295381
15.015531562494294,2.235911489564362,-5.587628798711621,0.9103004158695516,1.9846462749840825,-5.123627369974937,1.7910985083577204,6.573689828235331
16.779078627472714,4.495734137015668,-2.2944765889865706,3.285199921606058,4.827024442544478,-2.5147381710549848,3.9200515570164205,9.062602828071963
17.038175976218568,11.679964746481001,1.1686964222983733,3.761569192444243,7.711673797664466,1.3309555244706803,5.836874191014427,10.17856172819147
16.773512616681668,19.208360762413037,3.8186688385582825,3.1510612403668374,9.608303747012028,5.25761776834622,7.203486917751281,10.058681777273916
16.67585708670301,23.853397877457887,5.254567999686995,2.260332849715218,10.016402258566483,8.083490377467358,7.846734406608776,9.169511844149362
16.777051631900935,24.196577755264936,5.320145180029093,1.5125388087292846,8.848415105091599,8.796833250168003,7.579075799214598,7.987566097664877
16.555315066876044,20.149021377632682,3.804062050384897,0.9113633787204666,6.201224638637982,6.769336488224785,6.112630995768747,6.759941967725314
15.400822080278363,12.576965831904172,0.6184843623779686,0.24828740380862216,2.322021820468038,2.001407278895665,3.1936000975227965,5.451283244958258
13.096432200986172,3.2911100972234775,-3.749718160001238,-0.6639350885977549,-2.2524805413258067,-4.74509525214563,-1.1356442480438838,3.860807581792789
10.002118739707733,-5.15728771745166,-8.08875635502151,-1.8706864480589507,-6.648131937858331,-12.097006121320893,-6.359325391466507,1.8172996185529982
6.867139751348699,-10.280227545254926,-10.899927804237544,-3.277524717588848,-9.869206314796397,-18.496971433712545,-11.537005486495786,-0.6530862808610562
4.427708405253793,-10.705785443099282,-11.168495676325167,-4.730469434942583,-11.184639213343482,-22.69556193441946,-15.563308352681213,-3.2662978764710147
3.035978593576977,-6.813483246991319,-8.99515210942335,-6.129010096215926,-10.461669043503226,-24.0721442885107,-17.527592907733556,-5.558739321878818
2.5160903678091633,-0.6956855542799365,-5.778874174858445,-7.499616435238595,-8.29348038934967,-22.705772791991,-17.045329196529412,-7.0670728399847444
2.3292444781657453,4.397990291954514,-3.817599276514843,-8.929634600916817,-5.854956119954338,-19.260196419237122,-14.427479452513555,-7.50987509227064
1.986354388819706,5.093640647816685,-5.256859769765906,-10.338582157857871,-4.4392932845445054,-14.744152121851679,-10.561076572011187,-6.867080109954856
1.4905488485950271,-0.47171323367350604,-10.56943538354743,-11.246177846317048,-4.723796189525883,-10.153985047648339,-6.4778870302223615,-5.3236405660782955
1.5089970867708131,-10.80693571645273,-17.315450063112337,-10.801112734574858,-6.082373839657868,-6.062264447661349,-2.7990912915624526,-3.1385505860156653
3.0847147805310606,-20.304798020136154,-20.285500854473103,-8.187289506096159,-6.478591921200562,-2.3578290407296487,0.5966147315435577,-0.5429055456629452
6.996255723964536,-20.885584667292783,-13.581557234643864,-3.2008135943588893,-3.2807289859584627,1.6352602329089319,4.4172452620405345,2.270006665267508
13.15275385889421,-5.921253603750196,6.159731078571366,3.416803183430109,5.275236657810626,6.6466835806405165,9.372367446758314,5.085736370138231
20.43706475421412,25.629164665684144,37.30655678217444,10.183462721139149,18.82678755918118,12.849686337560136,15.54182083762536,7.624969801611055
27.13786475968063,67.63300894673124,73.26979733794252,15.545980482169853,34.699474460618774,19.570955942175672,22.142768894060328,9.58587531261648
31.733665609566287,109.1500424435013,105.29758834539379,18.61320907859834,49.034723285154435,25.552978539006958,27.87497539234667,10.764158781245907
33.57001689266661,139.6214740351937,126.51675025092895,19.506610057189462,58.62149249395942,29.623377587440157,31.623343765893274,11.163446832872857
33.05002508621077,153.82605706046596,134.8868062926944,19.146622030580378,62.34944376694719,31.333137397393614,33.051449010537446,11.003740205072342
31.278196350019453,153.63841146216336,133.43294886821508,18.671137937554395,61.446228167761355,31.14455362879771,32.71001528849388,10.615115296159512
29.43384281987489,145.77731653739755,127.88645940892015,18.88962428853367,58.47005951163663,30.078076899182545,31.638848810937073,10.293297153766963
28.266001947195914,137.4177612538038,123.44004742120416,20.064266188553958,55.81893841166277,29.10891302629749,30.779321993231374,10.207411112577342
27.937636644707137,132.68908832412478,122.59218447920698,22.009366006567035,54.70310537859831,28.730354857327676,30.57798798282441,10.385413670816149
28.174810284383767,131.89251457141162,124.95683855827684,24.302514511262295,55.0285868625667,28.89726406125399,30.94587667385676,10.740233240790783
28.529866544284925,133.02832246928975,128.5217343990776,26.45314992583242,55.96071548211169,29.258731475900525,31.478914174719648,11.104182609129325
28.6123159544592,133.9529175491515,131.25766056804343,28.038584148714197,56.64293331067012,29.458788569613237,31.756252633952283,11.283060798434008
28.245958232454804,133.8583002689231,132.30524133006926,28.865870809544894,56.70904565010239,29.3607364188834,31.596267737293893,11.148450284117837
27.53913185538873,133.7109700597939,132.44613395517328,29.113606460536438,56.475112429127385,29.14972403000518,31.20188886454302,10.73689925273887
26.827120838164213,135.65870817587066,133.7061654880065,29.323519806893028,56.763077920373526,29.26949018807556,31.108992843834447,10.280766446013734
26.473393666755282,141.41249178643847,138.0416549533058,30.18094430432936,58.333466573725644,30.146712975030493,31.877422403461384,10.120288124409692
26.61962899243595,150.12236367354114,145.57284225151616,32.170589182128815,61.1266437641013,31.78283892733903,33.62511969131718,10.522986610530793
27.040154452378843,157.1967645767256,153.46907991543844,35.25870626038733,63.81300130349508,33.47815293095637,35.69298183584689,11.49482230599792
27.19138978966044,155.5876053553347,156.54145875743183,38.710023626851296,64.12966643557824,33.96717897138683,36.72932073868783,12.6723773443007
26.40983002583743,139.50199163824652,149.5613077614656,41.11114455155157,59.9795994389338,31.990930587652446,35.23991278604108,13.36237335657589
24.14095545801906,108.36972955366818,130.04692557563286,40.687138225449296,50.662352439862474,26.99955412269138,30.3433479640946,12.76654556302771
20.11998902845862,68.20840090474177,99.82962807409783,35.94762835981124,37.43927210651261,19.557473017718614,22.333634364361227,10.369186350477374
14.486945150921876,29.123660179370834,64.46498955346397,26.484444897137084,23.062334935210306,11.205321503629897,12.750614838325212,6.347688234536739
7.821917027373115,0.35499863071600907,30.879415032981196,13.496765095071346,10.562604941454076,3.856949034803296,3.8947015855367773,1.7558349448355464
1.0594978832102289,-14.040031526360329,4.620955994118135,-0.3822576658869843,2.0158308159188607,-0.9525014031678988,-2.032420030723736,-1.7461582545068894
-4.742990958801218,-16.270728161285643,-11.842407550105776,-12.03439444810014,-2.0643451576222804,-2.6160610757629854,-3.811919771293148,-2.619294542458327
-8.73689017372264,-12.325350055537088,-19.132701925037324,-19.16992669914887,-2.5128583258801744,-1.5924309119542375,-1.7372173511165063,-0.3190023311498959
-10.588427470451702,-7.915493435051833,-19.718913455930608,-21.315572114541943,-0.7938925711174369,0.8702808218271654,2.463466815559096,4.191186828111625
-10.608830005231239,-5.60079815583,-16.44013304488088,-19.9210836010051,1.708904262060441,3.2699271553102096,6.322369548563365,8.681266240233368
-9.622036818241828,-4.5754261342853715,-11.575852228483578,-17.517945759851024,4.062719912825476,4.426939094193392,7.6835548137547285,10.641525211008187
-8.62718708329613,-2.5777980865528813,-6.62575326117241,-16.415435139702712,5.798684750960822,3.8816445532961783,5.6404149755855055,8.529188509698411
-8.439323789113786,1.7208316412374445,-2.5755988338160267,-17.66799029568076,6.705355925690465,1.9388152820060873,0.873340854072998,2.5760882782472914
-9.48226716164719,7.234787953912207,-0.35456134383012566,-20.817306522831117,6.546577377058715,-0.6675556468238577,-4.8175927744925735,-5.3035925939189505
-11.762203777134948,10.515174594029311,-1.1182096401078947,-24.39469649189878,4.8866470164185625,-3.2770669321345602,-9.502627210172722,-12.421373748500033
-14.921128743765047,7.459526576746754,-5.902549639541529,-26.77295544263093,1.2664922296217707,-5.599239113021979,-11.999315205887992,-16.4984206984144
-18.29511226507194,-3.6930409658766936,-14.492380572325517,-26.924611220517825,-4.180965058314318,-7.555854954574903,-12.109306300107693,-16.52640087667665
-21.031244588920554,-19.420815212342326,-24.150001894693894,-24.85228317886766,-10.02541487905379,-8.816947638348067,-10.208806273145866,-13.000319542930962
-22.35632464739818,-30.22774986290043,-29.483369483188962,-21.62997729263965,-13.439328357344346,-8.511409655141003,-6.677065955033311,-7.572349911300189
-21.94907125043465,-23.805949299098767,-24.31412387730181,-19.04182911343069,-11.174451492232059,-5.512285536254168,-1.683646905544814,-2.3647003097516577
-20.188258665095418,8.737491114452844,-4.946550624420767,-18.869677252069756,-1.2976863480566798,0.7878529172786014,4.555842310192473,0.7936540182719019
-18.050838166203896,67.00181896511477,27.12151592315211,-22.066849498889642,15.363679641177148,9.77132817077861,11.398084573319252,0.9671667775328383
-16.657503356060463,139.73218170744784,65.01960436648311,-28.230488249970442,35.125628107697246,19.554581785378204,17.706344155824205,-1.6474322116496354
-16.722830221334316,209.2041490612717,99.33240069434629,-35.71878365285138,52.95478189225157,27.758488929272865,22.25114658420641,-5.934178862869104
-18.244189180394375,259.41030226034775,122.44981486214984,-42.40920714390941,64.7870679547397,32.659641585470425,24.32980367392901,-10.421713545032311
-20.6009804348617,283.3415337186178,131.92704634916853,-46.68360393884678,69.31749289188724,34.014522508732774,24.17030234500263,-13.91510299556489
-22.96011569508618,285.1342837599436,130.96358360382393,-48.06152945145503,68.2506064791789,33.05090385026784,22.82733196151569,-15.877081564934798
-24.695900043969406,276.12181693921826,125.94792716994651,-47.1281009839825,64.97997515974387,31.653159444604228,21.62494779072003,-16.39966635153498
-25.56848404809377,267.63190082237986,122.7705543928675,-44.882610139943694,62.608725795769516,31.263344115917707,21.489124860288662,-15.869057732743189
-25.629268503227642,265.0382407844113,124.06353372689858,-42.026414561900076,62.48094038358849,32.14405854748951,22.53943990824276,-14.613382894834759
-25.035419219816287,266.11135865500904,128.5393491557005,-38.70418114177753,63.8700421727392,33.355484858017924,24.09474991983491,-12.795451166900358
-23.968493715042957,263.6215775879387,132.18060961861514,-34.80853004988582,64.68626384952998,33.355521732502204,25.009311558232646,-10.584750612047756
-22.676337228444773,249.8988688037472,130.28756281791144,-30.49434569280364,62.62864479463211,30.85523550430019,24.167409455669493,-8.390528015200413
-21.498346969410175,220.82074527447264,119.49680730362076,-26.413099389923417,56.24995539397159,25.536557111452684,20.988331219672585,-6.869846439385066
-20.764374164287787,177.74457948726206,99.21701441584351,-23.454193026084297,45.61389173929817,18.339173097024574,15.788227237678646,-6.608083319751712
-20.629573619189934,127.01268438638401,72.05377447751064,-22.203960141728125,32.35132446916576,11.156903458450476,9.799880871779525,-7.666831793886494
-21.018337212437967,77.46491115605018,42.94905852313904,-22.55578826332561,19.046721705776083,5.994083413360875,4.714121267885083,-9.365931797985896
-21.7670240553182,37.06393918574743,17.27027521354213,-23.777033230572783,8.156542372880738,3.9300422641691437,1.8635246925476427,-10.552204997036057
-22.84914151535717,10.134686609773341,-1.2632246362010615,-24.98045310691374,0.9724416831916513,4.454689108949949,1.4726487533576413,-10.260259107232477
-24.441869159344336,-3.5231647597684854,-11.699241690118422,-25.641050829868316,-2.7850375808989547,5.644648263111513,2.4769094802097555,-8.344849934765193
-26.6978426907716,-7.292917162021836,-15.404787298887692,-25.786363099279242,-4.468064007843684,5.208028024374242,3.124516222469497,-5.632042635329208
-29.36702364476392,-5.012989251612768,-14.45333443600791,-25.775537099396228,-5.393236103943452,1.863365135240893,2.06035381225123,-3.4515746603850253
-31.625952209061815,1.3370854344435876,-10.129058125639563,-25.910029611268477,-5.898486330955984,-3.7964481481030674,-0.8015341106834811,-2.843957498843546
-32.380485223007625,11.744101100302915,-2.8308076472160546,-26.195915547963388,-5.329003229601841,-9.586109627282486,-4.245638328930022,-3.9567195779152655
-30.933083543114464,25.714960773294237,6.464394843984173,-26.374394717550206,-3.068920064738102,-13.076591594268058,-6.63783279564969,-6.0029217698338115
-27.555630752262218,39.147853268031184,14.517476654870169,-26.094805596961585,0.1528577498055689,-13.17798234383462,-7.129068682550522,-7.773743502298564
-23.51093393867415,43.53986887078835,15.791957242319556,-25.053203341096886,1.8355880904781063,-10.90357732310037,-6.324434215647984,-8.348813795931163
-20.445638908879683,29.20613322032418,4.803779601637655,-23.0453295762477,-1.2504709919336436,-8.791251908397912,-5.935406122247743,-7.5569755789731845
-19.52906846323835,-8.947448411640549,-20.403443874524726,-20.000870241674747,-11.095227191940122,-9.366163257032886,-7.6610196931844206,-5.946040535823384
-20.88430797403833,-66.95900424522833,-56.10143246658092,-16.054387782512155,-26.894998963180637,-13.651865109512556,-12.075259100447642,-4.3607788659202305
-23.64075878263005,-132.08587456008954,-93.80620600102397,-11.61021471268581,-45.05606345481081,-20.650380794407447,-18.256820342679458,-3.4535234293512476
-26.51461533278066,-188.18708530510386,-124.00365863590557,-7.295994128936856,-60.84712304939232,-28.02653847324864,-24.35062791671208,-3.418431047253534
-28.503668242014385,-223.13840028998703,-140.48476495397762,-3.751523895806109,-70.68054314718191,-33.45869629299393,-28.621816954761552,-4.02633594084131
-29.276045567169966,-233.87171414171513,-142.73327961993138,-1.340833224986037,-73.62970712291109,-35.776157304493736,-30.298677533607613,-4.84380799719296
-29.108477482944185,-226.31222039398148,-135.1826985673829,0.017746906683008094,-71.38507821520108,-35.2721204903334,-29.74594447776158,-5.471655702138905
-28.54702335790868,-210.90867729542788,-124.22091105782962,0.7638299328392824,-66.92708299062531,-33.20118458708195,-28.020871026531935,-5.699617587631425
-28.076829707367928,-197.06557301511782,-115.0398963645122,1.410578238245416,-62.929721582685474,-30.958715945789358,-26.22875465537159,-5.546412543473229
-27.96375878873352,-189.750818897057,-110.02229812922708,2.2844991565050923,-60.81612385886439,-29.476318011226937,-25.079780760101134,-5.1955063363517295
-28.248474668178435,-189.3022892657852,-108.92920286101395,3.461580054153495,-60.70352319934514,-29.04360278219191,-24.77519482193978,-4.867750884346933
-28.808001018085005,-193.2063209029763,-110.03874745942802,4.871178661710582,-61.87807282663903,-29.440835391581746,-25.117528936300978,-4.701689768226007
-29.44450050004326,-198.11431134620838,-111.31773740167748,6.410313660786315,-63.352659148515265,-30.18501601170198,-25.70515508976117,-4.708836233329137
-29.99089210165356,-201.28471743521158,-111.25790118256523,7.976109650410479,-64.30780241947798,-30.782902670929495,-26.14181454872269,-4.8155865586573325
-30.388074048328686,-201.44489594264857,-109.34659389969586,9.463878506463493,-64.37899574689655,-30.942066587832137,-26.212549814871235,-4.937888137521772
-30.671752574450245,-199.03037832640152,-106.08488401907744,10.804081701197264,-63.7219218992993,-30.664508215461716,-25.94825665120118,-5.024042761173016
-30.879464765783734,-195.58904362328437,-102.48802890875066,12.0140688656079,-62.79672428344926,-30.163303342256906,-25.535812862345338,-5.0517062586371315
-30.981983930925246,-192.60512758016603,-99.35979382149326,13.183413119605657,-62.00534005871139,-29.66773428120653,-25.15080066394184,-5.014276372903338
-30.929005174101118,-190.64731219031873,-96.90408760835562,14.389271574845642,-61.478466336762196,-29.287968963839273,-24.86206466796798,-4.925140838045757
-30.769813358395997,-189.53587964126183,-94.94183033092555,15.640520152885394,-61.1724383879811,-29.042628717558973,-24.67345885618695,-4.826287732231222
-30.709992774940044,-189.1472586653103,-93.37086932555287,16.920466216243238,-61.10169894521376,-28.966513603646256,-24.61249448330116,-4.7731616171204125
-31.015526441600304,-189.77866108842977,-92.28555692852,18.26377142659144,-61.393159156337326,-29.132029956236224,-24.73432687087241,-4.799226431764901
-31.82088069628514,-191.5895793586903,-91.64521064548299,19.746323793870477,-62.0844510394763,-29.54101195199812,-25.030670527494483,-4.894309945237299
-32.980677774568065,-193.82454726400488,-90.96289526819544,21.37589479009023,-62.913029094818626,-30.019440975907795,-25.361332434185993,-5.0161485649366515
-34.06142168998238,-194.84617550688813,-89.4647799959238,23.01143605472668,-63.365328246239876,-30.259250793382225,-25.50396662982682,-5.115613613105364
-34.485337780188694,-193.11848731895034,-86.61682772264417,24.425758503134986,-62.97375728691288,-29.995700594222743,-25.28626762470564,-5.14827749526877
-33.80040085258488,-188.32412760818238,-82.5478103854483,25.472168585939695,-61.626065407008994,-29.184591708118784,-24.694755854066944,-5.07793190087132
-32.02289231659255,-181.84478321635555,-78.10338374833223,26.210571003356012,-59.71357207477698,-28.078597975891782,-23.9109939974474,-4.899584144873146
-29.903161361153657,-176.52365203895678,-74.63553123230052,26.906539651188957,-58.11005470901695,-27.197974548184604,-23.295073653392613,-4.680272331700917
-28.855462748701765,-175.87435148968487,-73.6213088117261,27.93526169627084,-57.96803358888175,-27.195048922188352,-23.30743386368306,-4.568908070928943
-30.351606647378347,-182.56980895394508,-75.96075711805443,29.643607185203944,-60.215578901629186,-28.559311874173908,-24.302918519505745,-4.729245111405084
-34.89509468088547,-196.16480182520283,-80.94473586133967,32.16442386077531,-64.7601500521965,-31.177566513500423,-26.199803153557763,-5.215212125175444
-41.08965224892513,-211.11171710151945,-85.51112139825582,35.19413392549659,-69.81164589570932,-33.98249093982375,-28.215238576485397,-5.870021209209356
-45.462609598216055,-217.08846519919047,-84.76016923995402,37.87990954342093,-71.99494144705342,-35.0568303285133,-28.952083065236742,-6.324415981091756
-43.413896412524615,-202.82735025711295,-74.0479104696192,39.03478639183235,-67.58188881269946,-32.36062703287692,-26.94316890949526,-6.104987134876653
-31.06319630066417,-162.06063220631066,-51.66210941682513,37.72276016697065,-54.36135426300806,-24.7892382507551,-21.409051466195287,-4.803764859611595
-7.199715202979406,-98.01689231572519,-20.32117916513657,33.91874703056346,-33.05638836002259,-12.932136188914454,-12.768603250735085,-2.2417082885643587
25.665109240386908,-23.262467564649764,13.656991016597937,28.77004550805653,-7.353732990306241,0.9915501686118509,-2.559253722350364,1.4351466437994254
61.80844770630203,45.43844248027537,43.11395650438661,24.18357211900176,17.54753657525231,14.041833189586784,7.210717365028823,5.775027771601489
94.26180453413365,94.34124321140544,63.06063483389443,21.913238859572026,37.0523903598203,23.795979427268854,14.910027309228612,10.167465895267304
117.32027888163132,117.91086656665448,72.2108080352592,22.67649858379708,48.7904152171018,29.21246477221629,19.866604803781264,14.063127134811277
128.38934609893923,119.44921835944909,72.44668227560794,25.824149798179544,52.996735069950674,30.70212861752888,22.41496284057957,17.155576611326484
128.3919742289938,107.66021358482779,67.03107930076695,29.73397869852429,51.738901459712956,29.529408952672245,23.482047939633862,19.42358766271808
120.77956127610224,91.88444922552806,58.98034263595917,32.64892212749616,47.68928378125752,27.055840918413953,24.027686618921592,21.008579197205265
109.83449254667501,78.73337434850883,50.45014206134505,33.444968685988215,43.14902725247117,24.301035047668826,24.647923469713664,21.997642669800275
99.10443922002085,71.12040590702718,42.93640778533157,31.940587647207316,39.59459816531835,21.930567984428365,25.46259566573601,22.250179034399686
90.53981722394877,68.98464827410585,37.562955931404055,28.71346073753956,37.62582624700708,20.43788540037935,26.234343853229124,21.404500000614956
84.46381104446733,70.5521972222336,35.03167749579499,24.672108254674505,37.11521523188027,20.22404418413764,26.601484826670344,19.101662688162783
80.1185104545521,73.49457802859463,35.38016520139325,20.65485907252543,37.45527038769645,21.459627600290407,26.303129043938824,15.304118266127277
76.35955833539403,75.81867094291421,37.87158821756355,17.17940213968285,37.84027492362916,23.835101661737436,25.282951627892537,10.487449624268855
72.1666774085759,76.36132396976811,41.12753941963858,14.349905003781084,37.494675257671055,26.419132245826237,23.617208296280065,5.550483605167111
66.88937722356128,74.77751745287327,43.44389800114233,11.92277525567977,35.809149369154206,27.818350301872,21.347491764289597,1.4871738545095574
60.33894638197547,71.21612688933902,43.27505638999035,9.533105922286246,32.461129673811634,26.6886298310969,18.406696684239183,-0.9719907413207757
52.830170032586665,66.1236734441185,39.86510858660657,6.997229614756502,27.602655076810052,22.4265926695338,14.76242351741954,-1.5491318274748767
45.14141068953703,60.35775758964986,33.76448214333757,4.504784758528947,22.02618301928145,15.673194672161369,10.67857687938644,-0.3957284444181332
38.29609364926009,55.26325559837002,26.78552300497026,2.5464489725781476,17.068696157480076,8.255570898101332,6.827348840884136,2.0359187717532166
33.171357740843504,52.27132365980662,21.21387955321841,1.6099401588207944,14.130754695929193,2.4728623876610536,4.071232876020919,5.1063081367654215
30.10839706170532,52.13341561149526,18.686823595053202,1.8574028252342267,14.020472715395078,0.06008180133071096,3.0249314522353203,8.072143182476204
28.752365057346875,54.445727552487185,19.475325591859306,3.007409698153581,16.54529713152559,1.4180873865480852,3.720570307659566,10.213140754726627
28.223828744722713,57.94002703713809,22.585827684084947,4.4872214070914485,20.621633899311767,5.544769863931657,5.623402859207069,11.045498054270812
27.524878244779448,61.278400485957846,26.450968572358896,5.739966224988984,24.79250034266042,10.644519325940529,7.959981257410125,10.545204865601978
25.9623933550321,63.64726359489653,29.649055061918695,6.493787121942255,27.799844730993694,14.991328990400994,10.100720671244513,9.219989944792895
23.387119544810552,64.77374475644245,31.301031511378486,6.842339648167924,28.93164605990527,17.559662447703182,11.755327633827765,7.916614260999188
20.15573785578072,64.62126560961066,31.165018842919324,7.097099873405651,28.094979888071677,18.185640979742757,12.919850031361424,7.410779117874129
16.85644330792727,63.20764411536451,29.56007941209173,7.50047858332277,25.701684216821292,17.328087170248317,13.675914808908479,7.9843191149436
13.951023449220788,60.63541690773142,27.140192955821316,7.983417717910673,22.443842394574048,15.662966133452086,13.993475113332815,9.23321049437232
11.533946220858258,57.10988361738288,24.529307972902647,8.144207867103972,19.018135603058415,13.743775012617329,13.657690515313123,10.238326024880768
9.344965200927135,52.84450975226696,21.996565453407463,7.484713808599954,15.902638383039925,11.864700391227128,12.3732713891367,10.031611911985596
7.007216889419743,48.027426499919564,19.419786964711804,5.746687138637378,13.301257312019601,10.12876612455917,10.001753462911132,8.117982613557908
4.307641569940708,42.96766691436791,16.56301026066723,3.1060077132762496,11.262127263161862,8.6031378128672,6.786642653980688,4.773412530612394
1.3220578391567486,38.21751717994609,13.399456169167834,0.09289623869582635,9.834820982823187,7.413871843690757,3.3992602804409193,0.9618287147128842
-1.6732700579471942,34.38917884867618,10.200305734793906,-2.6848372481876086,9.119052439309451,6.7177339046380675,0.7388204454014837,-2.0827709727565975
-4.399653411222313,31.743397309658203,7.3860169994197795,-4.817961372414428,9.18698750558195,6.603283390129926,-0.4273595337912485,-3.404891911190635
-6.733633730336206,29.975401736726038,5.345663055584775,-6.2247286430116455,9.976474303525642,7.006671282965468,0.1881999355570404,-2.759441883399079
-8.74942070606509,28.466073428598875,4.340415563305678,-7.1184708035384405,11.238672434693925,7.676007158682022,2.2078731293034393,-0.7364214694776136
-10.66210952156587,26.758873331202278,4.4110928658958946,-7.87955630536172,12.544343968263043,8.173546505308405,4.642815566594621,1.4893498919706671
-12.717443012906953,24.786382864158927,5.224180300955769,-8.89296708476156,13.334330711144744,7.923094082164604,6.19157828603735,2.689729895641337
-15.065138538168753,22.677385926091382,5.996076017426914,-10.39168907888283,13.041137592786594,6.344204628634885,5.720345915539622,2.156518923228272
-17.659435594604542,20.415402375776917,5.6981845477380935,-12.355498291266938,11.295215204720048,3.0863140279035504,2.7717907528347796,0.032424326474507145
-20.24614719428521,17.675042704506083,3.5037699725396596,-14.51927312686525,8.124397022715344,-1.7205093920569667,-2.130808802866031,-2.7750214635552175
-22.465745602923306,13.883944069661542,-0.8332461026910483,-16.494283472011812,3.9886756058566784,-7.356032029997146,-7.593557129174581,-5.050788340911316
-24.018042245687287,8.41215013981287,-6.914010094796652,-17.927042623993497,-0.40208088491559574,-12.65359317625801,-11.897075793430774,-5.853068192496197
-24.773914631569745,0.9339220585748925,-13.85469729535061,-18.601416107895243,-4.3405961952076595,-16.354815784140058,-13.731974810010335,-4.916608333162136
-24.764983969772768,-7.950409121165105,-20.40910867317936,-18.464363044348723,-7.240291649859047,-17.505298742699523,-12.739804392085452,-2.7050002264946102
-24.10262176779987,-16.115024922033133,-25.018758445149334,-17.63891301965612,-8.595155907904804,-15.735451061051801,-9.591236106978439,-0.14843121667754416
-22.941446161509337,-20.037587060411347,-26.064020060898407,-16.46858229902503,-7.975318294918592,-11.380603333550853,-5.617505795622428,1.7505669825781767
-21.5287882578971,-16.157744742428992,-22.513419703594014,-15.528214734738885,-5.231257589839263,-5.45522298351536,-2.23772940931092,2.2569225522335388
-20.251536011316585,-3.042620461620875,-14.715071817428836,-15.481077908424657,-0.8165036799514167,0.537203546105676,-0.45698563413212584,1.0971639304443315
-19.562851911241022,16.937712024021614,-4.749125361145398,-16.76657677960656,4.075486528740552,4.990286964667903,-0.6006524376770331,-1.492726088800509
-19.78768025640414,37.69647489716383,4.052097856308721,-19.28924859774177,7.785799106010878,6.703062868663363,-2.3264361594874683,-4.840871778696512
-20.94064230717222,51.56725066236657,8.282489481805046,-22.350880241491662,8.804234024753988,5.293230937430004,-4.870047709882551,-8.0233076475514
-22.694726558739013,52.558211041528104,5.805791445885449,-24.92127088329747,6.412231808136228,1.2932202438010132,-7.4122057782839255,-10.13925154273074
-24.516445802393296,39.11388139918953,-3.3141128468021823,-26.09634422200977,1.0297351256396445,-4.113915863746776,-9.405796033541423,-10.613967875360485
-25.86885536635644,14.979153132363004,-16.683482836257546,-25.468992586031984,-5.899710300053755,-9.554389662848699,-10.72283151554321,-9.423864827059552
-26.377726082182292,-12.312436586751172,-30.363457246547274,-23.234486704267834,-12.44941593027208,-13.896204351564572,-11.585379837285654,-7.142260795922413
-25.921522265245084,-34.63397540893746,-40.34986229987699,-20.047988141409824,-16.968024746010727,-16.527082395255928,-12.360949682794512,-4.756362259160427
-24.64937951751379,-46.62429499665409,-44.18004979436047,-16.765840555608058,-18.741717843502617,-17.46205046681848,-13.34614901363878,-3.290701082326273
-22.930084757134086,-47.635956712108424,-41.94187562263994,-14.188038711656327,-18.25879416088868,-17.292144811757037,-14.62825978825303,-3.3708970490011962
-21.23872298194662,-41.46894075860262,-36.205155601453505,-12.86171895646361,-16.95157708113518,-16.9718122372264,-16.06373110855465,-4.929673595325181
-20.018485512046304,-34.26622922744887,-30.95336034542811,-12.975407096601996,-16.56142461646345,-17.47847534751874,-17.378839026219346,-7.226992224756332
