FZ,C3,CZ,C4,PZ,PO7,OZ,PO8
-38.84976428721545,-114.07452949432421,-136.3820244394277,-53.23565793931498,-85.85574674748302,-30.56034469943645,-46.76648137558774,-26.478814348560217
-29.505263253239892,52.03767989821646,162.929807155698,-32.65657573812296,69.22834302292738,-18.2115010917819,-15.1061806856784,-17.737280536916543
-20.51958727373521,180.92853398999466,391.08273341726874,-14.159401339463386,188.11289662373719,-8.147720613214576,10.111104235915354,-10.220648815025395
-11.762383787892226,255.84187414665152,515.5180937738082,1.531476194175214,254.3518717969977,-0.7877505857700708,26.215771845595736,-4.4244040304259835
-3.2030526101559857,286.33299850176047,554.8811395861891,14.539039955296257,277.37228345101397,5.313893611092752,34.88226641930089,-0.323211036720179
3.774601989022045,296.37088471533633,558.7793478966987,23.80059582607498,281.65192043607675,11.538461147614221,39.209309656693236,1.6412928387223458
5.898938596780955,305.37003211799885,571.9924549365642,25.864128177359756,288.401779427681,17.216462937411304,40.196003894220304,-0.05316934006863579
-0.5370787462296385,316.81878378865184,609.2359650845435,16.3723654181331,303.4420204576084,19.549062453366176,35.837943199259136,-7.333396708450482
-16.993491358500027,321.42444110502345,655.4382898448515,-6.44501841360991,318.5351633125127,15.68219810525277,23.53277449284076,-20.883425890177744
-40.79228008589375,309.75353037090576,686.1976037222141,-39.02751932730421,322.5853501174389,5.278710265031327,3.55608519550384,-38.84723800891302
-65.6518645336653,282.99195242911264,689.8878699315701,-72.93311472222675,312.601905541593,-8.505719296550529,-19.444472283538694,-57.04746729472737
-84.538429151415,253.51119671839484,675.0111356382121,-98.57414190481722,296.1629386239372,-20.49000923892201,-38.28945804561724,-70.7574994155564
-93.05887404537117,235.6684518125879,659.7365796241323,-109.91331707525661,284.5966810693924,-26.400083674263108,-47.18674454625641,-76.918887136496
-91.26184643535183,234.63090470522314,654.1038223548057,-107.11361345875395,283.1155293734297,-25.262336692100302,-44.974108713231224,-75.39505871796122
-82.8508695750472,241.94838415025362,649.6842943827086,-95.58896192703243,285.8455771410472,-19.694288213485276,-35.510611391802826,-68.5627117639149
-72.56414343428098,241.11008205606578,624.6558761531398,-82.34344058562883,279.4891322266281,-14.02487844075243,-25.110906312636796,-59.687274137892054
-63.567974027392104,218.9191868323418,560.2322413963637,-72.132647637699,252.80246269030093,-11.610514139499587,-18.878632582900725,-51.24920668001693
-56.450439935825294,174.57835484183204,456.1421722418754,-65.77278381415051,204.98149144734168,-13.11173087079275,-18.311093913637897,-44.22080513678387
-50.13553293304321,120.29097297219822,333.8039850924649,-61.237004347630034,147.0281303777041,-16.704820779705845,-21.464364954741264,-38.49038533938825
-43.728079075331806,73.25449325979564,224.79829506726279,-56.30364550842931,95.23395174498401,-19.847287651717604,-25.17826299832547,-33.83575969134181
-37.778113689462955,44.939836311004484,152.81136303935943,-50.647391053255774,61.504954824132035,-21.19626996424043,-27.54735655080013,-30.56958242476994
-34.01310179850154,35.28314614044059,121.79359257824869,-45.893863361925725,47.38430517798986,-21.281097059621036,-28.839166029237745,-29.348546213101734
-33.852250138964656,35.370601415391654,117.94595925176206,-43.863898320005774,45.54965009613265,-21.59424654987587,-30.432376753138183,-30.38952987354142
-37.02770288493401,35.45569265967418,122.24066602612841,-44.7092834476183,46.62536418710669,-23.065655346586787,-33.00785625130286,-32.877872365673966
-41.501036720563775,31.475697864836768,122.78108578723017,-46.59039005140805,45.434868481610934,-25.283101433141795,-35.69988342820253,-35.17822719494878
-44.69695783411131,25.64732058318992,118.50970528215834,-47.03794768439118,42.39000892431918,-26.989169778256024,-36.81431361653776,-35.71343560375142
-45.026349880021755,22.25548722706348,114.27085707215984,-44.72076858067475,40.43041805763482,-27.22782741327873,-35.27097380499401,-33.821521395863336
-42.68553278783045,22.869644624291585,113.30010980132909,-40.33743899468722,40.9714243659081,-26.164234165005734,-31.580029826149424,-30.0653929630538
-39.50352957172864,24.034610404871078,112.53514257184051,-36.38041829184015,41.64538445385219,-25.153957744640262,-27.912058604666008,-26.01969924018826
-38.13961585832418,17.997957994098815,102.40217064372895,-36.17296284541284,36.530839799855215,-26.21757522146717,-27.449078266305523,-23.771378284746714
-40.834614738655766,-3.715072287424248,71.06387817020843,-42.35524429787768,18.799071910292653,-31.098616725255187,-33.07097439382255,-25.127976785832885
-47.84208259522731,-44.06563959899158,13.03527782476351,-54.85676766735078,-14.28743803482608,-39.96486421233776,-45.31753689692894,-30.459310839528623
-56.170222531727994,-93.69604436771361,-60.43078111909004,-69.15980518068119,-55.598402794400485,-50.19366021886941,-60.34829243769394,-37.618617807841495
-59.80979023258928,-128.68645511151234,-116.47879366548234,-76.5416754471673,-85.79371348523547,-56.28399727753983,-69.66903623320654,-41.95364915140655
-52.14633083736444,-117.75924298260415,-109.23388962417133,-67.39946284592301,-78.74482140549698,-51.75240219525474,-63.060956131599085,-38.09082280414786
-29.669942365958647,-37.92177207679766,-1.8860327989557506,-36.510691641237294,-14.349059775937473,-32.52710050831024,-33.945539282791906,-22.874476017946236
5.288200839630602,110.0539041370802,209.33688966421747,12.974789165494713,108.1551031853429,0.12515581407241777,15.953557451681768,2.341528614657344
44.828754087983555,297.0985340838076,485.7156139284639,69.78988908084597,265.57302304801004,39.25667908778956,76.01289522626368,31.73348985895459
78.9214821171327,476.836180160461,759.6769583533991,119.38921904198959,419.2216110526656,75.05563732767344,131.08058140464593,57.5861889927804
100.04738108177669,606.4308182037047,964.9093825205093,150.64028819639742,532.2400294069988,99.29490419755295,168.40871257252934,73.91464325968121
106.31873553142937,665.1171030168514,1065.395650764417,160.44310053111803,585.6416473905417,108.81518458265538,183.0764497183125,78.9838265548263
101.43522903513654,660.1344937634198,1067.0376194553141,153.8348325467869,584.1338716725297,106.15116298048741,178.96501262843742,75.39883098940301
91.9209197647409,618.3011008635061,1007.4429210094687,140.1190432556175,549.686441725208,97.31023245760271,165.32132631041085,68.05830071797577
83.65007664006517,570.1901476372145,932.9254137544132,127.85655670798506,508.3381884678114,88.40367324212536,151.55770577112395,61.493999920243105
79.66695478926289,536.785969315828,877.4473939079431,121.62900941796522,478.58707383322496,83.15753821266756,143.41464278880315,58.14690422872586
79.99523070455858,524.5516247240948,853.4801088868514,121.6516282077042,466.70727764076616,82.28521296831916,141.98961732935277,58.147427459978644
82.77529815111448,528.3372135624548,855.139597953097,125.34643555583887,468.8619071521532,84.34341911265653,145.05249229233124,60.13071403218735
85.67608419540315,537.7918171832001,867.5086620700146,129.37082063816868,476.4527210814218,87.09154898196833,149.152152682585,62.30161584689978
86.98142024544076,543.4121114926644,875.9673056737562,131.2081199719399,481.31855255182535,88.65130334575083,151.4280039221592,63.28623582073333
86.21452052495927,540.4950140470556,872.474245653579,130.09531714511246,479.1853659213831,88.23255056045082,150.73387198275591,62.64645175660199
84.2059313205567,530.3700467163503,857.79907810222,127.14717793588659,470.82533439365,86.32877180602058,147.89810587585583,60.967412339464325
82.48831658838637,518.5551812059061,839.269754590214,124.51404753446378,460.6494372744182,84.27619403501475,144.97465912687792,59.41981840777286
82.2386014300679,510.56535014200466,824.9631883677973,123.88364859031061,453.2944031580345,83.32262448562818,143.76833431455563,58.95945001646914
83.43987838173186,507.902251342385,817.7694831753307,125.27888527620185,450.23633343173697,83.76734083563898,144.54623021260298,59.66945154639089
84.88798564731538,507.11970483617324,813.5805832441299,127.04712635919257,448.863397184874,84.78536429846575,145.8732285998233,60.71916917274089
85.02519944368761,502.6506192271405,804.9786457757884,127.02880971319603,444.7024562358645,85.03966014580624,145.67606939600785,60.940043550767065
82.97783742670258,491.15528595471613,787.4355344482949,124.0208679010229,435.01766541925105,83.59210320070429,142.71720983638394,59.5759038226175
79.17848124772038,474.32072621257953,763.3969085777259,118.64323155755244,421.1712347136777,80.52734787427782,137.52619524486317,56.77066111588266
75.37829903456233,458.67511320070656,741.8611043603621,113.32981021075571,408.4518915118008,77.06126609537108,132.41067254116012,53.658751904499795
74.09761504339768,452.8356941307754,734.153051934352,111.53677742022322,403.73524625852986,75.18248277972137,130.6403212887574,52.0720658688388
77.49655508206189,463.04267610279726,747.6193894246826,116.17597059695854,411.81532053097544,76.83055613829231,134.90883862628783,53.793164743568994
85.77301257739317,487.8521348315297,778.7622310308388,127.42901147400302,431.1945922363418,82.62510839405458,145.27380287819787,59.36709529561142
95.80022332374335,514.1008806239106,808.404052949785,140.9088926539449,450.9533782389914,90.59969812574968,157.43602481775136,66.96450595942602
101.22429985994425,517.8039288709592,803.3310259934744,147.83618710416042,451.51973061047397,95.9215887336568,162.87193978992943,72.23173101910835
94.76425012262831,472.5208879651656,727.678650474427,138.24517825469562,411.3780128732445,92.39961230195365,151.82070838960925,69.77687223555388
71.96198497368836,362.9215200064461,561.2333602820088,106.16599494128597,318.00547400186485,75.45691318100384,118.24760396369298,55.85844419234268
34.25150518691446,196.1396606104,314.85867038489556,53.816361979615465,177.14977769955374,44.974837423581384,64.02796603373442,30.775610383097305
-10.763802981671828,2.951957326428424,32.170525288199315,-8.121154119649148,13.963499790632243,6.14297327792821,-0.5249808634060396,-0.6344454055803154
-52.326420169720414,-173.65680676331394,-226.1649635780037,-64.792337756886,-136.14435865977853,-32.446423123736295,-60.61862817744631,-30.902749313674352
-81.23156475618751,-296.9876956721582,-408.1919460643712,-103.74814917259397,-242.59865794968994,-62.48758712045712,-103.40943850107394,-53.22287564639689
-93.54131596719773,-351.86584806031135,-492.2909609669967,-120.025666143834,-292.3346131107083,-79.33485043222576,-123.27049464473164,-64.23659290895772
-91.34508414234394,-348.2510674215829,-492.6742880032344,-117.01324222985112,-293.07159876608654,-83.24527249353837,-123.05815466100378,-64.81839497369423
-80.60080239698738,-312.32769032574726,-446.90324686205275,-103.22714421207434,-266.18467435122045,-78.1582504186819,-111.18992047843429,-58.756214496141446
-67.84210720645068,-271.92606986508446,-394.78816975605577,-87.60849550467094,-234.6409967942458,-69.2330922765809,-96.90575394077031,-50.526445007018815
-57.75768371751692,-245.42113379752723,-362.0373360824926,-76.22807005114079,-213.6418630756943,-60.80040718770831,-86.6652316989992,-43.59112468965462
-52.43336655186389,-238.80198733950647,-356.09691853672865,-71.48512756257078,-208.1169295397508,-55.52318192792056,-83.058831719357,-39.809310391267225
-51.72447786238959,-248.96873179006846,-371.65523013331403,-72.92004170249278,-215.59838727623668,-54.41548662497602,-85.57065650793939,-39.60184912365939
-53.9344473918582,-268.3944584265388,-398.2117291392481,-78.31310525157028,-230.29036299943476,-57.0385066943455,-91.81669556385536,-42.29254277030301
-56.54025643565895,-288.3702951529969,-424.8382874129253,-84.61012651029063,-245.75455147960818,-61.71900071881871,-98.60457049474346,-46.46355837557906
-57.10644559338354,-301.23653049529685,-442.52923849956767,-88.91877835987572,-256.46410167497714,-66.10138920624351,-102.96272610193806,-50.46156265253402
-54.279323233831434,-302.5212591794128,-446.1210170384487,-89.57234556106089,-259.17263556736754,-68.1154675629427,-103.19526536044411,-53.00903176627623
-48.38397261265036,-292.37657819963147,-435.66080561675017,-86.74909723395588,-253.83409983993934,-66.8988872378504,-99.51004150036333,-53.61072219761822
-41.30021695350756,-275.2459539506961,-415.9268449018116,-82.28992502925436,-243.2990022115442,-63.12569982888654,-93.82090248930346,-52.56869111659937
-35.78371491553761,-258.1379404640675,-394.5288995593515,-78.96445393636318,-232.10803246662488,-58.65375121229137,-88.9399265165871,-50.75986737480329
-34.55305864269694,-248.82453976550624,-380.46691281335296,-79.57359071055626,-225.48687880177366,-55.787469624311974,-87.65366784077754,-49.3645538836553
-39.1846250615906,-254.07397729993684,-383.22887926997953,-85.80742251597786,-228.57270736272704,-56.361050536122576,-91.75500830906766,-49.425558417418564
-48.8070240544575,-276.61732885329894,-409.8390047753703,-96.66299332645191,-244.49133235098788,-60.66811150133635,-100.78250329137587,-51.04098454720668
-59.168941405202226,-310.8583622479733,-458.5535183481172,-107.08604931722144,-270.80543648582886,-66.53613516203585,-110.80389299827513,-52.497790258192886
-63.21334342301209,-340.6419590862235,-513.1706459340617,-108.42616336856565,-296.80396531768224,-69.34101516358253,-114.51483589709719,-50.22091198556493
-53.78361434641944,-343.37921930573896,-545.0191884152737,-91.74700943870184,-305.5094252602599,-63.63740257311343,-103.76248903800091,-40.187641140117194
-27.488380878681344,-300.83209545298524,-525.4493005929435,-52.86675060502757,-281.4825789722861,-46.00818563957801,-73.87417833710735,-20.342925037863232
12.61011979973507,-210.7611741902863,-442.7200536062626,3.973928014181069,-220.3986878397535,-17.5161158638602,-27.256469987441548,7.51016963125935
57.536138777748796,-91.25800677525213,-311.8284719271969,66.68447361606054,-133.75207536941534,16.015656130189466,26.444099940359898,37.82481034294509
96.25976919534884,26.31877980794715,-169.42469758933066,120.40634985689529,-44.669838582098535,46.40737248547977,74.29059389492541,63.65127585642708
120.74852962945667,112.24170675708316,-55.965766383473444,154.31272413585603,23.195018507495046,66.93469911720113,106.01272660948644,79.89154341687814
129.2610053729361,152.19332169459895,3.980763539101,166.11457840348456,56.94168118526406,75.29371705020893,118.45089531251074,85.50110375608239
126.10232055959939,151.77878672260303,11.279286600388176,161.77886980475296,59.06362630649124,74.02085324969069,115.95754657146713,83.38188743517951
118.37162752281927,129.9891767001705,-13.134918439275282,151.10973845613955,43.2994987175283,68.36522916320878,106.90686034183823,78.25928955929989
112.01399394362944,107.02728552756753,-43.16990459693426,142.33067514677649,25.400356604667397,63.20689873044308,98.87638716654789,74.07519603258066
109.52197562983726,94.61719598095746,-61.422933292936435,138.90522732982828,15.183485443433764,60.959616991920385,95.48416501089983,72.47539415767227
110.1225583642844,93.62532155024479,-64.34903211532183,139.77685769398403,14.052130826801756,61.37826371157415,96.21599476708117,72.94523282914216
111.61260345429808,98.06681300277684,-58.62707840356047,141.88944365325514,17.65334721060209,62.8055069737688,98.44438173502994,74.01842889518396
112.37652908927527,101.27411381479949,-53.65216649122358,142.96711642182493,20.539160044008923,63.74202236400802,99.88532680317132,74.59012884437341
112.54074204164016,100.62415507720694,-54.85494477668067,143.1185153910324,20.01978939333969,63.88815625624736,100.17772680721025,74.68017296133134
113.8793567095845,99.27431525683376,-60.047620238561876,144.74739998950028,17.956824929427942,64.32984085101415,101.08899709035258,75.41935541728361
118.50749600461829,104.40207794624988,-59.90728788149333,150.81149164767945,19.963098729651545,66.82338039546313,105.30559875046445,78.2532610729438
126.8279284507315,122.04127340113544,-43.48362635637783,162.02686308978315,31.75383851036619,72.35602034775437,114.1464261294642,83.60466178236256
135.83740270462792,150.49926594014946,-7.329268887264817,174.49464414951336,53.81933836465019,79.64490854589711,125.29089101164448,89.69137631706506
139.2187715296661,176.77908073148774,37.22395738347541,179.71824007951045,77.79314060135496,84.68729865196423,132.2438094775546,92.47816956626261
129.8810620131075,180.20153241707655,65.39744210499468,167.99081363316083,88.21202750301005,82.16620804413479,126.68855177744612,87.27051687403507
103.90605340070218,142.95666116171384,50.75068754060928,133.7998965654219,70.14717382761678,68.28920713493531,102.95183822909286,71.30441144030068
63.50289160940375,61.56264670352681,-18.95419208422372,79.9722382438153,18.4501426370086,43.37139496991322,61.91758424732277,45.74310514575342
16.855680412627176,-48.710069551089184,-132.6025217711563,17.592684243944657,-57.74215960386323,12.333090975472253,11.630577426715583,15.659865789264247
-25.320911230199545,-160.22651857893496,-260.3057605809174,-38.65298377862188,-138.84153975689557,-17.435107320214588,-36.12520096864378,-12.133993838292117
-54.50470515563055,-246.53610866662007,-369.1546208705807,-77.00455226854508,-204.79388970563767,-39.58032315406802,-71.25539037662179,-32.10399224160276
-67.53727860389382,-294.30017335671766,-439.3959259717293,-93.10639351935713,-244.5512461277128,-51.437603195158914,-89.40783388716007,-42.01138233428806
-66.60822969287449,-306.0181942696407,-469.9317690362903,-90.08891830880019,-258.7350313554141,-54.23201475023481,-92.33444600727695,-42.8986139428559
-56.720040319947664,-292.92199428501414,-470.40568449938945,-75.07006961974399,-254.44493502784744,-51.06937951113663,-84.98698186137224,-37.5182209202295
-42.8971597371079,-264.80784140993865,-447.94702492611907,-55.18057108021358,-237.32435486137393,-44.549997857146266,-72.04281175600035,-28.695594486787027
-29.033183134626707,-225.24700224552154,-400.6746512591096,-35.81817047016627,-207.84152921253192,-35.878163867876836,-56.50221327281796,-18.802044179603918
-18.399287171364726,-175.0650681563365,-323.41563801677484,-21.293200079711557,-164.52597378364237,-25.803400798995547,-40.746376575252064,-10.226245401529765
-14.280127932587709,-119.30197693948803,-219.6750929426675,-15.805222354960529,-110.41384582983159,-16.04020494782287,-28.12545471648609,-5.7282521903551915
-19.372005436812994,-70.05230076458871,-108.15317903001203,-22.799706528978657,-56.12997517927268,-9.502059270625203,-22.8766120268061,-7.780066363402083
-34.13060181757567,-41.78135470774362,-16.913956813571023,-42.829268816399,-16.182638711446206,-8.919437924288017,-28.018067729923484,-17.14683747509566
-55.577479576330475,-42.60165165706425,31.201319737949685,-71.91004813649457,-0.977258436387151,-14.949262096817959,-42.94556554199084,-31.887311250157243
-77.94157776346512,-68.49452705265203,31.284911473608418,-102.28856636425346,-10.583167681810938,-25.37256998236427,-62.90612459841963,-47.801407815044406
-95.11694885244312,-105.09494784958302,-1.8154332191031832,-125.69242808617001,-34.847590899294374,-36.11672695146847,-81.09118381244542,-60.290054108856765
-103.47671894941179,-135.79414541200032,-43.27749410386553,-137.14604761065175,-59.586886897795004,-43.42474627316858,-92.05956120406603,-66.51174668163819
-103.2500613620076,-150.30511166877028,-72.14781979060784,-136.89839285086143,-74.23149766676747,-45.66209104615003,-94.19567852060285,-66.47326908061468
-97.6970692583404,-148.01878960231448,-79.81902609010916,-129.3547855375055,-75.78969798822206,-43.624074285349245,-89.69580735307957,-62.466332578050526
-90.87882490102211,-135.0531002865126,-69.2182079374646,-120.0487507240489,-67.48026812386848,-39.42583353263279,-82.47743351624955,-57.43644141027956
-85.64064726048022,-118.68402465632707,-48.34211567916655,-112.86661392474721,-54.58520275515617,-35.04933518937689,-75.79824373481176,-53.48756398356122
-82.90514635920914,-103.6947629467533,-24.607089449535867,-109.0613988146471,-41.28189406231491,-31.5729293323905,-71.13195954285845,-51.34062819125852
-82.16148597252753,-92.08473543406566,-3.129113444464399,-107.9238327748036,-29.981291236187495,-29.254933196682902,-68.46048709508153,-50.668348385062664
-82.32627023222257,-84.37300218038068,12.657284470021114,-107.97254619528212,-22.002524075298112,-27.950074858484907,-67.10099414912364,-50.70685445064612
-82.38383242496872,-80.4751654040191,20.683765630298854,-107.83615881004131,-17.989717469320464,-27.38960403575624,-66.31253675354498,-50.71710106139759
-81.76063151106719,-79.89919108914262,20.666803486685076,-106.76665268521965,-17.842105807138694,-27.29290706144513,-65.60567914404307,-50.264537886901984
-80.50852549614817,-81.8662566346039,14.267798519613633,-104.89389578606452,-20.701444135380736,-27.433717895331263,-64.8980485020043,-49.363098051522
-79.15111234476875,-85.17710665921038,5.0193554078287415,-103.00906364273266,-24.926514764801887,-27.595508535832646,-64.37208782080805,-48.366592958885924
-78.10791804101308,-87.28208575188222,-1.1325689184290977,-101.73550182769627,-27.592437831948455,-27.32334911408831,-63.890214817362605,-47.547326942158826
-77.08401196542324,-83.40961908197256,4.508140286218566,-100.62263480483917,-24.101983841300363,-25.724951735772102,-62.40657744966151,-46.65889043553611
-75.0631416244696,-67.91684192924731,30.714563563136704,-98.0906138853235,-9.595856659291107,-21.800268449804225,-58.20576079148656,-44.95581199389843
-71.0568319865033,-38.594633704936506,79.57331917709655,-92.49618995651652,17.257145561328052,-15.364045825374328,-50.19245826584473,-41.7660795369924
-64.95968416838123,-1.113040302291504,139.69237278751743,-83.43440638132726,50.46988323212627,-7.855372227311556,-39.2770030385742,-37.11539860169259
-57.66616965488388,30.954625167866386,186.42110309176184,-72.04942484766876,76.89506676335114,-2.0963543717314215,-28.473946049030168,-31.77562958227976
-50.29664392384399,42.369136219149624,192.34788618996356,-60.0542611787678,82.01736023363152,-0.800733766152017,-21.291325203450103,-26.64546789462001
-43.237570970534925,25.367087153575127,143.0844365999872,-48.38126619308863,58.4712515143205,-4.732176782185545,-19.47525163477317,-22.013306991635947
-35.86107733323144,-14.60660652741266,47.9021791475442,-36.67664946009613,11.553791988955386,-11.851672867760783,-21.78725397564209,-17.35803066109652
-27.170114792024442,-60.9271200204551,-62.775697666179965,-24.04398817287907,-42.4433877516705,-18.176746774219083,-24.735874058774492,-11.864592372099787
-16.835294618036933,-94.59754038232667,-152.32393176868047,-10.358698655407355,-84.44470540872717,-19.901805336473178,-24.75540069447984,-5.237610422253556
-5.770651061166611,-104.16574414420047,-196.1066108000761,3.0052355435284777,-102.22007167617896,-15.463275276212375,-20.315265822677134,1.8446486113377518
4.2502468384979695,-90.45000393229397,-191.65334655397817,13.73772530816357,-95.43049113382672,-6.275297397541178,-12.554874585403768,8.022608591045246
11.659657360296956,-63.71053473297084,-155.5360356607705,20.066200652515654,-73.5049873648138,4.21593065182661,-4.188679523883206,12.087658164199825
15.986731270385224,-36.345393211129114,-111.0585632241963,21.937180238256378,-48.84152493929121,12.400879449529716,2.2944320494518218,13.705356893405062
17.901308229793997,-16.64547505936744,-76.12313160503571,20.9561361807968,-30.44958780169011,16.110533626612828,5.805888526145098,13.510601587079872
18.537784617264442,-6.8707287121436265,-57.96773444480817,19.288689244037965,-21.46022806849737,15.251818402396873,6.7212275528781165,12.64286654429822
18.808734423029506,-4.775857048081023,-54.625422249427466,18.57751160723205,-20.18278750672265,11.534359371559969,6.3355016071674,12.20923384013202
19.18898842055856,-5.9489566314571665,-58.947727522698315,19.600185177657345,-22.3986306173867,7.654988717468845,6.315357751767929,12.9991828489499
19.797310345354234,-5.740805869405445,-62.37676632341219,22.42165463900782,-23.4694297706967,6.171105050901181,8.16637663759267,15.3429889345394
20.386182619540293,-1.188902833781125,-58.45728426973392,26.440201472295808,-20.296347142738266,8.290543543793463,12.501951194756588,18.92070572605858
20.274161179479115,7.215653088088419,-46.027428267619996,30.324928708642492,-12.968268220200079,13.123929082121109,18.414773156678752,22.668782032046405
18.624612627383474,15.493589979031173,-30.036311104912045,32.41344425859629,-4.863774156281461,18.048019234933275,23.696225246516054,25.136879081209816
15.174842909568182,18.90116184725357,-18.191465358367054,31.760959250310908,-0.3546854146594879,20.225150759650806,26.15303490998809,25.30824616902109
10.878887776866424,15.837766810303178,-15.141270198522896,29.12252779099768,-1.3746135084401785,18.394860339207053,25.197579780450173,23.34877160450762
7.788211153895481,9.765746908779096,-18.6788594336385,26.905867174523994,-5.539302080085957,13.732573868048325,22.462477319682037,20.66212859618265
8.090941202065695,7.506422344595939,-20.890173615847246,27.93347357655874,-7.333045437565376,9.235550852478271,20.943250440751747,19.143710731199278
12.897278068611628,15.277930303972102,-12.942510791210088,33.79657504983686,-1.3349361308559895,8.107665950024082,23.286907278669748,20.10155563669701
21.434930545116558,35.075823710517284,9.946508096611982,43.720550441859324,14.69913754472433,12.086371612990797,30.236043670988167,23.434134690636565
30.960426985582092,62.85251705575835,45.39063891283538,54.37402505279929,38.15680769418183,20.440275527767508,39.87060139152224,27.421088164514824
37.49078841914452,88.78057180878487,82.82367923344597,60.76965939367097,61.48248063577978,30.001983754016777,47.95010948490987,29.298068920152737
37.472872442052385,100.20806852313949,105.518828860614,58.43731913535879,74.1457316568836,36.41452957592712,49.6350754991043,26.68152396887212
30.167406941841268,88.03461808624135,97.60056086459203,46.61441367699096,67.46187747237691,36.45222061912686,42.50216257231356,19.52329504348196
19.629075900734485,54.8743324813305,55.42053184835443,30.96732705464043,41.35479395240514,30.52681651400754,29.616595265863,11.568316504308378
14.536427883677147,19.760690559443155,-2.9810129014574382,23.438881870933336,9.05535378300443,23.776335237401852,20.35682511908345,9.935436664837994
24.854664207315952,13.631446538420658,-39.27280311223277,37.750422664439164,-5.230459315100504,24.40320400796927,27.217215046423455,22.19105530518532
56.36741707699816,64.84097600805613,-10.883848183237033,81.89831041191768,22.92908361765521,39.47722259068857,59.2625050433281,51.96311829228088
106.03610823523762,181.47778402255386,104.87460921639475,151.69104176322637,103.76831165797192,70.30057727351729,115.63678179962682,95.54365616414144
161.29968027008726,341.25876760182035,292.6598168439326,229.66932417348661,223.79085441225533,110.17957251596779,183.29889179638553,141.8375205784972
204.44936693907152,496.653827582173,499.3274989657128,291.06890458075515,347.9220719629738,146.35091405161631,241.12266088819663,176.29472734307427
220.28808180011853,594.3964557092542,654.9146098039236,314.4293450687718,433.69972186244877,165.47739825271847,268.8702921926478,187.15682336648402
203.22853872205584,599.9602077191422,704.5932904512099,291.5437146667443,450.75282403776316,159.98628434773198,256.5789716375119,170.88250471356795
160.06799400471456,514.1388490701197,634.8809707056545,231.48215554249168,395.35791737835996,131.8767068938686,209.40454414379934,133.89253153394776
106.90844828250478,372.7288233781868,479.9160744546702,156.46841500312624,292.1858458370855,91.89831915846615,145.2892420018806,89.67003903587779
61.81903005330568,229.3969164589638,304.3456258475874,91.74202056478153,182.24549765758601,54.50560647173205,86.66735013096732,52.71309755953673
37.069413458341515,130.9235305263422,172.19046893274975,54.702671115551354,103.55355789087771,31.282900316240504,50.58775265471299,32.46138848051307
34.821967330076035,97.87669808776675,118.52952986708205,48.787175825809456,74.85513022246548,26.278379294358782,42.29651608881124,30.18272544301687
48.05839904225976,120.14334798971394,138.5483197274911,64.62696357551502,90.55402308208265,35.452114169037735,55.13501423636631,40.018759198786206
65.55153193390989,167.8233969708388,197.72996649200564,86.88952126529755,128.17335280941674,50.011817254239546,75.94067860964127,53.064397799876375
77.73221859609525,209.45914063928157,254.6280791005786,102.4272989768726,162.5301036511927,61.34156118021695,92.3141963982903,61.93694918007558
80.46832437329697,226.95355443760604,282.0417771105265,105.55004268863813,178.08498582915195,64.80783540724612,97.85122957117711,63.56209200466049
75.58211284443273,220.79130175207462,276.5529939255297,98.75564622430103,173.90372979756907,60.955156153645326,93.47662179121347,59.38977691515561
68.77681464499365,205.8684523913881,255.28200146558697,89.85200991712193,161.02890657785161,54.255291426047094,85.4229843183129,53.680506881130135
66.34737708051475,202.01050601531716,244.59258715265574,87.40155571070196,155.32408263412626,50.44005673212462,81.45273034854729,50.993068613335794
71.84999012853339,223.11923457438914,265.83281715620086,96.12453485907872,168.8778965537326,53.454068832547875,86.71411935145845,53.772315344066875
83.74573153470615,268.0312440575696,322.05942279827434,113.64859306916931,202.3568666760569,62.97832218423193,100.41460636493242,60.73403045809841
95.1441531187845,316.8043063486756,390.76722549288377,130.15381713672514,241.28467493676138,73.63796359372493,114.79297537704792,66.79130141216035
96.38512932335941,336.23072331156936,428.619024046155,131.96616278191883,259.58398580533844,76.80294047720868,117.68826632897998,65.0063801916964
79.77336757671034,294.67168113337266,389.965231509705,108.19213535138634,230.99639338947793,64.69179877093731,98.33927682656486,50.04831414251023
44.09521058390134,179.7228391454891,251.6874279300515,57.10206317938244,143.58007377830023,34.81539718466493,53.638208421625976,21.424338649212288
-3.859033267488387,8.238922096575912,29.930186062692137,-11.665239909461897,8.772335443565783,-7.915621218323312,-8.979431624459277,-15.53021243395836
-51.975135882158014,-178.56642856351385,-223.00808438251298,-80.84220112693038,-141.43626228239808,-52.94848600659413,-74.17391474631827,-51.74480128830405
-88.32496905523352,-333.23405573408866,-441.497287615031,-133.3354700913995,-268.52572491762675,-88.87744719193184,-125.63022998103493,-78.52253288910875
-106.37800486847317,-423.26382572668194,-576.3827720150374,-159.6775365815952,-344.82802694211256,-108.53623533219712,-153.32767714860847,-91.33036703361032
-107.07823778853327,-443.49990651186096,-614.7953120035617,-161.06818688534332,-364.418704658863,-111.569905085232,-157.1034088379468,-91.20390419762884
-97.03026970452437,-413.73985983177755,-579.8832771691583,-146.8671232178366,-342.1058035729819,-103.36866208045096,-144.96491751331092,-83.27529935056579
-84.40398324906907,-364.9442634540209,-513.3142473219254,-128.77552115966148,-302.7034243486593,-91.50408755255891,-127.87376371863519,-73.67798744554328
-75.18952370159109,-323.55374978067965,-453.13519560075855,-115.45014078957348,-268.1498426064451,-82.05054980346391,-114.47401989803492,-66.79497408548688
-71.59469124660173,-302.47042951977664,-419.6917304154498,-110.14766486435015,-249.6908980303068,-77.68867035607853,-108.46481688156305,-64.14616562994146
-72.62813707708472,-301.0645445129189,-414.1900058420685,-111.51278173583944,-247.44712539549923,-77.93165227056053,-109.02637654855434,-64.89448692025705
-75.73004137889062,-310.75468755657863,-425.79913572097166,-115.90316641070544,-254.7612563865535,-80.5490869738857,-112.9067350161082,-67.09249806030931
-78.32874062124895,-321.32804533933916,-440.4274401780279,-119.63026907029047,-263.3431725062301,-83.07675262164945,-116.57399045212316,-68.83654325501304
-78.84515139020782,-325.37664415315345,-447.1311015605727,-120.40860467641203,-266.9574859178528,-83.84876607808961,-117.6682478254127,-68.99159052088525
-77.08636932295643,-320.45129242247566,-441.4828305502437,-117.92716068963507,-263.2944759448267,-82.45687535385161,-115.64498994402062,-67.45905649226545
-74.01581587994679,-308.9910627200492,-426.00438534571214,-113.53473798946875,-254.07641468046182,-79.63649007272382,-111.60109562699385,-64.98548706853224
-70.99376280118068,-296.0733957303245,-407.5131486010094,-109.1709695203279,-243.36863312882485,-76.63826341441843,-107.35422846522192,-62.58682897412879
-68.91711340069334,-286.0394971305301,-392.4708669530747,-106.13946477164929,-234.84011836985528,-74.41751671400108,-104.26429236040666,-60.91226668247998
-67.84054100791714,-280.1902965255479,-383.32087735626425,-104.54795559561485,-229.74524761533377,-73.1744558157723,-102.58425082450196,-59.97895473122738
-67.2761082425416,-277.0853192315805,-378.3767036592929,-103.7135590454319,-227.0078961063794,-72.52014714133037,-101.73087136044947,-59.412221424066026
-66.76333967621474,-274.6532695145703,-374.64609554574025,-102.97209721662516,-224.90825546954588,-71.9891793983702,-101.0414595975099,-58.87417049817955
-66.1435399019258,-271.82948653618297,-370.40803464899125,-102.08326095193769,-222.50659201101618,-71.36739406967664,-100.23063439109343,-58.25780486709166
-65.41611335869425,-268.4628959310895,-365.3616453114581,-101.03731694691062,-219.64908485634186,-70.6241799285864,-99.26243236749747,-57.56735458701135
-64.5292406664177,-264.4023826347253,-359.3245963929926,-99.75385594609429,-216.2135965044942,-69.71265841469288,-98.0524010118667,-56.75890999139158
-63.40633056884141,-259.3008222008789,-351.7972227451167,-98.11339941786731,-211.90452176917813,-68.5570970351945,-96.46892473821026,-55.766129657293476
-62.095246685866854,-253.25489122085196,-342.87120844173154,-96.17707170482603,-206.78591319834692,-67.19413382895117,-94.56034980675598,-54.618784023017604
-60.7575700217934,-247.09101618469126,-333.7986966669222,-94.18726019869057,-201.56981374221596,-65.80150143004272,-92.59912538824089,-53.438430489845125
-59.496264198609055,-241.69059874071596,-326.0511906527304,-92.32506990548552,-197.06361283135314,-64.54048313978106,-90.84127592896424,-52.3116605115613
-58.30104403328273,-237.24043444002376,-319.9807695105417,-90.6112181644175,-193.4629127364202,-63.440248980357296,-89.35068508398314,-51.250047672302976
-57.23017487160741,-233.461620553332,-314.87616928445703,-89.13525515280853,-190.45000747326316,-62.501301099491826,-88.14713686219842,-50.32015478764153
-56.55590828664022,-230.4254783996691,-310.2552713387742,-88.2505363271146,-187.8987718957797,-61.85098994472695,-87.42047846399575,-49.735864122254135
-56.55772053298497,-228.59154199387865,-306.4245190513655,-88.2939973403381,-186.05617936723422,-61.651637181711784,-87.37410972891837,-49.68509359489719
-57.08293307434045,-227.715780530288,-303.3338777168929,-88.98912276256507,-184.7729353323018,-61.77753642027807,-87.74800018176207,-49.99832804770582
-57.37144451367106,-226.02126324283665,-299.319283541205,-89.22606545986882,-182.81570014274934,-61.65044985903141,-87.6153335337505,-50.042166943998396
-56.45336165035213,-221.0940759354584,-291.89922141729437,-87.65429091209178,-178.4865142706912,-60.54218333827958,-85.8913106000672,-49.060460898923274
-53.868068894142404,-212.07336084884182,-280.3741098511705,-83.72141807955235,-171.28782461235954,-58.17147616727332,-82.25322219202039,-46.74941619237484
-50.155977768367784,-201.11811323842437,-267.5643969316661,-78.3530143744813,-163.01521087378413,-55.09845808594672,-77.70103299928053,-43.62968895957908
-46.80119102016269,-192.7226768779573,-258.6592115447667,-73.79449647229376,-157.09596417676386,-52.59508772623351,-74.28329635244916,-40.96208029717444
-45.67727691078766,-191.3352796669208,-257.94878250927917,-72.70843236845394,-156.60052637443218,-52.07129622858733,-74.13974209398232,-40.252820040744496
-48.15753020262837,-198.66334447751717,-265.7316736333486,-76.82422245414286,-162.1960227717108,-54.309783677357736,-78.28255658199363,-42.49660350504604
-54.026700220327314,-211.48091137831446,-276.5924856956516,-85.408732756144,-170.75917675817993,-58.69408888025238,-85.43947075573676,-47.30551711892341
-60.561354634892695,-220.294170669424,-278.8325197869048,-94.10048425992741,-174.7419430557503,-62.66012410366221,-91.3387729589987,-52.24812956364179
-62.54101288633881,-209.93409868249356,-255.39487891574848,-95.13428207897236,-162.80113142137552,-61.84264438169471,-89.13225731774288,-52.990093686063815
-53.867318661902296,-163.67374646542459,-187.93771569219314,-79.81580431970907,-122.77212538829149,-51.38279672438702,-71.56876770690039,-44.702032567980034
-30.525568463928852,-70.84323056360672,-64.73494064339596,-42.77844543083887,-47.11359131811139,-28.226937110095513,-34.5252828796699,-24.43335514009818
6.604909477982199,65.33612261950779,110.49025704482005,14.12584471502543,61.3909658028124,6.680918689587513,19.852475591193517,6.774604992166286
50.981906516761555,224.8211562373178,314.46944186307985,80.93395830912276,187.39455446970797,47.76786606889577,82.55128746513456,43.482598803132326
92.57145909033513,375.9899054502494,509.4258962760112,142.85366923810733,306.7498259180391,86.50626434776937,140.5717589611877,77.73445084202784
122.0522193917085,487.62452129676427,656.6038175814564,186.35214480944984,395.41622252973787,114.75554327186228,182.10893585863963,102.37309202514166
134.78640685450105,541.7696220664467,732.0826549273675,204.81652642217514,439.27141886825035,128.03720388541493,201.3115001869222,113.96424670164701
132.38298393651104,540.5386174524742,736.3592605868712,200.73187023326082,439.55412959788595,126.9944396094574,200.06746398596766,113.72788534891413
121.22985203780902,503.4051596696775,692.400277141409,183.52257295975576,411.0650594542768,116.43783107868578,186.1312080417161,106.20173802074402
109.24882801350799,457.4374850175089,634.1309976936986,164.84814427196633,374.7774016012691,102.88552751421352,169.17220639461945,96.79541792868532
102.85720666104012,426.7111260833992,592.9802020236613,154.18519802154276,349.6426066134696,92.17412399764291,157.21242471485309,89.79119712299723
105.25777398388625,425.62992310257107,589.0462723378421,156.32310832585293,347.39042694347967,88.05735905788373,154.7845905555436,87.4764754196786
115.8386726635727,456.20228513557424,627.3310884555455,170.4896560433394,370.39309675605773,91.56078083634898,162.3279136936961,89.9583677885973
130.1211408693957,506.9474568584697,695.7027905604183,190.29711194942323,410.6109618255352,100.53756812886257,175.84869516841414,95.02470592512242
140.4687585795239,553.4527091337962,764.1833898515869,204.77833507783177,449.51280896721835,109.63221810841218,187.07294569063765,98.23037708252764
138.30940806115328,563.8114970866782,790.2863075657928,201.56819809921922,461.7340549220382,111.55456593549548,185.42058999821313,94.02223066595901
117.79954199720663,510.76123237648557,734.2383617142486,172.1516163419608,424.4181430981575,100.01444502049196,162.32248347450047,78.1585372582891
79.26458969122312,386.2382180647487,579.5608443286928,116.82650130195111,329.21343057106543,73.13688261139797,116.11072566212327,50.33235930909021
30.097665862204664,209.3283547975604,346.6284945902448,46.06209082284201,189.59880770439514,35.194067010166414,54.27782612413712,15.18727707888391
-17.95417862254625,20.828931478166275,88.31760699298516,-23.322892986636873,37.51345095096617,-4.796743039498893,-8.959478339867285,-19.297726995603554
-53.87239216718374,-134.03903214564195,-132.13847193119227,-75.42918284997556,-90.11400412297705,-37.06818633023396,-58.83609571832021,-45.33198370141528
-71.98997162690168,-225.28603971704166,-269.0172212410884,-101.95702577515124,-167.56037554704892,-55.42809269977734,-86.47495940547468,-58.71686869187943
-73.65052422808323,-249.17660304587938,-311.8906377319646,-104.67832125881668,-190.0868862917785,-59.48586190255046,-91.97592875919072,-60.213512345593024
-65.33281514305536,-225.3929245794055,-284.3857127238103,-92.82559044749519,-172.5027587433113,-53.78643233950144,-82.80453399162502,-54.337977174521434
-54.789852373073046,-183.7819592693835,-227.10450746057137,-77.57144248818214,-138.8071604659604,-44.79678849628314,-69.05045523099538,-46.63926798931446
-47.60648033293781,-149.58873583345294,-176.62324485932982,-67.04270196921286,-110.01809690303442,-37.764352882686445,-58.6628191910959,-41.20301631896321
-45.769935729966996,-135.0292066665696,-152.28494646190006,-64.19821872146964,-96.83661279971169,-35.06624641752275,-55.064834170189776,-39.56968743601729
-48.26070006350897,-139.3398318357341,-154.94255494580065,-67.63156592922282,-99.26065368522008,-36.357176365733174,-57.52129662278322,-41.10459233387077
-52.61107160457169,-154.1264822499227,-173.84240708907606,-73.80642030778628,-110.75560329635077,-39.75312278201623,-63.03320564033101,-44.07993024478852
-56.39043062699834,-169.50197657371922,-195.21599679565995,-79.21074755630775,-123.26441334762484,-43.121578964380035,-68.32997728309904,-46.73257546670255
-58.15330630281805,-178.43087120822327,-208.6053770854573,-81.73702684602935,-130.83798292784417,-44.9939456902787,-71.23651926539713,-47.96861752231354
-57.782246704753504,-178.76248745814368,-210.0641449553715,-81.18464315224588,-131.41649123988142,-44.994196116170805,-71.27570557834156,-47.6509056664666
-56.23131729256836,-173.01138478991564,-202.32448840323573,-78.90176790370316,-126.80439150456233,-43.75649297050277,-69.48853224853029,-46.44421853774562
-54.791513350710844,-166.0808104192348,-192.0247764924574,-76.74178382854105,-120.93886167626634,-42.374437528969835,-67.56263236897966,-45.286402477502335
-54.29191402251834,-162.04871750570973,-185.24424901180893,-75.91621686016397,-117.26994491691838,-41.68270369980512,-66.74245807985515,-44.7928161536073
-54.76234713532815,-162.06016424496468,-184.1506078403502,-76.49321208928109,-116.91097138752242,-41.84996754937749,-67.24102282013844,-44.997477838759565
-55.71856019371911,-164.66173171971454,-187.00748940711344,-77.78699258581206,-118.76933749445192,-42.52517247563257,-68.49352221829841,-45.558521107613345
-56.68890515823918,-167.78893531059302,-190.8612192477476,-79.11123456152409,-121.14132099278177,-43.28633448730923,-69.84961160826097,-46.1429866788554
-57.47488608577895,-170.31496026840452,-193.969407889709,-80.1682791470068,-123.05653307912283,-43.92650481941673,-70.99930499061044,-46.61189773332599
-58.04601830567931,-172.0404343111871,-196.01284318958236,-80.91167811440012,-124.33767489392348,-44.40367110637991,-71.88705843750996,-46.93735300179827
-58.38436244716578,-172.94404511923733,-196.98387233054407,-81.31998703896373,-124.9700021388901,-44.69079629274912,-72.48259272279269,-47.09246214018033
-58.52437745632763,-173.02161609050347,-196.7882480197275,-81.442454127302,-124.92005822578489,-44.78644291589882,-72.79716520404214,-47.092934714362215
-58.653686932585586,-172.74011726677404,-195.90988104514054,-81.5417628880115,-124.51779178796954,-44.82162984090288,-73.0389181626975,-47.07848852294002
-59.017106720626934,-173.03813532025526,-195.62947701716385,-81.96670671728562,-124.52247358340249,-45.01784941354116,-73.54020282747761,-47.236587154495695
-59.66834900951545,-174.4749676306619,-196.9212796651634,-82.80271773448813,-125.45138765273553,-45.471274024448164,-74.43156420300983,-47.60908832412478
-60.39035096756349,-176.53965702117543,-199.28209199201004,-83.7494273142386,-126.95190111455129,-46.031016263360726,-75.47046233844299,-48.031711404350276
-60.931700950589416,-178.16521551426382,-201.20142600827074,-84.44652314522705,-128.146983872737,-46.463480188336554,-76.30218497970054,-48.31647384053362
-61.2937916038346,-178.96637815915278,-201.92836513957275,-84.88490405427062,-128.6584480979132,-46.72617169134161,-76.87260506921112,-48.46955259440499
-61.71706740630216,-179.69287069796536,-202.38303801935263,-85.39999108779618,-129.0605055665116,-47.01397377483858,-77.48656036316282,-48.67647522407218
-62.39048675652005,-181.32824606411506,-204.04940945549552,-86.2647606755255,-130.18784783129158,-47.5222442983347,-78.4425957241166,-49.078497688590886
-63.25082093066224,-183.96618270475216,-207.23750790022373,-87.39637380376811,-132.1670559487422,-48.22657277205529,-79.70364320328355,-49.62276660851401
-64.09455823506846,-186.80257312476658,-210.82556058731728,-88.50515438000781,-134.33832971029435,-48.936650611774354,-80.98306696933416,-50.152066920910976
-64.80524076302142,-189.0656122481999,-213.5731379578168,-89.42011583097559,-136.02265144611283,-49.51150235646059,-82.0653611879668,-50.578054455203564
-65.3835526342154,-190.57218092407382,-215.14206704822993,-90.14297424691661,-137.05055279100148,-49.93797138332406,-82.91675497214287,-50.90031051402806
-65.80018505319183,-191.35938124066163,-215.70124699134072,-90.64211846037158,-137.49479481610757,-50.216808899849,-83.51708757047905,-51.09307796203056
-65.97916552341249,-191.3165331849399,-215.23077876280874,-90.81729159151188,-137.3112554875261,-50.30666656331607,-83.79421495966008,-51.09746173296772
-66.02585243632818,-190.73322514531262,-214.0608771873582,-90.8112535528787,-136.71517808121328,-50.2876352354365,-83.88789289792031,-51.00059284301095
-66.38987614066656,-191.1021791136404,-214.06013934654464,-91.24477265378337,-136.85509604065095,-50.52773377424474,-84.39658529039964,-51.15768047067779
-67.61343016101263,-194.63210586037403,-218.25475526095198,-92.8753332319425,-139.50486902884109,-51.5137771435472,-86.09633054487098,-51.9904094999337
-69.78599913010002,-202.23220750670367,-228.14811365017843,-95.83334265028269,-145.46145324256094,-53.37500613632184,-89.19361411990934,-53.56271497978517
-72.23786342727873,-211.77267570692385,-241.0600898177435,-99.18230842326004,-153.06330498117208,-55.55201153000182,-92.8126754872929,-55.34745922369514
-73.82990274946211,-218.60355292415647,-250.52917532660013,-101.32028060266036,-158.52823246619656,-57.000072115415094,-95.30785278328216,-56.45555368248952
-73.64343031340665,-218.29192540673807,-250.10927673838495,-100.95617082704602,-158.1864834378319,-56.82363579270349,-95.24284054805356,-56.171697678360644
-71.58688567843443,-209.64687595019112,-237.85766413102004,-97.97124887505649,-151.02210132845855,-54.88956528669065,-92.35604022262518,-54.42513901828241
-68.63998706504037,-196.23659127551264,-218.6451737612567,-93.75652678895982,-139.94713813139285,-52.085472725777215,-88.0040450940913,-51.982554665757
-66.72120947754185,-185.912219073214,-203.41756071312793,-91.00806614339037,-131.36438597869386,-50.17530587841517,-84.98183021328909,-50.348492593242966
-68.11131248185397,-188.3665502845373,-205.68258678702682,-92.90691276534311,-133.12834549844897,-51.24513624664221,-86.66198343185985,-51.31276226411415
-74.27137133915808,-210.48001628369494,-235.16295707012674,-101.47168903766524,-150.80173641316108,-56.65030454525389,-95.29494739166707,-56.01783672685238
-84.28403123650986,-250.09762407213339,-289.36751866496064,-115.39536743828022,-182.6929762987578,-65.6405232107821,-109.77410711924443,-63.73467831585135
-93.89013841379666,-291.4908982519955,-347.1778394812154,-128.70973663393823,-216.18720212684542,-74.46303189917639,-124.16415288556848,-71.11584277073945
-96.30735964914575,-307.34600230153603,-371.0905854168581,-131.93538683493333,-229.2624521709495,-77.01131342642965,-128.6941303808967,-72.85044772185107
-85.07800142247207,-269.4371950808774,-321.6183521701771,-116.07273415814275,-199.06614127865484,-67.34447563842569,-113.73625413392011,-63.90210213707118
-57.631296016521716,-163.86031886299506,-178.67638602463504,-77.5930036929786,-114.33388434611065,-42.97929302348949,-75.05886288961067,-42.293348783086536
-17.375944168056456,-1.7916853693377612,42.683869589626646,-21.352212333460052,15.728483698547109,-6.932374319174852,-17.178877080809258,-10.730041918348801
27.19558689612661,182.05020572184867,293.8003834927026,40.71178177170838,162.6453711870174,33.01791526728836,47.636188657743254,24.11712307035719
66.09931080912129,343.7999459360721,512.6316764345333,94.67056706570344,290.53982956466103,67.690419357927,104.56353263861217,54.444068953882166
92.15528228795391,449.9255894041984,651.8313252235049,130.64361890420682,372.26704159929403,90.60911036557864,142.7629021633311,74.69354624488183
103.57660330754194,490.6146136658466,698.354837162675,146.36805583269594,400.4769111872042,100.47844321061315,159.51128380679117,83.57957498793382
103.6204657675817,479.99140459087255,673.8955467566585,146.5827984207965,387.6468236817163,100.74338267727937,159.80510301539977,83.76660132076282
97.99823419687446,444.81174662154433,618.1821989048075,139.2681328674279,356.44025566382066,96.89076081787293,152.29916326046805,79.7466395371582
91.95274207199839,410.07448238752,567.5223016875032,131.50325342587954,327.52660427300674,93.46547105497523,144.5748945688965,75.45528778822782
88.56561681169663,389.9550491826552,541.3749795063176,127.18672040417336,312.03975635068724,92.51121195444325,140.45226912033087,72.9321889825207
88.55369031110978,386.737462100123,541.2682448859717,126.95450206926182,310.9763988611005,93.75149912038049,140.00218889962736,72.28870581361262
90.89142586631552,394.803999518546,557.4997846272772,129.25814055391584,318.9219009575982,95.67508584405999,141.12416898919494,72.4408154091305
93.65696900081952,405.5739857177422,576.8699834260284,131.63848216177573,328.3990323878242,96.61900275502627,141.31188781898035,72.01518654710573
94.93963381824801,411.4881763154769,588.2655016993893,131.91910765288057,333.12800408301916,95.52011784048291,138.9733604294056,70.14016945919269
93.68616500908189,408.80647687938426,586.1736416103249,129.19987065857003,330.1558012552362,92.33028158457836,134.14812324804612,66.92938877182853
90.09599829649814,398.656046444564,572.0304362605649,124.20926581962658,320.62421566540525,87.9767589405131,128.4024334179973,63.406288145930624
85.26925476556764,385.5121183506689,552.3641796687147,118.68278973821617,308.545933838203,83.76070606680597,123.81872132038008,60.83156052577678
80.4017682376037,373.8647021433614,534.2827741844122,114.20385463931366,298.0527068478258,80.5155143632806,121.65807476208528,59.88543558082984
76.22611112822914,365.6585631262126,521.5614886031414,111.46920963104675,291.1314319213163,78.18931258601864,121.71761972651417,60.35808383813042
73.05328714657604,360.46433751612454,514.334501295732,110.44526788147608,287.55165657625855,76.187517804229,122.85022203945526,61.544219781113114
71.06563342867567,357.47605095360404,511.63170091182377,110.89244930800554,286.4255233704441,74.06682537070702,124.00136788576026,62.85310762389414
70.32135878942609,356.6532184768517,513.1003494529978,112.46887539194057,287.25329703856966,71.87136105803562,124.70586920042346,64.00802302336389
70.4603226347874,357.78579185393033,517.8543618677331,114.3793455789101,289.3435389796558,69.89492171527525,124.75098457395708,64.76588855532496
70.61760064741772,359.06117428642835,522.4541568803967,115.28176553775467,290.7930137983301,68.31126630204653,123.69997348234563,64.65392196703277
69.8673008962559,357.35828180787405,521.3810352737042,113.91421493031183,288.8475770337224,67.15141443540493,121.01059020059233,63.14123481834499
67.88455630017005,350.38035860712245,510.4655831917734,110.00638291829985,281.75883779949896,66.57435709314997,116.65043625681292,60.109942067250586
65.24389920656431,338.69710503681506,490.3907601108988,104.65447742541522,270.49060783657075,67.01714291329523,111.51913501143251,56.165184239833074
63.15531253196494,326.13004659312065,467.5345081402577,99.88877595778219,258.8934028336165,69.03140421621055,107.27722404986667,52.53307669958819
62.91627798968469,318.6095399482928,452.05378575454,97.84529896374079,252.48098968806497,73.00533259166947,105.78072736203822,50.64941578629784
65.35832132643112,322.14899454822427,454.3760959599372,99.94211558792247,256.51544265510006,78.96176660570445,108.3986283419425,51.60384550236356
70.2913959639404,339.78681773565614,480.2554440930366,106.05111544816438,273.41801818018087,86.31819748187168,115.17529017473974,55.50044771711658
76.00651782866868,367.57121562057335,524.4951341038144,113.73845797126354,299.5110748965006,93.49598793918247,123.90347504964551,60.92181150581747
79.3173420467292,391.8689168001295,566.3969857049708,118.27626553704452,322.8083291035583,97.73328240403386,129.83919931097356,64.98741454524783
76.69165723424723,391.82203469861355,572.6727785275326,114.26288127033668,324.9913446237654,95.74751190205532,127.04799637353963,64.4313954257354
66.25904674854712,348.3880250965547,510.74552997303545,98.59384818856056,288.9713344596561,85.37463071459362,111.37992044537364,57.410655003080066
49.4506827943002,255.8496072254093,367.18000159403914,72.99460367997955,208.8470212802591,67.29030312835012,83.43645679533495,44.92921734621331
30.862902103889382,127.96627069246391,159.39227653818403,44.01092030684477,95.67210850571941,45.436898157860064,49.25919726030425,30.71425722475012
16.055840714644116,-6.723423924377933,-69.06710957946981,19.923017503174318,-25.97039113314764,25.483736033046423,17.75096119269015,19.357363311490484
8.57592970384128,-118.5967642000532,-268.69131390961553,6.3655832977544025,-129.50675094515054,12.07004640839723,-3.8182190737417936,13.825244883392076
8.21988762026661,-191.01940262055072,-407.34535633686596,3.5963385350136226,-198.9084401467351,6.582114417820581,-13.321270427340423,14.004022871980668
11.786231634055026,-225.41373756854472,-481.40190969482114,7.340705371751579,-233.94002270756963,6.968713624186474,-13.926774330542555,17.28476744156013
15.777918656398015,-234.23206240506343,-507.6811453711189,12.581185741291687,-244.84200962091901,9.700308524274774,-10.857619926628372,20.750256387644466
19.02693596027171,-227.72971450404484,-503.3224117062141,17.42031427124928,-240.9616905394392,12.412150973076518,-7.213879692245239,23.33039020332486
23.230850759634766,-205.1426432660482,-469.83917734305123,24.046687628884204,-222.4294291331779,15.270551488058901,-2.014596648890158,26.31024885365133
31.041230911472706,-157.15346966089015,-393.94614695137335,36.13801009617907,-181.38980425347694,20.15308327664806,8.181713842620976,31.87256563523345
43.330098677277036,-77.12884680296985,-263.78197961655763,54.937338495170806,-111.37336336186075,28.510365047830945,25.609697491680546,40.91656904845646
57.89589275010315,28.628355097904812,-86.40584056849778,77.27841997740805,-16.696402175915427,39.7654699779771,48.675585118230266,51.91664766987609
70.6302735297004,140.3989739346602,108.44699403880243,97.15306691074302,86.11795029894952,51.50373670061795,72.44241845045623,61.669514182459984
78.15825200814899,235.00765002846663,281.9759573324137,109.5116941898008,176.28520021966963,61.13164832480347,91.66487836219422,67.26287492799918
79.8471700704196,298.4611367599834,406.865073424998,113.26810034796294,239.90900577723067,67.504805992812,103.82543410112906,67.71983222573269
77.6609203199659,331.4251935381357,478.8546347436981,111.20356604024751,275.68117752905476,71.13845862783069,109.76005162126079,64.13338329897378
74.0778074028738,343.4641869069546,510.65816662374533,106.96287118067669,290.89116393392413,72.85139108868664,111.50360018859531,58.33755496168937
69.8301951591297,341.0490984685454,513.8129668299237,101.65635183874893,291.34715374097806,72.06466945412674,109.30812131433257,51.3020845117391
63.35281613593808,319.51334136838125,483.9822579427549,92.90047416840277,273.8429817136897,66.37521709588727,100.53243533215247,42.602706946677856
52.41179360601897,266.0366883501098,402.55963527253147,77.13647705950792,227.81360490383838,53.05251721749834,81.58903115502383,31.368421879286046
36.577159013154365,171.73838381569138,254.102562119847,53.36721847557257,145.29779067933399,31.494480973309177,51.55518328358412,17.832773263053994
18.510379656891725,43.44516120244554,46.04271875800984,25.291418161798816,31.44036108509356,4.7619098711571395,14.567676577743665,4.108045788812996
2.9994236050798593,-94.30345322049543,-185.17885472205825,0.09653882446654977,-92.93360696959748,-21.12723399340351,-21.048414269860086,-6.538416393050205
-5.581632527809565,-209.25411106255785,-387.5039058493782,-15.26576905494552,-199.3353813263281,-39.87262343184933,-46.55355332037445,-11.413397924773172
-5.593781455314628,-277.09267944626487,-518.0525959800393,-17.719316670196395,-265.2664506638245,-47.88385978225965,-57.03776985264202,-9.8833106014477
1.268505472173055,-292.71587810293966,-563.3911450981136,-9.272965351471381,-284.7566132504926,-45.76597301520578,-53.474884172122145,-3.613957038054631
11.236359228558797,-270.5954143256367,-543.005964929766,4.613677062454273,-269.52367618727857,-37.570599909527985,-41.58345816532867,4.447076330208107
20.393469772855962,-235.37605116580923,-495.531888096242,17.90678152106154,-241.07559961732207,-28.58089195231147,-28.685130450242557,11.445485133250022
25.878661783945653,-209.6610889787987,-458.02422734958674,26.0402072344272,-219.60330045285676,-23.13274967541534,-20.752640377476435,15.383395639805697
25.9959274471817,-205.76242042963204,-450.4660393421805,26.385731721583007,-216.01402145382974,-23.460102511298906,-20.977096375076542,15.10212029445047
20.03291796593336,-223.4288129908548,-471.0736363773812,18.103991304570396,-229.58283447841345,-29.462480545761007,-29.538486364077045,10.150975144990472
8.653696970210655,-251.50752850208818,-500.2945877856626,2.562081175114277,-249.8000449297302,-38.79914945955239,-43.60837787678917,1.1669235795422925
-5.350745223953319,-271.51701770319124,-509.1299162565703,-15.882672314436885,-260.32854457996234,-47.19489295056905,-57.465944763351075,-9.49290661015551
-17.123771864451214,-263.26770973261085,-469.58157617967345,-30.219536638486762,-244.47765342254445,-49.470685151315635,-63.65034207407016,-17.833080122636147
-21.427508581144856,-212.7884961765485,-366.0932784361004,-33.25851320119561,-191.9280738581575,-41.58123046074795,-55.75259863128177,-19.635533059710372
-15.326207366407456,-120.04087819473014,-204.5943347877884,-21.32560279875016,-104.62119181710916,-22.9103795449974,-31.86085931165468,-12.660146995346018
-0.11051332716817656,-1.6602600147476876,-13.785692757673914,3.2347723842488874,1.7642632983389386,2.6718231230430693,3.5442534011175524,1.8054356227327741
19.032240334105772,114.42058618161656,164.27106071392228,32.72986029091238,102.91416438104197,28.050786370677457,40.922402493131116,19.24336621790939
35.59893034277942,200.74122749643456,291.10069671917466,57.84420103801559,175.8838821937595,46.047608630138214,69.90048747069063,34.03936602923468
45.02926467884617,242.3121323327097,347.8982515328739,72.17877661862599,208.92764034315363,52.82753217392112,84.07939101990294,42.19477517117997
46.617732953650474,242.0585702411716,341.9877774026897,74.82458508626034,205.70428239282325,49.558730857903,83.63501561172686,42.997924241670844
43.06471745134262,216.85411941268853,300.1973303659164,69.64688022411835,181.6170618309599,41.40153194424741,74.34639307614805,38.800996702802955
38.323519943126044,187.26254214994302,253.65933762128284,62.25886395834903,154.90741047516002,34.5744734308924,63.98266753253822,33.32016259784542
35.391102703539,167.76179423527716,223.6070784865711,56.976434620019575,138.18331449556499,33.31661075037216,58.44828184405038,29.67221994197528
35.30367581129048,162.7421563588486,215.81360492111884,55.453444414719016,134.93005390010893,38.32260035231096,59.71977272340515,29.187677353468818
37.41995375290009,168.57598750696707,224.16329165727015,57.055607648577855,141.37980223806844,47.06132175529964,66.02538587590047,31.28938497968088
40.28589100005132,178.23151621938578,237.98825731803248,59.98319999227412,150.74660068805088,55.35978608465599,73.44207241589646,34.15065708166736
42.471400786751786,185.1107584086287,247.86210898293885,62.346580630320524,156.83014070000343,59.3639325790365,77.90789264516123,35.73565263816329
43.205638677992596,185.3244021498316,248.53285406466733,63.021033604320735,156.1264695265521,57.19197242542737,77.02516719934279,34.865620082371926
42.7319488487558,178.9099342027232,240.1581820383459,62.193956355728155,148.84430191704467,49.74231566361946,71.13493340091208,31.869713430245064
42.140138174004434,169.69923926268683,228.00125083963047,61.224628189654666,138.6856643994214,40.228928595726096,63.07071323565827,28.3852246128473
42.58072560120602,163.0275499981624,219.48141938239664,61.617216827780396,130.78551403090594,32.49726994579561,56.463822095441145,26.30630137663524
44.3114244716629,161.99756827204695,219.11887389274676,63.70345265392678,128.39434748479206,28.976011148611246,53.513026895083904,26.545427380871462
46.34277619281096,164.96357476421363,224.80753820953817,66.12536873134194,130.54086818741155,29.52446124580033,53.74566828605842,28.501409360597826
47.03610090587148,166.47693709088878,228.78719404832563,66.64649818757495,132.65324954955787,31.878501366724436,54.63927548866282,30.58501953763621
45.22322352005097,161.11047179488423,222.90345012737052,63.69947529361524,129.76383514781287,33.270109847667364,53.54018068704128,31.323664463053195
41.07100176426968,147.33851860430943,204.2553234979401,57.57086124857987,119.92466106120268,32.09908130679426,49.47396334126167,30.240298529382507
36.24660187032857,129.14919516364336,177.71823257015973,50.60319566223607,105.77484386250538,28.766764363355414,43.834497322127234,28.072312504453123
33.40178803597186,115.0261927703875,154.7394014866221,46.46965923516706,93.88717267234303,25.456559852564954,39.8381061861439,26.40851632466649
35.087830984743924,114.79510551239453,149.30083699385807,48.7003914519918,92.34417247674783,25.042467676415907,41.0428613118628,26.94551094435286
42.188184545186836,134.48286792746939,171.2776028661338,58.55294648027635,106.67199180829833,29.38619302631458,49.20147155584647,30.45058392586332
52.34866081453272,170.0688112656892,217.86335740209552,72.82780073508796,134.6944105130674,37.540759885003084,62.03161325415306,35.67648885242737
59.524478140614136,203.54535846265313,267.1411449426558,83.15670965042271,162.91791443708854,44.88644669364215,72.25779840622035,38.923597826174316
55.72533856928092,206.10830287516958,280.6258073811685,78.32696653514233,168.45835873897093,44.28229791964181,69.43231115216452,35.03765193428824
34.77903279116651,150.14884729767067,218.31044233576287,49.49764066743317,128.28014565261734,29.30934135853394,44.63319578899343,19.85771450223821
-3.7885451457704415,25.01207240762941,60.63165864635664,-4.287895034747148,32.09001290246619,-1.922759848400086,-4.1646336877879415,-7.091195546557119
-53.31203172623854,-153.2171511627965,-175.8309781490638,-73.91156800169983,-108.96465644855415,-44.79257323868908,-69.46704185265023,-41.447135446401845
-102.30631505449257,-345.46914871339874,-440.5977900243669,-143.28515926380788,-264.35937826178184,-89.5655239551453,-136.56592143967288,-75.44332888181131
-139.49604098545873,-506.26984204186687,-670.3657354813652,-196.38219686635867,-397.05411130899944,-125.64162791548843,-189.89094107287184,-101.31575504862221
-158.70507725397067,-603.9670136603427,-817.4193922815361,-224.2145138246069,-480.0724556212519,-146.25556859322853,-219.84523107929851,-114.73242139082268
-160.8591349635425,-633.0005199411099,-868.9750057450166,-227.8163969374843,-507.24308556053467,-150.95675796143618,-226.24141524383015,-116.26752208089746
-152.29151090062606,-612.0048567994248,-847.2233446342569,-215.983897480047,-492.5211692020133,-144.7074479230423,-216.74406836607125,-110.2785426471836
-140.8774719819412,-570.7664194241066,-792.5659744107461,-199.84727280622542,-459.80802467368454,-134.6113403815344,-201.93072860596413,-102.22734671108108
-132.53979112934516,-535.31405897614,-742.4156598574718,-187.87414366158626,-430.66367776513687,-126.52273322706371,-190.3340689723127,-96.2436422350645
-129.78249945034008,-519.417203342518,-717.9416951842204,-183.7137959193984,-416.9308094519985,-123.29901737309235,-186.0048176573202,-94.1051129341568
-132.15264168933572,-524.4083276429548,-722.6992381333662,-186.80566660813537,-420.2324963709611,-124.92558512258807,-188.81862596413717,-95.55137233295036
-137.4848314137157,-543.6361813230594,-748.5138493971555,-194.14317167871425,-435.4978083660978,-129.59334559244564,-196.09387059920297,-99.11991216836263
-143.02909830614428,-567.1766045094693,-782.1348847524746,-201.88616703785002,-454.8318236058713,-134.8080724988672,-204.1743994488788,-102.89733933134241
-146.31985106214512,-585.2763986594554,-810.0232825412285,-206.58802614439827,-470.3265596398458,-138.2583883011891,-209.64211907854659,-105.12340741254853
-145.92326163168931,-591.1065188089057,-822.0869673386261,-206.22923607490793,-476.2743905441907,-138.5302132873902,-210.3444111599329,-104.74882221225434
-141.94154374188784,-582.9381602151118,-814.8314834627641,-200.9036228866063,-470.9607657361535,-135.59242865773504,-206.13757313620133,-101.82530144460777
-136.00587217833836,-564.7983583546091,-792.6506085136562,-192.79562014983216,-457.28277633325024,-130.8106606693094,-198.97394628105684,-97.5056955980039
-130.7505120781588,-545.1351031410752,-766.3306758425952,-185.45414397314667,-441.74978264258516,-126.44945907631175,-192.25070573346352,-93.65590466064222
-129.0068328579415,-534.2457202429231,-749.7110254749055,-182.71896391871476,-432.47571124515486,-124.90818948219486,-189.73716610017863,-92.27783183421282
-132.8148404738986,-541.1671008751398,-755.6997434367017,-187.43876355237498,-436.8123790182331,-127.88276571802643,-194.2948021435683,-94.82201254321402
-142.17443209050845,-569.6635622057115,-791.2002708631381,-199.82220052436494,-458.325491137573,-135.4258247567604,-206.30620971114817,-101.31220424710804
-153.83164655766555,-613.3668904624267,-850.4726885093611,-215.74512084796208,-492.9430166749549,-145.03803848167723,-222.06402238266665,-109.47169148796371
-161.11157575234233,-652.7979153227077,-909.986503780197,-226.36969814588852,-526.2243123457112,-151.48043245501438,-233.3004851698709,-114.58289988546787
-155.8508230609867,-658.8275693507746,-931.1799772653724,-220.5896171330777,-535.4603164891275,-148.17577768576103,-229.3134584567113,-110.8573012827915
-132.23606536186495,-604.4144802685825,-874.9445921846017,-190.16996031831368,-498.5044303756038,-130.20512959357808,-201.74931369045925,-94.18152694663708
-90.60383128724628,-479.9271767313569,-722.8681658152535,-135.0132694153243,-406.05162317922077,-97.45812529477536,-149.7796447834985,-64.82659268918376
-38.612335829423685,-302.54942086774184,-492.48488304342607,-64.99007353019913,-269.8554824408831,-55.79492138541885,-82.24785331215568,-28.25264391664389
11.483020744636509,-112.23006215782601,-234.86127583897303,3.520235112350494,-120.44908114543395,-15.01064113422626,-14.757733285649985,6.8786482968952525
48.231346508762975,45.162175610230406,-13.401939208564619,54.85089356303592,5.707350154962702,15.552845902388713,37.131678049122364,32.56926114852469
66.01172683008471,138.2594626160758,124.709106917555,80.93101837573832,82.63900079325003,31.24839236499293,64.78440021018382,45.015024904090346
66.82770941649203,162.42940913040988,167.84400779278704,83.89954960118845,105.28863840966082,33.73187463123411,69.49510129328982,45.77306853407593
58.13061795528787,137.49692914342685,139.5885775648905,73.3430380839451,88.40945046725417,29.163336185780857,60.220773565680055,40.0982697989013
48.416499786067796,94.07758456266723,81.26854928813827,60.45593977425966,55.961415428795526,24.405882448959044,47.98617884489298,33.78019626557636
43.39372884350077,58.10306673562911,30.06510485058091,52.912487041281494,28.607270034491865,23.686598767687432,40.63656836590869,30.5278773812964
44.54593460244924,42.12900753969504,5.490170658233933,52.939802453280954,16.473287635863915,27.445266504360667,40.61729560513921,31.157757244409574
50.00531538686672,45.50947775814706,8.368616258372146,58.46127427224818,19.146233597224686,33.363558085367316,45.93073645229864,34.38891950457909
56.45441435515322,59.73312661128308,27.725359539152272,65.5425604920947,29.971892272000805,38.33755960493063,52.60653406740811,38.207390209679744
60.90255885176332,74.34923886437291,48.96197577698882,70.59838359341464,40.823440947385905,40.17345958997788,57.02871519993227,40.9660587777655
61.87632722120975,81.47684399401618,60.21626452452014,71.83133703659779,45.63643323634156,38.49645439606694,57.44719005034578,41.99705552671109
59.881998069570066,78.68236060161153,56.716688768286794,69.81314507395832,42.632629211668174,34.829670241137165,54.56974814025871,41.769632369295486
56.952426272427836,69.60104088080386,42.42648301581376,66.97801716001916,34.848862385961,31.84463445779859,51.06927047776619,41.54049093834796
55.32591600885269,61.40995776938125,27.38431618697354,66.0228308428635,28.205279049159518,31.934972176170927,49.99995225623053,42.53404143009192
55.94303911951333,60.064749664900006,21.296024316329472,68.04258273918485,27.681446950638662,35.75084331040058,52.86508512261943,45.07878063540043
57.77918362423789,66.41168478952939,27.39085271149774,71.70951782439448,34.04004887317893,41.62231089427727,58.60706490379079,48.31267099996823
58.48562386583722,75.86399252220306,40.75573046187053,74.10647839529867,43.38996298696446,46.333916067267715,64.23180718658665,50.6759487583288
55.830681143690015,81.33485947601865,51.50473900718548,72.52627706205838,49.50877793456537,46.772975498801934,66.53211676874575,50.78749962834065
48.98549095687951,76.88268182190653,49.652707808563484,65.99026966760914,46.906061364600305,41.44818967590933,63.712190365717454,48.11740616507282
39.083292459164575,60.269914553432336,29.165792380249513,55.825748316669745,33.10060878944326,31.187176648036175,56.18323665728867,43.22744199422694
29.03328550969917,34.569463922283894,-8.660070704322939,45.410024455472076,10.188213220131463,18.958679538291353,46.57754861186638,37.69005854615475
22.659013162156203,8.962396394656832,-52.305547997520094,39.22135307258387,-14.161533514352111,9.013858207815046,39.126983311076,33.70022457727856
23.12298521661882,-2.870445320069805,-80.40218322796296,41.03252514435089,-27.677715555488543,5.420110046493223,38.18795094126645,33.1900634500126
30.967517719318696,11.564829475954697,-69.06309900775885,51.487553305375165,-18.109242109506155,10.188705739020099,45.91986512231325,36.53115034324776
42.867617963144774,55.4983299479772,-5.088520879273428,66.40413069473323,19.571758553850458,21.782295039334088,60.18361608757014,41.585619190274045
52.372314777016506,117.89387919955394,102.83675497807269,77.56328911390592,77.93552331340769,35.149789092078876,74.43049771203836,44.1183164433744
52.82812646842286,176.50666019461042,224.1437956875876,76.41440384909441,138.5140755640234,43.80139405565987,80.45504484459309,39.81547927765897
40.997216706798994,208.577949095159,319.8414133764901,58.83741590976166,180.28599797829042,43.031467168291925,72.77593148391935,26.85742271541231
19.08578032232213,202.84445717776876,361.9420349290659,27.906633105028643,190.37108479991622,32.39287276915372,51.91346105551931,7.3374193727510555
-6.213835583572647,165.1941887229033,346.8271198520564,-7.310239183005357,170.24493126585824,15.862311135588142,24.350623093938143,-13.529956287678493
-27.12708485826235,114.5336759277415,294.61848050886164,-36.28850209894646,133.76820868270605,-0.3917639931095221,-0.8574314036321933,-29.990346233240693
-38.55632895787989,71.92738260941496,235.98570353830738,-52.13263317230479,98.76069510703232,-11.21084166189149,-16.675896629389637,-38.523624631434316
-40.006959381177445,50.14900110074063,195.63423732943428,-54.21819405742762,77.8065616837305,-14.686653676436514,-21.0895318896849,-39.16819042614516
-34.841347884963504,49.70154660017217,182.5888987261052,-47.19268763055543,73.76004472259972,-12.311037008835338,-16.98340553038991,-34.81303175159963
-27.785995402315912,62.22509515524326,191.20628093887717,-37.564688453390666,81.4719507089342,-7.371296568681806,-9.557385504805547,-29.22098338151898
-22.497411601195363,77.2689356154763,209.06703485130538,-30.358859144583448,92.93208195139307,-2.939727406633883,-3.3433857128062705,-25.180973743716873
-20.465932989115213,87.47128269174448,224.83422208344876,-27.614739061520527,101.74002136573625,-0.6782682438202278,-0.5833497920000028,-23.73871949755213
-21.293046679860826,90.12042972645993,232.0945316628756,-28.783521512578453,104.88893009402094,-0.7476511675411918,-1.274148087593026,-24.484511882307455
-23.579104246017042,86.27903757787018,229.7148154340865,-31.95614172162773,102.50272684609251,-2.3361182768713573,-4.062525245005159,-26.280287580718287
-25.763905617459827,79.26976459713853,220.7480749349331,-35.00614902235277,96.87272042002898,-4.2695115123128575,-7.1733584994071125,-27.91663264656697
-26.7398241759474,73.04810579806983,210.55521786468043,-36.413538255381255,91.21977160285427,-5.524094797552406,-9.142295288946968,-28.57197268181514
-26.227644771314427,70.37255263168997,204.00008679127163,-35.780073010611495,88.11211740395666,-5.629328613870099,-9.368471157395806,-28.077808492767897
-24.775693481929544,71.46539270285982,202.79313733196648,-33.84619372191128,88.13845304762837,-4.819056951400372,-8.289819599689372,-26.89249734522345
-23.2961988547051,74.30967046942507,205.03120169637808,-31.867952380425045,89.90143855881563,-3.7709895260739725,-6.95407700571327,-25.728387562196506
-22.42121409781002,76.52351380827233,207.43632494033392,-30.72483686103539,91.45027872182014,-3.079357026566831,-6.222435775729439,-25.05772649177759
-22.185818558921916,77.1280744834856,208.12669514418616,-30.46762242016292,91.82385127053917,-2.8921833179792356,-6.258209176152785,-24.8848536948435
-22.245990183074728,76.6505797028999,207.3292083285736,-30.61465139800039,91.30427536563946,-2.9923562501604324,-6.693390839406058,-24.930215408675412
-22.304936206810254,75.8965106074878,205.94738014928072,-30.751551343869725,90.49197773722801,-3.138028731672945,-7.1594700947751,-24.9630390067297
-22.284736114308284,75.068264221629,204.2195617793635,-30.777554073798772,89.546544492115,-3.2542450545241084,-7.560309461257577,-24.927328560728892
-22.17744847834199,74.09886986799575,202.02113728463507,-30.69285986595495,88.40804561934726,-3.33661241429223,-7.903402553543343,-24.820990789345913
-21.904199459348263,73.33077106626135,199.85936509788382,-30.38964271065484,87.36580434692355,-3.310357417234353,-8.081990360647112,-24.58714436390266
-21.41020479529176,73.34569344868629,198.74936208369226,-29.781469624375763,86.95390432916119,-3.0880822447835428,-7.971200114425862,-24.188983738431766
-20.823490439123155,74.14344262910289,198.97130901695968,-29.036272875989027,87.25230177112448,-2.7320095111443825,-7.674762922327011,-23.72952008203682
-20.387971376621838,74.92301635849329,199.500266789276,-28.494890612022516,87.63077708164727,-2.448244916157994,-7.505280832282498,-23.395267576276773
-20.20609490205815,74.93217020779225,199.09156153261807,-28.309246585538276,87.41524494214285,-2.3727524947807903,-7.6544540603078985,-23.258195253117822
-20.12223068615937,74.334267884299,197.71195137627913,-28.26671536306305,86.66268629350239,-2.4173367774504464,-7.97197361592217,-23.192554133882464
-19.91485295925809,73.94160031341826,196.44979880392907,-28.05279121952446,86.02585251591917,-2.3857586467119516,-8.158625017650886,-23.02854096518633
-19.556928335575087,74.16122423840277,196.04145041517765,-27.62312546172449,85.88895054247863,-2.2144078015797914,-8.131296095351269,-22.750593984833554
-19.21206112667371,74.54704652197998,195.9873873969304,-27.208196350740586,85.92386481053809,-2.026042857507954,-8.087239212615733,-22.487384696044337
-18.98931863110072,74.5105722134369,195.38702880814006,-26.968371058762056,85.6252803239071,-1.9390665716878346,-8.202587421107754,-22.320351302409616
-18.79810318555218,74.16903437196463,194.26627966992532,-26.77979164857826,85.04777063448253,-1.9019766454396825,-8.389139226197793,-22.176678953618158
-18.493753548040644,74.15939566146638,193.5413894489665,-26.433584626876723,84.72012210127986,-1.7770549290838022,-8.437064593502058,-21.946500407549358
-18.098331668438096,74.70502764501236,193.695211088914,-25.95333801205491,84.87543065001475,-1.54723195368345,-8.330072157272614,-21.65104391103712
-17.78097904945743,75.26050619964452,194.04199247583563,-25.577461786405717,85.0895979219491,-1.3508687716370384,-8.283587571756327,-21.421276223608285
-17.622514930876587,75.24650839289137,193.63322793975595,-25.42726655953427,84.84739468450127,-1.292470625785711,-8.448042141242562,-21.314890978235816
-17.494070978514348,74.85912675278358,192.56309131801308,-25.325672899082004,84.25684071171369,-1.292829303271747,-8.691085277332263,-21.228339844170044
-17.22462328156112,74.8210479555268,191.85786977742427,-25.027079333649805,83.91530505233845,-1.1906474399509108,-8.767819439404262,-21.03123436294228
-16.831453465470275,75.4030841125853,192.0843642064228,-24.548517446836865,84.10054193630359,-0.9597218247125202,-8.650885539644069,-20.74180005665442
-16.497122020523662,76.06001948458871,192.5886691350227,-24.147380028319986,84.39752638511415,-0.7436934577173709,-8.567424418306166,-20.50260802543307
-16.323857484182565,76.18252684373871,192.41221412135818,-23.975261174656136,84.27455537521247,-0.6603281915771353,-8.691492525337669,-20.389491538410333
-16.201988945327116,75.92672422255517,191.61417440151374,-23.88239323297977,83.81141399135727,-0.644655410247793,-8.914552427394224,-20.3154388343188
-15.969860135762502,75.97734113353167,191.16747768816217,-23.636696976724757,83.57314469192737,-0.5456033886743824,-9.006813149947005,-20.158367181217177
-15.638606432241717,76.58064566683368,191.57664199691214,-23.2465546455611,83.80938935833989,-0.338928432990683,-8.939709026632693,-19.93102257062732
-15.366870005306428,77.19972791753496,192.14928843444844,-22.93487661088285,84.0992297940256,-0.15792922917821461,-8.917109319646258,-19.754280279375642
-15.222079895309662,77.2808001658118,191.95584984831927,-22.802553506194485,83.9454996964964,-0.0980965433672856,-9.071410859513065,-19.672263519007764
-15.06838663536741,77.06409616086347,191.15984062567676,-22.66109290627945,83.49602880385076,-0.07044161016807746,-9.254739217585373,-19.573895104750342
-14.750724082365597,77.28938557205694,190.85624461546385,-22.287109508686044,83.37474163411429,0.08389650130349476,-9.231987815953087,-19.342389400565708
-14.329883503879946,78.1707979135149,191.59963793593616,-21.76085820738393,83.82935049169322,0.36736707681371206,-9.023501638732643,-19.034704934888662
-14.03912138156754,79.0475323376119,192.62617216364393,-21.41473626052757,84.36020562653702,0.6000043340752873,-8.922822343007809,-18.839532872266453
-14.003185017772152,79.21377851979918,192.84171758789427,-21.435285113396663,84.35199143297211,0.6389207211514645,-9.145278380956652,-18.855297165460943
-14.082353498563426,78.82072530812755,192.22953582359483,-21.63083378738667,83.85978334825714,0.5554659646018008,-9.562365232936163,-18.97141494519349
-14.036718018273097,78.64638477193395,191.7675714436058,-21.65540526194754,83.4939418222035,0.54049796871815,-9.860757413489686,-18.99703178519785
-13.781078941997581,79.08395817333766,192.02643673033623,-21.374787921408835,83.59461396641154,0.6769104300737813,-9.895102344259666,-18.855190200485467
-13.403125362531949,79.7531673638744,192.45429938160493,-20.904839230612478,83.85788978028505,0.8875314361876203,-9.766954425407121,-18.595943835085208
-12.972979828919202,80.22490037137807,192.36719153703825,-20.34713363281574,83.91466481577035,1.1038967316300152,-9.578264011693797,-18.259455765918887
-12.470494130152757,80.74533397457505,192.20203796798125,-19.680800994853094,83.98703955146584,1.3800481566142921,-9.28058319681757,-17.83778901739869
-11.964517676688553,81.82264091825417,193.11378527603603,-19.01126511642954,84.59890969182224,1.7566460250124731,-8.887814208552575,-17.42151931986864
-11.75846689226356,83.18565393363917,195.2681670017739,-18.77859183255412,85.65609019781448,2.062986581064583,-8.739727808585709,-17.29647908844428
-12.180186413192018,83.6579270436784,197.11824255932072,-19.46139004738661,86.19907735044046,1.9883222401906784,-9.326024824024232,-17.747897928495906
-13.147443795091212,82.39249912223515,196.82949053410772,-20.950773905185713,85.34655666882674,1.426280333964755,-10.717645824757135,-18.695399628705495
-14.004344206847716,80.07776404011427,194.25809624029426,-22.30100420270611,83.38116288265664,0.7121846755693003,-12.228102214857087,-19.560927747569274
-13.898489766549266,78.61892093484983,191.17658939296746,-22.26014882290398,81.67629043844515,0.4477350575595443,-12.767411911359249,-19.583601653839974
-12.40904063641348,79.5970388096655,189.69005895155757,-20.183484535343887,81.56618138193409,1.0583570693707198,-11.625475921965549,-18.35254671804847
-9.913974172348436,83.14453425849285,190.8892130241735,-16.59188689715603,83.4410705512832,2.486763753582704,-9.020031693671816,-16.15054693996803
-7.500213215956673,88.08635733012903,194.94528660479222,-13.068229053596724,86.79469355038822,4.206301966365816,-6.084697784243538,-13.93191844031302
-6.582000806366692,92.56645405062477,201.4797568848143,-11.707326288483442,90.59352101302574,5.40244660730284,-4.488550036481111,-13.021707384945252
-8.359456581231289,94.26675158029818,208.7523344069095,-14.309485344229643,93.19319058055804,5.1879453899096655,-5.882161062898646,-14.603894117452091
-13.065368097785658,90.7556527023599,212.60051011797734,-21.259101125891192,92.28374458045039,2.974873478343484,-11.052728161488531,-18.970953375296112
-19.14892791452232,81.06189077807764,207.62068573159462,-30.31562252638811,85.99494084065479,-0.9056115868942575,-18.81518590583246,-24.72872536092342
-23.06142662131979,67.89596211466124,190.9854769411092,-36.28183053610421,74.97182786974854,-4.70507794062973,-25.380358437903183,-28.58360784985326
-20.379251274561103,57.98954240998607,165.63990044367634,-32.6231428184208,63.37400439311832,-5.562423074336119,-25.2840065680156,-26.35578838104433
-8.139961136030873,58.75620888887505,139.10121428314434,-14.880507732820773,56.954877439527536,-0.863420927243606,-14.081240043529839,-15.098956957102878
12.929559424490902,72.86042119879373,117.97191670039108,16.026053168711943,58.978368235807075,10.032474397504375,8.589557331857131,4.824242150007008
37.96019996135898,94.9168876622045,102.61285639313323,53.052437205951534,67.13464738578755,24.924280678807385,37.76173549040298,29.180784037881125
59.905835312945605,113.50270405056506,86.69248709315065,85.8448769510079,74.25287097231394,39.52191771582756,64.94484302568868,51.45673655109354
72.90247539962407,117.68356079981338,62.33290895472566,105.6780254655742,72.71165198523111,49.458919049928525,82.14758338088006,65.8193268842389
74.98921182794012,103.71393729634568,26.970423453786175,109.54381715263493,59.52556185544574,52.33586731754455,85.72191863245067,69.73931014560331
68.57738772782956,77.2496107431852,-13.491241716107647,100.95233089933028,38.43696138966832,48.58649581739048,77.72549175601053,64.78723308214028
58.58817641224551,49.56256869423404,-47.954131113827,87.22617571624754,17.466490917720574,40.810382586257674,64.17530640743331,55.32400477705257
49.69287247035573,30.628484670924845,-67.42189801731979,75.34727923528457,3.791944690460814,32.24906699209303,51.6074238464519,46.11450971341965
44.44945978201069,24.138351373601022,-70.49321583691705,69.05162177124133,-0.16079788508970455,25.503096793299413,44.24265572662393,40.36130446471893
43.132326227024805,27.49514303943961,-62.901168579375295,68.48244270062622,3.2021244533933193,22.089161516649266,43.16440481928073,39.032037899146054
44.67614395733616,35.47834519253093,-52.41893404326498,71.66098442123422,9.55763213132229,22.562160481007233,47.17282434993131,41.30692939924604
47.63591453454759,43.73628925974128,-44.20141558636302,76.13620086286578,15.51512397134068,26.588541214617848,54.02397157473393,45.43150789602953
50.6414754748626,49.77737868366024,-39.933939806043504,79.88722337869058,19.390662247020195,32.82724854196159,61.232989419917836,49.48129016772161
52.59327523433304,52.34969581187857,-39.5525336333439,81.66745302081398,20.559552597896584,39.060161345959685,66.57994859654605,51.97097639697436
52.92523951135943,51.18096796770062,-42.355523710969045,81.21889947035334,19.087551706621515,42.924560224261626,68.67776643520779,52.30392248124966
51.802274923908136,47.34965777307218,-46.67031136019034,79.2704387821058,15.989643498591246,42.943978086405735,67.4253273498039,50.87192813600496
49.933368943722414,42.99015358566687,-49.95360406092855,77.02884606484905,13.041861096158705,39.16109748385438,63.87619686906463,48.67299293664161
48.068817022112526,39.86450730794559,-50.47181508682375,75.38462374298454,11.631140511202124,33.008338221519885,59.53046294108525,46.692037969630924
46.64338350755096,38.18588185002192,-48.90061988087061,74.51347574804882,11.721184914317986,26.65888472851458,55.65285325178273,45.509773276691746
45.84197943503904,37.103170770187766,-47.612565948282004,74.18941201008677,12.204389370377188,22.292719616969876,53.089359217848354,45.33031175583375
45.834400624702425,36.22989672367761,-48.15910895620867,74.32401187192993,12.276738252720524,21.453135587976774,52.375290998466625,46.16466766836591
46.76772948393566,36.258517752317445,-49.81899164229875,75.04991281474614,12.19874831415594,24.498556666486593,53.643435088369834,47.84057244602998
48.51571039295766,37.91575602894583,-50.793133793646774,76.33042964760074,12.634118313406066,30.337384687546788,56.32363836790497,49.87872375375047
50.57451618822299,40.68257048840074,-50.35274472558904,77.70702415872341,13.575882472442322,36.778413606024216,59.14840392264334,51.54925346433096
52.31912958525584,42.943729503255966,-49.3157901980227,78.56843888240735,14.257062210540928,41.49957629146624,60.74212568787951,52.215320279008004
53.35050426259218,43.3166260676974,-48.69532339541951,78.59889577359289,13.989410258229523,43.0719334039748,60.344516191240245,51.670947111373415
53.55706884654746,41.497075536095224,-48.69503682655098,77.85468112454403,12.671313010933488,41.36253456742622,57.99951857605753,50.14746321614685
52.931470649315315,37.89020118607801,-49.283590121245055,76.48781477741949,10.388075472683285,37.201844399777535,54.174155185942276,48.056590545214604
51.524540418589545,33.09473795465337,-50.93383533863555,74.64340868359663,7.013317129461828,31.831439557906112,49.43618099698121,45.82992630586644
49.68080292179022,28.33571653408523,-53.73960002122659,72.75632210637482,2.7776117261589612,26.63557679831993,44.61837657678663,44.00666222943549
48.195658645459325,26.127622939175733,-55.73442867381605,71.76563296787981,-0.7996454397299593,23.0882709185329,41.085441738493664,43.29639576284564
47.980234081222505,29.450061633320498,-53.16920495057833,72.66832994023721,-1.2216364600476743,22.47881362104346,40.392584399028664,44.294889864517515
49.358548282855935,39.22833529516537,-43.72502884711778,75.58102773121234,2.990153809444494,25.280836908983073,43.275367549314836,46.96349947742981
51.61147896646253,52.2416439110237,-30.010976629421613,79.17663896972905,10.258283459621147,30.606009338824574,48.777596375907265,50.364818006265594
53.231379715991004,61.797720082713795,-19.677465047061652,81.15085478344521,15.97378784477235,36.31780701678962,54.3795423192535,52.99975231807032
52.75820178915249,61.23845740496831,-21.354469872370046,79.50782232269584,14.953341517769815,39.92943504112246,57.204559549605534,53.58904650527374
49.693491619449524,48.11264548011413,-39.064943294445584,73.89002644338069,4.759573764924081,39.874223768507946,55.63199346915095,51.835089057354246
45.07353802124488,26.7248181392393,-68.3663739879104,66.30303960560677,-11.988764212728608,36.54458282856041,50.51390521264574,48.79478372181347
41.45243961417864,7.9475421526713,-95.88964918206982,60.890160564708744,-27.333784728006783,32.56426929830456,45.402593360350956,46.693056804174304
42.02388263162207,5.803317820496175,-103.01640840413928,62.46197240383504,-30.26472867237837,31.883565441287544,45.33208235822081,48.06110302486535
48.73980401440071,30.55040773552611,-74.41012309523326,73.6980545974118,-11.992153282534714,37.62505983072188,54.019362174229634,54.208266921176815
60.00278384838,79.74240696192433,-10.189341963186738,91.90492267924243,26.727607252282983,49.40192311766322,70.35078019109665,63.53630877950948
69.45540595168666,132.07244670724359,64.21070351983624,107.46476007374036,70.00046676051377,61.724008174133964,86.29351671351716,70.82453531643701
67.47453692339158,150.405398983347,99.70033785464672,106.16812804238982,88.3655191485067,65.15417854714444,88.55064617445133,68.59166018316924
45.56602891917815,96.70286299879723,42.03715029791588,75.62141461737914,50.27649372046553,50.51017653328173,64.44430672079498,50.55487516570391
1.7011965787819154,-46.48217877209082,-138.45834807920525,12.904800922265968,-60.324911891602916,14.291789214295402,9.531017410624257,15.636612257458594
-56.59134065812796,-259.8367700217217,-421.9676185996864,-71.04596362865912,-229.96273489419605,-37.79447679149826,-67.45964734091092,-29.87241461755002
-113.7320786391304,-487.7150600412347,-735.9749405738207,-153.66074285387654,-414.7733888882055,-91.69248613678454,-145.92243721925675,-73.69501837338565
-152.02502203864813,-657.9544163618491,-980.0354747145155,-209.29878973737186,-555.8605732417739,-130.3532257555557,-201.12836884329232,-102.26835024968095
-159.2171230137686,-712.5837046698339,-1068.532269388826,-220.14856480613508,-604.4380795698362,-141.08800377040504,-214.85754238430417,-106.55992688801467
-133.81172574096223,-633.914362786615,-969.8995384001752,-183.9213344266631,-544.046876629595,-121.16450888425128,-183.47600103175984,-86.02449134358203
-85.43720981242686,-452.30199958709954,-721.400631121817,-114.44640365528605,-398.05878043072016,-78.78156843006965,-119.27682949882906,-48.67338809288751
-30.25042999181971,-231.6218590774356,-411.46060773578057,-35.09535678218414,-218.50440506030586,-29.05082998643389,-44.54480816868621,-7.319863565556503
16.08500973904235,-40.45282585601907,-139.22588560739356,31.3482276511943,-62.37915701506115,12.771123671040982,18.356845511614026,25.958566903145055
44.28991904430249,75.91358893524031,27.121073662492975,71.25500211711238,32.024175773706155,37.29871979910939,55.74376509585709,44.34364894306031
53.621265749110265,109.12981374425345,72.56055871622986,83.35682592065515,57.138321205679446,43.49198824706003,66.15240550346444,47.77954022796688
49.90951307745829,82.55403937688654,29.623607403478236,76.0068956878858,32.23499446694626,36.96229025874435,57.80396442238675,41.24917225612124
41.28161977081699,33.168411450874046,-47.38199616093921,61.05880025355628,-11.585671128989866,25.76884120624441,42.465944852480675,31.339193680397777
34.19821940078224,-7.576164951874458,-111.14477136746149,48.14954549349081,-47.6396716354492,16.39106303229726,29.62265460147555,23.20486478337266
31.56287267955961,-24.443603692986677,-138.2248405767379,41.92424474965412,-62.882269537835505,11.801598647907934,23.687616083369566,19.252277211053052
33.00218441569602,-18.440244301442622,-129.80965754539025,42.33808638498049,-58.047881035869935,11.81167532145632,24.44620305837175,19.46744962620904
36.31688951441098,-0.30022838616774616,-102.09925930273481,46.58809359416886,-42.149021274302655,14.558816061657927,29.122112284131862,22.483592191906364
39.08716785730752,17.169521992634813,-74.70585180874023,51.243254768139316,-26.025156630644673,17.93828185510834,34.44182607755271,26.597400037234657
39.89784010935561,24.871511395049694,-61.953275729194644,53.898309332334094,-17.55810666153534,20.48052557623054,38.04150182954824,30.469199714035778
38.90559159018224,20.508231713890503,-68.20046488328106,54.061545640722095,-19.130774886062067,21.70442059159057,39.183963525417504,33.48998749642249
37.52133481949559,8.572652429764213,-87.45904397221983,52.98036246786174,-27.50697503257053,22.014677206408983,38.7196910562792,35.746523191699495
37.29887058606025,-2.890602041005162,-107.56870917960414,52.42635588464869,-36.256078604561516,22.18153844613575,38.242292876839244,37.58679843633698
38.7083797759144,-7.282293702064176,-117.33275063461723,53.21218849660294,-39.70988790380854,22.665735381066444,38.87188666194846,39.09224346176182
40.69271259988994,-3.177268151981213,-112.58749140245192,54.55958867765786,-36.121442598294415,23.254460387086482,40.50124608210993,39.90315832501963
41.3379460733151,5.460463901119872,-97.64759696903582,54.76430058670927,-28.137469631795735,23.257030708957437,41.993594363659625,39.527486930291225
39.11424656129359,12.04011314997836,-82.2048359224706,52.50251290469172,-20.850868715163504,22.02688681213291,42.003695196309884,37.797045769437794
33.825041305056196,10.702646046538103,-76.66435569411492,47.752859036525045,-19.247994884371654,19.379247192539275,39.72936936705063,35.063100041943414
26.8406739302442,-1.2741540988053837,-88.12462905925301,41.92784388936973,-26.25378898779426,15.742017202517237,35.30581062088576,32.089888714504546
20.728492892726177,-21.834746947921808,-116.81384232546795,37.4900375611263,-41.152361226105214,12.168168655978016,30.012413893139534,29.88494338722259
18.440303865430653,-43.17939397921044,-152.95340633439082,37.25755290898444,-58.27227429959719,10.22473071315544,26.26383472688925,29.528138300023627
22.041618838075994,-53.039210854703796,-176.83112449128254,43.19154851307657,-67.38464747216047,11.48875514536366,26.878948141780945,31.750058669594594
31.21229496471354,-39.829422565970866,-165.6333843670686,54.7068630163267,-57.583923437873075,16.521904688258587,33.36054613167269,36.15674131969615
42.3878384964054,-0.20170978303482157,-106.06565242890876,67.50267152534934,-23.86608359741589,23.844494180659872,44.027394614999785,40.59958980932229
49.58776871626668,56.04625534477468,-5.353978742765139,74.3622433827034,27.733273359656387,29.88103793434392,53.64989879258225,41.51766657796237
47.06959749884511,108.4716118237301,108.19530631378586,68.32268647888594,80.93990286841077,30.400198471340584,55.56027376235668,35.5389526590718
32.49950796516514,135.78692923146914,197.59989568770965,46.680269641132774,116.71278997855909,22.828447709488483,45.335631619287774,21.55173631728722
8.628397018691755,127.25964294598735,235.81002373876254,13.218329633859138,123.16171071446293,7.971148800601131,23.704055055921184,1.837611843352398
-17.76423715983959,88.3990348935837,219.00558737616058,-23.074897709768443,101.63452370055,-10.090991320608973,-3.3849584115004574,-18.672140657006068
-39.154468053655776,37.30169030370796,166.4789288214292,-52.262174439882514,65.16236803417043,-25.98692268338701,-27.726251683127206,-34.710426937665325
-50.832653533606205,-5.738438686940288,107.98674882708379,-68.15858022175134,30.5762655343064,-35.7232576169921,-43.018966249631234,-43.17013440070328
-52.65375790851741,-28.45951736983354,67.50577427472062,-70.67857100471969,9.680760402849048,-38.398546272344,-47.62710940445493,-44.274961852850346
-48.17622658032634,-30.56595826161432,53.61228594058628,-64.69076881548507,4.928644082665309,-36.03225154373548,-44.4316932894681,-40.85692547864984
-42.128013344122884,-20.318816254467595,60.58366955806089,-56.60410004828797,11.188705257287936,-31.907492042822536,-38.35358783849527,-36.45864797358875
-38.01917592053667,-7.833781373351882,76.29589640962753,-51.14702840733344,20.79372288357332,-28.734182831214465,-33.55073226363559,-33.610940532410325
-37.16001295847896,-0.10937796320823004,89.85396217259647,-50.06271512053233,27.76476850428403,-27.735234269649148,-31.9861219572902,-33.185865744467186
-39.04614911414136,0.29526963562828806,95.086223761539,-52.66137272730732,29.3231693985546,-28.791125705344648,-33.586276341582,-34.74547540878633
-42.27367327485481,-5.664843121540408,90.76931292973012,-57.06685236588379,25.542746013885086,-31.04658273572901,-37.10777245950528,-37.23593023637256
-45.32803500050214,-14.84011834271324,79.76030658393003,-61.258386577496594,18.548600611271056,-33.443858178128444,-40.929502735965336,-39.55236322254817
-47.139256382401086,-23.29234415902491,67.43372438700135,-63.791369961738646,11.499065042477252,-35.10692858682789,-43.665387144364985,-40.92737023606585
-47.45293133188901,-28.126153126251943,58.90286208551631,-64.29949079428351,7.044656582133049,-35.66841281746386,-44.70845083226722,-41.196756498210014
-46.85959250163897,-29.036510211206163,56.06783981130059,-63.56242207353809,5.846128288573681,-35.41863228646881,-44.48221508421495,-40.81802072297839
-46.33550257362497,-28.174175698865238,56.87713081578315,-62.904594569074426,6.417725105501015,-35.065947427196974,-44.06768503999053,-40.52243457032529
-46.556159503856954,-28.20817957482946,57.60001301619808,-63.25719395537129,6.581581844489924,-35.20930439678887,-44.3838016199587,-40.800443815591656
-47.53289980312144,-30.35133543150279,55.87948880431511,-64.64603547174192,5.1627706561623805,-35.962028900854335,-45.613118961220245,-41.64020566858051
-48.82842529120861,-34.104576710950134,51.71187485594909,-66.47984047604045,2.3745274673561845,-37.03452339650416,-47.334859281405066,-42.70487876200316
-50.02365710951905,-38.45303157683842,46.1499245530739,-68.19407690853693,-1.0547096995375966,-38.09424174910886,-49.067333153119236,-43.6868575225984
-50.9387251529927,-42.76768536195933,40.030468884383254,-69.55102623643145,-4.623114828638776,-38.9774405652649,-50.569656900076346,-44.46086954479986
-51.52807358758423,-46.539638449734,34.25202892944785,-70.47854826769198,-7.862490510095705,-39.61485968927785,-51.71578586805854,-44.99079668384274
-51.787445513505446,-48.93954248911915,30.422618466497394,-70.93139798280158,-9.964635860244822,-39.936325708519576,-52.36204042398691,-45.261384901200245
-51.88256191360825,-49.4252433017763,29.964454677895617,-71.08798236902662,-10.29119441130656,-39.98997814860186,-52.55545006700569,-45.390841718655786
-52.26225170826446,-48.921184704062014,32.07484081805145,-71.55011759271824,-9.456074959240233,-40.11609431605586,-52.81343150072142,-45.727479936704164
-53.42131671568778,-49.87535841316942,33.09252243030216,-73.04761563995358,-9.53766837627473,-40.831471956053804,-53.94311014101999,-46.66606628997265
-55.41059667538198,-54.55727133277795,28.719679433924604,-75.74972152935311,-12.731436997381225,-42.398691181346535,-56.37616430287712,-48.26374971616856
-57.59165106834006,-63.02160546638475,17.431846014857555,-78.87266201409736,-19.512959212178686,-44.47707189932252,-59.63386526990736,-50.04413580389504
-58.95785101249113,-72.6248099281505,2.1247859240742324,-81.05926693564926,-27.951086822587854,-46.2288296003654,-62.47903980627851,-51.23587878847834
-58.79323176950687,-79.38475693594398,-11.065873634254086,-81.24728566889688,-34.606622629018624,-46.81408547666458,-63.63972934942638,-51.26846051068804
-57.171573599518695,-79.95605940835966,-15.48722079861698,-79.35897245479853,-36.141118923824955,-45.89404212016812,-62.540454447880634,-50.151490254096586
-55.04538858207008,-73.23842809914831,-6.884873030052845,-76.4804364333788,-30.838536520109656,-43.884328822013124,-59.6899075782122,-48.56006962705388
-53.99951333830222,-61.6425553237234,13.595575652936743,-74.63992258847496,-20.015356144786406,-41.96307142820631,-56.757069727438044,-47.68573922632514
-55.72629154662472,-51.82774780704398,36.801878925036696,-76.2338361289267,-9.097026693200114,-41.82889249579293,-56.30337443370324,-48.87460479347119
-61.13939236644223,-53.499087617824934,45.92512945471413,-82.90209074847252,-7.025101670873479,-45.03650159665464,-60.84793225615396,-52.95542452043296
-69.28849741582735,-75.00573830437261,22.620469760852053,-93.97608647052482,-22.649651996627686,-51.89858190623957,-71.19757900126191,-59.36445876283926
-76.8084050700183,-117.19125651694996,-42.28058394066337,-105.47752601571962,-59.04712442982464,-60.522400195857855,-84.89365075892673,-65.64335305845897
-78.7871062737121,-169.9022170288663,-140.05083117740884,-110.97852702978241,-109.50813523351488,-66.93215660817273,-96.2418989059109,-68.02442175203475
-71.1270132614409,-215.15680694357272,-244.93949681473646,-104.60718555928578,-159.078516631097,-66.75350352100291,-98.68914292079607,-63.197785947422844
-53.17424222599803,-236.48709415990209,-326.4115450817173,-84.67103398182037,-191.98916049472592,-57.75570043738891,-88.535302543981,-50.34519562684545
-28.76589637028158,-228.76304567180395,-365.83205290749896,-55.377820591447325,-200.61249525886765,-41.61481717056284,-67.57613582035111,-32.0272025886591
-4.632081784492683,-201.36410541237328,-366.1525536635954,-25.05679843574903,-189.64625237103303,-23.471668935902642,-42.58883742508804,-13.091696545357848
13.119783194330138,-171.64158351217728,-347.0958070272987,-1.6680504548766255,-172.03930495780554,-9.24150452789141,-21.61168673327867,1.8787255736143533
22.198581344305342,-152.7268924693745,-328.7372293130871,11.479793629012548,-159.14913343803,-2.2816252752628308,-9.352043154222818,10.921475490949126
24.76769810950691,-144.57342563721141,-315.7078733999956,16.74827874544446,-152.36809856318771,-1.6818937484488783,-4.935324146848886,15.195255838706386
25.044040691966025,-135.2749453275742,-294.5131125922125,19.145897674224248,-142.81287856924249,-3.4251066421918908,-3.6413933049230938,17.28126413260271
25.667998266805657,-111.84456416010376,-246.3371247009936,21.606246404854822,-119.489275403425,-3.5734586908819814,-1.2534047404937125,18.635205357015934
25.628442444046552,-72.00429421484112,-165.13379298533957,22.306839101479326,-79.49688068218619,-1.1103922247259312,2.398643287621657,18.22624458294285
21.28026452276801,-27.743865559482504,-66.5735984563182,16.127662502384098,-32.21909427698679,1.5995444035136894,3.3947635043287026,13.426449612531808
9.541364506063047,1.907774317046799,19.038431319575253,-0.9847473435423111,5.636825080322993,0.8700821826597719,-2.984631928863628,2.3881088210156243
-9.255430788329592,3.1891957840266616,64.34026642157717,-28.194737939596624,20.239534919693167,-5.443055111122539,-18.338345965303944,-13.993014580986678
-30.950337207686616,-23.936019173928628,60.318599151111826,-59.35185773481439,8.698166318726122,-16.373293903014947,-39.536864374242846,-32.022618416414595
-49.756663981862516,-66.51736819199158,19.607252657747516,-86.1623077576279,-20.164251812767862,-28.500219576657933,-60.41718035544027,-47.0679095334045
-61.40872542330843,-107.02562955442303,-32.980250664175095,-102.62136682239914,-51.958493548150294,-38.10668522231292,-75.3399157691778,-55.98600447888371
-65.12279236708451,-132.9811894946398,-74.84758293522829,-107.7289821707973,-74.88977048432407,-43.19450297657216,-82.04476019574724,-58.499180508133875
-63.29797646451188,-141.58910972812868,-95.25196752592501,-105.00256516320302,-84.53404835573708,-44.08577541767674,-82.06272001339096,-56.778935057640425
-59.54962199703023,-137.7653547116099,-95.76317218226505,-99.64150414486818,-83.23558278235443,-42.55324710668487,-78.89889474193122,-53.79408626658291
-56.64600072699901,-128.81213269762338,-84.43762408449903,-95.57827217348456,-76.2707083976833,-40.447045006566825,-75.67796965235686,-51.686564612327814
-55.588176074896,-120.26143537265827,-69.76811221864361,-94.18192042059769,-68.38751637856899,-38.850222518890995,-73.87201903421153,-51.11807964059643
-55.96555744162846,-114.86011826899613,-57.95146472794761,-94.79871185112067,-62.57198581615978,-38.06766929479641,-73.48616254806157,-51.63634269457637
-56.901903087701236,-113.569032968971,-52.782812212535816,-96.13647678201856,-60.39227307014287,-38.05790193470623,-73.98099139114895,-52.48081140957719
-57.882193698716726,-116.66132477451698,-55.99757002604495,-97.46030972206346,-62.51539093620484,-38.81553604762755,-75.08402525627818,-53.25533153287399
-59.131165067382405,-124.16470794093453,-67.29104212608455,-99.1247269914979,-68.87341512503902,-40.505472847544695,-77.12172692290827,-54.21045634362415
-61.4408799307717,-135.7686099521174,-84.45859888046309,-102.30960670397324,-78.66447328832585,-43.342052105375494,-80.81476375327475,-56.06289787157554
-65.42651590479862,-150.1287232776169,-103.58471772480947,-107.94397582926204,-90.13958732581649,-47.210511222465804,-86.5183680690898,-59.35238994735125
-70.49001764785883,-163.58603356554445,-118.74999419935,-115.21349675745665,-100.02029936443799,-51.1553620011485,-93.15000419383693,-63.58322532725498
-74.24181521774423,-169.51262920504325,-122.02814721946595,-120.7112618424449,-103.25856348319746,-53.184353762455395,-97.61093401433149,-66.76652186901363
-73.16463437002896,-160.28079499167893,-105.96915091003679,-119.35610044378137,-94.58765274158041,-50.916159415738754,-95.65278330366306,-65.98446204913193
-64.51256444854947,-132.21289108642475,-69.2590133977822,-107.09479044166572,-72.20354260703171,-43.0412698437334,-84.24167351634998,-58.946724102649874
-48.33676004008662,-90.52947736398926,-22.111624441904667,-83.82666597005371,-41.343420601962016,-30.699050487313176,-64.05087102139767,-45.628551048884134
-28.148525687938733,-49.727596315634905,14.336648441565991,-54.412807584642906,-14.21830833851106,-17.57375637429194,-40.13399105557453,-28.791571787815197
-9.554766767943482,-27.441297996200593,17.062993523428478,-26.78113872772108,-4.805088704110894,-8.27069488785441,-19.884324110125323,-12.865311852872486
2.361874640723436,-35.0283369326287,-25.957764140445114,-8.199013329116243,-21.19081520265506,-5.854937639680565,-9.373940196014786,-1.828845639294538
5.236236545556029,-71.39946583918329,-108.09752441926665,-2.1206108709062805,-60.81571579426266,-10.224464535621697,-10.478970596674051,2.534363860465224
-0.1367219972203072,-124.74400030996078,-208.0039204318724,-7.534534985485643,-112.38727534308535,-18.50298840612923,-20.691870142895986,0.9282332063408706
-11.045982483417362,-180.7889420433914,-302.8337403852983,-20.7474815123444,-163.22269112423535,-27.12943303424486,-35.46737131965259,-4.558646049190538
-24.427950306876212,-230.73498934883648,-380.56118329034155,-37.63776590265272,-206.17940582223298,-33.94512886578132,-50.94010340155744,-11.805500396175605
-37.34472770236709,-271.9934877543869,-440.96133823329995,-54.32234842978953,-240.2708263543283,-38.56264348411737,-64.67246419470594,-19.063141427504586
-46.32158938028086,-301.18758766726324,-484.0640164304815,-66.11800339537362,-264.37223779400574,-40.831718274031815,-74.09715021023389,-24.314530698349117
-46.926994261778674,-306.55272145175803,-496.61784503999604,-66.79744803895318,-270.0414502165651,-39.03152587958292,-74.7615292486886,-24.71411849835931
-34.9592979047941,-268.6098152446777,-450.681448870046,-50.182710372483,-241.27216789123804,-29.798287773257574,-60.93687039861981,-17.276026653371606
-9.002293240447191,-171.32048366417726,-319.2485824980078,-13.83029234189748,-163.57656933395754,-10.27672923866055,-28.995552031454178,-0.7256840233333041
27.529115592734232,-16.35914702599156,-98.97054346292428,37.86647710747718,-36.49784406789993,19.082867711065333,18.844225031021875,22.8977545488749
66.77301385842252,170.77997507694616,177.47181606204802,93.99788808007283,120.19015789581461,53.399785061403556,73.61206005038558,48.3815714766275
99.49152813279129,348.8409305710312,450.31138198538184,141.38550342602932,272.3047716661689,85.03010438794664,122.7876837836528,69.46430451267724
119.12696202890672,478.95428182229625,658.8232340069947,170.40543651231906,386.2638523258746,107.08365619109354,155.8800718442863,81.70821046009391
124.4280308330626,541.8450630117596,768.6806349650759,178.908827547466,444.1196553327207,116.56395687930427,168.9712978513719,84.35248765592591
119.22208324511342,544.0704134072212,784.3566710353514,172.09447018709218,449.77170069818703,115.26624596681867,165.60455595242027,80.12116551940736
109.79132128352765,510.86583697168606,740.9527146996962,158.87197457576403,423.699946092379,108.16503035151878,153.9062494063007,73.34303156989748
101.69205358849905,471.52511026478413,682.9005709360231,147.29503228047037,390.79618295038904,100.60325949341522,142.14028233872224,67.73156889977771
97.81014669872994,446.5028064925509,643.3491007215208,141.66868173337107,369.0801283401322,96.04682802355654,135.39033930854646,65.10045715798915
98.22916771995753,442.19326135389144,634.4279047325332,142.24386690321776,364.7174376130778,95.36627925880484,134.6942590902199,65.37154305922317
101.25791447448397,453.31607446217674,649.6341993665153,146.63452150586505,373.68189707177135,97.43180359886507,138.13645491498238,67.34577609078019
104.65147248885415,469.0649101240433,673.0158133645937,151.5864711788433,386.9380131452751,100.23506458610507,142.61171034408346,69.53127262771973
106.5393803130609,479.35568126915535,689.1626604075203,154.3674865762507,395.8989115608087,101.94550665442274,145.3720081852987,70.7213095460453
106.03683062110157,479.3603122841872,690.6013225259215,153.70109108311283,396.42582627020124,101.6821317964011,145.09467571648491,70.3577012366411
103.51365768293844,471.40017054409833,680.890201469394,150.17805240525817,390.49642677748767,99.85705120925763,142.3310971833563,68.68474823385047
100.35544146809167,463.33608323159496,672.1060755081642,145.89079451106716,384.809892513018,97.89234124593513,139.09034464119358,66.57492656978603
98.22792346008474,463.63067587387167,677.0003333763881,143.3043187270098,386.48592096689214,97.33127986900652,137.60479079542327,65.04061315308614
98.2273991175731,475.44469976817584,699.4964507692545,143.94109950491006,397.89966826374734,98.80674011078656,138.93075805381577,64.71764239761134
100.36282104757106,493.2959617005631,729.3205681646083,147.58383289147108,413.7850685449912,101.4972737593641,142.22663828775177,65.61862051744477
103.45762542321035,504.2950898936445,744.4465697863144,152.18714145535003,422.49054920093755,103.33991529712642,144.99723551417645,67.14477572399572
105.26282025719605,492.9959061514684,719.9989216880622,154.20499165932006,410.57181868223205,101.74455363077256,143.89349959071686,68.12337418281155
102.73371830616227,447.16396381562276,638.6232128410613,149.18521062960676,368.14059932905155,94.39338819071573,135.56545763871213,66.81958099108166
92.74925870624614,362.2490777606865,497.5714213989526,132.9068650883382,292.6788980511013,79.93283557601599,117.50301470318266,61.204961929521446
73.43095312559586,243.60685860620472,310.3746432010942,103.20347493545287,190.34244498880395,58.54269829631648,89.01549743879768,49.73171077250891
45.57740284848701,106.09744161605828,103.35552852873363,61.80245807969591,74.72882759133975,32.25685728071974,52.13945306807177,32.37239899639591
13.220936990264812,-29.151142473746823,-91.47985766443269,14.879919526708715,-36.48511640196874,4.752397835153715,11.812202560814853,11.228916861023638
-17.432209523792423,-140.43424776736086,-245.0505077921845,-28.586590693851775,-126.26188930675322,-19.56417340553571,-25.25514444587446,-9.902384434420933
-40.45456264073443,-212.21038272452793,-339.15375822801747,-60.28837236733914,-183.12466230354823,-36.980780241191574,-52.87135697263254,-26.99165590744933
-52.80114632014716,-240.537906434465,-371.7717969900366,-76.16462602588669,-204.81894346548268,-45.84334746075872,-67.83968457034955,-37.50704416759654
-55.49701360731004,-234.48374494486518,-357.59100512070205,-77.9727598941853,-199.04209962116687,-47.13548623417951,-71.20630501719394,-41.36153654742115
-52.600270312323936,-211.85418821905773,-322.0883875555711,-71.77143374854734,-180.09809249513933,-43.83377404582622,-67.36961842071045,-40.47646942372711
-48.61467375684245,-190.65780394487192,-290.4506901270372,-64.25499203732772,-162.3701271921682,-39.328904966038934,-61.498118856259374,-37.34466077105306
-46.11999513759282,-181.02014782298363,-276.8052216447629,-59.38371989806319,-154.04509669754088,-35.896103255380595,-56.96182423288493,-33.694174365599245
-45.107832667241,-182.46579992335447,-280.2530592028991,-57.38345245825347,-154.9031253171873,-34.157421958507165,-54.42003727052144,-30.130535970260862
-44.085811552077104,-187.57092210035253,-289.5898582555953,-56.226042807977734,-159.09257419860765,-33.63868416613757,-52.78056085429428,-26.69394680256879
-41.77961528285142,-188.41921456240803,-292.2784814775397,-53.9853209817192,-160.17489173903246,-33.70022889822496,-50.84939987725825,-23.57079053874473
-38.23479283589406,-181.3750040039175,-281.4527745231339,-50.41237133943539,-154.8934694919911,-34.106633994044515,-48.41577197616071,-21.360320783938864
-34.94132708516649,-168.50228762718257,-258.43646685802054,-47.20318219310031,-144.36711578014246,-35.11095569806621,-46.460503134600934,-20.91007722391039
-34.186099318710575,-156.56704848967553,-232.12569922503914,-47.22295271190108,-133.54867980008876,-37.30132629730636,-46.78963909496589,-22.98322332849915
-37.81064456579991,-154.33132363670651,-216.2608719745694,-52.88603929311345,-129.50810062188162,-41.236454860014774,-51.14378495099388,-27.770704567794038
-45.569907314275234,-167.73306641145672,-223.44436333635036,-63.90338700364082,-137.93800553825895,-46.678847688256724,-59.62051245812959,-34.15131062650477
-53.85339271563801,-193.84402094756584,-256.05312937453834,-75.42751780827754,-158.18051887168207,-51.64576855151651,-68.9578941877521,-39.05292136268076
-56.03102652743242,-217.60655217120618,-299.11385690501254,-78.3914681087128,-179.83343151780988,-52.17409678166836,-72.22463189925799,-37.76392189902874
-45.084829134506876,-215.89415131650992,-322.5284076859994,-63.055821706909875,-184.9650614113199,-43.63102895238399,-61.20228377206224,-25.724645877978606
-17.512181955725204,-168.93682185544054,-294.90140364026536,-24.432248761468802,-156.67535457844465,-23.277613346141344,-30.827613658034856,-1.1563841153421626
23.872766836192813,-72.84619947944448,-201.9199185108358,33.7175945937924,-89.45495800596274,7.461858211336018,16.955188233554683,33.12004696353192
70.28346008007814,55.21925010670102,-57.262560734955066,99.22828894295591,5.5806305118960475,42.71665929312445,72.72739617650409,70.118844886864
110.55946472960773,183.40316580529273,101.82002343513582,156.46635312582504,104.56738396422358,74.35514952303505,123.24521134671798,101.42788210405472
136.04362307007074,279.6764681176886,232.07661385749705,193.15072921495934,181.90322693253034,95.49778819329362,157.25102784608657,120.78742456412176
144.03896160494713,326.131891099046,304.5129108667096,205.27427967856707,221.93538024097893,103.38810262686243,170.17406142259773,126.5330262495109
138.18637967581756,325.30856212771033,315.8930727312868,197.74509544072805,224.8491396291636,100.14179067051819,165.31894360735603,121.7251761580151
126.04460705946424,296.26344788033555,286.4220260345317,181.07663554545152,204.3615140740017,91.26167802070064,151.41855915432882,112.24283147850872
115.58787512109477,264.19648778841935,247.26884198153917,166.50062734069618,179.84625170531604,83.03592195856348,138.4205812210843,104.15899796264104
112.38073349886702,249.90079390464797,226.3008332016994,161.98087421890415,167.88875173785655,80.2036803619568,133.76876348870786,101.6890889424102
118.16099582242491,263.178153793841,238.50185234788086,170.1757330682176,176.83660234705212,84.60861431356271,140.32923639385646,106.18578161315527
130.60738331404315,300.6580591172005,282.4069938244768,188.0403884609404,204.89379267814365,94.787166591083,155.84047588320917,115.94908604931396
143.9753261536585,346.9148498179611,341.02833674780925,207.6205464287484,240.84674844537275,106.28820406318474,173.49804974084824,126.61526282823144
150.70493544772003,378.79561699563055,386.7542200739171,218.20673395094568,267.23477165653674,112.84979673825096,183.79466348601886,132.2708951248328
144.0875881753443,373.47747883403457,390.94156543748215,210.03378968621783,266.40186811629866,108.58802675514829,177.81355285667507,127.44097633525901
121.28579725013823,318.6738997310584,336.695764304815,178.59876429575826,228.3672947664592,90.6817382378635,151.20486621787444,109.46139686073693
85.18171052564252,220.18748899991022,229.0313229255456,127.45873349826336,156.87548182556583,61.22227806520663,106.89782200612791,80.06323297447936
43.709936688249606,101.54454163071748,95.40386598820032,67.53839820989695,69.43292414012244,26.89883442378269,54.63631598270376,45.08279868852166
6.696879099672519,-5.482807429444077,-25.565674703750517,12.852377356606178,-9.803092912414243,-3.6693924865467524,7.112758144994244,12.227247634161731
-18.143213438915183,-74.61818329039835,-101.423613548473,-25.13371210089902,-60.64748829580979,-23.592219880680126,-25.294026061451017,-11.928219075950485
-27.810053435444708,-95.04145131895062,-118.86176488989986,-41.35220138522683,-74.72118872966362,-30.25262103885329,-38.166661557654315,-24.047291135830235
-24.00107501795435,-72.15520502944322,-84.84836328831555,-37.395174196148155,-56.109865883712146,-25.39562541437811,-33.25145395530569,-24.309043790793456
-11.189358931132789,-20.60213346898355,-17.33626595766129,-19.06505888026519,-15.847522785750233,-13.212200927629015,-15.954020297086856,-15.324146564463089
5.28669891813308,43.45522423607073,65.13627897634213,6.179426700174203,34.21086282727903,1.7645406516183528,7.298979578684351,-1.0187053345710537
19.824890665304405,104.5896463737465,146.02202934174485,30.07644123619551,83.00810449055383,15.411375495227762,29.842610040534026,13.68700188741039
26.370427561877975,145.4005108888423,205.59895785652873,43.41129004440567,117.64042269831836,23.541389701550944,44.16872421311433,22.91313715705755
19.05827373523857,145.40572380094812,217.3380022132901,37.1049667639296,121.85143786534887,21.72512750176276,42.22673158942018,20.777850086204726
-5.535713673254716,87.07689484010903,154.7886541853352,5.6007501940860935,80.55425128413366,6.609952682911017,18.13093267638438,3.6742615852427094
-45.73784516617217,-32.96640455619858,7.632741430769932,-49.190813732374615,-10.836819114484115,-21.78351487464781,-27.940548937370036,-27.32936500362133
-93.99650968079007,-196.25034191091987,-204.97642804447312,-116.66893219987095,-139.29641323877877,-58.69532766606908,-87.78399105823833,-65.89918591381053
-139.27312676063053,-366.00728990401257,-436.07087030160756,-180.92348199703298,-276.09516873536694,-95.75447793544936,-147.4186503875865,-102.6197321052627
-171.6368955167432,-501.9047822661588,-629.3996505108623,-227.365746496012,-388.24554317627525,-124.37145299140698,-192.85631599871326,-128.99558232171924
-186.43886132879624,-577.6258192378587,-744.3796403455784,-248.85073479966758,-453.02228280387584,-139.45644490434626,-216.1087590042438,-141.00230212241573
-185.65940289373032,-590.8618496972045,-772.4535248526369,-247.79690093470114,-466.8785692745561,-141.24657830148,-217.92941447603192,-140.1991846737759
-175.8770035057601,-560.4642150955451,-735.9023584807975,-233.43107781644136,-443.96836150178603,-134.30899599443543,-205.9763728727293,-132.00884916711786
-164.39408562519054,-513.8186427855632,-671.7630764550462,-216.28757401661753,-406.2910913267736,-124.61003121843927,-189.9805714368332,-122.48475354787442
-155.92711007113405,-472.9634556684469,-612.1693115033828,-203.39129703499378,-372.2565071018084,-116.58554858896545,-177.05368933362217,-115.56231459232869
-151.48441723281894,-447.16437447872926,-572.5399287900569,-196.49277408367743,-350.1781222661499,-111.78660807180138,-169.58783330017187,-112.11353677813659
-149.4332659399805,-434.1169579080812,-551.785737578937,-193.42958722494774,-338.8150799599214,-109.39029503106387,-166.12899549705872,-110.79483057642997
-147.56608307899089,-426.4469664311118,-540.5915911903875,-190.97490952912366,-332.45111843137187,-107.73693008919443,-163.8553197878366,-109.72004339809189
-144.82990412860593,-418.37920566082306,-530.6275188680418,-187.30407650538334,-326.31735672113075,-105.77498280441259,-160.89730883213548,-107.88261892233083
-141.93463410035187,-409.13350010119,-519.6258146164042,-182.9816964515104,-319.4621350090796,-103.70246967699093,-157.3981473754195,-105.69685872540163
-140.674740778673,-402.15385772977186,-510.94200427540596,-180.22545298927758,-314.29346829517084,-102.62437586092443,-155.0370893389612,-104.51975051643831
-142.28928639129225,-401.01934179740965,-508.6829147771682,-180.83938139415812,-313.4615243550977,-103.43385435523031,-155.33078256278307,-105.3985651680945
-145.6810584536386,-404.1739894645905,-511.03830390047784,-183.847855253457,-315.7378643463439,-105.48013622585718,-157.57065011017335,-107.67627974408431
