FZ,C3,CZ,C4,PZ,PO7,OZ,PO8
3.4556224674356253,32.37003736616278,28.830613909768335,3.8003899952099522,16.167064282722222,7.649712367334426,7.40618346518785,1.8439362094611849
-9.093501880148304,5.477311438664453,-11.197134683450297,-10.894822941071693,-2.188154397384058,6.856967320200469,-2.418952095938677,-5.909981441900846
-18.861913933360192,-16.74256455391322,-42.62625781898539,-21.72068962645096,-16.481233130031544,6.738977607140558,-9.442142431148064,-11.537002338885639
-24.240501004142136,-30.70897483881524,-59.997804676153535,-26.60957450588471,-24.085340314010644,7.4758531594008435,-12.19727372246743,-13.903462702236478
-25.30728726978322,-35.025758977600596,-62.794354528739966,-26.034417496059323,-24.69963966937146,8.55844831071783,-11.165045220980945,-13.274312638416555
-23.47288344836974,-31.161798235021863,-55.17866263320014,-22.364765602280663,-20.332693819801055,9.019758814224659,-8.368252816132332,-10.949523690715917
-20.585923847376833,-23.055657392531415,-43.856401112679514,-18.41026599513529,-14.350426143849,7.974361707941836,-6.239181017970596,-8.453198885395699
-18.10981449393379,-15.784066997696167,-35.34247335600796,-16.109950651173406,-10.144462883078985,5.097951587031507,-6.479009081388397,-6.822913313995736
-16.78285798393203,-14.096427245587387,-34.04088336193461,-15.99675814016448,-10.13648367126658,0.7248064822985429,-9.530260619745471,-6.358457925025274
-16.712623207732562,-21.218674449052024,-41.50823582775234,-17.42527983799884,-15.32780501746027,-4.402894600431759,-14.735031649543828,-6.800801455244196
-17.57680119922359,-37.51792257518615,-56.19369838232387,-19.168164900697338,-25.012754088094518,-9.387429539088123,-20.767569566972504,-7.669293120026067
-18.72584300407038,-58.871390694623656,-73.13166894280616,-20.040014376598773,-36.39334539545088,-13.17855498360021,-25.95232444790867,-8.528609166831098
-19.281436547394552,-75.9779585263723,-84.26228029634916,-19.40888026168991,-44.57724568017641,-14.486707931888466,-28.48709991798445,-9.131890233042652
-18.41341560917446,-76.540563446231,-80.59061248906858,-17.499917095154135,-43.798324694897715,-11.998634241833141,-26.847764865812117,-9.475358084111361
-15.760749965914767,-50.660865338848204,-56.17693264758366,-15.333766932052162,-29.939360833984708,-5.023800300736188,-20.438499129434522,-9.769801616698917
-11.715732705645866,3.135967570633494,-11.944972851562028,-14.228543456273826,-3.1098141245881257,5.81139733421273,-10.128354598095543,-10.310848776248843
-7.311655710099581,75.30371505402825,43.41212592818827,-15.076360189048643,31.526741041969675,18.420169801713122,1.814358559636248,-11.287234049344736
-3.734332657883654,148.4592343971756,96.59689783309389,-17.824089573262775,65.5697359289872,29.93660908698034,12.53326501242993,-12.637656544700244
-1.75345013682111,204.95234176266615,135.4383744758427,-21.493625904578906,91.00612210873695,37.906674153230675,19.758954716477184,-14.055604473814736
-1.4149460893344412,234.51723158779293,153.97167235898897,-24.72075245610894,103.59967197711379,41.30291000054794,22.694732184497624,-15.144883335295903
-2.1427059803082726,237.74512700926658,154.12078040800182,-26.458768145388174,104.1900321280759,40.78934127190064,22.137597509208156,-15.627168015628063
-3.1309403350551976,223.92109367421202,143.44332297255556,-26.423604915102626,97.41919591843508,38.15044550426997,19.840006215319267,-15.47286287458361
-3.756022745927912,205.22304721825594,130.7256643032871,-25.070498438362712,88.94780461423781,35.30321275446657,17.55920423388485,-14.884224152972862
-3.7840537613882,191.01368214447191,122.118557130042,-23.20945114392579,82.89668643403962,33.48877731928345,16.347314462017604,-14.160532549889892
-3.3302562215778875,185.05301537705904,119.5827345473204,-21.55732784010327,80.72548849243051,33.00680381997591,16.373716427770383,-13.545148855858049
-2.6810384261912557,186.04863272322467,121.64909764060512,-20.478070790810225,81.62818356113176,33.44815964291508,17.190337941644568,-13.144121880509104
-2.1149696452257807,190.07945213966158,125.30754291975595,-19.96724926471482,83.71370282973099,34.13245880654688,18.150183124936174,-12.934893428619514
-1.788741184495107,193.16443695890635,127.81842865498889,-19.781767725370102,85.18331569726698,34.4892189580199,18.748371900626825,-12.82192884763491
-1.6937853264596658,193.02778516893127,127.85258388339628,-19.60130203957293,85.09917143258114,34.280696696926434,18.80762701314236,-12.692465762884973
-1.6835935591139213,189.77470056964088,125.80966477147662,-19.17236554912754,83.63347657832323,33.65305007497599,18.502512140751776,-12.45969001632376
-1.5723450220276085,185.39466730907122,123.2981732806765,-18.415436025883718,81.77612749237548,33.00713451518677,18.218395083088343,-12.098305413015025
-1.2649242780208927,182.2753923176561,121.97906635392658,-17.45444281581475,80.61196391369846,32.72240272604627,18.287316369890515,-11.661935732395168
-0.8327002440497785,181.50621565912837,122.39459698644404,-16.534044877332917,80.5525258026017,32.87889337139583,18.7456332288906,-11.259396766967603
-0.47078554626386854,182.09731993952605,123.56966567976072,-15.861863214486243,81.0369217356666,33.174300758831315,19.289005501877178,-10.990142277029786
-0.36139813535783166,181.7041471858739,123.69955001934338,-15.480056445177945,80.93328140314064,33.11611978182224,19.47404730518155,-10.877829405371395
-0.5391588323936986,178.33905217966958,121.44776106024017,-15.247573977236279,79.3593667702911,32.36525566673777,19.031520878292735,-10.847913014236841
-0.8409998481593035,171.89472415853166,116.99381887572602,-14.922176185481447,76.36950740361486,31.007786129245932,18.08780225419,-10.760776462138377
-0.9580510230217423,164.6046894276996,112.25294651596215,-14.274647891322603,73.12157013864109,29.604090719568475,17.1774505195679,-10.476432655949838
-0.5666637570693485,160.28279622553686,110.191032988191,-13.194357357766537,71.46724884159475,28.99299846330054,17.045368905113353,-9.924352380174726
0.48673137942888933,162.5751152153501,113.41163605256313,-11.78471367772918,73.08063934905391,29.894850112143704,18.283848080825905,-9.16516061948164
1.9954174921663228,172.5901073448906,122.3285214560038,-10.418388677112766,78.31587260261253,32.40044617297692,20.883828293745268,-8.422386093659192
3.309412318934637,186.7240731186044,133.63401348303555,-9.664285636554004,85.21916708851553,35.54895592044156,23.889116676340723,-8.039156376314686
3.4941137289498463,196.17947318441568,140.23315135244516,-10.031226647901653,89.42317342926547,37.32389563702363,25.44949361021371,-8.329995311587945
1.7496111400824994,189.53959418835908,133.53846698231118,-11.627769347780958,85.51956518163074,35.31210056235249,23.466040746940088,-9.376964193785335
-2.103241872601204,158.0791813117631,107.61981157170091,-13.977409432406187,69.65103749444926,27.87577051001992,16.64472935233589,-10.904333278059525
-7.394018023692189,101.14089227420001,63.01323387411205,-16.18427722447457,41.97355312456873,15.218421446177398,5.3716516859730445,-12.360693231418464
-12.847163161745803,27.95819135391148,7.548188338608844,-17.406028251234012,7.293278281959864,-0.3939222696316617,-8.221911729458292,-13.210513959600062
-17.203867148419757,-45.93297007998511,-46.8666642254817,-17.33606895869315,-26.873471246190306,-15.551017629416105,-21.178993921697256,-13.268316546319296
-19.83047777622807,-105.96572612684699,-89.83144150963633,-16.340242896097507,-53.84043065615485,-27.28747176602174,-31.11140298235893,-12.832087111106034
-20.888579337759328,-144.95871868421432,-116.88378531215939,-15.111854512528614,-70.66490954340662,-34.349532286295805,-37.165902644274816,-12.47430912752246
-20.941540866600782,-164.44175781241705,-129.84227193284957,-14.07690745565054,-78.50059567640031,-37.31296453589796,-39.915839992192915,-12.591085261474987
-20.310443674454696,-170.21570061874905,-133.0461921703086,-13.020918789878536,-80.25791909212408,-37.53680471857367,-40.31761816878904,-13.025720749668874
-18.71319922462548,-165.79272894566677,-128.57752176737978,-11.279508107320167,-77.4689964005314,-35.80513534134509,-38.59805036113832,-13.078871931059702
-15.504425017619498,-148.99737815687791,-114.31924447364267,-8.381156262047847,-68.86940537376479,-31.72744610139159,-33.99273021860398,-11.94878014960876
-10.335347562285454,-114.44433553166225,-86.37686143658048,-4.623262996042339,-51.818007395921946,-24.33388805522731,-25.5546403754751,-9.306961040770403
-3.697526510096714,-59.83393508085268,-43.83276590735391,-1.0837761271988122,-25.37582606945161,-13.333835902592485,-13.369755962616708,-5.593773212626826
3.0971812033392094,9.068851127664056,8.059028836654155,0.979345610115407,7.457872953677411,0.00271982539549967,0.8169631474398281,-1.822394179494651
8.51092923029285,78.86747719816327,58.88328151228473,0.9045759170867043,40.17956360804861,13.058832381307086,14.103754763915006,0.9652997382766945
11.543916912136728,134.35888471641823,97.73973544324068,-0.9742753277687756,65.68808065483213,23.057808916206817,23.759373398308416,2.224408499341987
12.173216998463714,165.8550353036988,118.45508687120534,-3.555430493845233,79.71064428787527,28.41313472554629,28.50171908036153,2.1007310748320074
11.228152896294809,173.26155847541233,122.00939307332672,-5.621035683788298,82.54825986319342,29.36796018745646,28.934419442111025,1.2302945200710562
9.84873979606051,164.6793074067255,114.95865185591497,-6.454539225135145,78.22746090954364,27.595599757040638,26.959699604407465,0.3324871359286845
8.908485206997169,151.05438055312635,105.32062347978683,-6.056832147554501,71.9047536819716,25.138417442206055,24.65002167321353,-0.13133758475263818
8.726170212605577,140.6263738819194,98.70814598878461,-4.925281640171043,67.31288471863337,23.412973793175098,23.309173258384043,-0.06882026357787838
9.134394981903446,136.27106659885845,96.73621409506437,-3.650378481029735,65.6298414254117,22.811953695638262,23.178354080785102,0.3447623010259069
9.747155385637942,136.3357849894261,97.86976978900253,-2.622314774912948,65.95969188851389,22.94254149184955,23.749422132571738,0.8503088624485916
10.227278375940971,137.45248425670835,99.5164020523553,-1.9587267603905778,66.67896216423404,23.180000750195852,24.338369631674627,1.253854044355346
10.448198808309316,137.36114963356223,100.01514473203565,-1.5812562726324488,66.74678402298838,23.175419871058388,24.57862203576073,1.4954161636307632
10.527262149639467,136.46406390511126,99.69604615943784,-1.3335257494457493,66.40545041576985,23.09908380777367,24.643681945736,1.6392323308744354
10.726093439570255,137.54594943809985,100.62934552008788,-1.0935103861499997,67.01136590549233,23.526834794301127,25.119957122088724,1.7981289833120147
11.239592661860744,143.62425161900475,105.03528712553083,-0.8551450030233266,69.98574446761285,24.9810589883113,26.54728823776584,2.0246548798756203
11.978509445859432,154.7685160212514,112.99274014000257,-0.7223705440297473,75.30856908811678,27.32189139980421,28.82725559471068,2.238351209821787
12.51204804834894,165.8411302481318,120.88315803424932,-0.780250539310099,80.49954768226297,29.38959156146444,30.89006882082868,2.259054218255933
12.262407376201713,167.28212222484137,122.03358702666421,-0.9240794157175735,81.0614451919495,29.281043513267136,30.969579232717283,1.94397282762472
10.854426390827925,149.39768667135576,109.75223227730481,-0.8163333481949409,72.53546897743901,25.26943003524767,27.46521514403111,1.332226672933607
8.38713359239879,107.97955422588537,81.14532949278626,-0.06152333001423244,53.101510686473354,16.86997554076683,19.911471515531645,0.6794318059358917
5.442445790921171,47.63746885163232,39.27133571327925,1.5169607068664437,25.050867125638423,5.341799314539521,9.41864805039127,0.3463889701921595
2.8348654454604723,-19.60943511254543,-7.870465685711314,3.7382462085669106,-5.9427702990643,-6.7788584055271235,-1.745908840137745,0.6175920259449263
1.2724155205461751,-79.84963928217775,-50.948899559365735,6.2035034947574,-33.40226190366984,-16.884645713478918,-11.20828750667271,1.5711275693480873
1.1255001111050085,-123.47942509326113,-83.23731013124645,8.607851373481113,-52.88701360833468,-23.49756684047746,-17.52526267428816,3.072350931134197
2.3900160351665356,-148.21302038976782,-102.49173652666698,10.943535502743575,-63.3510664814244,-26.70324749857835,-20.583549721756903,4.865109705226361
4.776493564057868,-157.35718667849022,-109.97330252693436,13.364744513267773,-66.36173816731245,-27.59310137693971,-21.19964783191033,6.660852374076551
7.782737134408303,-155.27370726845896,-107.94788548095516,15.750656713438008,-64.08065839028971,-27.210751991026708,-20.33668049972563,8.140033806270653
10.687538183751336,-143.86339365744615,-97.95363277024363,17.305772972015422,-57.718344563685726,-25.84121217901382,-18.581371895996458,8.88655097444979
12.566930873259079,-122.67615932231693,-81.09955582704025,16.619639271344184,-47.56170328217672,-23.143124023904683,-16.204858819920407,8.384925923068062
12.495553488454346,-91.98283900303174,-59.624457678051485,12.331300557537828,-34.20991416452862,-18.894761146582393,-13.571048018677255,6.194548405290117
9.948119471997122,-55.699011146415835,-37.795926386618724,4.063478964012841,-19.65106900051235,-13.641670886133742,-11.379521837482985,2.2541140535612296
5.180888431569683,-21.393047001201776,-20.920067221336136,-7.00746224556377,-7.075923818998963,-8.682357390870754,-10.453882368806013,-2.896670826725622
-0.7115132363659563,2.837440838536595,-12.98030057094447,-18.415366289677486,0.5161384642454855,-5.4145835383078404,-11.246138520839008,-8.191718528327746
-6.193785127396665,12.35213044621045,-14.638450789400911,-27.435774778701745,1.864632421798456,-4.563536202250746,-13.492201968850859,-12.435922070246031
-9.96149230542861,8.037396546487287,-23.06356762900536,-32.30502116699349,-1.9745543704231991,-5.848793366406039,-16.32194546469093,-14.822122284265848
-11.49803383513093,-4.6845782179247095,-33.62398722678681,-32.925803974619846,-8.331601230239556,-8.254266103114631,-18.74402513949494,-15.269731360891218
-11.187673019996828,-18.759251538566943,-42.107432314565955,-30.7028343550246,-14.252391269265964,-10.60549463970341,-20.125679666712667,-14.394893152976575
-9.950521975021031,-28.16152092907554,-45.9797342809417,-27.699222177162216,-17.511352183162444,-12.015289111077928,-20.32999487542918,-13.150956563477314
-8.679734695330918,-29.142483131865287,-44.33252125242792,-25.657164482768277,-16.931093583721974,-12.010721812553284,-19.512879328111627,-12.362160873970726
-7.848976888064802,-20.591811674069874,-37.41752976306052,-25.3683052014338,-12.39153439936706,-10.5001827266299,-17.88237213052167,-12.39043429999851
-7.4645947842410845,-4.529587859140654,-26.715679107493532,-26.545437230091192,-5.012584508368282,-7.806265927840217,-15.68074072478825,-13.045690727229841
-7.259273685634452,13.424458206007037,-15.369228889145587,-28.070005319427743,2.628295008453756,-4.745000688042629,-13.331571709470694,-13.7078710289791
-6.911743777602122,24.95183423805611,-7.889578344884574,-28.450012271733723,6.9074905009283505,-2.5097035691365277,-11.469886461181646,-13.57856205478419
-6.176318829352323,22.135450529002256,-8.488772558976345,-26.397308144401954,4.54162017709765,-2.2184642344642262,-10.693494889957686,-11.997450458231414
-4.946830095781757,1.5949884695858758,-18.774716034119923,-21.40999255602187,-5.640709682470396,-4.320825573258775,-11.192438657130033,-8.754008746005608
-3.303941451572287,-32.98419118283672,-36.449645978429935,-14.122925376101493,-21.73336399063782,-8.272821623505598,-12.58076907864097,-4.277979815093242
-1.525673329209361,-71.9559023659247,-56.14094202878756,-6.172169476380535,-39.408593569188106,-12.7543061670675,-14.108603926717276,0.41777371643522343
-0.0039809843699146145,-104.1417279420276,-72.00633778830279,0.4624466874241221,-53.92726176262246,-16.331588951644896,-15.124013292269941,4.076411003031934
0.9362377352984501,-122.02564130339317,-80.50366227772882,4.34380232587801,-62.30345128441716,-18.16130999535244,-15.452344338964028,5.699539864849363
1.2264996053315411,-124.66915197656456,-81.6375749014204,5.216710132099703,-64.33926232250325,-18.311325707052646,-15.419905029026625,4.9860722038209415
1.1182951249020276,-116.90072014944452,-78.12264331099773,4.037347891465505,-62.058595550723,-17.54533617246291,-15.522446672698335,2.4900149106840197
1.0453511084716633,-105.80641329586673,-73.34806116222312,2.386022266686366,-58.15394443483502,-16.77436207126615,-16.012020298782605,-0.5932556771494433
1.3528936471453714,-97.03254105852098,-69.647358834398,1.6307188462680018,-54.58079029194096,-16.552117816486632,-16.717791117987257,-2.9184125414210143
2.0816289154497376,-92.91882283744046,-67.76321768519726,2.3403777760466755,-52.04942715740767,-16.876278623969103,-17.194611802630924,-3.524315461957621
2.9657583034543378,-92.76040033160893,-67.28928749888266,4.232508721641614,-50.34157080157393,-17.30331338980287,-17.027205830214786,-2.1666728703499984
3.631443972217247,-94.19552231223096,-67.34359704509147,6.554998943299216,-48.89481018563336,-17.22794985011082,-16.053811945046196,0.6698613415454396
3.82235258872031,-94.67332992514915,-67.04642342256011,8.562594273777247,-47.23500319163709,-16.191053209708006,-14.419202441869071,4.034197153487172
3.4849713210225812,-92.57370972435254,-65.86285218884892,9.809333461163977,-45.20406559075022,-14.135692376456479,-12.515788139258802,6.898812925376667
2.696976536385094,-87.85184175049298,-63.887237667936354,10.202578346260191,-43.05348932301753,-11.518750032395612,-10.87337898262495,8.519963397810805
1.5517191731060755,-81.97070501639341,-61.86551383515172,9.913047825256566,-41.35922925462035,-9.168727767895918,-9.988030725427887,8.653146406045243
0.10463217956080866,-77.01221413573003,-60.77035630780557,9.231701055466164,-40.705037496042564,-7.888740376843422,-10.096222980843901,7.5689935028438935
-1.6067456056122909,-74.44367008639405,-61.16803490081748,8.41885718059829,-41.29357667733186,-8.005455818886967,-11.004752697100386,5.885693766872024
-3.51437547339733,-74.40668934292371,-62.89193202245922,7.599492933951943,-42.78851934496044,-9.156604308972707,-12.120889625662791,4.3027076580109
-5.473305693297233,-75.96954279949831,-65.24651887087603,6.771826829989627,-44.50928121403361,-10.463006666384736,-12.70187824555878,3.3512146611940645
-7.230661205842923,-77.91250337235503,-67.43552352759947,5.926267869577437,-45.77132154075043,-10.969134187890955,-12.176745634516987,3.2471822521464704
-8.44631407721268,-79.27614770118639,-68.79078500021657,5.159477169943317,-46.0866981270763,-10.096013289329907,-10.366109862283547,3.8683281368207703
-8.80638798801426,-79.42229818823542,-68.77263720808898,4.654536785983469,-45.1883019325514,-7.91052529545361,-7.54431407573734,4.827553116705926
-8.198516356581687,-77.99737637322544,-67.04585185727079,4.529396278722886,-43.06473715661611,-5.145251488384438,-4.389785204452419,5.606165620405374
-6.825576447380565,-75.13495493343663,-63.75504369698887,4.697725442997324,-40.09119569020808,-2.9714579484266004,-1.8486222638832719,5.718498627964735
-5.145086729105554,-71.66038804027545,-59.70648968296589,4.879174065578433,-37.07544562041006,-2.5625323542192384,-0.879090314053532,4.874651529335725
-3.657383225504508,-68.83531418856673,-56.11870606732932,4.751142692316821,-35.005822315490974,-4.5773024443723855,-2.0915351992213806,3.0915036387307646
-2.6973181349027238,-67.66209567756972,-54.03602288899913,4.115230678724789,-34.57978121225621,-8.807377965926717,-5.433324969461925,0.7031248884783187
-2.373461764962537,-68.32725748166887,-53.869103117179826,2.9713243508933265,-35.857890181182185,-14.21508176195535,-10.123791697480526,-1.742207300497318
-2.661718991814042,-70.25180974417165,-55.37770030286613,1.491885564904249,-38.296672697567246,-19.373856879182856,-14.916588482940991,-3.660587504710932
-3.54209357219181,-72.57748285021313,-57.959075101748105,-0.05807042217655713,-41.075181193004134,-23.06423628038198,-18.559543251109076,-4.622105330770512
-5.068231865464333,-74.56324438901116,-60.91243995051224,-1.4274209111969218,-43.43568849916644,-24.69939061960113,-20.222681865092465,-4.493517895690281
-7.337348127976834,-75.67397532440789,-63.56972293851572,-2.490109456107996,-44.87224010500701,-24.404149212051784,-19.72781816948992,-3.488791611221171
-10.387014541272777,-75.59610854448918,-65.4160633686132,-3.2983648430781054,-45.19526946097808,-22.791028296220098,-17.532295730641117,-2.09004027879801
-14.063752070169102,-74.3775228579944,-66.2352718726226,-4.008545669000654,-44.52243815906312,-20.5984481355093,-14.498517824660446,-0.8385339185362015
-17.930546501129136,-72.49638135371295,-66.11121583481813,-4.708383525702128,-43.16028749679836,-18.361953673791458,-11.534731603992125,-0.08128792883672006
-21.306380159157744,-70.5835396153597,-65.19784615247512,-5.296053197317569,-41.379155181240954,-16.250446408871188,-9.256235849828947,0.17252236619239347
-23.4909322301175,-68.95277424486336,-63.49269400073193,-5.546767087580062,-39.246697316903294,-14.137144315409621,-7.835884076448644,0.17787134262104526
-24.09365880625516,-67.43596680229106,-60.93239833103454,-5.328408059067669,-36.71005608000922,-11.857747392099782,-7.10902827789092,0.2152310330676047
-23.25962122969827,-65.72468676375144,-57.75576106061718,-4.769766000506938,-33.872770370259,-9.471653444385716,-6.815941272579448,0.3758064333809125
-21.610271835197715,-63.80359497200789,-54.67939267627803,-4.22026914479763,-31.156182508627616,-7.315937671546402,-6.772985941759018,0.5377607499595596
-19.91073527977596,-61.9354483178309,-52.558206336455434,-4.033085775758583,-29.113214852639757,-5.799898298906111,-6.865107742707557,0.5355181685849002
-18.67538760988007,-60.22478453431665,-51.774143204381936,-4.349056506809045,-28.034641874635767,-5.111385685839356,-6.942713500241335,0.36732160625121324
-17.95369701334115,-58.3311669185383,-51.937443748097046,-5.025022557558089,-27.729013896698447,-5.077085419895883,-6.782076005028368,0.26941458342801305
-17.387711520045336,-55.72122469621969,-52.174788327871966,-5.711798895187607,-27.677203468658902,-5.265330939442226,-6.163457163317461,0.601778756580418
-16.45334247643372,-52.18386700793805,-51.68997493403077,-6.002488367031998,-27.377092251332773,-5.209756091608442,-4.978628837529914,1.6269145062105692
-14.731129882858903,-48.04249615570842,-50.102691622307844,-5.586823779476712,-26.55452213209382,-4.583365091212317,-3.26952693512341,3.320936340796676
-12.097777216606762,-43.91517051168297,-47.4367397029708,-4.379385359813094,-25.14557768835518,-3.2811230295114218,-1.2096205103039352,5.323613907341674
-8.793568856840611,-40.39709541684914,-44.00706777916921,-2.5782332992924077,-23.219801177964175,-1.48160376233051,0.8970020860329334,7.0571178626314515
-5.353057576242563,-37.98641483692961,-40.38712213998831,-0.6039921046448623,-20.98721148886721,0.29534542752071513,2.5971556381470204,7.96253129632282
-2.420636237371068,-37.10468832165947,-37.32903109668421,1.066614555845123,-18.81351297739632,1.2467191141478453,3.3472460780637006,7.73924182126049
-0.5327545489726645,-37.90934661116512,-35.47708993022948,2.0674224644340313,-17.106778487030113,0.5627212568793933,2.7073338110477816,6.455134442360174
0.020527481320408724,-39.99416057060854,-35.02837723199233,2.2027493170162056,-16.126382539399632,-2.167095542466255,0.5741194977083074,4.460490604624275
-0.79729901219936,-42.42073380624768,-35.67695728850229,1.4084668954268846,-15.912230397278615,-6.673963378834002,-2.724503632643056,2.1678000011068983
-2.835121103098594,-44.239583468356486,-36.907199276902936,-0.2746191962515411,-16.39836236978227,-12.053857458704726,-6.547693092143317,-0.14339654209184127
-5.7948700442785235,-45.0497351931387,-38.29950911437221,-2.6442490875646154,-17.528060068860476,-17.10008364380479,-10.176063952140494,-2.366941709218272
-9.224249140433644,-45.027272600961105,-39.52236086236654,-5.26768657633907,-19.179793401729242,-20.715089228223956,-13.012373961854633,-4.461470019317482
-12.535261306790483,-44.433304300628734,-40.115917864259146,-7.53727897709863,-20.981211144397363,-22.208824036407602,-14.684765515209547,-6.313188129007357
-15.12038286929035,-43.17694526992605,-39.46216399232338,-8.889236089743966,-22.28297692981067,-21.41482407905059,-15.077657355287663,-7.687876314407444
-16.543340352270548,-40.8710890627595,-37.10473835462249,-9.069663763294573,-22.419098387963494,-18.645408311927657,-14.318251404531331,-8.301472496353226
-16.7067362970205,-37.22345738375464,-33.14368298525746,-8.286771744729268,-21.074327974172576,-14.539488489983599,-12.721482852159104,-7.9627318639361375
-15.91417767352723,-32.35227002556614,-28.356490001300475,-7.172667659096677,-18.49163810904387,-9.882973030585955,-10.71854937260625,-6.719697169598119
-14.800546854794764,-26.934356666143618,-24.027897314475755,-6.570823486941744,-15.449829045165773,-5.4929870404691785,-8.821088130031741,-4.939259762623929
-14.127051010289069,-22.3579529267953,-21.685530664845693,-7.1902854840814365,-13.107423891858563,-2.1865979125208,-7.614650813575529,-3.244448264254083
-14.448883960849907,-20.745851730864757,-22.729452290384057,-9.191104058151678,-12.718702846895052,-0.724630767918519,-7.666464297079156,-2.269595276447259
-15.739430926219475,-24.281191625421656,-27.706580312439584,-11.863694977617316,-15.091223169036507,-1.5845849521839226,-9.237521520095642,-2.306845191174756
-17.17922238810477,-33.589108529919834,-35.280103774524825,-13.658283038094277,-19.827234269116538,-4.582679927279235,-11.889489478995404,-3.0481665042675297
-17.342874983150114,-46.032736148609274,-41.63603464956745,-12.72973357766391,-24.81974330372936,-8.61528384020773,-14.310000959046674,-3.640086041977844
-14.82615775078043,-55.538509033145374,-41.30385500982853,-7.8464913183238565,-26.64535299581446,-11.853123419672267,-14.667586219868205,-3.0963005428646024
-9.036482917534158,-54.890062189727054,-29.57514438474186,0.8152348379571736,-22.02949805237702,-12.462205575207935,-11.466827697428021,-0.858773399800707
-0.6778706957164307,-39.603159349939546,-5.370171674775041,11.512382667873277,-9.718221785692835,-9.51772673909735,-4.451552184296225,2.837109212532815
8.414252233304145,-11.009652916264592,27.312885018739177,21.59402174735843,8.414883717084694,-3.558350470136099,5.037108270074475,7.033409342525309
16.04708350781928,23.646604521178737,60.593320301701176,28.657095172060192,27.876124519328418,3.6047297373527774,14.550427269034852,10.521413660507289
20.627750656711754,54.450163076866495,86.12680315462049,31.560425161670675,43.5311476729438,9.753744727428797,21.63856036650523,12.429717308584143
21.76965852411839,73.49803805615718,98.82445149102294,30.759542953534993,51.935453680037796,13.301757831298595,24.941416377682174,12.592045920427172
20.262450762886175,78.18224111097071,98.73210396983853,27.873713785045418,52.66103564980236,13.901549633784326,24.655568824270325,11.527425362561589
17.54072566473411,71.37458275510122,90.23582295974703,24.853290877366454,47.997574830225574,12.351535890398393,22.20626127731829,10.115921191708125
15.052300857625815,59.14080465385833,79.56509042601355,23.238186149862138,41.53539309114618,10.014868456899247,19.460681835364817,9.194599758346891
13.847348303459679,48.042473660864545,72.34596562325466,23.754477395122425,36.69745635540361,8.209782468009296,17.989804903164877,9.254430430270643
14.417217712290897,43.44013727267282,72.17865997802755,26.191316529535143,35.86236139426029,7.851781884207407,18.641808274041125,10.28849653511545
16.62700311385808,48.53402909103628,79.95324421685027,29.441204064497878,39.920732127334325,9.291352480362749,21.36072727493722,11.776645364098405
19.673118603659532,63.26591802840408,93.34891442986935,31.743914837487633,47.889033462443344,12.18808841972698,25.132689068860415,12.821445344424896
22.19370413983473,83.29918339097996,106.81629965575422,31.246991379058308,56.73411753431561,15.46016834747287,28.144265301569583,12.46484317323022
22.682329414119824,100.51711354119657,112.97588311937797,26.800905894857294,62.02947238884886,17.52727501399537,28.334516888456857,10.122425289245468
20.133608088834652,106.0023871079068,105.65307026154265,18.615379520079927,59.6993369933746,16.93260737512349,24.286530125126614,5.933943597058163
14.59626553927651,94.44242869524095,83.21952499481758,8.345262642838962,48.136338736216516,13.08347357575713,16.03581332459294,0.8014396596473811
7.280705694737346,67.31366707442761,50.110629607208,-1.5298120353318585,29.379581638918644,6.655437134873031,5.273356158450271,-3.9564346613694727
0.11046703605044463,32.63813841301622,15.271581607211235,-8.729883509320569,8.467235428690573,-0.6236961465686376,-5.2563832757786155,-7.163451712378524
-5.06042509393693,1.2880800077390298,-11.772320571055914,-12.055453219525184,-8.767831224611877,-6.697270132790318,-12.861444861849055,-8.247391940459702
-7.157200920583529,-17.973556415131437,-25.01544630593897,-11.696026408322346,-18.204387867362314,-9.99399062704625,-15.917236437327718,-7.36372269259224
-6.193213812145662,-21.8989103759904,-24.043405776523805,-8.913952504753473,-18.879629641625584,-9.914327992312211,-14.304715843869205,-5.167027973512689
-3.1121646714922258,-13.092174217104944,-13.314184520638872,-5.39379280784865,-12.809914658346111,-6.8382727857913785,-9.18489642706989,-2.426776562948662
0.6657676474442022,2.126191517093312,0.3950603779049479,-2.6196460116288636,-3.663734693280781,-1.8155832747338703,-2.3963681665721857,0.26999910410510247
3.7684005834174417,16.528047198664023,10.713994966090862,-1.4610811213583397,4.751349401656925,3.7927739262467792,4.156040884396542,2.6151843452974117
5.330267112707483,24.145171492352947,13.54364811721295,-1.9516966435523417,9.567628567989154,8.60535006240714,8.957805116250684,4.533108357259536
5.316780498095628,21.74108079677135,8.052273187466835,-3.2332659838963616,9.516722530109096,11.527734071941447,11.238847869280438,6.114883984293365
4.609775361165593,9.9874054655658,-2.9249670718250473,-3.755280861625417,5.370475784949894,12.148042875346299,11.255206867734705,7.586906819389455
4.720772440389301,-6.0025308158880755,-13.341644421303231,-1.8294583343822386,-0.006354678824168694,11.057627460254434,10.330104655821021,9.264457427309194
7.127604423944884,-17.85298052309076,-15.821504530442793,3.575333585589734,-2.4556438744304776,9.76928322720011,10.42175069084821,11.427748524859137
12.493573795779472,-17.265152357287775,-4.822582137792756,12.185439921900144,1.7241924198516083,10.073511209077301,13.238836042083937,14.14576687598624
20.204680672537897,-0.23523431050591764,20.321749035136122,22.355057876720963,13.80533089673278,13.095848974150174,19.31783474149497,17.16499812483287
28.54851617578342,30.35453765531827,54.412701466314765,31.717129119921413,31.647010602814287,18.626555287507752,27.635889596089353,19.973355942462906
35.487325732993895,65.69203403857652,88.42168901983173,38.23788721519916,50.495030688469136,25.188144659619937,36.06421212799788,22.03516215932595
39.59892982082433,95.29366561117706,113.64783786894988,41.08194811812322,65.25105571123046,30.832178545601373,42.435022201060654,23.060611841879812
40.64932861884372,112.09988740228881,125.64418086223424,40.81070935406699,72.8987376062069,34.16305825720072,45.58643991489292,23.13622039214505
39.50885270975204,115.32977828210068,125.65044502177216,38.87730179471102,73.64145714890076,34.948092600233984,45.77361372149011,22.64124295607902
37.55204464774527,109.587131516299,118.93079565253929,36.81820067299391,70.19429388402624,33.99819977425046,44.28267771507036,22.030287960073625
35.96985887839649,101.33484439439454,111.44428010129187,35.64506830166842,65.93051862935862,32.5284365584578,42.61221630063737,21.639362843207124
35.3716051423641,95.420856338379,107.09883811833807,35.67349523516249,63.21168216833733,31.502108903075722,41.78254222918764,21.611985321086475
35.76230693952961,93.64696244361342,106.91242022782166,36.67490104984735,62.780361395848225,31.32374574573616,42.09047392050925,21.92278162632485
36.73780071907941,95.36138584669999,109.77092475385268,38.11378235791318,64.11998203341456,31.887437017332985,43.24077862398619,22.42484908196825
37.72298478720346,98.76806429197214,113.65948562929266,39.35648386265025,66.13996301103226,32.780698408809826,44.620105843449444,22.89414691238185
38.19757402753105,101.97171190365397,116.65076575054364,39.877149307856676,67.7472337822967,33.50842353485112,45.58347218308995,23.100768855221904
37.90858513444289,103.70350914214625,117.62205557865684,39.46855055516387,68.27921748610892,33.72551171906016,45.743157788530254,22.919244075997444
37.00920580301382,103.85755187940937,116.72878661212467,38.366282202700766,67.81181438492042,33.440695216179556,45.200083424452906,22.424200818357452
36.020811610335706,103.49094614309257,115.31662881535956,37.188567614633264,67.13023853284805,33.05054804443535,44.55445345229301,21.89519620829689
35.59363798444156,103.93375443079586,115.05192226322892,36.701178937449924,67.19765733836641,33.10261331086821,44.59755523235868,21.70737096824802
36.17263567919898,105.49523641136697,116.72183605772257,37.500074468752,68.39310047802995,33.89910013721462,45.81614856765037,22.151974260512667
37.720007924674995,106.9013540390184,119.57659373803168,39.68937392113001,70.09653776614736,35.20944101650987,47.99629909717415,23.251837647245004
39.58954521595165,106.03062627949734,121.63198917834787,42.61657531407822,70.93047308144305,36.27466697371852,50.13582090201854,24.629516808927384
40.59808667975234,101.23548626976466,120.51082753642625,44.80656531511569,69.3927617655317,36.06157756417475,50.679894335854854,25.498408594497484
39.34336771059384,92.0373233918681,114.16019061075993,44.30677226182236,64.3895565172477,33.60883085640197,47.99073968061564,24.85924216968614
34.77457817048049,78.8380750997679,101.31186794110732,39.50710492172448,55.492649105334934,28.36852258289977,40.96352207640183,21.915280733013233
26.842943317143995,62.43203488053393,82.02760243378297,30.120066736920545,43.117148617185975,20.51533905114762,29.651223425607878,16.554266362910134
16.857079955602273,44.1901142638817,58.401584160216856,17.704398193916525,28.755226279571893,11.134013072028422,15.620282426419942,9.607249402152204
7.185722546030661,26.782687983933013,34.81334828815045,5.2370200431477,15.024573404954019,2.0991806073856423,1.710588703985376,2.6434429380296587
0.2847768048355095,14.327492847967534,16.906969231779932,-4.203830413106558,5.09859234607342,-4.484417205074272,-8.908784389442836,-2.684462369605927
-2.519622484320727,10.908833910670786,9.11841967924511,-8.963746240001624,1.3689444625799132,-7.1754657706671745,-14.090413399353256,-5.431839118818678
-1.8150683391207079,17.62959507885185,11.717734610858207,-9.64637671663133,3.8086638949818057,-6.041226098125645,-13.83660236088294,-5.848633495659804
0.06007914301740247,29.953350547811812,19.195913863877728,-8.7226397378285,9.040115728073973,-2.9505249803993454,-10.54944103520525,-5.258809062270062
0.13155945039697897,37.75916513499124,21.619359298552315,-9.11582711372792,11.078946446891688,-0.9815936526393363,-8.106246173671021,-5.368490637099378
-3.7052478475021284,29.273282865177336,9.020242133121759,-12.595191922141579,3.8797114421301204,-3.070510493086487,-10.085816733794372,-7.375765806965079
-11.61469068548848,-2.673559560391623,-23.232836587454415,-18.91559824350569,-15.456706860804383,-10.538615637175809,-18.020055179469257,-11.378213742293456
-21.777712396906505,-55.78178592031637,-71.26092298277597,-26.14883935352392,-44.69926025063191,-22.329470622512304,-30.6298817083654,-16.395818951138196
-31.37033595486159,-118.21368259337173,-123.89533773320532,-31.906816141155865,-77.11197541354935,-35.447009472486066,-44.49226275531416,-20.958325459005888
-37.975196256677464,-173.85497704846546,-167.86837221906998,-34.65582252643427,-104.5305604453039,-46.39174981498042,-55.76568559986616,-23.88451630067095
-40.63158320658984,-209.98005366730138,-194.04174402934288,-34.36080978709531,-121.17824685929571,-52.79268981037159,-61.99597902898266,-24.80468345839448
-40.00720720565182,-222.7927422810178,-201.09251030177168,-32.20219005473859,-126.02832431500458,-54.328157886983895,-63.021682666414726,-24.17852800964196
-37.73789810202738,-217.75127117725248,-194.76949107653238,-29.70912033319876,-122.47520485454129,-52.4953003711565,-60.59595434947194,-22.890715387076888
-35.45432538939357,-205.07308945262866,-183.70246955700287,-27.944290320962562,-115.82037919376504,-49.51538990324628,-57.13749892922946,-21.73840527596609
-34.09402430089626,-193.80156585970624,-174.7381841157686,-27.1935040269017,-110.36721039438082,-47.144181582389606,-54.471551920010306,-21.116111531940856
-33.779862725197624,-188.12981715101733,-170.52069365202138,-27.16887895192715,-107.84424253073833,-46.06668449011067,-53.24519710510918,-21.00249598996238
-34.13010770018828,-187.4068022955917,-170.0130625847598,-27.416080566465,-107.65998141434987,-46.03193826710866,-53.121067759964035,-21.1481528492051
-34.67157193029361,-188.6103641077661,-170.71389393326808,-27.624092429769426,-108.25468380445254,-46.3984244657798,-53.376266532284006,-21.297701776883343
-35.11476220873183,-189.13274236567247,-170.83507557488232,-27.732672154833047,-108.46555890476291,-46.65864108283072,-53.46376708854112,-21.337447767763052
-35.42720603403463,-188.4869569184052,-170.4214175716803,-27.86874566695545,-108.25515830665323,-46.71169990510119,-53.30209952559968,-21.33128249204263
-35.734485556924156,-188.52100117781046,-171.16336983594744,-28.159805034027492,-108.64527527108798,-46.848285966082486,-53.24335406287201,-21.43898676999116
-36.10742530079883,-192.0808624912619,-174.99429301922856,-28.498778489796667,-110.90178289686939,-47.47443746562569,-53.74136866806765,-21.745098924217523
-36.35482168161824,-200.4140941751687,-181.96039382428248,-28.42611671285712,-115.22893920697983,-48.664867286312244,-54.84411353535416,-22.095240297708187
-36.00251134958143,-210.59798660661988,-188.59002123603457,-27.30842199179583,-119.68611876676793,-49.79798609863893,-55.81673230735105,-22.07791417504713
-34.56105601890513,-215.1081783743237,-188.3188111045603,-24.793213748657884,-120.30493542255891,-49.61285972143405,-55.25648581495617,-21.21626375684323
-31.943666263261704,-204.8295243858037,-174.5089491898496,-21.228433772488028,-112.83227328241098,-46.81114764271543,-51.78284301242018,-19.26938007489599
-28.697056905174897,-174.31291884331165,-144.58944430517255,-17.65804935073493,-95.29080904710897,-40.882095494701716,-44.916634880635236,-16.429954232415632
-25.78472790265063,-125.91292212560468,-102.54067883365579,-15.285713616895896,-69.66225368699808,-32.55592813871441,-35.52527721440467,-13.261676673529879
-24.000725707617192,-69.73410160633019,-57.730191203566754,-14.727195160043067,-41.37971642202982,-23.499949319117107,-25.47249260227101,-10.407748753179137
-23.41157442137437,-19.075229914927213,-20.548688949006255,-15.578128718659624,-16.78526167096925,-15.428264295844631,-16.68161247248556,-8.265155238020636
-23.24319370363418,15.862740737938115,2.4962309177487816,-16.624232695147068,-0.12153795061465508,-9.238173834783698,-10.235889244434937,-6.832876725431109
-22.322128101679365,32.17408767779949,11.2662148832225,-16.56912276257264,8.097040964418861,-4.753995473121363,-6.080692189850429,-5.809562289474568
-19.784604432375964,34.12268446216446,10.832000942372542,-14.79287529832075,10.50179208846496,-1.1901314871786914,-3.433003812070519,-4.84529644289331
-15.582759706550645,29.420279338490065,7.8568704993679,-11.648612231848237,10.744991421449555,2.084848452525475,-1.5077149272974826,-3.7639599443088674
-10.47653868192477,24.755972085063622,7.054374927513564,-8.149342799944565,11.386399362098356,5.083192365662325,-0.00583379949976677,-2.6190374446130105
-5.568729460791612,23.29030887109964,9.693436195637114,-5.319040433000318,13.041695749182939,7.338600670204143,0.9256637942286084,-1.5789461035474512
-1.7287362816965595,24.873626703115896,14.366647439961021,-3.658059778894505,14.936555584893283,8.451163842183327,1.106021544836655,-0.7520631772297175
0.7461086387271524,27.8029704281887,18.81021533866651,-3.0071423798227577,16.06742725173085,8.54392130910937,0.6971129459941806,-0.08075176284905769
2.1138176075651085,30.47452983799921,21.418625958138133,-2.780671918579237,16.057472517440416,8.278924592390476,0.24810641809608847,0.631080496793709
2.9332262921383796,32.15745009856522,21.87769721272084,-2.3462394312397055,15.338615337482162,8.46982900876427,0.41915167920591834,1.5760380073552038
3.7603768047448876,33.03454949166974,21.04372013373402,-1.3387238246251654,14.823810257711346,9.60114063162747,1.6060790534930856,2.764796531143896
4.920895835409873,33.83345350408822,20.35070383768193,0.2009946684692526,15.375505397323543,11.547506197578556,3.689263659281561,3.9187974659467244
6.413724115992788,35.18735333749367,20.975321997748917,1.8953136010186504,17.299030804344586,13.60582177547987,6.024393244322561,4.532744409989226
7.972090699232745,36.97543159043634,23.12106883527141,3.2759660413112655,20.07704657556979,14.804174469240252,7.696413214119099,4.126658248364756
9.260486477004003,38.17399973751897,25.90290086401223,4.079497114127027,22.55998515286552,14.372090119770784,7.960994585104661,2.567635144503192
10.09816337938397,37.549412072319114,28.002302446644723,4.395669405146923,23.609500339626774,12.179972234096448,6.670979290278193,0.24173174102043035
10.556567617365811,34.76829756683731,28.636311643136665,4.547207625851773,22.82023264841142,8.905039828800456,4.420282203543699,-2.083289713819684
10.86447690009977,30.980791677179273,28.087952766632196,4.789031925595255,20.805675273382374,5.776067850817476,2.267325395553045,-3.6500346089916094
11.212820567671272,28.314319816471055,27.44114173349123,5.075779272310181,18.84391995371947,4.004785492182715,1.1849327467626136,-4.1060808470245265
11.624377065047568,28.63309256073616,27.829215574589522,5.090616519517747,18.1581882630171,4.235789485410624,1.5866336820969613,-3.642657755018897
11.971671987421107,32.414204061916195,29.75910728098394,4.506605362260675,19.293726309743825,6.324595968194818,3.208472210928767,-2.807268038349211
12.09091251576662,38.308936749552004,32.80686846602339,3.2795078913437696,21.85720798550953,9.504588079950775,5.353895908849039,-2.136722118583356
11.892766522260175,43.47265282992755,35.69680241103876,1.7824666236272624,24.63979239764683,12.770542744161272,7.292702647024809,-1.842304516331571
11.422809582800847,44.63438907431794,36.80644744151597,0.7150362665253356,26.105212939068906,15.273415860886566,8.596172532830751,-1.7156852403931089
10.867892839346698,39.883203007237235,35.17186630973994,0.807785885252833,25.2252118930123,16.620841226857,9.3030024257107,-1.3006077264308387
10.482328065161957,30.661728442276022,31.66921706653129,2.3813920610260317,22.402030296035992,17.02777198076046,9.880956534464646,-0.2600104941341252
10.396282218186249,22.63888800645956,29.45669521437648,4.899313078342293,19.850285206007193,17.228291688111632,10.960591613517568,1.231181808262534
10.358921214378004,24.046164399547372,32.78852684815092,6.785930168193313,20.82573197386091,18.087347304127398,12.886492438924822,2.304464072989477
9.608039816646635,41.432356504484574,44.35689849895072,5.806278741931827,27.76639938629144,20.03154655808331,15.29419740592872,1.6268210309271576
7.0772755761701625,74.89112747789041,62.68771107858033,0.05766819835862296,40.34110826579788,22.624571249591483,17.028578273049867,-1.9564874471343843
1.9599729068600542,115.90469725001057,81.57247555442362,-10.816905273419541,54.77542777304674,24.620236514820853,16.595465390522122,-8.64479103102696
-5.640975266226876,149.86965939492094,92.4663392476513,-24.899500834407725,65.205177249618,24.561346999359966,13.001107590352289,-17.226535339350544
-14.40278070121198,162.61492857958916,88.84658526074499,-38.345224947264555,66.53678691710583,21.622131420431458,6.515006475959991,-25.307568032810178
-22.10649147815602,147.55586891459453,70.04877064214341,-46.842187104273606,57.23057658983481,16.18396919096449,-1.1569867524043078,-30.229120804736766
-26.525941458647107,109.37451132244564,42.16100481547466,-47.53161672077488,40.32204525413423,9.755981534103688,-7.502870067173711,-30.261567912575817
-26.44204059481506,61.95502707645371,15.249673523617247,-40.373308499197975,22.000922776105348,4.253992517249767,-10.360932630121575,-25.444473050967154
-22.218967734354386,21.692721295459627,-1.5396261451614008,-28.18219368966089,8.560175357474352,1.0725689082556051,-8.959575509426788,-17.59460525718185
-15.611257008870961,0.0049480593854679955,-4.168524873970466,-15.296871751269261,3.496123658378451,0.5137857618084783,-4.233020671318819,-9.456385570383592
-8.920881920341502,-0.8996738146889515,5.088145542379902,-5.613720265381355,6.335607016562402,1.8682505096709747,1.7525531366741123,-3.450992616893027
-3.990856567422126,12.812317914880175,19.73821119048313,-1.0382000304082177,13.60265488165013,3.994551316312677,6.884688939236664,-0.6871420257340811
-1.5690339258072044,31.240077501439647,32.860485070662776,-1.0876343072971077,21.06365592452109,5.959971528947042,9.954332456219246,-0.7077063578982686
-1.2972435335049457,46.042855738210086,40.26811616113742,-3.6662331864590363,25.812131934479574,7.365846221132958,10.978161429772417,-2.0032136314113327
-2.187335518493654,53.50778090635904,41.5228471287829,-6.394873092819868,27.13324995720813,8.28125518505713,10.839888928120375,-2.9145984062450045
-3.2041008198827363,54.46429655108205,38.860729575865214,-7.697027778005486,26.046711010974843,8.988744085842551,10.60462476266506,-2.408265188164384
-3.6234482727410757,52.178436682000395,35.2871324801395,-7.1653823445192675,24.229565069697557,9.799739123133875,10.972592961884821,-0.37706956960786747
-3.088012477234918,50.083149413557464,33.14062091145664,-5.264493859001495,23.1279529595002,11.022757337977446,12.118041624108876,2.5539182854300493
-1.5113109626490497,50.445565131406404,33.57152648992647,-2.7713303902359505,23.576710908044603,12.95939629784307,13.827877896443978,5.482636633250684
0.9878639213570743,53.95364849304414,36.59638751757555,-0.34069162486482324,25.749811927259863,15.776387730152537,15.69904078758698,7.659204571276553
4.077688139000244,59.805104579785365,41.318465942116454,1.6595452377265334,29.205021969093373,19.27850887675741,17.257312133896402,8.718761493099464
7.220595028731283,66.1665134410109,46.27802620332827,3.111572761220346,33.026394485367014,22.78653610967236,18.042524996354622,8.700998958890294
9.779630795428375,71.03532998782228,50.032551057491226,4.034384994564387,36.16619523326889,25.297965589589634,17.74465302112313,7.9265936767719225
11.204960198582377,73.20936630935317,51.78356211759272,4.477772079201921,37.89325928900072,25.892345277994938,16.360872547561033,6.816266727471273
11.208763672713161,72.76303009403422,51.63749718938704,4.467292220780559,38.06451623022346,24.156907093555784,14.255251931799547,5.728236880192943
9.85527963349097,70.72996536347239,50.323051983047165,4.0206435650990375,37.04901436976271,20.416249560763603,12.061610137064093,4.872870384658692
7.549503539892069,68.35935354157142,48.65272848526174,3.2127384032559316,35.434890749943676,15.690214400093808,10.491536336129345,4.32172167730155
4.934688968945024,66.5747990101011,47.16331974668599,2.218465746560555,33.77971065577321,11.410567542499455,10.140624945003571,4.067231405729398
2.7130239646802776,65.85679891777458,46.073497507918155,1.2737048792676129,32.50627541526131,8.956524611981484,11.32001351415994,4.060650545735178
1.4319544859448787,66.27949077864669,45.38225560974816,0.5765073654253859,31.854747749786338,9.117125765756253,13.908271995945551,4.196601775078154
1.322141652055084,67.47723007708132,44.96134445655833,0.2143397708462526,31.8267543715733,11.693999024360892,17.284396409362063,4.2861587587363585
2.268253086446898,68.71436414203086,44.695948997468065,0.17089779080983894,32.20345943727172,15.49898398707259,20.46006960286708,4.088307761057894
3.9172129481760174,69.30091390531386,44.70737330766702,0.3779168802566312,32.71501199200782,18.841706917064066,22.445989369944375,3.421171453559484
5.845121930739973,69.15062243141129,45.44887082827212,0.7451099188489001,33.24693669738592,20.298789196710327,22.6972730616359,2.2969407725768036
7.692275591261821,68.92044502870512,47.41716164635157,1.158117679388959,33.86119604783299,19.347105202822704,21.372703345814315,0.9877410067192132
9.231265594460666,69.47537181451963,50.5850880944563,1.4934514524389038,34.585705577219265,16.51848622784323,19.24026778168282,-0.04083837384719024
10.382325430662577,71.11299354144467,54.0661177490914,1.6766066002242044,35.20701012076035,13.039161128662373,17.290279764327472,-0.32096764253337823
11.190414046431425,73.25211057901474,56.43866898148481,1.7385550033795476,35.33448912541851,10.211510950502566,16.28422471396001,0.3824543133575574
11.766610012316038,74.84190397230884,56.602050021832085,1.8097018569258174,34.72981145370201,8.884440209591657,16.469083138791692,1.9185702051809157
12.217751042377609,75.14195890630694,54.58696094195337,2.0555763606514303,33.63202960176871,9.24471009802127,17.575996809969286,3.788729909141996
12.613713586193395,74.38031576959247,51.82347480839589,2.6127138719691607,32.83504487448498,10.963753707097776,19.0843117119786,5.387493683652586
13.005045590264777,74.0115840010689,50.74714293811675,3.545275349833191,33.477330286149716,13.54496542832828,20.59194154972507,6.312060863654886
13.420786445989236,76.36476022485867,53.82817767490069,4.772160434467522,36.5935111802538,16.59622787169327,22.027249468095782,6.523803990795998
13.762061189082623,83.39575401612213,62.1342423693545,5.941853600713423,42.44094930119374,19.789849092018407,23.483435230629546,6.231771578609229
13.628393855585903,94.62826097125956,73.79414421344106,6.364665263354281,49.725853078343626,22.516221728163494,24.726258719444626,5.588763884642689
12.264875821206221,105.34985274322013,83.27339928709597,5.181025839802491,55.19308598410905,23.5567260211634,24.76547565160514,4.462957118463705
8.80998334369828,106.83195707561302,82.5488354522975,1.8036008120443945,54.226762451719175,21.210939853300914,21.967725291747016,2.5020226942843764
2.8043670580085513,89.60668843606507,64.41780515127196,-3.596644276219689,42.68450511875759,14.035478612511783,14.851722816283969,-0.5365431370253285
-5.337594755046996,48.70797632024735,26.595730797318232,-9.927198425286496,19.26543727074072,1.84599015473947,3.155770822550943,-4.448429159665523
-14.251471073780564,-12.155615977015229,-25.81919335652876,-15.541087694312456,-12.987920856812233,-13.692315293457169,-11.549003962064019,-8.520681943853697
-22.081142030594183,-80.51733325801042,-81.41745932372827,-18.984778281964505,-47.23432721915141,-29.403512467458306,-26.21828797587524,-11.823213344643607
-27.260029935806106,-139.88917976298865,-126.98189274341507,-19.693231909603508,-75.45784336946399,-41.81949509421126,-37.57314805926027,-13.670833876254811
-29.173106973240213,-176.96259574271954,-153.1294413667418,-18.205990504821283,-91.86825291904947,-48.64372261894742,-43.53732393763394,-13.954135220572633
-28.326540817457094,-187.23336578624534,-157.99634414419504,-15.787537094589672,-95.21066384185772,-49.644095192716755,-44.05361931166516,-13.140370643686405
-25.98220411131821,-176.0333497324591,-147.1226444299332,-13.730517548559584,-88.79186837667936,-46.52303917464798,-40.874452675668,-11.981065956473854
-23.551550019813032,-154.97225575679465,-130.11604705940056,-12.797182906711015,-78.48815786138351,-41.96108496109845,-36.581686663441985,-11.144072783956725
-22.114707701782056,-136.46210686762652,-116.40509133313765,-13.07398199806236,-70.11727284947604,-38.468041896612725,-33.48670779771474,-10.98074473570973
-22.209870824454384,-129.2912073252769,-112.17433393701769,-14.161756647113819,-67.50357573060363,-37.59287085422794,-32.92388167608408,-11.484600408814186
-23.78470137901449,-136.39702310527016,-119.00568187505908,-15.439662692170808,-71.62246644365169,-39.61531607805721,-35.0117534278181,-12.365208650672058
-26.1795771140585,-154.2945341487118,-133.63154055210364,-16.254649768286626,-80.47337345799319,-43.54596667059886,-38.69692385465628,-13.16213710451689
-28.19300126635596,-173.69848094917236,-148.5170679489045,-16.088649203352762,-89.47053985031494,-47.34431583145092,-42.00655983446673,-13.398390143097124
-28.388250303682817,-181.92863277965822,-153.81956837769258,-14.769586324304859,-92.65480795388612,-48.47934486949052,-42.628081497739224,-12.783579785833588
-25.65758478668156,-167.6005255079863,-141.04833275631464,-12.626450214139018,-84.9293101430106,-44.8946876989212,-38.83266587503536,-11.393461893550715
-19.79511021661009,-126.25622072778033,-107.26264133864566,-10.399463453898365,-64.62200312723628,-36.057475241245626,-30.38936400588191,-9.688321437885293
-11.721902211765682,-63.78439749357623,-57.40727411598117,-8.865709418517014,-34.89312580533858,-23.46692275587588,-18.89202124126661,-8.29779840346897
-3.1788096307279945,5.069681573946644,-2.917107638001544,-8.391064094290975,-2.819533860481949,-10.166958499100629,-7.161451013112671,-7.6613761727255305
3.9809730124624223,62.95781993807786,43.096388279251336,-8.71168571111539,23.6403549168219,0.601001115368933,2.038886299774643,-7.734495703096799
8.534040831768875,97.67147896174167,71.55583370041752,-9.096197133542372,39.195394331136065,6.891712632314001,7.266373263710684,-7.951943429376139
10.287882092368744,107.06853037115627,80.90574022294518,-8.782845991496902,43.308594148765536,8.852636348198185,8.926266060443194,-7.497639668037455
9.971846941557251,98.66743396721141,76.66459888946149,-7.417736737688471,39.76566668814824,8.39604870595091,8.804873060854726,-5.753110559037328
8.739092147216597,84.6719142287687,67.71838176402515,-5.239008987729662,34.2084426334829,7.999456687311225,8.955815416045281,-2.6865232579637386
7.588330446533869,75.66794296261536,61.74954643179073,-2.9274557680419644,31.206382991196616,9.370302045663287,10.623097827248552,1.034794527697251
6.995758106095654,76.36577208832598,62.19433701528605,-1.2449418076960805,32.410397647116035,12.693356854287826,13.754514525855651,4.282924379512484
6.882490618617947,84.88944427176416,67.75295154198632,-0.6653892938163068,36.415536573416254,16.74451360701043,17.229309227044762,5.956110806980994
6.86913822258103,95.00885135938678,74.02416612017495,-1.1452655109670655,39.99320948686404,19.671412369002184,19.55208300716123,5.496337630516801
6.659430637541814,99.7876786320483,76.20449459930992,-2.0939375034022887,39.94867062401757,20.00518635942632,19.650815195705945,3.207055280940852
6.341283899285705,95.26845779442387,71.8087235776744,-2.581693253873117,34.90904903670674,17.478387986061097,17.47490107551131,0.2092406317289074
6.4059841106959325,83.03770687341617,62.41863489496211,-1.8038470256165415,26.41878369792535,13.325329127580336,14.160220121202984,-1.9962697148258584
7.4178286290588495,70.48131691486347,53.51433325382087,0.3181104479887599,18.748068591848885,9.882359131066611,11.618828984885807,-2.214903562181135
9.505867924599169,67.97980371852034,52.03492256563554,2.7350309295834996,17.16725974491451,9.559644412135508,11.632895203557965,-0.18253307780825714
12.037956759240423,83.75901080810813,62.59262257217387,3.466659176492227,25.257415027493952,13.601339191921175,14.851948743667002,3.216452581726818
13.781065120938678,118.85391411583167,84.39203952630929,0.511864346815929,42.620422013072016,21.269328899218788,20.264556108974077,6.305579131807187
13.534990091796455,165.1431811044403,110.80526643728726,-6.916874954248558,64.38879985278398,29.9506704340669,25.525994379889084,7.40433505724951
10.873356038389593,207.96528506659155,132.0797475021568,-17.567379099953246,83.02146662614463,36.221134606470834,28.043467006049948,5.653954859263219
6.514458692622145,232.28212753762833,139.8083463126626,-28.331722824909697,91.5800683088133,37.37752648335566,26.26748541981292,1.4585858505984046
2.065374185357211,229.34092140352166,130.801921573089,-35.47580885941544,86.84156285311616,32.691658657098955,20.50612940201979,-3.6764003362566084
-0.7258258695566258,200.4770341878101,108.40462959020564,-36.31331881517212,70.68959054220682,23.77011985926032,12.831922257559416,-7.818356020082091
-0.7847714434333848,156.2185025794686,80.72614614443955,-30.435224869212032,49.14198753467841,13.84197483810141,6.127405373126433,-9.45799217615714
1.8420442587709065,111.33240721558188,56.87313299325435,-19.854527451979756,29.59160404718225,6.322656353723437,2.7569076615827846,-8.135788033165905
6.0977226112617355,78.52724920524089,43.192214548970824,-8.043186556138354,17.711165757187985,3.3637903129829403,3.538690985721676,-4.5723050379097065
10.459486262539327,64.03982233242264,41.3486941150355,1.5714724441585368,15.545120705653144,5.104506482832436,7.530385562246762,-0.2765069359590567
13.595474850111565,66.98288019530877,48.89113455776344,6.865566616790932,21.54552526704449,9.951966936271702,12.696202949601483,3.150577055575617
14.805305793192296,81.90089308192098,61.442307259485204,7.487763883882124,32.13435157646594,15.621423065800217,17.018014054442666,4.671607056382181
14.078514535450184,102.08016377917727,74.76832124308923,4.507047935159115,43.53342360811486,20.232189750033324,19.360866392480553,4.136454145633608
11.848128003195967,121.23191924558523,85.42037810356474,-0.33910710538157485,52.71160020159074,22.814975692231897,19.61976861093922,2.188653611227084
8.691207183991459,133.19055678157721,90.14135147513237,-5.270414466346265,57.27963474936215,23.10907189182153,18.22922774724224,-0.10536742058921775
5.198756708028761,131.42990932034527,85.47140403232203,-8.723018292704632,55.15518162256626,21.081800801616783,15.568428614931257,-1.672971557824582
2.0229807238537973,110.40825790232303,68.75548085228527,-9.40355631665811,44.90735909260883,16.719880998470067,11.770387023810477,-1.7398696640233897
-0.09058063313177184,68.73661780070869,40.20993035662365,-6.448957549532363,26.812711258282583,10.262277138119059,6.999561662883305,0.006887067333843564
-0.4678317742749005,11.846267072667896,4.319309380537024,0.2171179433009916,3.690793238402769,2.5558046714132203,1.822490089401018,3.3673581922189104
1.1624469258731938,-48.533856606800185,-31.040866321660225,9.584998615573882,-19.51799728666194,-4.933550144850606,-2.76345717305696,7.68313090346725
4.40809073292282,-98.72290526088324,-57.76086676714347,19.68236173044845,-37.59085335071311,-10.624609650916456,-5.748942314880008,12.020401924494516
8.269095145951347,-129.04640948500798,-71.1681875773944,28.23794178035431,-47.30821197164377,-13.55364136847357,-6.67853712494963,15.468814829705503
11.548686314453523,-137.82770376649245,-71.92013796554023,33.59709407368378,-48.764206653367225,-13.822646827669198,-5.919666964733105,17.460073404399687
13.398776699887748,-131.05092181205703,-64.98211004429349,35.36956394459268,-44.88833375428956,-12.442994130487355,-4.4203079480548055,17.956206414210357
13.664460591867696,-118.25940847176108,-56.54960500412589,34.42898828361136,-39.59287418198519,-10.706836353508244,-3.1470901174312145,17.3988057432318
12.824994085646452,-107.622883921662,-51.04564014507853,32.30328589345581,-35.838393074228925,-9.546865810579211,-2.6250049402305344,16.443829006803618
11.616209971439869,-103.10240478834432,-49.89326202031717,30.37837748774613,-34.74084326438423,-9.273643971330854,-2.8565867232537925,15.641861933119344
10.6253900621067,-104.54961310360305,-52.15845838126404,29.388934404557244,-35.87359472360263,-9.714926646622363,-3.5469745594014412,15.24790728579947
10.103584997955462,-109.48264358202188,-55.92688976578002,29.3794530666126,-38.09861461026207,-10.49848106536692,-4.360129009067571,15.232258241850868
10.015068864809518,-114.89283843088776,-59.364115084574905,29.97433543523529,-40.249528046649175,-11.252811693005278,-5.03761878088572,15.417152736269669
10.17632211369757,-118.43097671202747,-61.26373139597704,30.686411601941636,-41.50635749633099,-11.708456808782053,-5.426800294193119,15.612316167457458
10.362764975963941,-119.12121145257845,-61.34249604824299,31.125196193380148,-41.611763308350184,-11.774943496638805,-5.51599584068724,15.685926626555762
10.380831727306813,-117.60644873028801,-60.283906799320626,31.112991614049747,-40.93431348009559,-11.57970099765761,-5.454219043612914,15.5880996469844
10.140694955181342,-115.61695448606119,-59.294222143852025,30.725023084316366,-40.22066029296544,-11.38571582200573,-5.46825415771768,15.355024893772022
9.70053723314525,-114.7687512720069,-59.28973320710273,30.219255149822555,-40.08591296069074,-11.402675467640323,-5.69919294513333,15.086077343095347
9.220655162298092,-115.54768033396529,-60.338511917164894,29.860573349078404,-40.62722805892813,-11.648376479985625,-6.108672696026315,14.882681086048287
8.842739292899386,-117.30178193066861,-61.83717341200936,29.75318789499259,-41.492963677178714,-11.988094588216118,-6.551676996996771,14.781879270926138
8.600258867702946,-119.07819026121493,-63.15909042397612,29.814175753708064,-42.27921346584934,-12.289094687604171,-6.926312683690295,14.741702772107935
8.437097635836015,-120.34750676339965,-64.0687306081525,29.889907870661112,-42.81262267726121,-12.512871048699656,-7.232410378896823,14.69112077191153
8.288510194377123,-121.01873918623457,-64.60536959603385,29.881242401800506,-43.100886177611805,-12.67371465961643,-7.503121711250848,14.591441839043968
8.118775526079249,-121.12583375853472,-64.83061949172662,29.767066878957653,-43.1754202128487,-12.770770518826584,-7.7370071149623785,14.450991178547222
7.889463705542844,-120.84886803132656,-64.88871380053182,29.55871554513376,-43.120749424500005,-12.811745942583299,-7.934070600344071,14.295918441050006
7.538634020252323,-120.80978729169549,-65.22568669006131,29.287613785690976,-43.21801841500856,-12.885267336543754,-8.169528039698225,14.146519845097632
7.0360278326447725,-121.95154206217178,-66.44744300927115,29.041477280158677,-43.87204605443131,-13.140264598126238,-8.566537950855938,14.023259168449828
6.46151926154242,-124.74112587277355,-68.73188896649947,28.956815144044498,-45.238959627432465,-13.6429360368017,-9.161575360546506,13.952455724252212
5.995933130857095,-128.41362778584687,-71.38885874749612,29.112056863782865,-46.91472753983054,-14.259547052061697,-9.81630683749162,13.93953553055311
5.800034266751026,-131.1738843423353,-73.15244554560088,29.40829283546909,-48.080814317494934,-14.71423387449027,-10.29713676126579,13.933097752891028
5.882419438829919,-131.35881403662455,-73.05290742437063,29.580382336773052,-48.05216391471057,-14.78536489845753,-10.455070155979348,13.83645753902718
6.066953719472886,-128.63465035803011,-71.14913123913144,29.36369276304009,-46.7821543942906,-14.465580138140627,-10.33613823161516,13.580256843556068
6.068035910728089,-124.40681140603466,-68.63479755749321,28.688368441350587,-44.98459523042094,-13.978279563212979,-10.153367567615074,13.197745108094246
5.6086964019839325,-121.40708371779839,-67.42448389525065,27.759977701185054,-43.90383978955702,-13.695862155292527,-10.197417892896976,12.831840135430314
4.546675791301731,-122.77575501668044,-69.4790011453256,26.999018947797172,-44.887696500560864,-14.02921715771774,-10.755934818173065,12.663608175339782
3.0150835801583438,-130.64902971507018,-75.84666142526297,26.88933993978527,-48.753687222808516,-15.259104672710615,-11.996715216726967,12.811012106545036
1.5281491516565198,-144.2515558346797,-85.44190804458397,27.75800098014898,-54.956789782132596,-17.27054656650763,-13.766879436493708,13.24594567675586
0.9090786413145451,-158.3761813544078,-94.24859321676874,29.494534820329353,-60.989063365522775,-19.324353498663484,-15.430904211034678,13.746875586976456
1.940451060508176,-163.95054957180508,-96.09159103355395,31.325416534712787,-62.77167558757277,-20.14792680541062,-15.991233658895005,13.90525726750734
4.862435824496258,-151.6352081133705,-85.38046965875789,31.883818951519448,-56.377347394756164,-18.48561440153526,-14.577562333400817,13.22710602265016
9.05622015705368,-117.08257600473799,-60.56751105874807,29.730646652521205,-40.35075251517734,-13.86295165047078,-11.047235959281279,11.34363965453874
13.207475181870072,-64.57118326006298,-25.994762144971034,24.152794413562017,-17.120570475540447,-7.049446575187628,-6.256252460498099,8.2452865626688
15.930147255056655,-6.201206597535585,9.470744296020497,15.754439621721955,7.647587675536702,0.15864696800822448,-1.7500996350567306,4.374142418042742
16.487775380387653,43.3708516825355,36.4996730884711,6.386417155956218,27.58216002306674,5.759870983519129,0.9672885429728665,0.4638717884944816
15.156031154772952,73.66329892509911,49.67326009303442,-1.6366916371452431,38.5582575350317,8.489993960647087,1.1420031144729423,-2.807833347412028
13.00209777159004,82.59511935919241,49.55986578947766,-6.599637312211852,40.32666355745411,8.337428828330507,-0.9484958853445421,-5.135915626270668
11.242711991796577,75.97483292214667,41.45259053287982,-8.104333760118914,35.979003671167895,6.379682106315266,-4.245309515507034,-6.6632180414698245
10.604060230157238,63.15900426923381,31.90850711044246,-7.053329892202643,29.82465296069396,4.116722284999329,-7.465815303189815,-7.772694399339317
11.061416540507752,52.02053577122751,25.447523590483097,-4.995691876603507,25.153329655068024,2.739581931123668,-9.615122192487386,-8.753842884566675
12.040036961972708,46.16155146186679,23.219248922132174,-3.3080764127863334,23.14012960759928,2.715293389776233,-10.22419835454722,-9.58016115129541
12.860007780148253,45.15823893541439,23.78079736538433,-2.686797800415871,23.139522837292553,3.797915676835021,-9.321320817964974,-9.939074207215132
13.124556307753693,46.549982914138795,24.829652585251633,-3.1077110611700127,23.731111401062034,5.3403390344655435,-7.267955532907921,-9.464339394150922
12.878651629500066,47.833879144397535,24.674213388493268,-4.083353874177491,23.734580591384866,6.71819060714393,-4.551457950021015,-7.986584167393887
12.526032215283886,47.618720464331304,22.94776850834734,-4.975139527329598,22.79665084260262,7.704325756032803,-1.5673870708894524,-5.640654686283892
12.565190395406884,45.95140062254015,20.59945762056083,-5.263043464458759,21.480780188664365,8.631431673994472,1.535820768237367,-2.8081589745452735
13.230755599166349,43.95276496473838,19.24265996223127,-4.787568524410491,20.860052193121902,10.195129323509272,4.818946075721042,0.007515238099752339
14.188498769791522,42.83373413207716,20.016145751796522,-3.9227680547049824,21.715913794386477,12.914454681977583,8.280844888524085,2.2755876626806635
14.488285821224117,42.738405447702725,22.526145493990736,-3.540223485421354,23.75839352762186,16.550712839514237,11.540467390258991,3.490818133696954
12.902211153607091,42.30494891438169,24.70251263434992,-4.676491564054764,25.481101284328645,19.930888557448508,13.78183104040526,3.241688578927541
8.54317518470136,39.49596834190548,23.904804689929673,-8.019381562693411,24.92850878418199,21.40922737348108,14.102524944851462,1.332177372538097
1.4364727082128785,33.15578840497181,18.600531319008013,-13.486455951365835,20.930363557997314,19.744097199717665,12.062739635460074,-2.0780968709745697
-7.299419584548505,24.015785502071925,9.400655443526317,-20.132249042945606,13.925071885451407,14.847765157362275,8.041277112591972,-6.404180027890763
-15.790824966724456,14.353473920341791,-1.23921014583909,-26.43766534976068,5.803852435071264,7.952508536150691,3.14812758637543,-10.717178744314309
-22.108121316308264,6.710086800972541,-10.297342280778848,-30.85649964359631,-1.043004358024586,1.1236685045299777,-1.2337347748805583,-13.995739854939647
-24.998337073654763,2.7087060561367604,-15.534672987428346,-32.40007551083398,-4.81350838948738,-3.5911844005370015,-3.996916025845671,-15.479751555699606
-24.33064831613962,2.586350354071976,-16.274489410890922,-31.021101679782436,-4.960464452001245,-4.970341972879382,-4.694548934423279,-14.980449155919755
-21.072506837533595,5.310037719968166,-13.508120600680781,-27.61119104911888,-2.279384344321311,-3.0605603630872054,-3.646322279357294,-12.979317522256814
-16.81539222780381,8.976541634886358,-9.435841095734128,-23.584854494883498,1.4910914829022228,0.9101441351181503,-1.7543827417062678,-10.425898672599132
-13.073872905940018,11.486092444453298,-6.5405689183971765,-20.249641342606076,4.407536939348014,5.118329011791678,-0.0904850417797983,-8.308396986514376
-10.70237807241754,11.475461842085338,-6.466671046305477,-18.30253074903281,5.154520656826546,7.966063982794208,0.5793695342948905,-7.2210405104024495
-9.71328855467241,9.034596969821852,-9.287975496426819,-17.704454015279133,3.574767194498169,8.715207787902079,0.08486363088456403,-7.164333905862298
-9.536862607420613,5.547516338741049,-13.681171691918001,-17.918593128452155,0.5659231123275574,7.604403266486854,-1.2108649510261182,-7.662944369466645
-9.495704242663741,2.6319413237638094,-17.885393247322064,-18.281295537950488,-2.5781248434923674,5.460890312835124,-2.747455516413494,-8.088669483766777
-9.177981373887098,1.0289199779249532,-20.697449324576564,-18.279355414860877,-4.886239531344581,3.1490724682317386,-4.10277925382259,-7.98419137995827
-8.536818856808733,0.3566502829285737,-21.821848077815602,-17.671086999829374,-6.014779391007107,1.2281134635432869,-5.102775983030706,-7.236316628780177
-7.764511867783241,-0.24859598980230874,-21.585492160697893,-16.50710852801464,-6.103997346990618,-0.07119605331164736,-5.7165390546621735,-6.060255124355557
-7.097852460552218,-1.399351434632297,-20.543875641050462,-15.085613702563126,-5.516309951674988,-0.7073719772589109,-5.916429443600908,-4.838178194732388
-6.670238887016438,-3.2691140377423986,-19.330425080236207,-13.821574737853924,-4.709918658766851,-0.7216867638216844,-5.640176702740438,-3.8946604107666296
-6.449223995302718,-5.80292008911855,-18.608880292918187,-13.049014181004285,-4.185881749645613,-0.21778923059479716,-4.844767223599739,-3.316467305755653
-6.267886889893655,-8.825532283416978,-18.880865854004572,-12.869081765347598,-4.348688854047085,0.6300981659083598,-3.5741628465258586,-2.921046415840853
-5.940446078427581,-11.960237710452635,-20.24724336027253,-13.152806131761636,-5.327508580373652,1.5881339572594362,-2.0013487691408995,-2.4052678966467758
-5.397849404513058,-14.708696132968655,-22.430942166792967,-13.673632202902944,-6.959174390408433,2.3951265150105283,-0.43711730471193316,-1.5824999228870362
-4.738218727411936,-16.816208861466826,-25.082795773269762,-14.234487768884689,-8.975257731960625,2.8195191449671384,0.7263717157496987,-0.5435013254907983
-4.147124750935246,-18.51828591755753,-28.01534173950592,-14.703582483842206,-11.18385602200801,2.7485010894283244,1.163538173269222,0.3654911823314617
-3.7736944108904975,-20.291150275761225,-31.117499586252556,-15.009346086062946,-13.466671655438807,2.2588721119641892,0.7842481485191416,0.7133802081781736
-3.6992479362446495,-22.37318697431223,-34.1771844406037,-15.178661410704471,-15.694186137091275,1.5655245182585038,-0.22932660690302875,0.17938213073970916
-4.021164714912311,-24.689300666892127,-36.991566691139525,-15.38882322627343,-17.78151345290024,0.8224613528587027,-1.5866279682123428,-1.322524006063953
-4.915990475067266,-27.29545163912421,-39.69983001715145,-15.911172541933738,-19.860923630969864,-0.06527603146639825,-3.113993774512756,-3.6047403470516586
-6.543993780495307,-30.69116134855,-42.82482769531694,-16.909760595821226,-22.2729809065507,-1.3942734247817463,-4.809910779896792,-6.237176228280145
-8.841343604805536,-35.40168871922401,-46.74915695172362,-18.243747060251167,-25.216032989985425,-3.3536619830489416,-6.668760033932653,-8.655024353308455
-11.412654683604622,-41.1494672613385,-51.07446622400324,-19.478652434735423,-28.342107759828206,-5.720938964753834,-8.475953267887096,-10.34503473732615
-13.682873342355725,-46.571442681051074,-54.605603556079195,-20.147440594086557,-30.773604814092597,-7.8808798049301885,-9.828504485675927,-11.04933105057963
-15.235613581388144,-49.94544450295414,-56.12543730200974,-20.082521451305233,-31.6417699773349,-9.1987822046007,-10.401338424704297,-10.87673520621063
-16.09484674788138,-50.34805407399399,-55.331067992198726,-19.584815790541587,-30.721311526502415,-9.445897401295447,-10.22460732728357,-10.251862005155406
-16.756731568810064,-48.328772697538774,-53.20251641485277,-19.32824549155643,-28.667021409739277,-8.947980583847233,-9.740196335941423,-9.734159990418393
-17.963009568237492,-45.822118521827555,-51.680014861307406,-20.053500006433833,-26.778970742160936,-8.406662313815465,-9.62641168479934,-9.8034549436633
-20.33635869716932,-45.64224177654164,-52.9967336849927,-22.16537932484489,-26.5684754097209,-8.592142430408826,-10.53693007895983,-10.687323160214786
-24.011374981738147,-50.71936381911846,-58.854633682025636,-25.36332399498518,-29.2868646622269,-10.078547758704508,-12.846942606287753,-12.252667761155452
-28.385762549579294,-62.787565313705095,-69.35533967212676,-28.484798203261867,-35.32433449030931,-13.018594258194412,-16.396759437876078,-13.976329407848837
-32.14067145879767,-80.59321632364009,-81.92353593697597,-29.76061821212038,-43.52030660288118,-16.925375758538646,-20.28393615593586,-15.043849348125146
-33.64573670861667,-98.7856599803983,-91.1473005805845,-27.52473838108965,-50.89342078806564,-20.595412517076095,-22.91823970689109,-14.618634297989908
-31.675351067134937,-109.06719373683966,-90.45430192428898,-21.101477294346612,-53.43005874602492,-22.405438755925257,-22.54022171573172,-12.223581209776496
-26.104289841471367,-103.89892798760602,-75.34704392788076,-11.358190181634503,-47.935018200522634,-21.019255005636857,-18.091816473080176,-8.049028132919648
-18.154879519315095,-80.90467621879708,-46.42007647474991,-0.515099116335514,-33.98700322217622,-16.169533346047153,-9.956853025868098,-2.9768165997214493
-9.974411194028765,-45.056432416764224,-10.030370421728673,8.767830914801248,-14.667516586316804,-8.991466430743946,-0.033883086340221975,1.749141758094652
-3.7209757609979577,-6.878419269958407,24.18894744040389,14.547305545720437,4.611111788851938,-1.6039920852904879,9.01970147038426,5.053786997523252
-0.6511432424509164,22.50559145991322,47.71131630572859,16.354662009552715,18.611663428299913,3.873939461058966,14.98529850962387,6.4717631496697425
-0.7067305516934945,36.544962533433605,56.846710836476646,15.166693630498825,24.640837400575794,6.2911708413480865,17.027419372157297,6.2586626190574455
-2.78062909553016,35.61140053703328,53.7049811674716,12.695285561180699,23.40800869296419,5.845027763210263,15.85621395785506,5.1443874071312825
-5.423679366116948,25.459351209617697,44.1318212125526,10.490971957575791,18.036693777841606,3.716220115890133,13.102644274515239,3.9171647252827513
-7.53199856410937,13.319768041445805,34.265373000704464,9.372945043170445,12.093413276244352,1.2958974240745653,10.389021293255286,3.0931811355621646
-8.666457130526297,4.3718759685082516,27.91615186904656,9.3774064907251,7.958106947070851,-0.4632712812587815,8.671719669841641,2.8139467018828808
-8.968349324962345,0.40330709373607043,25.91213833525424,10.057266835813184,6.310007243923838,-1.2613885849414443,8.114216346866069,2.9389739534770247
-8.872504218035003,0.5059253850258153,26.990951690621536,10.844625696696314,6.560452955459319,-1.2975034040556348,8.345578629331955,3.209894960523911
-8.83135963176462,2.5077892525258396,29.1115856025267,11.305483665536684,7.5826086124345125,-0.9991468720783111,8.80822254670373,3.389636503188875
-9.13874799470374,4.1621084830340145,30.452569873255523,11.265993911934881,8.290867821688872,-0.8002299162760461,9.020554035735556,3.347520127658005
-9.853935233409915,3.9466786214914436,30.009583842004258,10.826723855243811,8.01431092289697,-0.9838338629057853,8.736377663949433,3.0891211024279914
-10.824691616876029,1.5583895338742368,27.850449743942235,10.26152271101676,6.698139886240695,-1.5861018158701972,8.004527746559104,2.725429290853097
-11.80712507206055,-2.1060101752015035,24.909507612677295,9.83528444186502,4.839482288865562,-2.4137088421060793,7.094112521719968,2.391250952869175
-12.622762852126307,-5.655915600734694,22.312366855106443,9.6524816977264,3.1114727627457284,-3.197464888920966,6.300247413535703,2.1619418519249836
-13.246232519543877,-8.181679638029832,20.649992215723913,9.64373536461033,1.9078655415779884,-3.7801366206570672,5.758620589607709,2.0270094077497895
-13.767202131415521,-9.706706089074528,19.76613294838808,9.676950111716932,1.1727593999860249,-4.184028048538754,5.411213661306271,1.9300980340101883
-14.28430920670118,-10.805904509429821,19.153609460835675,9.669137330577177,0.6159132995460435,-4.520747913516263,5.123859400473743,1.8251472199004692
-14.839554129483615,-11.929358573594016,18.46470819959679,9.603333075516465,0.029029111618357854,-4.865428452969356,4.812989572322158,1.6959054579614399
-15.433383311800341,-13.164320965945238,17.632706977266288,9.47998950212393,-0.6251907239412289,-5.227927396845295,4.463247366325265,1.5391318170690058
-16.064283628723953,-14.507355820257338,16.65122689813558,9.2949311879606,-1.3484827142029816,-5.611854675394428,4.068391216886558,1.3514308303975697
-16.730010483101378,-16.092588235008662,15.442799660431763,9.06930064978076,-2.1995904334840284,-6.048310834734775,3.6082141515915835,1.1398455190426173
-17.40302483757179,-18.015295465714814,14.009380740204112,8.86705476964538,-3.2022946186586476,-6.551993843268301,3.093226277827887,0.9324180716886091
-18.036725314182384,-20.054088218865047,12.587434208186817,8.749956392875783,-4.2312980664257225,-7.073396106664946,2.59459655737491,0.7610968082092463
-18.61143928858494,-21.7759641261778,11.499488933406141,8.713898466638911,-5.085613231230361,-7.532050522512012,2.192052251777202,0.6299885265458437
-19.162363751341484,-22.968801045762522,10.830273108415787,8.687607876978722,-5.691872492449177,-7.900065898024688,1.8916702329515829,0.5080074379315711
-19.745103460781806,-23.86130531254957,10.331705562733848,8.600043371662952,-6.182270081648312,-8.228795926329559,1.6174643438037368,0.3578540082722417
-20.37412314126179,-24.848516537505223,9.682510893337604,8.437633771402076,-6.745352504621858,-8.583745167108335,1.2898355267712414,0.16863350327717347
-21.007205828073534,-26.08672537840022,8.77702634465039,8.23240545388771,-7.441962605783904,-8.974362794653729,0.8943819876614114,-0.04264528097160582
-21.592440282658643,-27.463292584428046,7.711877870676199,8.016296530062224,-8.208598347676439,-9.36794994115111,0.4655380339652478,-0.25365089524145396
-22.118563676116146,-28.899393936325907,6.572631169842624,7.813153306377649,-9.001041252486958,-9.757618457506597,0.02836899709828151,-0.44905715751645037
-22.613706838179468,-30.481050820784976,5.380671838980568,7.669654517428397,-9.842453661707745,-10.179270466146212,-0.4086088138175493,-0.6117759286250848
-23.109985942882115,-32.18804391562,4.28170890011232,7.653286838726026,-10.69668098060973,-10.646667887893491,-0.8043046037034768,-0.7202817143742982
-23.629273601703098,-33.621491737266254,3.640428888742858,7.780621594778693,-11.368702424095302,-11.094950384020871,-1.072576873765447,-0.7741434850807744
-24.199568907355978,-34.22630601313458,3.7603896343104815,7.943922142704006,-11.637941020094342,-11.42290681271362,-1.1630666913322736,-0.8245426115269636
-24.853348560949648,-33.890209766286894,4.445046278549319,7.937758220308674,-11.52956155628567,-11.599057831056781,-1.160713573735479,-0.9631514688357378
-25.579424959888584,-33.27054924733361,4.908611691976534,7.595315235583217,-11.416118219058585,-11.71191530439924,-1.2777099330268238,-1.2590793941020066
-26.277498857945467,-33.44784038535501,4.233696512500748,6.93153725194497,-11.800887598406609,-11.910173157824662,-1.7148888102688917,-1.6906091719525544
-26.791743004486076,-35.20685692770485,2.0281009543861956,6.183334863702097,-12.965056517066023,-12.30237533770156,-2.503819553823648,-2.1300694906460986
-27.027112163042247,-38.53114647181584,-1.2110110048737588,5.724874908944112,-14.761019096335467,-12.906783671280051,-3.450651668095813,-2.397034013145081
-27.058790398749597,-42.52513680927087,-4.191193081168524,5.904272090361762,-16.635122188424095,-13.65167197946695,-4.200981501174547,-2.349736138191842
-27.13803727924461,-45.591511948556416,-5.251247169199943,6.846387428252326,-17.784259398932438,-14.370050090244305,-4.374901029730052,-1.9767392782414346
-27.577538640832813,-45.82528573162478,-3.0446698708643933,8.266228120752269,-17.413544474046315,-14.795913507695023,-3.7445658795924994,-1.4598037258767227
-28.572500411258613,-41.86742368407402,2.525765858084963,9.398707128225148,-15.169103109569464,-14.646984348442958,-2.4437470308907376,-1.1691846624582356
-30.022968614041783,-34.16449995373221,9.448142867602726,9.194732324552751,-11.662173792578848,-13.822693722984212,-1.117365470765744,-1.5427522034163188
-31.411127934484817,-25.791909635803496,13.599621095389068,6.823805878425749,-8.67180377439647,-12.586189177124835,-0.8269040069897259,-2.846953859330632
-31.8088262224223,-21.725294331543466,10.231124674695481,2.2686038804501734,-8.582894751057045,-11.533940370498577,-2.6084552448746936,-4.925510706843856
-30.10583702097316,-26.39830757020857,-3.4691913193694024,-3.390567795712159,-13.135384348114187,-11.3066544675809,-6.856733773912449,-7.121328604164212
-25.467376759054734,-40.9440903454881,-26.294732439977953,-8.302020973664519,-22.252742597634,-12.237596472814506,-12.949934424794513,-8.502068684184081
-17.850056894394715,-62.21246009315834,-53.09804347794069,-10.69671181655033,-33.896948124593585,-14.224831558251656,-19.465809832071642,-8.32695091857546
-8.265401894505919,-84.61274333905781,-77.38772059979519,-9.786933638237103,-45.255187753892805,-16.940284030018507,-24.943460382847043,-6.49078315177037
1.468775998748176,-103.65039812938484,-94.89340828215448,-6.13037919431799,-54.50422453327364,-20.17726513812905,-28.69595743315354,-3.637525976857212
9.484011602104523,-118.38957986654187,-105.5307502663567,-1.2093071461746332,-61.761282557476726,-23.955204478256526,-31.050278097350038,-0.8196035036512088
14.777291293085556,-130.54845560757713,-112.11254123653353,3.4750108640665864,-68.27350497114715,-28.156245323931298,-32.760475114352985,1.1098113480732228
17.74941998612766,-140.602797665726,-116.6214058060691,7.14148186298812,-74.29548843562512,-31.917565816955825,-33.99782586964595,1.9718432898954363
19.972233224098886,-144.1757106762284,-117.03264154111538,9.80935096624974,-77.40591469800712,-33.38085614909292,-33.749571038295564,2.2778436308908465
23.252930454999852,-132.410684392054,-107.56427662347818,11.781950708840707,-72.97812112398275,-30.283217537283324,-30.230098263038176,2.7891184042433976
28.547307753606166,-97.0887445618805,-82.62124556745161,13.067499733360256,-56.92589818404514,-21.23485439745717,-22.12981631356757,3.953439770708871
35.40104372430094,-37.20788378947021,-41.658864802229026,13.25110032565833,-28.929475125098133,-6.87533345531669,-9.822209589835856,5.6169438678986126
42.247710033458866,37.89432056368671,8.708531106162647,11.881589839115394,6.242422413432318,9.96656038193033,4.381589630024136,7.175877038382984
47.3270516410887,111.54553276876877,57.06113437392852,8.989720523623479,40.429415744128896,25.354986192194506,17.172109267346617,8.008594316655095
49.6228609151702,167.24724472274573,92.5263245958651,5.279685382777091,65.81430120131424,35.97816248806428,25.789385581537694,7.863841290204169
49.28120901145601,196.06836124838003,109.73094442267985,1.8349420264660041,78.3986243285248,40.520190460615524,29.224479025901136,6.964828111259096
47.35789825482986,199.65090081452132,110.48969402593629,-0.43731373429185827,79.24825169229653,39.939725855293915,28.41818303744609,5.816823583426491
45.161649442364066,187.66416314400766,101.7107643238888,-1.2288081417916754,73.10619079158268,36.63886387675971,25.485841305038598,4.897471168832415
43.63662596508389,171.9903999035783,91.32978947678824,-0.864937126406629,65.57341615599783,33.14370918993661,22.561690924795865,4.44102473838535
43.09404634433412,161.35587194212192,84.8366404759793,-0.0001928686251402162,60.62762751672899,31.069690682541363,20.944291408884453,4.411276206216258
43.31398894576314,158.9433865840895,83.9410914115921,0.7641886683047455,59.603628871029706,30.795290091184516,20.872563411112825,4.611865581425398
43.831988785323375,163.13829113732305,87.27250058876751,1.1054129664955097,61.62558993238714,31.763424540836876,21.819003636446954,4.822954078606173
44.213308484418604,169.9333936589458,92.0463645330235,0.9977652302797072,64.76710320847347,33.049835212648624,22.979676973264873,4.893383461386177
44.222093707949945,175.42519735533986,95.70451131577234,0.6167793204030481,67.21613418749504,33.877106179944604,23.70499438063715,4.7797121267718925
43.873450017926515,177.54242832369647,97.02020765370801,0.21779472737359232,68.05855362135675,33.92304563859857,23.756185514906228,4.542401789226147
43.37420576088302,176.6617518287244,96.43568474215981,0.012605701739041447,67.52392542116972,33.379388971039134,23.34189301111286,4.299296066667189
42.975154772682366,174.97464239266378,95.5284716963647,0.061136583068894024,66.64478025847151,32.76179908582462,22.927289193164416,4.147440561225142
42.80953843531812,174.87344296071433,95.84267217821726,0.2385763710615418,66.48923421944173,32.555406885924604,22.904319823577048,4.098211429275961
42.82195140468194,177.26507151487417,97.78460183542421,0.3272719811305107,67.4151627449094,32.89295248726409,23.321617646677343,4.076699241704943
42.83439376293882,180.93108441676046,100.34128074744642,0.184974073153359,68.84400083653013,33.47252665080465,23.857510525633035,3.9878396318928298
42.68896424392333,183.37747816880935,101.80860246329269,-0.13990585225848692,69.69852628805161,33.76623757173201,24.04907438795015,3.7938163638830424
42.357038681996215,182.5626309849025,100.99327789050167,-0.43545855335170114,69.17424231291594,33.37312602406467,23.612684027208026,3.5431539334651276
41.95596341997215,178.399357747403,98.12670430079159,-0.4634490428922071,67.34422690311462,32.30276826303599,22.662180568376044,3.3415487061697093
41.69273862567824,173.26134344069783,95.05119237123544,-0.10397064762482411,65.29846679238494,31.057894929315868,21.729599195956034,3.296334103591618
41.77229068358758,171.28351610212798,94.61112688169064,0.5590960361608369,64.77748282812635,30.48337517968421,21.580751527918036,3.4609389292398847
42.280080597547524,176.51628895238437,99.31441006216107,1.2208538569949918,67.35757852998631,31.386925645835888,22.842412774004988,3.7840397121099922
43.05818738548135,190.24834216991144,109.51177559720136,1.423039876065587,73.33879153889201,33.992993494165184,25.515070911547788,4.079123215942961
43.65691796734159,208.5191858792203,121.86810130366868,0.7512665564115925,80.78728037609353,37.44868754961804,28.596418769308073,4.060704900641492
43.46591132735495,221.60944206291674,129.37396451090706,-0.8570582100891825,85.48735213231052,39.75121211381191,30.150702023095327,3.4788253484773297
42.02613112718928,216.9716211948645,123.74378830403677,-2.8644198975397033,82.35276642758059,38.3743023347313,28.012190704607317,2.3011275424772935
39.35614948350088,185.12475875930699,99.5715028547193,-4.190151505304072,67.96262850003144,31.463402957251102,20.89694250364995,0.812328800952892
36.05546398797643,125.60634733736642,58.03579344228543,-3.6736939968442734,42.888234650764446,18.99982043264563,9.307456248336813,-0.48027861763766594
33.06782541714961,49.19051050180045,7.661492815451567,-0.7461485941124987,12.24555443697597,3.198415536103599,-4.39505126535993,-1.1188151574775367
31.219022159241806,-25.65206873710893,-38.82501638020444,4.100871791519078,-16.182156259496317,-12.219315755205956,-16.920683419927272,-0.9865916801170905
30.805804288091245,-80.5984764481402,-70.07130151056657,9.39136383493114,-35.3875248533464,-23.560156315557013,-25.517195334406473,-0.4241764018381199
31.478667058386613,-105.36611209025777,-80.99954004529947,13.298309660262174,-42.22381873765791,-28.67751451593309,-29.142433897249276,-0.0799603297999809
32.45313415694382,-101.34859789725267,-74.34792081583214,14.478445576726761,-38.41662286707492,-27.679760911298278,-28.704530472118886,-0.5853256182100635
32.861806372859895,-79.50421458433539,-58.39654415378745,12.61753047099036,-29.15935849126962,-22.58419621680745,-26.35218499931905,-2.2617340320819252
32.007969682112105,-54.5416698921921,-42.749773133831965,8.410654532520748,-20.440494663695084,-16.3032562418954,-24.36524291472864,-5.020027722984477
29.44305065961252,-38.9881282007864,-34.67370963442484,3.1029774398831216,-16.702838502768042,-11.572269151700565,-24.275115699293995,-8.441774557279134
24.99011065072595,-39.4574278393116,-37.21405681637355,-2.0394331644528894,-19.658822492473806,-10.168335021674267,-26.46659594553473,-11.908863524139957
18.845434262287146,-55.20710154339294,-48.74298319150393,-6.0640687084148395,-28.05410862660946,-12.429442798510797,-30.136030436878713,-14.695767799465898
11.697146901393772,-78.27911925683277,-63.31125098928482,-8.489796194980615,-37.9449331129279,-17.057373648481704,-33.47031299759268,-16.08219756094258
4.647620411993234,-95.39501825564756,-72.02591785679599,-9.423378931995142,-43.58432105252513,-21.393333062091287,-34.12764858668263,-15.581583987656792
-1.166427475431027,-92.31685647525534,-66.01877612969032,-9.617603852942871,-39.28331474348701,-22.35785795887849,-30.113771462032158,-13.235771658878953
-5.076800800867162,-60.03625233102267,-40.482719357957976,-10.284626169064378,-21.96770531917231,-17.841948591104217,-20.807833989462395,-9.756992375131572
-7.1653415372769,0.07443735352997449,2.2776693529647845,-12.573172336483228,6.841568946278495,-7.852721089024442,-7.548275421585016,-6.322471721567111
-8.115437370310929,75.58952967733917,53.005072714741296,-16.92783025718485,41.06994304137029,5.326340534344954,6.7180722803091975,-4.065065789799439
-8.739497323620375,148.0130729956264,99.31716282411435,-22.747339643305377,72.5163067357954,18.15708968281595,18.665071812524445,-3.5476909670043164
-9.509890162073555,200.99653975244144,131.24496263440608,-28.618475190016582,94.46244179834666,27.50020656952008,26.04198861928799,-4.543087491235016
-10.389483330149035,227.2021081313724,145.34159856933059,-33.022247666896774,104.43538807671555,31.95669307585823,28.532699065517022,-6.240296153267072
-11.025767696546998,230.1050330262103,145.1531437559648,-35.09082832069052,104.62946270945274,32.18569040188336,27.577167781376087,-7.726969498705796
-11.121857797459404,220.27569803676167,138.17863589250538,-34.96790564677671,99.98722451325798,30.157220531923777,25.36206147530605,-8.444966700999274
-10.703273736409267,208.9686866742787,131.51484274088907,-33.59725694702692,95.32295293203637,27.927230207212187,23.655153726374078,-8.372288253511057
-10.11239546575873,202.96874273283046,128.8049295239142,-32.13110948274363,93.22260065393793,26.69560047754511,23.14521105358772,-7.8855153226476675
-9.773156822939816,203.130895186493,129.8192028045663,-31.348903175459437,93.66415196532205,26.577728958907628,23.52443910207541,-7.44906024444877
-9.904570820816945,206.3911763860745,132.18398382084237,-31.38961967782812,95.10758199288136,27.00819654997286,24.074436422919636,-7.335721113739309
-10.349761177269823,209.2288765745421,133.76249072729408,-31.847647781296804,96.08411977977464,27.38137356730957,24.31223880998857,-7.507383466494803
-10.599503698061937,210.44207588892954,134.31559527880668,-32.09135553409757,96.34840786473946,27.538086712134877,24.34962038774637,-7.67436731866487
-10.021184401880186,211.98006270959564,135.72760865359575,-31.63695979134103,97.08533908302384,27.87900914777427,24.824355266698824,-7.486864140700275
-8.250968352074862,217.52441705624395,140.69579793699472,-30.457034538215964,100.08753024064906,29.059356746482866,26.43500203744029,-6.783412505973345
-5.608983124220321,229.3671558371932,150.37351917340777,-29.108536665993114,106.2152563591578,31.386376457749606,29.272161725493653,-5.787486585028888
-3.283467799540105,245.12153959534623,162.16928560324914,-28.56154552629122,113.9116643630496,34.23545221649775,32.31305995285858,-5.120585866646
-3.043170191732996,256.50504016787596,169.31789017303274,-29.71708345199699,118.8306947935327,35.91597205675358,33.49881511088695,-5.557085173283815
-6.4731047391812115,251.8501667069068,163.21624260115942,-32.82375850989444,115.27038259867479,34.25975922769518,30.565650710660186,-7.5996760251841415
-14.074848962341125,221.82049961706215,137.80667421602683,-37.15816076281992,99.01678999197462,27.75392673311505,22.30123336439705,-11.108860858662286
-24.761160896904585,165.31546191568,93.59855153292014,-41.236336732903126,70.06782417638136,16.58521177928219,9.491762885366887,-15.23862190715296
-36.11437934991926,91.77202624323319,38.68349326993544,-43.494879043257576,33.46996964150334,2.891013123263993,-5.114532992161994,-18.766784120494947
-45.33567641243859,17.9690831480926,-14.231868781385046,-43.05474000093503,-2.4766990248807925,-10.046712406640825,-17.932206532455897,-20.660133244435176
-50.38134943539253,-39.1064681452022,-53.22760937715923,-40.10892685493258,-29.732113728274346,-19.24684946008263,-26.14214474919682,-20.55212214717389
-50.67224846100494,-69.20751608659148,-71.88617124270702,-35.72291159525848,-43.72160150170087,-23.259599927945665,-28.824233128733233,-18.856568966725483
-47.061239995838015,-71.73691525929031,-70.79049974449059,-31.23037861578386,-44.49037072265541,-22.479513776358917,-26.98730708943355,-16.474565050769012
-41.226342837809355,-53.75136945264207,-55.621707947682005,-27.646222553732752,-35.56593821995046,-18.496197333553226,-22.635895164928513,-14.309422985019323
-34.948096303001456,-25.5361004076368,-33.90969857686208,-25.411546097979368,-21.818719634360235,-13.099944342691566,-17.645020757109016,-12.890682475858451
-29.63103511208485,2.822475988504134,-12.778346086389327,-24.446626573844043,-7.915763366815057,-7.681628328985017,-13.195566313578386,-12.268999717432
-26.107847550010774,22.49740636190491,1.6811956834426476,-24.262469948928377,2.1048876308163886,-3.2640046974399226,-9.908864838808997,-12.126406634294773
-24.5687314781911,26.045698299939723,4.607495188344631,-23.989369334372597,4.887022947029504,-0.7738323164120418,-8.209601212120832,-11.95027512376232
-24.540107592228033,8.678224552751956,-6.5814538040802555,-22.458361152974398,-1.6306417976070435,-1.016452176188374,-8.394651391888383,-11.188685306112875
-25.013177463089104,-29.22296645669632,-30.565669343710972,-18.55227889054305,-17.089644437849767,-4.244066990225297,-10.352025488453767,-9.406218548865636
-24.824718552986273,-80.52042684936276,-61.5570612828528,-11.791170665966648,-38.11507415221814,-9.730668711631973,-13.320145159475343,-6.458620977250115
-23.18720159982537,-132.9192701008808,-91.03777688660102,-2.7915252291201154,-59.1975221371302,-15.849609082702509,-16.065055663523907,-2.619216548385019
-20.074978951107624,-173.71955129717526,-111.28860915426274,6.79855847047242,-74.90772254946836,-20.74334471427092,-17.453584303631793,1.4557045894732954
-16.210490109950076,-195.17775428374367,-118.69725826643753,14.959676289818765,-82.21599030617989,-23.18368359188885,-17.03165752496163,4.963180141511055
-12.646493496908285,-197.31137469477855,-114.87050793283541,20.205243648329052,-81.53650052714032,-23.06787758111847,-15.198794956817347,7.29208777927107
-10.206029882434262,-186.66428317673592,-105.04066506395405,22.19819758768812,-75.96960698073697,-21.271673338974818,-12.88068648311231,8.276036865791422
-9.119777907202092,-172.16833451034032,-94.9893964980217,21.742883605330835,-69.38268554186973,-19.03304461699544,-10.964118739856403,8.215130065750749
-9.041217404752443,-160.84248696816965,-88.44823976370975,20.22650206024796,-64.58710077823534,-17.312339011684234,-9.885133660843003,7.668785400038996
-9.354182161229689,-155.6223313969062,-86.24784639498854,18.907584109751127,-62.55180106558217,-16.487148391904057,-9.578572511912203,7.164760510454371
-9.522431927995573,-155.74915532870634,-87.09314731611751,18.461997679599147,-62.72055438513977,-16.425708012915177,-9.697604230704025,6.999480810104082
-9.276944070837395,-158.54415319926062,-88.93315834491996,18.93750458208172,-63.84122234123902,-16.740537570564246,-9.866607990862242,7.2089074739290755
-8.611671467543294,-161.16415533517198,-90.02422623731346,19.984852563576137,-64.70333052514779,-17.021843133278345,-9.821091374417312,7.662129151871491
-7.6842369782328745,-161.70900218980168,-89.4514152526955,21.14279997254566,-64.56532198501203,-16.98720210205632,-9.450019391302234,8.178783482492038
-6.709998221398923,-159.70055820379648,-87.25658331249689,22.047684534627663,-63.31713178533202,-16.562544415528393,-8.801382772767335,8.61104001293091
-5.870685000232617,-155.99399826295522,-84.24278851282945,22.547593727401253,-61.40502907770878,-15.882740776336549,-8.04813545106737,8.887296113869072
-5.240429315110766,-152.1042543234079,-81.44903752478322,22.72243600916828,-59.50898637408243,-15.186067700379187,-7.386474936128797,9.02617887784185
-4.762607941079675,-149.22978652214982,-79.51908321409063,22.79948688321139,-58.112674453233005,-14.65124939908743,-6.9111798652287195,9.113479057651658
-4.307081451851114,-147.62274663271825,-78.40561430376314,22.99722131184982,-57.26180939147127,-14.299894211915113,-6.5724980230774745,9.24314134842943
-3.7714417254893564,-146.7494709380236,-77.62427386861036,23.399141871966915,-56.682278852269334,-14.038178444382087,-6.2545727191875615,9.458420788783997
-3.1403426671378254,-145.9612278141114,-76.75424480698226,23.947751552264734,-56.09378324645671,-13.77343574763336,-5.887980809383092,9.739248410963508
-2.4588951805980295,-144.9603965515312,-75.68183980559188,24.539327642370154,-55.392656947719736,-13.477140063094756,-5.479899529212297,10.04003782011886
-1.7677072490892214,-143.71948573637462,-74.4516243403509,25.110603346941918,-54.58464094834331,-13.15244929698361,-5.054844983452174,10.332782639367714
-1.0771497766796096,-142.1988832062286,-73.05535408288523,25.64380683371116,-53.65498090420013,-12.785614749921276,-4.605006041427625,10.613527706051014
-0.3935569282476181,-140.34428449901247,-71.4711793390161,26.12655360285391,-52.58388571263931,-12.360683561064917,-4.116789922848312,10.880657255288455
0.259707417739625,-138.32366209900505,-69.84033394716774,26.5459472439434,-51.457552480941324,-11.908617400160468,-3.622233570633667,11.125193690325911
0.8663736868333294,-136.55671204348621,-68.44677523036617,26.925796772697506,-50.46457590594502,-11.50308262772663,-3.1862956422781177,11.347821746665987
1.4524819124770545,-135.3675283124742,-67.44921281580301,27.339116085671765,-49.72741570250798,-11.188797391302359,-2.8340713401184026,11.57377064355897
2.0745965639799318,-134.64897198900275,-66.6926285906248,27.854998309117146,-49.166905139380724,-10.929240702544853,-2.513122951811195,11.836720382488217
2.764508531221908,-133.96574014142536,-65.85573460858615,28.471583437329034,-48.57815107511063,-10.64399061380664,-2.1456530502825406,12.14600267930544
3.495745076205088,-132.9712463748014,-64.7590001544,29.11437716321011,-47.8276098066722,-10.290972925652445,-1.707166844993423,12.476727263087461
4.212315318842896,-131.6295632829874,-63.46071297145416,29.701070824078812,-46.93283592538863,-9.892981300594064,-1.23544661927294,12.7942110046089
4.881383324807873,-130.04539961394275,-62.077629583955726,30.196345771358825,-45.96205257922017,-9.487678266017896,-0.7709122582194106,13.081171673418591
5.506518292345076,-128.2644427873321,-60.64502790729141,30.60725167559212,-44.940790998823324,-9.083779293324906,-0.3203150208381411,13.337652351615649
6.099251481687352,-126.41031393551577,-59.24012218074001,30.958101173463117,-43.921058851572006,-8.687892895782124,0.10739865176243776,13.565812863095635
6.665496316530403,-124.95009346841103,-58.154922214601484,31.30349826419662,-43.09521400880653,-8.352409720160415,0.45992526422347696,13.77291741064722
7.234524052773754,-124.54889205190862,-57.75059052159365,31.758164952578863,-42.715133342367714,-8.149256142507447,0.6825896397595468,13.993619783911152
7.881292031920571,-125.42259197084229,-58.02021513622294,32.460361698954145,-42.8097140909416,-8.07126975264095,0.8150711419090444,14.291826678936774
8.681225601117534,-126.80378800192864,-58.33598016056681,33.44717014037198,-42.99510315211962,-7.97724078418098,1.019985099820681,14.715185019784533
9.618992911448366,-127.17820052710256,-57.752226851460904,34.54418250609703,-42.638922873267255,-7.669756282742728,1.4774524040348929,15.233717799203978
10.5473794549432,-125.22824341876938,-55.673703631430136,35.401658249596046,-41.29033039700868,-7.051209051551359,2.2295176914306705,15.726250364197913
11.25870406013852,-120.78219927852655,-52.35082676023785,35.693160214692575,-39.037225463991824,-6.219577356206725,3.115411617078231,16.0411462755735
11.624106417725432,-115.17462825212398,-48.88829565741671,35.35300803045297,-36.56143335005801,-5.435513095180874,3.842522321936697,16.093030697625984
11.69866890383423,-110.94118614874074,-46.863073709465596,34.70287702468382,-34.921220560867084,-5.009264923008363,4.122979388570199,15.934103323854542
11.733028223874948,-110.96491498646891,-47.719094995543095,34.39503033250092,-35.15766134850172,-5.172955603388322,3.8061577793327155,15.766256132103
12.098370007978486,-117.04687940295712,-51.940577067818516,35.17043151237292,-37.72895915173949,-5.94109685731336,3.002856719916354,15.887734217751097
13.141067207502674,-128.09045720030505,-58.1391449776972,37.46131529618419,-41.8585330372518,-6.9661920755405715,2.1817416733278505,16.568942597875697
14.970675164280536,-138.8931713249896,-62.69338741794437,40.94027649782751,-45.212125366582754,-7.503179593863489,2.1191159717361905,17.865469043684165
17.23935707989311,-141.02327831561243,-60.7567209121494,44.26021908607664,-44.468360476848574,-6.643434821693339,3.5761296000886253,19.440468961157485
19.07438306966894,-126.34556390952449,-48.68174413262475,45.293863390462235,-36.88625489368416,-3.812964838415744,6.779271457123051,20.536724458981563
19.331658715166835,-91.72096991888078,-26.61093237901637,41.97945976158833,-22.112805937272277,0.7508001885881351,11.040145298762226,20.209261319826343
17.149694764929762,-41.93390854133687,0.6278584807939489,33.44819745625211,-2.9901537761999335,5.933554473930593,14.878220895615403,17.770566188959545
12.512411384749083,11.481634076351055,25.330784554971906,20.770256327672833,15.417974575127731,10.243820485172595,16.701842082172345,13.21803143638979
6.424025772947871,55.32477142453784,40.63316899873533,6.749267346326029,28.199715760352245,12.61365193748725,15.680358241494698,7.366996321360813
0.5000213994701805,80.88355917464561,43.92627158704899,-5.258632360433991,32.98492146002772,12.977542943260605,12.249302166694607,1.56556572947312
-3.8337662818192415,87.51079975619035,37.8550498427295,-12.88276497221047,30.889531669349903,12.227717137718333,7.896588909851242,-2.8764305464900235
-6.054288768517119,81.64018510755565,28.34966646813248,-15.747844658340602,25.49465244149633,11.571191043494464,4.345817905429444,-5.2307504367041995
-6.72591536366207,72.27240350313161,21.100950656128113,-15.39513914076282,20.640437706052204,11.736989901206607,2.652805020041745,-5.573626279213091
-7.065446800673547,66.07149223242239,18.773849858924223,-14.245878389243725,18.501976529946575,12.573964187110075,2.7683185540382587,-4.603061876723112
-8.198140416567165,64.89158489420922,20.43267987105978,-14.292890248016468,18.99390929137875,13.263065628179389,3.7671117564401135,-3.208776753217323
-10.5665049563015,66.38303632921503,22.953941350131096,-16.245819528857336,20.48083905953544,12.914239212091061,4.4943929288994875,-2.0601216137221563
-13.769452582002552,66.39469779134802,23.129263532084057,-19.4404010207817,21.024270704226684,11.114489788331419,4.194705984591793,-1.3996777565762355
-16.798048458408843,61.591892057396144,19.35322803366229,-22.35972635689124,19.45759483585073,8.155446708892777,2.838801838898906,-1.0756936900692113
-18.47312616262751,51.461889935103294,12.507395785179833,-23.433252669749283,16.026257823986715,4.943401791647615,1.104000424185027,-0.7479983079078729
-17.934283393298763,39.26559123275466,5.906345891565866,-21.836737001887776,12.504456227023018,2.6957294149955278,0.05890795337477405,-0.1776318315252913
-15.094499789244592,31.269548159317978,4.028633561154779,-18.065042800338336,11.584876907805482,2.4741160131252764,0.6062774545108135,0.5095719825063917
-10.911859809403383,33.86164597622867,10.08016066440365,-14.01015099869561,15.482328665098327,4.6296540794179215,2.841753631242863,0.7290609025114014
-7.241352346850282,49.56425503283151,23.47251304482135,-12.335470624831396,24.320283163604255,8.407706090579916,5.682565487452259,-0.37079825843623354
-6.139087356486662,74.42310430338439,39.04327963054396,-15.256815144044488,35.40851451254153,12.056137844087933,7.145442903070224,-3.460203164369618
-8.835858381735962,99.01247314702363,49.15440313629878,-23.274542297710692,44.2191151061011,13.56636287169192,5.319331690216644,-8.541315763571996
-14.925699917132375,113.04245417811784,47.85757574168107,-34.58870650628051,46.741010654553506,11.73706016413561,-0.4364098162564905,-14.72541347178806
-22.318164400620265,110.94638618930834,34.62556260918774,-45.64581848877381,41.811837980987136,6.939184334037532,-8.815177821037674,-20.461651194536557
-28.110416516717073,94.94095547482982,15.139832532898708,-52.645202738551305,31.89149829294294,1.0599096223657203,-16.928698325436308,-24.15069605299691
-29.9824212477221,73.5832305260377,-1.5988120421922982,-53.26133440533365,21.69841380265116,-3.4213119854169682,-21.62396103780639,-24.839296150405833
-27.364276010509176,56.73039300680425,-8.20779858426553,-47.677354775117664,15.518143149432927,-4.724009910426111,-21.05491169610895,-22.622198993570606
-21.709010787634117,50.0877105642882,-2.9188513469141792,-38.38409166103005,14.867182502550492,-2.6672375718693258,-15.60890778089552,-18.52820155063156
-15.698363648581983,52.674778568001436,9.781899478126094,-28.874329825595456,17.947929461974265,1.35421803443712,-7.6425749856018586,-13.958462864844277
-11.823575482261173,58.49357823921717,22.13709150606938,-21.959144511001174,21.129180796503487,5.270190264138352,-0.19450001700016817,-10.004412772478688
-11.140556292237653,60.93950743967354,27.733151619896145,-18.6075110886236,21.37839663170691,7.515531564670699,4.5434032884449795,-7.035224326262467
-12.877429438639517,56.933239518291096,24.8782725601548,-17.869950152543836,18.047750157161314,7.754670948172533,6.104912140536988,-4.764493705332422
-15.051997787460994,48.24755399403655,16.849924871529712,-17.798718463237016,12.95883324646325,6.7645534763128525,5.548378156520968,-2.6937472862670817
-15.66591097431268,39.55378077550083,9.205995523376295,-16.71763714871713,8.909674461582071,5.670529280953261,4.453693085262239,-0.5947779589378746
-13.75142382766699,34.91809223287987,6.170355840554586,-14.077684256305927,7.7487404339368,5.136586474803604,3.868189136521042,1.299316511204463
-9.722725081818218,35.33513442016022,8.458918894784471,-10.50997947656665,9.340791521166558,5.0658961707256625,3.872726110319386,2.48232941777858
-4.96788048105192,38.77886075558042,13.618465097027403,-7.2388796980010435,11.974586166010273,4.9192503905834,3.8997127007602197,2.5499322693271216
-1.0468587928618778,42.1456590839866,18.093230774713483,-5.3299003893068715,13.66874414388993,4.278762387968425,3.3855444875622656,1.4729762598438725
1.0304392199830852,43.23476351602467,19.322324187915342,-5.1761532724222,13.328893868355262,3.1708481360617458,2.2136605221836816,-0.3815792166559153
1.153736476656692,41.49157909733262,16.724944499427625,-6.3708871361267665,11.114849819863451,1.9694326737688033,0.7247739709443871,-2.4196638913601323
0.04057994231852392,37.67537587250203,11.56199126048671,-7.928379219623683,8.124526296981925,1.0848653713613046,-0.5393645434526537,-4.023204253968417
-1.159024206746731,33.27308752785697,6.20394422910863,-8.744947548332627,5.830179263974355,0.7387330453606292,-1.0908430943772627,-4.697493836229678
-1.4119431254683334,29.986115118326193,3.135435732144706,-8.126908573633864,5.505212295794555,0.921958265102245,-0.649385448625066,-4.175085846739028
-0.2754516321253987,29.055327939959373,3.8406632571631802,-6.134485198041077,7.671934687928534,1.435202177020232,0.7568938228702355,-2.5051056172734834
1.93800431336567,30.4675593546298,7.976061634082546,-3.53017944799948,11.726885912834998,1.92903555475546,2.734485058266649,-0.09890251890042262
4.394925412728212,32.70313690505998,13.453236302740608,-1.3470111014970447,16.07489281015686,1.9861484734342105,4.595440804702899,2.3300393204745444
6.220259785188331,33.54134858338409,17.597389256600042,-0.352006514487725,18.880406000193325,1.2929974298286202,5.5955195824694215,3.951656522555567
6.918970747001257,31.48752477627556,18.682453583930954,-0.7330027701713079,19.02899856746813,-0.17614171405386086,5.230826767733473,4.081491432421702
6.5183852220774146,26.760563091787926,16.814952771855307,-2.1369484416991176,16.669716420398693,-2.0945626698059985,3.435528722752946,2.4385639933001504
5.435369611277262,21.25304014290239,13.735810367237937,-3.942229584888445,13.069883830705978,-3.8617188754934473,0.6325600095468914,-0.68439389282769
4.222680253429018,17.779062462126042,11.928875274210801,-5.568308921447264,10.035465331031359,-4.7389007759933,-2.319139169855086,-4.427312157162915
3.32716948993021,19.10295238334618,13.58493502066734,-6.70040917257977,9.249133181502184,-4.013407034800186,-4.300187520651111,-7.614295797472261
2.9095798087861704,26.70662503577783,19.563435169518613,-7.3732941789703865,11.591660509578526,-1.2844233867931396,-4.329260428068798,-9.210105218695727
2.768757148360816,39.16878829510432,28.384733978383462,-7.858069601498662,16.419525875909667,3.1059906434569444,-2.1516289951154697,-8.776484853217422
2.451374369048659,50.95389879842637,35.805746978267685,-8.34137246943811,21.138736449364377,7.756339744926233,1.3183987411131672,-6.653485391312658
1.5698027257868192,53.229787431019886,35.887093336104805,-8.55213640240134,21.7333620859831,10.429532507983737,4.156090951942545,-3.7307886418461993
0.1711046564187942,37.519072513896795,23.738551281655447,-7.640093584446122,14.508412610628579,8.977039638667273,4.313715973710997,-0.9456721251409348
-1.126128628474475,0.6901911502474329,-1.358522780356873,-4.522757955138656,-1.7021528340075576,2.5477385813521303,0.7861895959415223,1.170890205249847
-1.4019214045299708,-51.94522954574752,-34.58760011393661,1.4202870616608272,-24.305877249059186,-7.706822797126442,-5.712006213145504,2.6311083283193937
0.012518150240188689,-107.97125333486538,-67.28416919057457,9.749824929315245,-47.739225778786796,-18.99309888326506,-13.056027250651216,3.7796903331764677
3.0648674292500506,-153.33768940234722,-90.94307576367945,18.91998068757971,-66.00162240398674,-28.168014639566916,-18.835129924155453,4.937338773730741
6.929478736341668,-178.82398999187345,-101.18251936111727,26.89152261563828,-75.4574462141897,-33.198610805015015,-21.57443961591268,6.162147538382958
10.424401620142712,-183.68517951919281,-99.31004015309082,32.06768718859494,-76.24259335422742,-33.932777089612934,-21.31262049811045,7.26302284915702
12.626097489118369,-174.60736730938984,-90.76768470113235,33.99141823692917,-71.57538967363426,-31.816932826392147,-19.280094621070592,7.99602293933774
13.285500819994933,-161.1839456418654,-81.77140991630041,33.404667820378236,-65.65320393182478,-28.886471034038948,-17.02946913805564,8.257394048510841
12.812337339844913,-151.07697590449934,-76.39885566546748,31.699210675718078,-61.58979819499852,-26.736293014438132,-15.64497201930043,8.133881501742817
11.913366811812407,-147.54041333835139,-75.61628430538107,30.16567244774661,-60.503003535495566,-26.019889189918487,-15.444692263375137,7.816247607607267
11.183711349315578,-149.79820014372658,-78.10211493397698,29.497136356637622,-61.836103396150385,-26.545156485013703,-16.14760516086992,7.482971952225998
10.899753203133384,-154.93341938725564,-81.69038990288087,29.73066440284218,-64.23793624238898,-27.673569243637747,-17.212899603226017,7.240312576295092
11.041733003877075,-159.76108336353295,-84.47184652322052,30.48963297268462,-66.34786467048451,-28.716924337245416,-18.121200358378402,7.11955564456473
11.418443195988683,-162.0793926375538,-85.37501913348616,31.284804462071982,-67.28733970282636,-29.212047437340868,-18.554005890025586,7.090518849430215
11.788077601442902,-161.33706923617967,-84.40275171545426,31.74059329800647,-66.9114964017945,-29.065262205616765,-18.490096310341887,7.079285493163547
11.96287287714112,-158.65224423599844,-82.49858976546675,31.73187773706875,-65.78308226312932,-28.537891899580973,-18.180182208235166,7.008327482008167
11.900325399049212,-156.01012564655497,-80.93189652247406,31.419574005497257,-64.78597776945077,-28.050171298127648,-17.96769996061001,6.85252945998894
11.727008340471441,-154.9544530711889,-80.47127422157004,31.14209990024327,-64.54228481078701,-27.90069652965014,-18.052664318444158,6.662280762235462
11.641489177873236,-155.66292984528863,-80.96242177187764,31.183078657216377,-65.04750043400239,-28.098043486869013,-18.38211180435394,6.5181697911502505
11.747019691466695,-157.07636516686688,-81.63910628389606,31.558524814457208,-65.79301244336983,-28.419228631333628,-18.747035817604228,6.4506646049285425
11.954423362839204,-157.8174725675782,-81.80298898856819,31.98914602406086,-66.20155068770495,-28.607737809478913,-18.969474218781937,6.401043891264169
12.045310670135036,-157.03664438418681,-81.2279645882867,32.08515479465167,-65.96918327925056,-28.527800725272915,-19.004366575253435,6.261015493734169
11.839223403221814,-154.69454150205874,-80.08960558861594,31.60726524503274,-65.13260324717275,-28.196348460885062,-18.915823448151595,5.952890284790794
11.32856316519583,-151.51456051531414,-78.76779207791589,30.63986696916701,-64.01634479084642,-27.759591718645208,-18.82600956406164,5.4861514680042776
10.704289195979875,-148.91477384347138,-77.81350347978895,29.608456685348738,-63.207404367153835,-27.475266524891236,-18.90120178458661,4.965641232688629
10.291982022662655,-148.67738567602166,-77.88022678618727,29.148866951877576,-63.42375272218029,-27.64410603384177,-19.311081684565316,4.565057835704363
10.431097297425255,-151.93200933137112,-79.28802895044038,29.8309075093855,-65.07780933347688,-28.415308516178328,-20.088822615436047,4.469054725832859
11.290137490320166,-157.75275044179537,-81.39674256328735,31.758112610249476,-67.6910356991219,-29.54628701264182,-20.972841686582797,4.767462171353457
12.642237635515137,-162.5104358103208,-82.45026650367355,34.199136076513064,-69.67771395947794,-30.340686282378673,-21.420931381394464,5.321046523058051
13.743651107291676,-160.91489019427027,-80.2843029211139,35.54586800863173,-68.86771532886573,-29.90711744411423,-20.873771390701307,5.692447120488869
13.504909072483352,-148.41227903237538,-73.47453609751598,33.81702466908826,-63.54669507566088,-27.6202389715862,-19.10510524689419,5.250262666352715
10.984909110649555,-123.496866332812,-62.065496044030354,27.582658368395105,-53.355089140400764,-23.48833285182035,-16.395454529045345,3.4515431285878058
5.961238959015617,-88.59363550586195,-47.443773197943635,16.819258067288562,-39.52137491509012,-18.205602480538815,-13.412432903910254,0.1600331320239052
-0.8066160734084378,-49.2319109095591,-31.689215687050687,3.1490253539615076,-24.41053924585177,-12.893858384168535,-10.908606230334273,-4.198435663723608
-7.841124976258333,-12.232898343579855,-17.039043115031244,-10.732593713455547,-10.753510292173805,-8.70502098305439,-9.439709733554285,-8.746901756735284
-13.602003240680686,16.115172277023827,-5.727763727973319,-22.123262535486084,-0.9418803633511471,-6.467490824144431,-9.224078524837575,-12.469462968512689
-17.126614305714973,31.39284502708415,0.13020190243140678,-29.265794053940155,3.474402254459764,-6.46380197294625,-10.124904047008078,-14.551648396448021
-18.271981105129814,32.09900917378364,-0.7969368525896169,-31.726451187210895,2.2150244182661316,-8.316426877935784,-11.656992439271303,-14.598677935328007
-17.47380153532681,20.831808845049604,-7.672059921760051,-30.188350749511144,-3.2313451979672094,-10.926967820957067,-12.9549526631535,-12.69226379138408
-15.284135939742411,5.278200810001199,-16.142487834326506,-26.00844708736607,-9.247980332735207,-12.513289926932446,-12.775553256421697,-9.339902310505062
-12.071367082802956,-2.4015415943377123,-18.501977190750406,-20.869659094960934,-10.506150022656296,-10.923020421067623,-9.718456546803058,-5.373960550732479
-8.071898786566365,10.862764862291664,-6.330344209497809,-16.557277342494608,-1.6573160855272469,-4.3511178813801905,-2.7649391544914246,-1.7980237167047748
-3.653401324826186,53.14938260356781,25.183747841113565,-14.666737289089093,20.1005621431913,7.7268136637602165,8.053737146744684,0.4500511027052991
0.5235357290818736,122.36897477472111,73.73243859406688,-16.149183300842562,52.98402227767786,23.931647467182238,21.292421082452865,0.7895162677784704
3.643230052041236,205.43759772530825,129.714114594667,-20.888745849523954,90.60607740567274,41.18695000126356,34.395608916363976,-0.7798575655477974
5.096460618458795,283.1214467740774,179.98191248538427,-27.647434334444082,124.36507537332267,55.82350384140959,44.63650369099881,-3.665385251497447
4.7979248769921945,338.27161010240036,213.5798978559466,-34.54078268799994,147.0838544009236,65.0660037672925,50.227647162541665,-6.9271652343568295
3.2229466319153315,362.959350035614,226.27964126218728,-39.856388862414896,155.9217551063045,68.11070947668544,51.0005835901243,-9.678333183726512
1.1424194023885137,360.8041512826518,221.60498585206025,-42.774081410925525,153.0765268901575,66.25116267456147,48.317987192310504,-11.435421954338043
-0.7387565486119548,343.8687523296751,208.3002532128717,-43.578280392693785,144.1993385790981,62.09523128172107,44.358505832720326,-12.23219333503485
-1.986232271318074,326.54847365063205,196.14242852043762,-43.262669699485116,135.70240383824301,58.40288031042797,41.239987770360514,-12.44730488073669
-2.405840790406995,319.82334694481125,192.3070026380638,-42.816195475139324,132.38462907950426,57.12606694197638,40.38666695140469,-12.477151399168811
-1.9303732375816076,327.91745527768796,199.35520704680158,-42.66754654094636,136.0983997074236,58.90844221799066,42.223848309473304,-12.484311554047286
-0.6213332594664103,347.53370682041543,214.71440318736,-42.60394975522255,145.3911996845615,62.98014240386809,46.067017089999176,-12.382077930483087
1.203615357032864,369.10092408931206,231.35000601042657,-42.1065901115742,155.90115606362713,67.35028113490914,50.168792388369724,-12.023773778833624
2.915068174765274,379.83002915660643,239.80299857587335,-40.774600795481405,161.59067127497252,69.35062679441583,52.10001908883686,-11.411854845543488
3.773095534214026,368.41056707258883,231.68021910202143,-38.53793675512781,156.90518977564622,66.57843294123244,49.60342459092995,-10.751764446748094
3.333768429921942,330.10598316287746,203.60791155875046,-35.59730322167185,139.30742718065258,57.99387455140291,41.68769096152857,-10.323117275528507
1.7822994239707073,269.802598760609,159.59615580371505,-32.238548443412306,110.92986259233287,44.615816878788586,29.3615264982626,-10.288269694215696
-0.08439887249625894,200.862934117362,110.05265115909582,-28.70484408656316,78.17116565290934,29.307158268737474,15.447660464051342,-10.593010438093533
-1.267866814424224,139.7942606192073,67.50604872231791,-25.20306337915802,49.136038099631484,15.622354760610207,3.4249382601709915,-11.030211250532622
-1.1317510353949776,99.36527005098517,41.21437091836776,-21.991089629588178,30.181400680615994,6.287275881573651,-4.123374778119574,-11.412968988097603
0.23316532413466562,83.93877008659268,33.65781186676175,-19.443726653989845,23.477803140083886,2.1555480205208895,-6.584908341010103,-11.732317742036605
2.0569911661537827,89.464542237747,40.753464629978154,-18.041930666441985,26.887723680650275,2.208151084911305,-5.322349287018373,-12.198848265508287
3.291726916071389,107.52677231448386,55.209308634847346,-18.287182062497177,35.94997036472825,4.490148995882494,-2.685254951299409,-13.147930230846248
