FZ,C3,CZ,C4,PZ,PO7,OZ,PO8
45.79772483844866,239.93085172823194,372.2692665459191,68.02293550168496,207.7985260477713,45.13064655389473,72.84185278856229,34.16611455399402
156.21056243420378,498.4084756169324,619.1993767462317,216.338720302619,381.55499173206556,118.83693149539947,196.78572174658265,116.04380385251805
249.47474047231918,722.7567402126055,840.1288550793364,341.9216862382826,534.5580688331924,182.13750484100592,302.52078486925143,185.24807367202288
313.78873321214706,887.552235659339,1013.201678742379,429.0230228228077,650.5281359454809,227.5546908035079,377.20574038356995,233.05024737132993
345.956232749678,982.3972049258291,1125.3073169817037,473.1926891238746,721.4325332427359,252.49753990830607,416.79982297454603,257.0776440318672
351.2719228894687,1013.3728157485563,1175.3424275127654,481.22331226700464,749.0814195563955,259.4780249181062,426.20852342620094,261.23900714944784
340.36912977049207,999.2962559963182,1174.6041117043426,467.1077183190773,743.9187396673784,254.59710706999027,416.3347881655885,253.40040779646492
324.6167236018711,964.2035545865854,1143.174976370848,446.0171907387125,721.1401042300522,244.97824404619834,399.4461321570727,241.97669916874773
312.1410055621817,929.0569816087177,1103.1402076658187,428.99381876634993,695.4921575259558,236.25670101509647,384.8899823546686,232.97624084944496
306.04454358874216,906.076972142311,1071.5730391970883,420.4620631149843,676.9427752406999,231.16308995546024,376.8799003221761,228.67323201228123
305.1644813562141,897.7434485018491,1056.5786957004448,419.09314905829694,669.0361541768663,229.6419231159541,374.9358369284267,228.17229761117642
306.41565169840317,899.863483279462,1057.5802470475155,420.8315893932834,670.0978406654765,230.10980611564582,376.1572219898858,229.16206623457953
307.14361232973596,905.924948817681,1068.171849912963,422.0201978374222,675.7334314817956,230.90619091685704,377.6827385107807,229.68488221998408
306.2928297769867,910.004410238424,1079.0119559774184,421.02108127094345,680.8067882906888,231.10102051878192,377.9802917759556,229.02218424112016
304.1822877416216,907.5965728666237,1080.0187153921072,418.0314245611603,680.4309472164587,230.4556813276068,376.7050079319036,227.52220499406582
301.49370116009214,895.6884099579561,1063.0663904486676,413.87263504081216,670.8483049286311,228.9225465827174,373.82464270080294,225.80575745452538
298.2510965245867,873.3135664691531,1025.7599293224744,408.7393529150789,650.847018968159,226.18241099297336,368.86499956291254,223.93549368444596
293.2825591624301,842.1960951998472,974.249189610587,401.48495385575376,622.9221242780404,221.45327921159327,360.6540032555962,220.9479130828163
284.34668785557466,806.1346868966085,921.8199168911771,389.63474716176665,592.6382058528001,213.56316441946865,347.5090330670836,214.93271083080623
268.9314465305381,768.7468039074574,882.3722872458108,370.1806514757605,565.755930201927,201.26153703967512,327.7523589286561,203.69635020853232
245.5282655615436,731.0474985819505,862.2119619225832,341.0429340453409,544.7396768181893,183.78235759273622,300.51355331718537,185.8463415774546
214.8816538145254,691.0808693858548,855.9451407104074,302.70000758206845,527.2964925072398,161.55844163033768,266.6657444495623,161.85735940980402
180.52600187068904,646.5235978667157,850.2081865078031,259.1285260768446,508.47621975714867,136.75880565581923,229.4715795738057,134.52703802929057
148.07892387264442,598.6171371624976,833.3795417832306,217.2321744928532,485.1565656020239,113.18296884213945,194.3445530328371,108.3906919530899
123.29286908295938,553.9464663156766,804.2449061127645,184.53057615730688,459.4169597724528,95.19714894604355,167.32454287439376,88.1351912186802
109.6172947211734,521.5622487486863,772.5266902746223,165.92265709506103,437.63787255899047,85.92974349831113,152.58180405027178,76.65481391263744
106.59687595250826,506.83437926241317,750.5595229075038,161.29395413427304,425.6074685782336,85.6377586618581,150.2289623269993,73.79154883298473
110.2188031508188,506.9556720119522,743.1589515484586,165.65109099509382,423.6762123579527,91.3797417306698,156.02439166605168,76.57642717663724
115.12277009621434,512.1853970640462,744.2430533016022,171.90258350051238,426.172215764133,98.40003931190186,163.46782153372087,80.8631851316544
117.2441281506711,511.98100916976676,742.2877573197835,174.4603279563464,425.4173160963055,102.39916745141181,167.00307880258086,83.28678027787149
115.256289128493,501.15109522208894,729.1032944752621,171.37220527814517,416.80537963623743,101.28819315014239,164.28200668100024,82.39077475565934
110.32762665974367,482.084771886962,705.2682165990657,164.16980085788038,401.3847329676036,95.63872848520019,156.46972181665527,78.61836548706808
104.95711538780498,463.0738491489044,680.2245067888929,156.36329832556822,385.3126803373487,88.06776330881972,147.13652812907708,73.69298852156899
101.7636226925007,454.738399061874,668.6276932599209,151.75654079660032,377.3954894835786,82.12702739053724,140.68403814903473,69.88744462299154
102.36692224033592,465.25763427928877,683.7299093455428,152.79178003630244,385.17638474516076,80.87396688162607,140.52016794829694,69.12684488458467
106.22983122649286,494.2403383957515,727.6410848260582,158.7762911729649,409.45492701765704,85.17075484555926,146.91052959874986,71.79998100405089
109.99604581971867,527.5493888937309,781.8990534824328,164.79468189537295,439.2382454015426,92.38952696289626,155.37946376886094,75.82727511364739
108.37269983798458,538.356095603676,806.6791078290431,162.87842490311883,451.80835654700127,96.75635325547366,157.41018342310264,77.01729803308274
96.80548964719097,497.75082341611784,755.0931661533152,145.89172665740247,421.2413041388132,91.90208543470919,144.24226740936754,71.09591939071419
74.53239473306344,390.96307893973943,598.3534926339005,112.16121886872253,332.55642892141464,74.4861589851104,112.05973345144776,56.37066128850093
45.80524631346641,229.01481663069274,346.7270549596978,67.58342453245979,192.85643285333376,46.57267165843949,65.1548880849821,35.18624456395352
18.148126029141025,46.998052018708435,51.04559133522514,23.361339029172367,31.263691085566297,15.030667732163755,14.621539587022129,13.025240507255715
-1.3717032133515181,-111.21092118682967,-218.37294295602737,-9.423557174079201,-113.45967338430947,-11.782359540025926,-26.86023368216374,-4.240300873654687
-9.520736045148205,-212.93205664937645,-403.5235629227561,-25.04181726556162,-210.5262885908201,-28.009661383169945,-50.97460847868829,-13.1996232981933
-7.949253432274221,-249.77749741399302,-482.76336862910614,-25.10009473254821,-249.74350430639197,-32.62444642856853,-56.98548263485453,-14.170944426752651
-1.5840500428506226,-237.32573565460328,-474.54916280644204,-16.530880202518286,-242.65869072146197,-29.014899908295842,-50.74193910701078,-10.369982302745504
4.311924845041643,-203.49296375848624,-421.6187304907336,-7.340765414921067,-213.2288580992887,-22.512472908743163,-40.690132819897826,-5.808163432983258
6.524074824546052,-173.88261232151223,-367.4934258366979,-2.887708240668645,-184.87566910027826,-17.616779791446604,-33.63505709838443,-3.345914801971035
4.578058744946455,-162.33051228284953,-339.0584184568918,-4.520902571450052,-171.381480837465,-16.432930199685163,-32.51299684897458,-3.888398558959752
-0.07769871080957902,-169.71590006802188,-341.96510164795126,-10.518242444744375,-174.94019764495692,-18.707066259126204,-36.64317637055518,-6.747091411014777
-5.4044557128426405,-188.58487533792348,-366.4846905207477,-17.970385978762742,-189.713926072611,-22.829606769160236,-43.391702805678534,-10.524486164519606
-9.775037076087456,-209.1740818947052,-397.07775920015115,-24.34114304337874,-207.11701153146936,-26.954188619869672,-49.91182356359337,-13.900361492888617
-12.427211321968487,-223.9680911466691,-420.45195076394253,-28.28070959037457,-220.09209970354317,-29.778072126243433,-54.29416506241723,-16.096387366437476
-13.518892520717323,-230.0581245252924,-430.2359189111127,-29.82730721303803,-225.497286400603,-30.915097236164293,-56.06835980582545,-17.0475646312702
-13.88174593485216,-229.31850233392706,-428.0248086329909,-30.110144489977056,-224.5199211996965,-30.865600344631492,-56.096108085807856,-17.291979115282352
-14.503216900369125,-226.4911107789605,-420.86417996073095,-30.600641762844777,-221.16645430833162,-30.590693734633657,-55.88401863281291,-17.586715183391632
-15.954071101959581,-226.04950823946348,-416.3642668139662,-32.23652570061329,-219.53499089781698,-30.88951097820478,-56.62860200767112,-18.436094374497905
-18.146815912899353,-229.7628812885264,-418.3614341905602,-34.99907545651209,-221.5198742710225,-31.98277567591281,-58.60825890609601,-19.856975050931332
-20.592525416365966,-236.53130548804543,-425.90636000486455,-38.22659514784222,-226.42174171554666,-33.57432196888406,-61.31852040621126,-21.53298602457483
-22.86667359964696,-244.11375083667016,-435.56313077779674,-41.280527731142584,-232.31773176291654,-35.2355264269841,-64.08575690836977,-23.15065748389102
-24.833686221277485,-250.82680038034695,-444.2715796282748,-43.909075761725504,-237.60232568852183,-36.70044955242261,-66.51533943963223,-24.57769264768223
-26.521024774436064,-255.89810922723328,-450.38178881932566,-46.10999225363473,-241.44982061631273,-37.86641644833884,-68.47231287643815,-25.792627698876597
-27.944322505878656,-259.02648926834513,-453.21476300368965,-47.89339398246127,-243.51748432439206,-38.68296592759391,-69.89676105489131,-26.779111155100065
-29.151803157374673,-260.4100318132014,-453.02505900516087,-49.335372902310695,-243.95312845005643,-39.18298940056269,-70.85024161167209,-27.57290318802148
-30.366348482959435,-261.29485465882857,-451.7723573517779,-50.77283533615453,-243.85070217024855,-39.608995647299764,-71.71083938615276,-28.363873648280922
-31.91811845818034,-263.8378996785521,-453.020972207693,-52.70607022444797,-245.1658624078832,-40.365670943511915,-73.09571060366261,-29.42734866753805
-33.94349071438066,-269.6667771217185,-459.7694933003153,-55.3585410525965,-249.48100873234603,-41.71859395665489,-75.39460957582746,-30.87914846083181
-36.184219965709836,-278.26392321063076,-471.6552400639208,-58.365305496136294,-256.50255544617806,-43.51288507657634,-78.3461068457586,-32.5158893678061
-38.14949105807513,-286.85434264800375,-484.2891840959888,-60.98774002180657,-263.79657316983645,-45.22037257545534,-81.12795062881932,-33.94083932396709
-39.48512079579521,-292.03982423081504,-491.6251702214903,-62.65825539060718,-268.14554872503146,-46.281448579062,-82.89315208225702,-34.855220236410446
-40.18298119951124,-291.8078336679056,-489.5197702816542,-63.32501408018669,-267.43488697536725,-46.43086724158041,-83.26326594853998,-35.23455688466947
-40.51801188390056,-286.6465908163901,-478.1936427448951,-63.39900330062873,-261.87255930049605,-45.813365766472096,-82.48782439716481,-35.29931682138172
-40.93049750971187,-279.7477416263391,-462.9924150449319,-63.58460076766036,-254.33857784510897,-44.97489668901314,-81.41710341933691,-35.43315243199506
-42.00177640821498,-276.6288185681213,-453.72092757486695,-64.80916843019405,-250.05785428430843,-44.82217793909664,-81.43584725130536,-36.14825577626247
-44.331334489720476,-283.5610807209229,-461.75942520049773,-68.00060658800413,-255.09332866258987,-46.38828734054639,-84.10255257625235,-37.9509903512322
-48.08196806384086,-303.9367939822399,-493.77451879062033,-73.39414040575919,-272.9470037146909,-50.19921724855949,-90.1778685425552,-40.949367095319516
-52.40438115177717,-333.6339478340426,-543.6476057478569,-79.67669836495175,-300.19034916375955,-55.456849299157156,-98.38338732494557,-44.39392719424084
-55.34767484055459,-358.8912701844393,-588.2671145773539,-83.85667890403533,-324.26356287588703,-59.71791898561529,-104.93976951452963,-46.637003665445754
-54.6108106207421,-359.9464098303811,-592.9659118023827,-82.40090596471231,-326.5388295412145,-59.621118689744826,-104.71189319460633,-45.780579718537936
-48.74513756817489,-319.8990704954363,-526.5610355549346,-73.08458132874863,-290.46487736808893,-52.457359841608366,-93.60824966377378,-40.68800366904406
-37.95548359467715,-233.96969109279112,-378.3508491084352,-56.269070052699526,-210.5583855227265,-37.665926125789284,-70.80676807323154,-31.662593017003406
-23.953831240555825,-113.3647449321089,-166.61590460509277,-34.719546145011655,-96.71108922621556,-17.32576104019386,-39.407291128327664,-20.327923946983887
-9.066673842209749,18.814070035612705,67.23135788403594,-12.190636550802253,29.087003495187837,4.628359479860643,-5.166163352604048,-8.83952594061007
4.710599965781333,137.2674640940734,275.96507171255854,8.170139481218918,141.89120765719224,23.962612155034826,25.846033913472645,1.014785269912887
16.123346060659912,224.23029441034558,425.54797557209537,24.60443546455975,223.64126831583064,37.60643815964033,49.31103271108838,8.293862017777506
24.47023604181264,274.1454295802507,505.54049039110254,36.47909977296867,268.4649946267151,44.35944573286837,63.49975655649836,12.817443347532658
29.278815799843144,291.98994862855454,526.9438500726025,43.61205492806778,281.58258745146793,44.7700611193714,68.90183543146988,14.817488163605892
30.370674149049226,288.164833288779,511.859473782629,46.069677683551866,274.1823398668028,40.611404402011104,67.43936207268727,14.764277028491275
28.315587100966148,273.9484929671064,482.98310359331145,44.627815617269164,258.27350285696167,34.35761968161236,61.922072203876475,13.469302543102302
24.655130841895048,259.02842785891437,457.61341044120167,41.1267852810012,243.62464174594848,28.647594345710754,55.60887717088361,12.107303025436908
21.347640359901167,249.979519917158,445.42897145561545,37.89390501382966,236.24154726392473,25.54724954864035,51.38312463757536,11.812343450627912
19.711113622799548,248.84769412155651,447.84170119361795,36.47532771247646,237.48014386779846,25.793098597279265,50.67009170133739,13.053499743111917
19.783077393393253,252.9910929462102,459.11264380813924,36.854991092292494,244.327296811224,28.587285391763327,52.96269694181234,15.401328907132635
20.6475678547241,257.4215471299456,470.4204675356881,37.914652208632546,251.66509871032562,32.2394586355671,56.51966288511858,17.97145619948349
21.298945428750415,258.4023779664247,475.375659411421,38.56876822955427,255.51660761362433,35.1978116163454,59.66944563227833,20.11656510219116
21.19058827204658,255.3481340730021,472.9723738918756,38.4126639248037,254.84981180177695,36.68016878871863,61.590678956466014,21.709137057356994
20.18914026227254,249.78715135214668,465.975888454006,37.51758287499683,250.81645451535516,36.631011408964206,62.164596775249834,22.88472630301404
18.38762421690019,243.333036374929,457.4088147699811,36.055661383482835,244.97355420603995,35.435989515310226,61.55161396243868,23.708587629881094
16.175263790301354,237.19618832636542,449.2418878741011,34.37361794162391,238.69698288332978,33.83916283688636,60.17972061113367,24.15679717534779
14.319823098836768,233.10010091149996,443.7333861504471,33.191091938040316,233.84515560292348,32.9028254018906,58.91816561083724,24.25192105114005
13.600217605790228,233.25564227276516,443.99621816724186,33.221329952788324,232.72880365446917,33.5513202076731,58.717733190824816,23.970027262656785
14.111915032218072,238.34413956103103,451.50163648669724,34.307013467298994,236.35337525580061,35.756408625158116,59.69392359934467,22.947411151082676
14.962419192510511,245.53086207210114,462.8493688369336,35.046774294424026,242.54045751478117,38.11354771389613,60.593177076824695,20.45570034231445
14.810139604140318,249.20721806026432,470.05478544651345,33.57565690564299,246.34975743573895,38.456295992204105,59.44846062924125,15.91416735542302
12.8397739378367,244.4441479610344,465.21170652655036,28.952782631501023,243.0376164489536,35.24650762258424,55.04816096103727,9.572764795945682
9.360677939588589,230.4256275597266,445.95045989213605,21.990588910861156,231.28769070350484,28.749291996361233,48.02474951278121,2.7398911687245215
5.690574055655525,211.53603295981515,417.8302723065536,15.012531419120139,214.50057174173816,21.20256682787518,40.81916682727075,-2.6358823008349703
3.628340434352906,196.11871701182378,393.0307438078137,10.974729417267545,199.88660668857113,15.962693189621735,36.76453904829702,-4.67629296675442
4.821923946254083,193.83415079348586,386.5682102242272,12.443454525017525,196.12531320439322,16.08783558052951,38.82622217720399,-2.221086216690227
9.94094765492225,211.50376592583407,410.08081791505435,20.355704264741018,209.65733271532352,22.79402713932478,48.12746535037411,4.582740284541926
17.650278609552032,247.33394626892274,462.91725654167647,32.56042917285259,239.59152168877242,34.212823035492065,62.38016014001494,13.73421096611176
24.08735356629302,286.1929467829436,524.0524855510025,43.10976404733477,273.4018702380415,45.163061015167386,75.14571127643185,21.3297764120519
23.87455434466551,301.1264441750368,552.6455627046613,43.764896722979465,287.8082681264633,48.66425037412605,77.33340908403314,22.671705500857453
12.788919786779235,263.9947342756471,502.76302028308334,27.927357400649267,257.58049793586844,39.04952838334599,61.230482294837884,14.486267347070752
-9.356970067729902,161.15670534037568,347.7201119617549,-5.051192855028892,169.20120211981978,15.188630096507675,25.15669912980042,-2.939150270375416
-37.728168474897956,4.451289968778498,99.68179874267705,-48.254649006661204,31.148011540245854,-18.2369685881224,-24.372350672094342,-25.27397672909769
-64.39073919198549,-170.84573669668723,-189.71183995576646,-89.86848735838981,-126.79247942121309,-52.48866267086717,-74.86963712159834,-45.941989078932124
-82.13952661489796,-321.2376583237887,-450.51741834193666,-118.7846716924731,-266.04645168403727,-78.72883729287473,-113.51840044292402,-59.2538510644931
-87.8977929037378,-414.79926464681,-625.9523171328908,-129.77745971883374,-356.68142660463394,-91.94126053296458,-132.96815099238606,-63.005674404171984
-83.69009361551201,-444.07989969034617,-696.0042020773001,-125.23333602789921,-389.6864369927313,-92.64545426727295,-133.9707304980208,-59.06091198732238
-74.84729495404834,-425.45836646686604,-680.5856280363207,-112.76269688656251,-377.6529604141724,-85.68286461231507,-123.66446815800606,-51.77847108885805
-66.85601943634637,-387.092161263994,-623.0243739190163,-100.62403887463,-344.95980038288855,-77.14837018875343,-111.05368791629694,-45.47808877630944
-62.89154965789877,-354.0852907677246,-566.2223453647671,-93.9393176823738,-314.63312039916525,-71.46995025797833,-102.6801774159252,-42.541654287445986
-63.229892982590755,-339.3689095423841,-535.6752358867785,-93.57516654553696,-299.56285538063935,-70.14125493555451,-100.7496573835833,-43.03380246095102
-66.24670817039582,-343.1408070402074,-535.8472998854985,-97.42054603145561,-301.1793409551836,-72.23438859668681,-103.8979038594475,-45.55805966891198
-69.84533502682427,-357.85557510925264,-556.7097481828307,-102.44392103500017,-313.4280989195138,-75.7479332038461,-109.17687241639304,-48.41536187107272
-72.42292524649352,-374.08237095529347,-583.1866687150551,-106.18777718748821,-327.97555735281964,-78.79374306025328,-113.78991870825959,-50.36469978231063
-73.25054816598661,-384.65270119496597,-602.5970442971188,-107.42919050230289,-338.1224159487214,-80.2495014782666,-116.05195094598392,-50.895759637736965
-72.51085366988534,-386.8118195792468,-608.9087405493789,-106.3066410162344,-340.9473794774459,-79.97177559655857,-115.72615287653984,-50.217591828611724
-71.07355970001478,-382.4636022838846,-603.7949384178589,-104.02810009934748,-337.71880651294737,-78.65844083753068,-113.84413419700864,-49.04738089144475
-69.96687280050506,-376.32174219012967,-594.2205695639632,-102.11006772791775,-332.4247147499586,-77.35853518660781,-111.97717315742814,-48.18635852695896
-69.75612889866804,-372.68424578457024,-587.4730223945261,-101.45137440225791,-328.9848970474239,-76.81856627667082,-111.24371025466435,-48.050099842841085
-70.28812512626837,-372.95354447527,-586.7789598486927,-101.91019045969732,-328.93699289034174,-77.1011867300181,-111.73124611640786,-48.49316632981448
-71.01128555103128,-375.710929177989,-590.6466663411974,-102.71998229477535,-331.26466093013613,-77.75892828114489,-112.76699742446672,-49.071693579054745
-71.52157667028752,-378.83192361284216,-595.780443293721,-103.27400068251923,-334.1204470193434,-78.33783710877297,-113.6823781382672,-49.46710981472377
-71.78848453615475,-381.30236117984606,-600.1977219610608,-103.48808527648775,-336.49557931648036,-78.6971419426301,-114.28268239511435,-49.65699491712795
-71.94090701564771,-383.20275030993804,-603.7395551690483,-103.52763197945791,-338.3738362215773,-78.91402602344087,-114.68499963053897,-49.74817675080683
-72.00094223390755,-384.6592733421729,-606.6121960496099,-103.42548154661435,-339.8737512492899,-79.03605101054437,-114.94353307154526,-49.77009020914177
-71.91407493789309,-385.46984797744,-608.5487047368156,-103.10401417290126,-340.8406114434885,-79.03613196563755,-115.00086741970816,-49.69219246425847
-71.74795937761436,-385.69543751622405,-609.5059592363185,-102.65189765764741,-341.2862525202669,-78.95672779768263,-114.92256789801549,-49.56893812682422
-71.69677574594479,-385.9644026649009,-610.2722134449264,-102.34389801698961,-341.6930482209278,-78.94623887243809,-114.9478803194281,-49.54107814204797
-71.84268804714377,-386.750751630088,-611.6032521867444,-102.31074119917959,-342.4697619291554,-79.0792693698595,-115.2014342934871,-49.65952530009871
-72.01906656076333,-387.61220323581375,-613.0162430725288,-102.33370234222187,-343.2881532806098,-79.21818923569293,-115.47680226206522,-49.78985369104959
-72.0133018117312,-387.7030876494542,-613.3152743158274,-102.1172835615775,-343.4483160635304,-79.16705415474836,-115.47593914091321,-49.77082867020727
-71.87111774116227,-387.1669905649982,-612.6554305287722,-101.72366993110747,-343.05898774718094,-78.9684530558546,-115.26203850402233,-49.64359622545437
-71.88523834840008,-387.57716443564595,-613.4802795278507,-101.57100986803185,-343.4985817097736,-78.94990588291482,-115.32077744364413,-49.63891176467248
-72.24330726315856,-390.5342003737214,-618.5783741851208,-101.93350752236154,-346.26744666080987,-79.40278933914666,-116.06741622665115,-49.90744133557731
-72.76122085635784,-395.7850054383248,-627.9392443895125,-102.54080756296615,-351.27747810344226,-80.23480446584074,-117.33567469710391,-50.31511696958914
-73.03211169163102,-400.9138111162348,-637.7338312235682,-102.77351074851917,-356.40448072829656,-80.98241321828444,-118.42723974409111,-50.5509729292513
-72.80629064527052,-402.92765690184825,-642.5469007166547,-102.2232253515059,-358.7857662845213,-81.15290176981689,-118.64473084495575,-50.41017130883211
-72.16874393508732,-400.1786315685171,-638.8056541410122,-100.99317174881023,-356.6330792306275,-80.5373279303523,-117.74317857864429,-49.931782486310674
-71.40055125997685,-393.2683196633828,-626.9544717410521,-99.53418802998463,-350.27947051765875,-79.28580299367789,-115.99711905741347,-49.308828741208615
-70.81599205630192,-385.09955964206176,-611.9864358495466,-98.39751910736904,-342.393067109822,-77.87618598326232,-114.11502493141751,-48.78351370518946
-70.78255280126605,-380.61758099088047,-602.9155422587007,-98.20786577060818,-337.7309239250186,-77.10973221292458,-113.22495628955971,-48.669924807823264
-71.70869392649591,-385.56848011269363,-610.3576736374088,-99.58543468661216,-341.90012276234285,-77.94718744764329,-114.65019054428069,-49.332619133416856
-73.69633882781051,-403.14894063752473,-640.6628098114237,-102.61171002655317,-358.20295397779694,-80.91800200651262,-119.06698242058398,-50.89544521539746
-76.02711390321913,-429.4556620566918,-687.9660676077693,-106.09071507019323,-383.35105773807885,-85.29230689162134,-125.32980197384822,-52.82072580431276
-77.08208389540448,-451.3235839911299,-729.9005122427833,-107.47577389628444,-405.242239869544,-88.72434212828928,-130.0148169417319,-53.82684625513499
-75.02959719943149,-449.8892090067105,-732.9251919692732,-103.95672562208277,-405.97192483430547,-87.94641238180579,-128.5009705501325,-52.41141326840135
-68.85377463699335,-409.24170923646557,-667.1371949675408,-94.0773214051179,-369.8218850484975,-80.28999933815658,-117.1908509445494,-47.66721907008449
-58.89634750131275,-325.21783166160907,-522.7253476912273,-78.61366701917268,-291.8812534521175,-65.09382365266272,-95.44973232864668,-39.76125028861381
-46.512343357045694,-208.73965467917895,-317.7717982876197,-60.03001716244811,-181.8945201930107,-44.11242182592977,-66.01094656814149,-29.74444742440888
-33.2279664435765,-81.6003358603011,-92.1437617047442,-41.03062900381472,-60.818539753089816,-20.760697132817384,-33.72556805036804,-18.9375121766069
-20.14222027358569,32.666515235599086,109.18205221161134,-23.377495588896476,47.91633500129826,1.238395103045413,-3.5875081064369794,-8.421419264533828
-7.973807836099505,117.56299044368194,253.87948458232063,-7.76009720473239,127.45808632528988,19.007505778699663,20.793076797341044,1.0421190021381073
2.4939236664630355,167.68206528397002,331.791971860992,5.464996194509716,172.2411066350501,31.002201954764008,37.66173048422719,8.772562459540216
10.213945312142584,187.25911747552925,352.9933943095342,15.595789363845894,186.9477451154615,36.94529689056108,46.80638951170828,14.030184499040423
14.353013034816719,185.93372416330106,338.5948659851567,21.8028676464586,182.01605435207145,37.66402386719445,49.20497480419775,16.301557670844367
15.143722103462332,174.97816720175354,311.32744493235737,24.11233036431777,169.15072568179497,35.04546860104746,46.99677921395998,15.868420040385164
14.216767208483013,164.84946499097552,289.6310676359168,24.045012929245438,158.39871244823485,31.777303772562746,43.31343360938092,14.069221818929922
13.807349473627282,162.86791599297035,284.34208720979024,23.950058977538184,156.1170272801932,30.446019629961757,41.31638219833061,12.778693339737915
15.291620596876768,170.7011386337173,296.4624271139443,25.385485291935414,163.26697738159206,32.230579539092346,42.659421617119335,13.330877177767952
18.264003659552422,183.5444647326101,317.22272392305456,27.99173831910794,175.1316849868379,36.14536135502872,46.542268871562825,15.702199388890808
20.941832870287765,192.82989227024513,332.5108754565147,29.903358157671637,183.79049441459057,39.607580712807255,50.29309913370038,18.596557439446684
21.51071801144088,191.41044285368167,330.56109326266613,29.29058380104388,182.594323463049,40.073544797902926,51.146030449575775,20.319402867743264
19.344671462553205,177.83467917478401,308.461484724764,25.73979084630351,169.94519132093393,36.646157357195804,47.95574808032899,19.78823616840479
15.40631051184811,157.30117335160332,273.8906092224102,20.65071416294743,150.2972203308749,30.692346327002063,41.896959656079666,17.1308579481264
11.870436549005747,139.6471330133692,242.28405206121232,16.758814452436702,132.52166236553012,25.289962171566973,36.08341021846062,13.710506688450364
11.246152125818897,135.8057140066345,231.49364974089923,17.113714808691693,126.79635065123291,23.879041761583647,34.395093050942414,11.582619009975222
15.0957251335317,153.07804743824437,254.56561885736483,23.522930284961543,140.37324664379483,28.557862357828814,39.61460466930682,12.406430048848454
22.611673110975836,189.33978055325812,310.62031366990453,34.68514424251771,172.34421719951357,38.51730523025081,51.19275863233999,16.12812631534359
29.929218126840798,228.72525316521032,377.211339938018,45.17481490696258,209.52135179920705,49.417269599821644,63.858167390318854,20.26435070455024
31.220449305769392,243.58668106093813,411.5292327562854,46.811471274943415,227.61033324546685,54.55387965288201,68.7113553095853,20.656607452395065
21.603760442922958,205.30218797734756,365.58463806542846,32.6208036306204,200.23717847135896,47.82876158256121,57.225339836125045,13.68751461554659
0.3195929457270551,99.92349209899203,210.86802474871797,1.337737316452737,112.80880296370628,27.15136524510043,26.26937192473942,-1.288387777682343
-28.020043089133754,-60.742358732640454,-41.49130295139493,-40.648893086405096,-26.838004712769386,-3.8130267395464625,-19.070914837603443,-20.99225424903149
-55.216802763206005,-240.76486529226773,-339.1683845356901,-81.62131080377557,-188.56075853423755,-36.86090297246569,-67.04588063604581,-39.559835516375465
-73.38769534791653,-394.8960036858835,-609.0633940624134,-109.99732406013433,-332.0250603147298,-62.92349217821983,-104.54398952599132,-51.43547342278842
-78.66857740452743,-488.5573510198378,-789.1535519083728,-119.72073106328185,-424.4068030433381,-76.14464420835522,-123.10271221192045,-54.06566898547621
-72.62098158877474,-511.89792208729284,-854.1790719720979,-112.51967295333934,-453.8828163248529,-76.12695960098749,-122.25082675764939,-48.84762442540462
-60.815339576093365,-480.9865914388187,-822.0920842404444,-96.11996846113688,-432.141154525889,-67.34292659625004,-108.65790863130817,-39.98951765462278
-49.80876092103771,-427.3842874597442,-740.5759631173273,-80.01283524930801,-386.16742580157893,-56.45143672298456,-92.19430396111117,-32.23093788725866
-44.41030218418139,-383.4949850641843,-663.942474161919,-71.45380236861077,-345.3772822643208,-49.27930740692409,-81.51278987727586,-28.84471128527264
-46.379541248609335,-371.13305477131985,-632.8074769584101,-73.41553995991566,-330.8451262253713,-48.899272528281664,-81.23173743280068,-30.7618736289362
-54.4137355373325,-396.0563122523819,-662.6873807062993,-84.40072644762652,-349.62731817663473,-55.096477975264136,-91.09177069839939,-36.693665881035855
-64.71410767456356,-447.1555954426274,-740.7553709456143,-99.15418256730992,-393.4522005562067,-64.73462607632658,-106.36067628590571,-43.6982637045065
-71.89830574385276,-499.09566022972484,-828.9047416856606,-109.92743273804302,-440.72431866348376,-72.67879099496628,-119.0784579857683,-47.973837461215446
-70.60023089544532,-519.4148753312946,-874.2581955951275,-108.7655323600269,-462.5545317690233,-73.40181947188444,-120.46745472685305,-46.06154956180104
-57.76573838395017,-480.676464589644,-828.2558021724678,-90.85104009366046,-433.3698511274584,-63.24890985475413,-104.51924591416063,-36.402350769098554
-34.630016223327935,-373.9943392019179,-669.3685060716588,-57.484549341920356,-343.14431813688066,-42.51035993232456,-71.39401664963789,-20.499819725877572
-6.878276901979968,-216.34560880707937,-417.74495334620315,-16.525377002407858,-204.7175841735551,-15.924577904529846,-28.38839769187435,-2.6906142436212384
17.640583396204274,-45.57330503295899,-130.9137244827515,20.720268413259348,-50.50580187982205,9.141193713513912,12.808540308178793,11.752902701140854
32.595056251193306,95.88327903699273,120.08009768908057,44.773449111701055,81.16741579281596,26.078790611984328,41.468438797768144,19.242720230907874
36.0706928335435,179.83499984543192,281.9333091944904,52.326612142755884,162.9944316139336,32.04758740607327,52.735616091905754,19.592072572924746
30.914846932385252,202.91312330515163,340.06706350715206,47.01279345449418,189.22093095932811,28.798297071833755,49.160194502171784,15.705467392769654
22.46702457136868,183.36168423988323,318.1371125155396,36.3430435952119,174.23474425891527,20.969794704538664,38.141768913149065,11.506583347415408
15.384671692590848,147.68055827302354,258.97257711156874,27.142221249029223,141.51944723402184,13.220602606197671,27.307248413574328,9.606718010697426
11.714766994859971,116.78203108868205,201.09617274951228,22.587863713626895,111.07383958690899,8.174886178546066,20.989438900792987,10.302378477631201
11.133747634456173,99.77254143942723,165.0700146672504,22.32658188511262,92.81218864128334,6.238137553755441,19.6739104833736,12.33306097664246
12.507236271047947,96.3393389434329,153.98681899273797,24.61428378107731,87.64047502299893,6.754163635502968,21.794760074634567,14.439286271577
15.17878697209255,102.64609336574104,161.94595025624798,28.246840949475164,92.332712464201,9.151087334705185,25.801470124362222,16.34742628515111
19.129742138097264,115.29072290021105,181.69386632722345,32.96341231566475,103.38724559950664,13.214082566262222,30.97965386548728,18.589851010481993
24.33904402779012,131.74309507379093,207.34658021007206,38.66685570025858,118.0050032835776,18.65566594217055,37.031511512717316,21.625637075385008
30.123510774962615,148.9038543670845,233.43952271368528,44.51785336118983,133.22219819663778,24.637960299919527,43.26750599199397,25.085013057527892
34.89994950137979,161.72436051504027,252.9902683751788,48.551782953474415,144.7861339746166,29.641006582125218,48.0666858480421,27.59504563908471
36.4787421816003,163.03123180182183,256.51879571968794,48.01277697726417,146.8186698220184,31.733441504414948,48.91870055004115,27.230905497103315
33.02493959028298,145.7419294147515,234.08089243199285,40.62032450215688,133.35165531798216,29.317300916244417,43.40068333180145,22.52865332842356
24.66853731797252,108.32711266564817,182.181279500686,26.766126482968065,102.62224780503124,22.395811255711592,31.24830130039196,13.851202796208694
14.994985780955217,61.6158195879378,113.75157530435223,11.591690185894418,62.811175835517865,13.867319606840326,16.632049330288325,4.421558908813984
10.965043751747464,31.360638422762005,63.56942224569538,4.918327069145698,34.702262149579724,9.676107070885706,8.620179907028149,-0.018729167582944746
20.336875907256054,51.088368813489964,80.30109344551475,17.688447071010394,46.43074674521001,16.864368956058243,18.214164036856573,6.55843818727875
47.46840881995012,145.9001966117727,204.2164114582779,56.08577419634871,120.29884284887001,39.98647224701514,52.68446765050597,27.201142136521806
90.0267684409074,315.91658758711316,441.80850694656255,116.85267549062837,258.501319550449,77.91658734938564,110.46540744487837,59.6474951111106
139.01713626174836,530.7213231909865,754.314145237622,187.2353504213039,437.40481028584526,123.31287805401205,180.22649938365538,96.6428760822514
182.5225853980049,740.1875886489875,1070.1520073472377,250.19457572340744,615.5581958137435,165.47133100852705,245.2976835744459,129.00365040775978
211.09813222009168,896.486511975133,1315.9754088108973,292.05291613538947,751.7898084957586,195.09049750019616,291.1238910709994,149.73772270105255
221.68805419987277,974.6816998342237,1448.6729862397733,308.1574406235627,823.0682693299773,208.20742758895122,311.43840790737676,156.86346160077485
217.97143609421116,980.4118581961477,1470.2110074188008,303.51870026855545,832.086029726145,207.14824707853927,309.76998508035194,153.46247439514806
207.39708958106408,941.8013665464196,1418.7825961058797,288.6930120999799,801.4301007434682,198.31201068024546,296.00520947519516,145.29435250540163
197.1293545065563,892.5498336053249,1344.729039119765,274.0026068695118,759.6284183946918,188.53199815835862,280.7358429838481,137.71196849210773
191.33018261715256,857.1205152612622,1287.2932502985464,265.5674865578287,728.2473634244552,182.2749465958651,270.9082270553911,133.68330534965827
190.74630930471733,844.9622466068002,1263.8832915063726,264.61063143069237,716.3321200276439,180.8552990564501,268.5916442895912,133.58258407014048
193.8767371011748,853.1766736101068,1272.5133542208032,269.0703654336206,722.1776905405969,183.26695487964577,272.24506515748226,136.1473551677934
198.41760419492823,872.5190822236883,1300.3274136500672,275.66581187413004,738.2692911349574,187.48551201418877,278.7200121173248,139.5995254269702
202.25834562909523,892.51825950796,1331.4560591840896,281.3428384054922,755.6786875167677,191.45656514678294,284.8022746367063,142.39021781798743
204.02734490507322,904.739717106551,1352.223251771556,284.07465790036395,766.925707392196,193.67317732015587,288.13624325989815,143.5803713085151
203.3313776020551,904.7760575646024,1354.551720448384,283.23024974089884,767.794808608207,193.48555683190932,287.7247812580461,142.97717430137354
200.65945598773098,893.0005070661181,1337.7539070579558,279.47412526988575,758.1828374807944,191.14103155160973,283.98234126820495,141.01739365492676
197.00171866600675,873.8171330952114,1308.0554618176047,274.24724302111497,741.6754186116137,187.542817766118,278.33488549597115,138.45112466799435
193.51210624747654,854.0710131483861,1276.3444717603818,269.2697181882396,724.2573476356719,183.93724179847175,272.71720092861796,136.0836590172159
191.46650048343403,841.7157058833792,1255.684028773948,266.43017315934117,713.0481883533442,181.75745202439643,269.3303237642212,134.7650873406071
192.23884142354117,844.4515336980504,1258.6370806019377,267.70621024991976,714.9576258510477,182.4693954328063,270.4090939697176,135.41330140736463
196.72089630718025,866.6275396543568,1292.3252239651877,274.32884514562664,733.9494712472315,186.9751953502009,277.3036862588092,138.6319113737706
204.13718700774191,904.0509520506691,1350.6063985033602,285.11576170845564,766.5821838666868,194.50616914321532,288.78167613994685,143.87412580311914
211.13237079865868,939.9967527701983,1407.923259316671,295.20073579553906,798.5119890189151,201.75344644597638,299.7197592678908,148.7850713749498
212.2537098326186,947.4839680157551,1422.4596276309098,296.7549595189437,806.2998593581749,203.30046623827806,301.81619638549046,149.53165293029724
202.05427260421155,899.6158805519769,1351.8930833366499,282.03246649257915,766.2656814460461,193.67281035449113,286.7748210940256,142.27577443422703
177.7589253991166,783.4638902767759,1175.32549738536,247.21823979737133,666.6820483979874,170.05183535997503,250.4658400055085,125.03174993678118
140.92607485039997,609.1534579642951,908.2676538115463,194.79459984460726,516.0202249348257,134.03978157218918,195.59273990931774,98.81213724477645
97.18547445666532,408.07238788159054,600.304666772062,133.07323460009786,341.64968091090225,91.39352450459987,131.2334968051594,67.45273700811686
54.321973841357746,220.8753998495375,315.7537829507927,73.30535758827806,179.2898167978517,49.91869050397817,69.56613573686661,36.33996687459322
19.80830897595451,82.16726200979171,108.3451474452725,26.041173317285484,59.24401107686851,16.769692058365194,21.670289915449345,10.796754438675746
-1.134528684650495,9.965984138138973,3.8443363779757354,-1.6247632163832424,-3.145419079248092,-3.4933941375372703,-5.548836147779995,-5.19894166600125
-6.605007388093968,3.5897042191590796,-2.403161533841909,-7.414457758255716,-9.20797759569747,-9.588373079232822,-10.5212848320237,-9.821198656090905
1.4271840213200986,47.34242558177903,62.996435153539224,5.568670719126483,26.989213679818906,-3.4428713001501285,3.051943464796183,-4.0102570663711194
16.84628480292916,114.92117123934536,161.31374965876907,28.58733054673725,83.3410823934835,9.948634905027514,26.549987582208345,8.034200650587293
29.977210637469913,172.78209383976193,247.61852680169375,48.068325274718426,132.86120143920158,22.891861776161534,47.308308177368666,19.082449213389292
29.99246061668264,185.4594809755162,276.0747880295898,48.84470832984904,147.43896740759422,26.486603927225705,51.27703353082037,20.663160026806672
9.089846823098807,125.85796968927063,210.58992047983534,19.908306082286703,105.18282804645202,13.666122928868825,27.907310602400578,6.3796328042360155
-33.38971001572418,-12.039312247209722,40.21771718135236,-39.79350462830734,0.1564010235564781,-17.3300987634605,-24.574919187349494,-24.72230646221053
-89.55693196816199,-206.0466802599029,-210.07641051625836,-119.2569431589758,-151.49687933440882,-61.24045526600504,-96.85715837450473,-66.8775435025856
-145.72647538482286,-411.3377403708078,-483.88644023583817,-199.16289060623885,-315.0673207188441,-107.39803397563307,-171.46535218507776,-109.61906014221665
-188.24886660631603,-578.2881006510153,-714.9006710646362,-260.06141296967604,-450.84196588532046,-144.23980533099885,-230.05335523016484,-142.2969698051488
-209.35459228934346,-673.7826420520889,-855.3830552132799,-290.7103681978115,-531.1773959624059,-164.359858654564,-261.2992050666721,-158.70291623499932
-209.91564785109702,-694.2929326297815,-895.7472981526761,-292.129483329847,-551.6479224939226,-167.36003955387847,-265.1552377348769,-159.33507490654634
-197.94129994755374,-663.8581322796,-864.311070343616,-275.5760314599052,-530.2235649288206,-159.11783513344378,-251.42505990943994,-150.31307386381758
-184.09614770046548,-619.2275358907149,-808.5461863217965,-256.1826734401451,-495.7440036807425,-148.23188193289602,-233.9906435570886,-139.8976210450996
-176.87027500068803,-591.4181346614187,-769.9241519675286,-246.00419630076803,-473.00501722673283,-141.834727612106,-224.1728528734869,-134.66088234616987
-179.54809004664975,-593.2337506746117,-766.2760026833281,-249.62443114276707,-472.46316287271105,-142.82674733754462,-226.41187806768366,-137.03265815254235
-189.61739879162607,-616.8543502272917,-788.3616369495779,-263.33361875594403,-488.23289786602663,-149.31777474386698,-237.4476879738967,-144.80797254462001
-200.1391836382347,-639.7049997496542,-808.2135867396762,-277.19670788810623,-502.93733541294955,-155.87528140860528,-248.3598734901659,-152.3030033720682
-202.42179588252006,-634.5934983121786,-792.7875391832572,-278.9805584490394,-495.8536297865141,-155.81504002742298,-248.29044779892652,-152.6235619257149
-189.44842566136342,-580.8666729850996,-717.7825749146466,-259.04401309455073,-451.4941932710054,-143.9006444034375,-228.8481076954682,-140.50253574292873
-159.12138262631706,-473.77423782757467,-578.3987522679602,-214.82953995150683,-366.53510316567184,-118.73793745453851,-187.99755023793713,-114.84437633695656
-115.79205075838907,-328.39449342125175,-393.5797402086263,-152.85454065814554,-252.63170579114674,-83.84165377320151,-131.7222046836423,-79.73473919714971
-68.78784735577985,-174.86840557717417,-200.36155196046766,-86.4890814452289,-132.84291171213167,-46.50579328066512,-72.0491066118761,-42.99532503192024
-28.179053614524264,-45.41672017107766,-38.52025270123625,-29.936651190476258,-31.91327338428956,-14.638889201875495,-21.764520008571623,-12.641490411385066
0.02817312044406775,40.90979908912684,68.12211489734548,8.503647364906962,35.348497866192794,6.900624828458718,11.587284829426139,6.9169032108500685
16.261448588015156,86.7068366423754,123.08313441863994,29.713467226170007,70.85456782381254,18.27238386338531,28.790621835623416,16.573896487323704
25.519078185681,111.3799167551025,152.4662956839568,41.09191102052368,89.95749345463665,23.47852392483273,36.81481853990352,20.83980690760662
32.25507777845157,134.35281159148744,184.12224814118068,49.3175379851984,108.62599646208155,26.545272116785714,42.390059230626896,23.676931960265637
35.53502095250644,156.64102484752166,222.57136673180196,53.439984030516186,128.66489385835374,27.54878489822218,45.49352788920214,24.67198107668786
28.264679463488047,154.40527792820882,237.67966647795282,43.643528040968114,131.73816496478577,21.47884212215035,37.652276203961094,18.464603156039235
1.704810916761276,91.59879418448823,178.60841414269782,7.469207842198691,88.48591762320724,1.255428277229868,7.086265766542911,-1.717407600616423
-47.31684374475612,-54.23104985746011,7.744766782498855,-60.036324911890866,-21.152380774061648,-36.68285689340473,-52.06884830602949,-38.48337543288791
-111.30792904821645,-269.216254845229,-266.0278910673615,-148.97216057732692,-188.9794682190472,-87.8295107978898,-132.44820026360424,-86.36993831385263
-172.90330511600854,-499.3520676502387,-577.3467428764776,-235.41891446461779,-373.9954072919056,-139.34663605100675,-213.27672175664426,-132.43649325439142
-211.73533246540066,-670.3114575781566,-826.9414302963244,-290.8701128382595,-516.9504972026753,-174.79642443381044,-268.271227907109,-161.44793933633434
-213.82425244662207,-721.1861710073471,-926.2492176334772,-295.3767063458037,-567.0534973111442,-181.5379652078866,-277.6332712522274,-162.9140023218563
-178.3327416387196,-633.7710661446422,-839.8904407055959,-247.17789421889955,-506.3342210629634,-156.78755837759374,-237.58311656193453,-136.11043048062848
-117.95823197467857,-441.1197918544368,-602.3406949407739,-163.4959245343347,-358.10670547818364,-108.99034464495737,-162.16102997367855,-90.34006124984656
-52.80071914388996,-210.68076819722504,-299.5104845649049,-72.13703714240253,-174.84136693369825,-53.73828400934215,-76.34281537385357,-40.38099069776407
-1.16688111538943,-11.702512485493866,-25.95772305453871,1.3295622915466867,-12.452589039504566,-6.525035322983678,-4.388581893900201,0.2603339183715679
27.65096537337683,114.62681532876397,157.60607243987906,43.738441452413426,94.30237840048397,23.622884832695778,40.07308212041208,24.57125043152684
34.99462727691975,166.0756445216002,242.65093186120245,56.6757328291062,141.7003590107816,36.24947876718282,57.01725078505924,33.12692748873021
28.786599714342245,167.2627876942664,258.78666157381366,50.83246666628293,148.09934956929771,36.653934615573455,55.304645142356094,31.106726618294008
17.14895573041983,145.0899168152981,240.11004509456214,37.055357953331544,134.14210930884545,30.61105259155857,44.333041498921354,23.763343364574176
4.022859346400333,109.4055777768233,196.89974790055882,20.24406332089994,106.63078903744648,20.43410025832936,27.99911128978705,13.498522982083704
-10.91918156049508,51.23284254583818,112.04944549479059,-0.6151941034752066,56.80478778474216,4.8162765805745344,4.569253661593571,0.0878023775117075
-29.125856138840682,-42.79882001725453,-37.667970022711,-27.79137551356598,-27.492500637493965,-18.107164135999227,-28.609631021288635,-16.910525854632663
-49.89634173600929,-172.6548080472577,-253.65756525464298,-60.034429524028155,-146.3415414927344,-47.308987305934416,-69.97417967138743,-35.95068284667815
-69.54421295144472,-317.60134761354755,-502.7058986169773,-91.42749692460433,-281.0731636982736,-77.80169271065824,-112.28882267157972,-53.29928593898543
-83.27228114479827,-444.35034811344855,-728.818534849241,-114.28742445492506,-401.20367607361317,-102.66696908975543,-145.75369762771703,-64.8207689936772
-88.01620798849251,-524.314497844264,-881.2878289505662,-123.54119773790494,-479.8828482016315,-116.61866109855146,-163.1971195857115,-68.2545356132335
-84.13455746652542,-548.1046575652026,-940.127131947974,-119.38727015918874,-507.388040035655,-118.65062012404441,-163.73516466407685,-64.35729016988229
-75.01592397242413,-528.4939516407559,-923.1939756757772,-106.77727875820425,-494.41030108363555,-112.21465030956324,-152.7671794399321,-56.32688396050446
-65.27550167635226,-491.51103636614664,-872.4840046572594,-92.66012652176676,-464.25083229213163,-103.15257587274996,-138.8306463080457,-48.17478151267888
-58.93500601317087,-462.5582744888526,-830.1158209686538,-83.1058623718365,-439.90362904374064,-96.88789276122077,-129.60356760784015,-43.20090184298172
-58.421206323943544,-455.6539858127455,-818.5520727670025,-81.69646755365636,-433.71382802973324,-96.36556627253343,-129.1349888784568,-43.2127239137459
-64.18917113185046,-469.66754688219083,-833.6749852726118,-89.02786204354463,-443.8082050874828,-101.29055448997477,-136.90821883803088,-48.29930499326435
-74.45026405794178,-490.609434222022,-850.3060476404598,-102.53164001055617,-456.79872993969036,-108.42330621404342,-148.25099237175212,-56.72499606598507
-85.10689787938377,-497.50464356453074,-834.8653741919753,-116.57695056897002,-454.1073298803682,-112.63518467258693,-155.70843486506834,-65.00145927971231
-90.61636670330158,-470.32763065680683,-760.0082793277027,-123.70624010038426,-419.6488668449652,-108.67592047550994,-151.48754044827993,-68.67248435513889
-86.12958768955416,-398.60455312374336,-617.1759338720943,-117.46530580476005,-347.01721649810196,-93.412031414232,-130.75735380233905,-64.04150880019928
-70.05139414665385,-287.6034726202915,-422.6766042686173,-95.74523370980843,-243.62421614417497,-67.65008945989538,-94.47911428732537,-50.14311526971493
-45.34365508750649,-158.09938342498012,-213.34502343502055,-62.44925687594171,-129.07997246110082,-36.350998723065054,-49.85587179770937,-29.646994601826584
-18.39949857522826,-38.10785635729092,-31.729984546012318,-25.954043605691545,-27.28064806359268,-6.705376491128668,-7.4815272316047885,-7.82412947464597
4.066151929238132,50.01749631937563,92.99360594523237,5.0166492708085055,44.48040399168033,15.108564225867372,23.58993761142317,9.996935333665784
18.15485551014046,99.70396467051468,157.8963582441835,25.477915326129157,83.24946339796193,26.614277725090393,39.928311140021215,20.88462787560503
23.854362429938007,120.55819580607448,184.06095912693743,35.43449352934498,99.64078024930676,29.45167809562118,44.248588931276,25.02625444888914
23.460619743960574,127.97037648328661,198.72169053288212,37.58830079198856,108.10530368865103,27.24835578045868,41.9877216952593,24.34790884508091
18.853180128513245,128.83719511261953,212.38642756605284,33.64130850525848,114.2957464813475,22.515539281686042,36.49299245143591,20.31970220193967
9.996465169783754,114.21808454940853,207.25223835628864,22.49239158744539,108.77182206117352,14.91636568446553,26.5468213391237,12.849062761047668
-4.143825983771521,65.31674242735083,147.063642008518,1.9103576014888692,72.58253858716097,2.1947161068287784,8.140174573549041,1.128305068084548
-23.281761166106037,-30.958055175178846,3.303096612110628,-27.8788524571454,-8.421235817439758,-17.07630157779196,-21.02889309122694,-14.477107112839352
-44.32286560670828,-168.29133042408128,-220.12811866484637,-61.98194016900109,-130.57820508086786,-41.19365776466543,-58.016677591944564,-31.318613415338344
-62.16032064425981,-319.4119287387081,-481.27429140580136,-92.13296043188664,-270.1345918121133,-65.30977884598661,-94.87692713462847,-45.22997152705091
-72.26458817724331,-448.136881094226,-717.9081353322449,-110.74734137968014,-393.5451498108133,-83.73128236958041,-122.52978907890184,-52.66979430388423
-73.16852884653184,-527.0334565301416,-877.3325512118134,-114.88078731073087,-473.66239520934397,-92.88291772092593,-135.49732844285097,-52.66994722932467
-67.10630326557381,-549.5084537421653,-939.7127022940643,-107.42384211917448,-501.70491064409504,-92.95115927165989,-134.36490056185545,-47.23505309344532
-58.49321813795757,-529.7308339936859,-922.1189245837106,-94.96021929112523,-488.47334973539887,-87.30101160792853,-124.66318858275638,-40.027383023477306
-51.45961191087897,-492.2597602520941,-863.8603634287857,-84.02392081090257,-455.74116052782597,-80.33913690951202,-113.37798046628733,-34.36118931600178
-48.12201460381574,-459.27661512802104,-804.8653401364918,-78.29210408113644,-424.5520507632322,-75.38792505301433,-105.61382540446144,-31.84466897180957
-48.42504787963097,-442.90897961837754,-770.2918387618105,-78.0905142431722,-407.43563140762024,-73.76131694731147,-103.239630218232,-32.2988111676783
-51.078117157551794,-444.71917138620285,-766.9084498587116,-81.65533775378877,-407.07724842210143,-75.09247348420803,-105.50351051214938,-34.55147822035934
-54.53110694413253,-459.3359531307987,-787.8740586287104,-86.63206716651155,-419.22812348195845,-78.1449640327768,-110.35358170181352,-37.263938044254886
-57.418844323501254,-478.37995231354097,-819.5654126618256,-90.88111960495458,-436.38047772855515,-81.4379920897674,-115.4197465742558,-39.33041403054931
-58.68346910343166,-493.30588667475615,-847.1001769845118,-92.77116015244034,-450.6099610559544,-83.61385731003303,-118.57709563418969,-39.99458394129409
-57.77121410684874,-497.75290293352634,-858.7146857388763,-91.48470610648818,-455.84532996642326,-83.7755932410782,-118.4652961748706,-38.9769977772567
-54.90081832784082,-489.6111968279448,-849.396200477923,-87.36101812299525,-449.7696624270691,-81.81415693080113,-114.98992828276398,-36.6156946664482
-51.1095261731705,-471.9241767680709,-822.6948720355223,-81.90238156300154,-434.6939961737759,-78.50348283073338,-109.45459130014646,-33.81651836184835
-47.96483190599389,-452.01001270609163,-789.7061487994057,-77.31671940119236,-416.87138358273796,-75.2571378496533,-104.16175644933867,-31.75966245770498
-47.10618960247236,-439.3028511913026,-765.7858890372278,-75.85852299318815,-404.6355433569435,-73.6936723454285,-101.71067472156739,-31.52147919016654
-49.709213904176565,-442.5190961835389,-765.9897485215616,-79.12335580693414,-405.9166399905184,-75.13977618380696,-104.18210328926222,-33.709984183699305
-55.76277330599922,-465.88345510670996,-799.0267987352827,-87.12552939446894,-424.966943061263,-79.99428317723059,-112.09244138174064,-38.04053289492148
-63.2659333200569,-504.48019809510515,-859.6853149688897,-97.2370786862974,-458.2895040267881,-86.96609738162114,-123.17911183881921,-42.905339347486745
-68.03573212861956,-541.1990379899336,-923.0980623707603,-103.88001240114342,-491.7285736468563,-92.69026760386198,-131.86158000819322,-45.38443103469864
-64.95692258902272,-549.5558161608545,-947.4920816898248,-100.13105904736359,-502.39396305504863,-92.50329248884412,-130.60749954142767,-42.22205316190931
-50.61801076251795,-504.3716680797954,-889.5597024905453,-81.24686934205434,-467.45458451225755,-82.58037797555174,-113.44564279759244,-31.64940009067861
-25.921453490584355,-396.2437639248057,-727.6301212681104,-48.24604251402845,-376.76912311954584,-62.44923902504513,-79.96623664911147,-15.004915592325952
3.2713688661184093,-240.89235231181007,-479.2507687197147,-8.886535599339126,-241.82767108178393,-36.162067759059006,-37.051044363159896,3.172450366272353
28.382666894634053,-75.79956743932902,-199.96336573037712,25.29403302874899,-94.04299104387927,-10.964351073003451,3.4398918532728704,17.062598364446533
42.24080173866584,55.88444100636035,39.316868795375434,44.564257613932874,28.401440357960983,6.107841954525223,30.209885714797952,22.569410440291648
42.67504781918273,125.59863216308166,184.83598937824712,45.927077776097576,98.31540519077762,11.790669189818693,38.16277586508258,19.58427549770215
33.38489293799645,131.94024490078627,223.71597492001877,34.33800594839858,111.56400288334505,8.153210907843338,30.7161418628966,12.026601964977953
21.622818162212244,98.41463579815195,185.39120110287473,19.53492764124447,86.55933452752905,1.2227690238691704,17.44016507355072,5.597595491495104
14.25971131301797,58.74594237294035,121.6233471727594,10.636196883286155,52.38105035719124,-2.390029024855508,8.666542184284271,4.6766511897721665
14.618076982973355,39.40455311441069,78.74910771857812,11.838936266055702,33.464819428191966,1.2066372121335234,10.417518274232622,10.240602949760154
21.550259212746315,48.91356342382508,77.94408284996206,21.288640103600116,39.412926683047225,11.65505248525348,22.248252016006557,19.793792676699812
30.60619926920022,77.41122676043116,111.05665408390158,32.856901561057136,63.59124577866274,24.93634320884914,38.35181978205534,28.91025358186258
36.24938432754498,104.00823482968634,149.7407642083614,39.269709886439806,88.84633055237612,35.36666581856217,50.63650107756602,33.29050571599902
34.30243192476483,107.8272066212861,161.6762206312785,35.37286927506612,96.81794471265529,38.14347690977046,52.4073522803226,30.527805039628625
24.17929528999113,79.53729278175645,128.54401037857522,20.973556038128464,77.96079820338335,31.79757729210901,41.79304215175831,21.300732416148417
10.175149627856449,29.84329891918945,60.357456620571355,2.4052163904149495,39.25474352344194,19.744999576685746,23.890256955755863,9.722641457694227
0.6697239211490884,-10.139595575467737,-1.3743151634252397,-8.645746170251307,5.350321369685383,9.842113993626702,10.0901298764786,2.336290224999701
4.733762322201343,-0.19660711358668415,2.2285047419572988,0.22795321132302648,9.893605358415044,11.37266351080811,13.714598728919404,5.57341978700137
27.40602761591799,89.04212126650029,118.86777446391245,35.70687622746601,79.07050664208987,30.468775470798327,43.3727653897719,22.56994297739256
66.36548876500262,258.03131631589,356.52114588217455,94.17359077361917,215.83281866146572,66.44493725616705,97.65678629906094,51.118999348263024
112.31107145594625,473.8165095754945,672.9220379378188,162.24416521477238,394.85084487690216,111.43283738837422,164.69438453288308,84.22102812444037
153.12139551587526,683.3063650171619,991.5864776818004,222.58452622897346,572.4507600041139,153.81150056043768,227.27696312681263,113.1669429109759
179.44026689185912,837.322195304049,1236.3289933513863,261.7870557066526,706.4111693689202,183.54827274496995,270.7525765766745,131.46882735163538
188.49056383416405,911.7125146825806,1364.581057926188,275.8188116903949,774.321093439868,196.41867910614843,289.183441940057,137.42890775542628
184.18573521600382,914.1716527666104,1381.2550493881633,270.2552180246259,780.5143488839407,194.91332267487786,286.54792003475524,134.06297323733574
174.00456341093087,874.8160363185061,1327.8601035848017,255.8744565449867,749.1733477474941,185.79553187674463,272.99992512328396,126.78197842562327
164.9145061814462,828.2529966373218,1256.635301144855,242.81329143649842,709.5427715956229,176.20745092835335,259.0670459416596,120.48823900045002
160.69449953766474,798.2934664686857,1206.3219959335454,236.65904163661193,682.6314025611953,170.665162146475,251.27056465587071,117.73912787637694
161.56378102863619,792.2170425307886,1191.341597021197,237.84415920911425,675.676413711968,170.1744831363657,250.93283411081472,118.56883410252577
165.44133682126855,804.1118951164808,1205.2143294505681,243.43041868610285,684.4549110311505,173.1474126202736,255.61330275571214,121.43605496616503
169.61467470780363,822.2846784879439,1231.2409257710844,249.52636585989907,699.3866168171339,177.01013791846776,261.49443678359603,124.41349455771105
172.04551588326987,836.1188810513034,1253.0651604070981,253.18779334068154,711.3936511347288,179.6059597682661,265.421885171109,126.09100042913029
172.09905178307608,840.3565423715957,1261.542587799648,253.47197089171206,715.6489384523516,180.03540193869162,266.1180466759932,126.06851117775983
170.61446406986215,836.3191586103026,1257.1095243234709,251.5417889818829,712.7805292281106,178.82941207059756,264.4253545820086,124.98927630900765
169.24168902686793,829.9054562551642,1247.4738989799016,249.72966226645553,707.4061553051783,177.41263766997568,262.4940744142128,124.05393427154358
169.3012161004286,827.146719640761,1241.528001276106,249.9191994186281,704.5632319627948,177.07285518972975,262.2291346590926,124.19715314665595
170.87481848356273,829.8946219842713,1242.8963288811321,252.23848577430456,706.0688826205411,178.05091680096956,263.93345115829516,125.44042091183552
172.7869672217132,834.7129792213638,1247.6837777911178,255.01513423292943,709.3993447789542,179.3995071006347,266.13066624179373,126.89650689167108
173.46710439725751,835.8227607472359,1248.198950467002,256.0074941768135,709.9679538740788,179.713019609047,266.69892673536873,127.4090341725038
172.0321757001212,829.7654932530771,1239.6251252656468,253.97626930707693,704.9734158808122,178.17412305379958,264.44926711801065,126.34095544068404
168.9169580963466,818.3930030094878,1224.4891702485393,249.60309795775777,695.9245239850034,175.21613434338363,260.09080701802156,124.0276210316331
165.84483300537337,808.5289249003649,1212.105644746655,245.42131691480043,688.3323581348542,172.485940874688,256.13873578632325,121.75189025804798
165.2344281372606,808.8506005279253,1213.8517330974769,244.9010975009511,689.0459360941552,172.18470084288694,255.90874764241187,121.30963976083228
169.08693161708092,825.1858436518008,1236.5441765727935,250.80466531647636,702.3950117720943,175.94904325666116,261.8394924188432,124.18807481664166
177.47590803724887,855.3002851599524,1275.7393480415462,263.0319588117636,726.1184160355924,183.49294077031186,273.45705759105823,130.44191354819532
187.29965018538581,885.189847545235,1311.326885400409,276.89781980869975,748.5840925524143,191.58917522282013,285.85458829878115,137.76233442038188
192.43727168169366,890.2977462561081,1309.4581099735221,283.43302228114885,749.8612121712991,194.32622361055883,290.1135610285863,141.59235381390042
185.99862106445622,844.0320973079316,1233.936998135721,272.66321072015154,708.5217583868366,185.22173122173717,276.5354352172314,136.80050616780466
163.9157745258833,731.2766407795299,1064.3968553214104,238.78404126963727,612.4565596933278,160.5566079005046,239.6759503525582,120.35102308991203
127.80049374698555,559.5052295990944,811.6124988078352,184.26758765050764,467.88376512870485,122.08571213758479,182.35233434451507,93.4328541893648
85.06519299557216,359.6644613185805,519.1252130225822,120.02797237158823,300.1941202332472,77.2414657107222,115.8010466629525,61.56913711822253
45.948200633246415,174.73077600798004,247.74770111258186,61.11471995730505,144.76653703563733,36.35673253068273,55.37736619809209,32.437947780774955
19.134912757125587,41.90848976592508,50.64132860742994,20.34597006194776,32.420233100954874,8.348808950000155,14.097044936378493,12.634989186169406
8.55660849649119,-21.28040504531299,-46.83582854059763,3.6003330174870305,-22.174199788033793,-2.6907462834543425,-2.264160927447933,5.2584615335763445
12.95024838841288,-19.687676478845905,-51.593543194840315,9.098932467822525,-22.935742604064036,1.7493384521439705,3.990764470356799,9.47853342883755
27.65010839550851,27.16748617852195,8.221728988960493,29.99446927545672,13.96718677071156,16.351893084693835,25.248083445429472,21.7416639043197
46.64164017764439,95.38015130079441,98.96456408911868,57.45946929714068,68.91027909014221,34.480688251131475,52.17587504420457,37.24044492412095
63.4048383197103,161.77075340549854,189.92030021808088,82.07100113576689,123.381445693917,49.71865132938752,75.6186075074961,50.635716058675406
70.93238037113862,203.07572770687634,251.79802312330014,93.89825666617013,159.22723362915008,56.21009546504967,86.73472541664164,56.30242948904985
62.537490294913574,195.455198103336,253.71871757251526,83.53609085116491,157.57628152162312,48.99070671948296,77.43737810570198,49.16853529773946
34.29457940424186,120.34424929559191,168.75208149503067,45.37649016741497,102.84978344368528,25.34761438338244,42.77082417633704,26.611981197884333
-12.08064181276003,-24.673787785001384,-11.581385573811577,-18.410356076888863,-8.539173720514484,-13.244353187627164,-15.666897261445378,-9.535640459108208
-68.30740750170528,-218.3777217232612,-264.6977014072077,-96.48887288113221,-161.39978910366196,-60.30300784710576,-88.13219170738033,-52.57508473530613
-122.0300728769088,-419.86823092410907,-538.7921176419029,-171.68273902869439,-323.8806979399582,-105.97999334291335,-159.21650795596716,-93.03279779584723
-161.80748090654026,-584.2530456405402,-771.9825517859633,-227.86344016376103,-459.46506519206474,-140.79767436491653,-213.814406903166,-122.45350749557349
-181.8228097618572,-681.6401880073964,-918.7586545057115,-256.5907306759661,-542.4962992587552,-159.49060754045357,-243.3416981175504,-136.80849119912793
-183.63575618628568,-708.3431666557941,-968.0932945995355,-259.72219374713745,-568.1114921879764,-162.73969946640767,-248.6131525584168,-137.6103530988087
-174.2489745256015,-684.3919383502462,-943.1568559915753,-246.86144585752686,-551.1926820844727,-155.93908015448804,-237.97429450681238,-130.3086408478978
-162.06725432048907,-640.3875754185898,-884.8372419799749,-229.75763416703742,-516.1915081085729,-146.0243675238548,-222.31298801316632,-121.2177656475035
-153.3038921263016,-602.7290553535897,-830.9032347716044,-217.22134546513064,-484.9757505778387,-138.40486908167176,-210.19396812553194,-114.88084279843669
-150.49445449055492,-585.2266036104336,-802.8292703195827,-212.9486237407598,-469.5128237970282,-135.52324489133608,-205.5374049979236,-113.05069871933634
-153.0238711219821,-588.9717868671522,-804.2748141110467,-216.19434631919805,-471.35215959911477,-137.14867855146156,-208.0285023858324,-115.15633067635915
-158.50100879173334,-606.8826157150153,-826.8768232473761,-223.68043380187427,-485.181166640105,-141.48225708129903,-214.83208500099317,-119.35820452724094
-164.01854239901144,-628.6095178128222,-857.0264942608036,-231.36267517766714,-502.82365903751776,-146.19785528823434,-222.2473313228199,-123.4836887441904
-167.09012845554764,-644.2002153192491,-880.9075808111037,-235.74104698107138,-516.2082265393784,-149.19002881873337,-226.92897876296576,-125.70821148889202
-166.38418586410384,-646.9864637822672,-888.4471388529931,-234.88814798705397,-519.6817069072692,-149.16999855382036,-226.8588930768021,-125.0841994336216
-162.1634839253948,-635.7552574773706,-876.5587027550754,-229.08416912483116,-511.8190279223492,-146.09570401938169,-222.0168804994561,-121.85482120939974
-156.19962823810323,-615.2520559839587,-850.3532135736435,-220.72924362161447,-495.9724061533406,-141.22256511278704,-214.42139992157715,-117.38268063630582
-151.17462234021897,-594.5400948156276,-821.3339795412666,-213.531486778608,-479.09102512550805,-136.7021024763893,-207.45785384346777,-113.70100353818765
-149.8273229090189,-584.0238956990089,-803.5610395852833,-211.3285247074311,-469.4336732469946,-134.90317301770816,-204.79629551048487,-112.87039984082392
-153.97736157999455,-592.0289573781065,-809.2460190352144,-216.73979963531633,-473.95682107061396,-137.59810754408963,-209.12781017798213,-116.23109508597265
-163.37494721614232,-620.8481073576519,-843.7047712146981,-229.5705182531131,-495.28893369639127,-144.985308570409,-220.66868776657105,-123.51974810931303
-174.64736692983286,-662.4640770494381,-899.378470553131,-245.3078276216375,-528.2415046887888,-154.70906905795417,-235.677791752614,-132.07988713955945
-181.27144509081356,-696.5304760042101,-951.7811743839923,-254.98193961884755,-557.7080160591172,-161.59550759969977,-246.0994705054192,-136.88276895618904
-175.52242036699235,-694.696199350289,-963.247046370898,-247.76032599562512,-561.3517892666175,-158.99616228813946,-241.6943395996681,-132.058308954221
-152.1336417243054,-632.4678339535191,-897.603574256617,-216.00134019183653,-518.5690331222071,-141.76176023928548,-214.65307314202173,-113.69202043706875
-111.72301416963879,-503.4222192818688,-740.2322063691552,-160.1265047007583,-422.10139544713996,-109.39815693248164,-164.4224789529567,-82.38714052722506
-61.51460675339045,-326.35543044179735,-510.7369394703218,-89.83497899727668,-284.77998442795246,-67.22984451785585,-99.40019629731961,-43.733891365711195
-12.350882690459073,-138.8548475180582,-257.56061754565945,-20.136753772907856,-135.57975848139125,-24.35699543935047,-33.69298982336187,-5.972353552451279
26.432431717622975,20.22690929648077,-35.54186753084845,35.73297656391364,-6.147962007677686,10.646583799006182,19.523422362933385,23.916198354226847
50.98458862109146,128.51414983281876,119.9088672814382,71.97962025075648,83.89804409413058,33.60118237338349,53.870436487880774,43.190308034997926
63.11443976814621,186.26534983291378,204.8454040544936,90.70969750656089,133.11861634568555,45.581889305645696,70.9587463555632,53.40905911704335
66.71722355031066,207.1944579658805,237.2600981566255,97.11767156187936,151.95943014454798,50.28627366610454,76.27244176757483,57.64451183160979
63.34407568631921,201.65168230731308,234.22772832518095,93.32795005673792,149.40931511379108,50.01338417820764,73.06791407263931,57.061217755833916
50.49203928193305,165.7876107998752,194.25725247434985,75.90035150189009,123.47027542788031,43.43048815589868,59.15349091479828,49.595067611849416
24.045956869319912,85.55363247238341,99.1958851112362,39.11120138955658,63.244960903967225,26.90325157952187,29.147484253897122,31.83192025575577
-17.032410155617818,-47.62800391141408,-65.87606471620157,-18.53724966924036,-39.00769774409942,-1.6683593362378455,-19.573581661833085,2.6410176272681447
-67.52522750901952,-222.27654053496516,-291.08625143175755,-89.8057398966544,-175.71136842669927,-39.572959196505614,-82.01820506834584,-34.31042752619989
-116.97375867873747,-405.5548771128136,-536.5195926480563,-160.02970327435693,-321.89314682336595,-79.23794035024264,-145.8367199253153,-71.23458707140803
-154.48281338250132,-557.4568905343159,-748.7852224143426,-213.78530879113913,-445.72860740356873,-111.6547103206305,-196.89244800582628,-99.814732921474
-174.17393780270177,-651.1234886259105,-888.4001484255842,-242.56207634655337,-524.7532653790942,-130.97897882739994,-226.44820521655248,-115.34267806680676
-177.71919716464765,-685.424118530688,-948.9025387477241,-248.41504095972468,-556.559600573398,-137.19957756368052,-235.1417112749626,-118.70098658465702
-172.4576095084244,-681.518531817268,-954.653184703637,-241.424742032568,-556.7903839298991,-135.20420055709369,-231.25764535262235,-115.05568220014061
-166.55990756353253,-666.4354400280155,-939.7414552865873,-232.96969226762295,-546.3378442806918,-131.10172271973715,-224.76185333199308,-110.35385077957774
-164.40293933453182,-655.3020698813624,-923.5875847272985,-229.25416892556635,-537.0134099609755,-128.38855703190686,-221.19869660781828,-107.96895873466892
-164.70835000335111,-643.5927761373925,-899.8778287362817,-228.7125365132498,-525.1696702238709,-126.29955756861102,-219.1034879373699,-107.35021001203661
-161.9281807924063,-612.7372192093826,-844.459537817996,-223.965251951789,-496.28091439354944,-120.92546210237421,-211.8212535055216,-104.97995368906304
-149.57447324743893,-543.6146397723076,-734.437203593101,-206.43636130085298,-435.9859591790939,-107.94896309810153,-191.94102384928507,-96.6551456308046
-123.68862365750556,-429.1110885983984,-565.1026782614185,-171.046896555738,-340.09697228561345,-85.29101514013777,-155.67480470451926,-79.80774448055938
-85.0947207082192,-279.6038290522291,-355.5645761406211,-119.12794247141044,-218.42606144875296,-54.48383476841376,-105.27154971156757,-54.96854815674672
-39.71760532605786,-120.19571944460272,-142.3744537378218,-58.69643942895801,-91.7798776949754,-20.424370850861497,-48.794888624878865,-25.95294215737351
3.1735353356959566,17.800111390979367,33.47894037031081,-2.0471545521083563,15.267092449573193,10.21398775147803,2.433667258022441,1.2867064555918157
34.28736801559418,107.37767917191726,139.8167012993933,38.61504824173738,82.44391745693957,31.29547911043063,37.794527382244716,20.818852573280438
48.05753225247166,135.22109159647687,163.12256812838436,56.065236827161634,100.41331216242872,39.529670372843455,51.46175984394593,29.18939528515508
45.33604070549204,107.85182356044223,114.33841643412724,51.62782425799458,74.96329530908024,36.05678921475168,45.26495761222821,27.21928521523896
33.69251130589062,52.57057009604164,29.95814880302555,35.67442063907859,27.777916158955666,26.640880482991655,29.044691140271503,20.214858798368425
24.715493964321254,10.99322307433651,-34.4406018249522,24.12741126643516,-7.992066617324969,19.997989528733505,17.690426679475856,16.117488071166786
29.07139301299273,24.79087376728194,-20.79802907018894,31.79886389553877,1.6625165103598831,24.457877492204407,25.321240835506163,22.07471374561428
51.545050394839464,118.00192674985205,108.02066036241173,65.47565133761884,77.53476160440843,44.239918995463725,58.914728013595436,40.998639693560754
88.77739830510107,284.76095635504583,349.07464036181386,120.53750575680353,216.51542364436818,77.32648987391876,114.77511071850692,70.05794694840905
131.17708313971704,490.5688681344431,657.0999785529948,183.3627780404424,391.35931246071567,116.37398715756441,180.20537755713804,102.15215022756728
168.02817766982486,687.9915225915734,963.3406426720001,238.39329289776128,562.5400664122848,152.35897160839727,239.78145660307428,129.62322294957542
192.73976057904048,838.3150049361603,1205.9950100002698,275.6868035531385,695.9919295426828,178.83521005243935,282.611097038621,147.95980641754093
205.0061438264872,926.1488712764702,1354.1795923752236,294.32016929117464,776.1271604696669,194.1466952528798,306.1355594107318,157.1684646418269
208.68828684739145,958.3484596210618,1411.085809639308,299.7278516109051,806.3927886244942,200.27414708278206,314.2758760823558,160.03993962768052
207.2277390890925,949.6074144900418,1396.6236328931457,297.30125562418783,798.3892119270846,199.41230304184785,311.70741663895535,158.7542701138683
200.19616741177725,906.7473739875651,1324.779299315663,287.2685474536104,758.8991024157726,191.11098007817228,298.8812381991814,152.5181037317671
183.6715105793294,824.2412389326445,1194.0875993888753,264.7962165187735,685.3149794030965,172.38235177128868,271.7512905682792,138.13539147707607
154.10397196830647,693.9750150648102,997.8845017158,225.087083489,572.6261993811142,140.7707029177835,226.35213045266252,113.09429290683993
112.5900504953488,520.4314162091914,744.0793094518044,169.3141133248461,425.3479031992956,97.92666458544728,164.4542865801238,78.75014802000176
66.19328869095295,328.1930622582148,466.4358120734102,106.66613597513131,263.77651599694997,50.75908153904366,95.68895424222941,41.10081365954645
25.227126779430176,155.00362910302206,216.67593838923872,50.844112669930844,118.72239509787782,9.076029724869738,34.29872092851711,8.466270360969855
-1.6686221589391432,34.74874032786829,41.9643582509446,13.4175033598295,17.8932376547777,-18.801652453612295,-7.366365936289949,-12.411044901857904
-11.451038025951163,-18.247477517942094,-37.02587373917292,-1.5471888456645635,-26.931040075764958,-29.649270734730884,-24.371897125890055,-19.36775910066154
-7.346909515746652,-13.869117908805995,-33.454853807559765,1.5802738186868126,-23.86335938325368,-26.10325903629883,-20.517652185801346,-15.250708422179377
3.6447448876722466,21.830019812891567,16.199781806489074,13.444636054709926,5.556170704476978,-14.541599675883772,-5.254519386838268,-5.890827655359915
14.442993938857215,60.861650266309844,72.09370138081788,24.803949607398916,38.08895533186038,-1.7691846563102749,11.32562242874802,2.8592403989332955
20.572595380001072,84.78505275447351,107.66208849314036,30.18305223337748,58.380894292955496,7.519554105929426,22.413248346543316,7.352321285827944
20.897824374602315,88.41809411287447,115.21491518324073,28.71856693786211,62.09218830713822,11.582172574089196,25.81097441007187,6.868095516745694
16.85562050668301,76.7930806890724,101.53097790922071,22.850655714753657,53.32440719164265,11.118425834649159,23.08412883981118,3.0605460999838088
11.138490856783909,59.5086330492937,79.60765212609881,16.284880007826864,39.86810489875713,8.224043045017305,17.76852210912577,-1.2491702952781365
6.440618696041267,45.72477201790259,61.66192844881491,12.19538067966535,29.0964165082741,5.314795030407506,13.530829749451936,-3.439402524155367
4.493500034464487,40.857580079776085,54.909370648175376,12.038638672512977,25.372972642642775,4.177830474848185,12.67565129572521,-2.235722180168398
5.589630452708733,45.18611351893271,59.94336189490787,15.206702661973898,28.99658583979057,5.34859743099768,15.35336574268244,1.7848565086181858
8.799148811009031,54.74495033743723,71.86183709592393,19.678687914947098,36.87942232226495,8.122452359525111,19.84571717000954,6.629511527767383
12.752145147928163,64.23781154505879,83.92632217553309,23.347957998330465,44.80329936831779,11.231363584327855,23.821432105295017,10.053774485680965
16.429717389210417,70.20705990954698,91.70115797351528,25.1503658791112,49.94782630868275,13.704030351192337,25.734444207310723,10.726163893925015
19.43230773611313,72.27070953912299,94.76242851741681,25.24839798925533,51.94356461419912,15.288216760464683,25.425373918305734,8.694454949920585
21.729998797646612,71.94015568288305,95.10144750120345,24.376067922784745,51.97479267170291,16.269731520270824,23.729773941353844,5.048340020845536
23.353772317229367,70.69699926949578,94.4231592597994,23.13798958510859,51.23248591801493,17.07155989041635,21.721675353652167,1.2370852821128586
24.362095510128885,69.21999672658022,93.12177658565861,21.849016199826227,50.2810446894947,18.053813783070968,20.267367365124148,-1.476710558276239
24.947450034643136,67.86690800138238,91.24151199122055,20.741719344221433,49.46543582608315,19.5072830233854,19.93983147928199,-2.3205867474245814
25.367512247150763,67.08815045083986,89.41166284080563,20.01832332412937,49.24971595435149,21.54509857912637,20.920618376676828,-1.2013998931712546
25.690424582766184,67.03087869732259,88.35774133889605,19.623548140009003,49.823698019886045,23.814345707641035,22.771629774336574,1.2156908537827342
25.666937601594398,67.07472517552677,87.92519933052685,19.117417799015243,50.61563292627088,25.348431733469656,24.414404108378353,3.7066369112485416
24.924321259399647,66.24973540080616,87.26823862026853,17.93130476103982,50.61670681211624,24.899097517338802,24.59733654461009,5.011239044094577
23.28470046345907,64.19490813618289,86.08069542736276,15.774087253417603,49.31147141666061,21.652061933795625,22.59884197668304,4.4176246426234425
20.878598384195783,61.44245627348303,85.12656450671118,12.762263077237108,47.11506166912948,15.829805469066855,18.609115052729095,2.051411928423424
18.00999732270894,58.656280086731115,85.22486242407507,9.22874352397368,44.81483015462011,8.743682431325562,13.547587280571921,-1.2455920839854775
15.016868877712456,55.85903892654642,86.02388465531295,5.556295189460332,42.78701978588046,2.2635650786861548,8.586409059767266,-4.279714002913562
12.27450868251021,52.677270565740244,86.28538090841269,2.232605913021048,40.96570230534438,-1.9900792552361455,4.747342943429662,-5.9175935852026
10.18951546357375,49.20363640854203,85.38512264466496,-0.11774150940663403,39.432392506276564,-3.353306001436017,2.640916659323549,-5.486830684208951
9.00380256070496,46.20336991264099,84.06641748828626,-1.019151974397605,38.63930869909723,-2.4109617660220497,2.2601638555415837,-3.1120693163231365
8.543446514042571,44.30376622696123,83.46625745473754,-0.57488621800292,38.86449010052228,-0.671194223951834,2.938903589306868,0.21479337353354333
8.251340711659916,43.24780910045731,83.74202302297795,0.47203055731658355,39.67549660618561,0.31586431978161056,3.709964370297687,3.03189684245947
7.587956121171419,42.254380564575776,84.11099352043455,1.2359280993238957,40.258997323547604,-0.08216480616709096,3.9688178042619695,4.154029813590967
6.4482628397075406,41.03108332074651,84.13752089591749,1.2989871371511104,40.29745791512394,-1.2283855123958278,3.8922141598465982,3.293583149629518
5.187715455334122,40.08133326146325,84.4039074721169,0.8511190954922584,40.264163509616,-1.795879523233064,4.150039294718847,1.1169424332565887
4.270214377047976,39.89387390213459,85.60989481629899,0.31495153313194024,40.72551087868756,-0.8482761149760814,5.136916231317562,-1.2560759892908948
3.9313043253672006,40.12279732045044,87.37553037391011,-0.054352981069048956,41.551420127504876,1.4499958706222307,6.481380941386097,-2.8944462269609974
4.140860521058257,39.887177248011334,88.46989761743741,-0.21899055770163614,42.06422177814809,4.025248523784678,7.3114759907047935,-3.4359999281510674
4.746141965877919,38.81306937644624,88.2323182488395,-0.2108309840302003,41.91518312769629,5.721026151649664,6.967816112495066,-3.1165543309370887
5.52599093514788,37.4565593102069,87.30288697171243,-0.13342659808225157,41.532925797457445,6.026624136310001,5.461758585446922,-2.579456456828825
6.140466195721329,36.60027237672297,86.71605331484407,-0.30216013879065373,41.591143500815654,5.226629394267843,3.363537897488505,-2.5686138132274396
6.194396360419187,36.403879917106764,86.6315940060315,-1.1835173007395192,42.239535661556204,4.0678530652396026,1.410549371740127,-3.552174686831346
5.478363126427616,36.47921147397726,86.4123269492606,-3.027983418435009,43.072116140575616,3.3160268891521842,0.22681329583852203,-5.430831226622557
4.1285710293776745,36.59810395325223,85.82968084688903,-5.58033681096156,43.724256669993025,3.4249769650149,0.1805696802092519,-7.584650583035578
2.4572083997761203,36.88075801653031,85.5899036207536,-8.269858148405156,44.15240093102589,4.349535669566508,1.211372599918956,-9.322249551216578
0.5949288706660733,37.15531223517462,86.34056255630698,-10.726051077375947,44.214783358794364,5.558239039027719,2.7012450263390506,-10.404616974905634
-1.6509925906850091,36.49230315156671,87.48469663024841,-13.046135056712885,43.28390308047738,6.339827283682333,3.68363803126499,-11.174874296322756
-4.558588162124454,33.78507385207243,87.46538633269685,-15.532839981502038,40.649114096223656,6.290663279249209,3.4097198024955993,-12.176549575848188
-8.158078665056502,28.796563683928635,85.207525922361,-18.26031354383959,36.32908575066855,5.595589474449327,1.8052418579064216,-13.641096817213382
-12.169833925973908,22.360174597783228,80.87168794404339,-20.984575116737687,31.226344009302167,4.794037649821987,-0.648037265111923,-15.317322675699518
-16.206418799019023,15.505507837386991,75.13347312317218,-23.414665992771713,26.3638438567806,4.197504382898514,-3.4658564631790094,-16.72029338057645
-19.92076251231006,8.734714285183157,68.34913292062907,-25.402849046984176,22.189895188610578,3.4985807286359454,-6.5160369821211335,-17.478381154827197
-22.945164521860484,2.447465434916722,61.098660347595384,-26.812248530283195,18.863818023253575,1.939803669030022,-9.807965236253132,-17.485622731643552
-24.847351294896374,-2.1885300378993437,55.379351890710495,-27.367246605638815,17.038695770404,-1.1316263043315093,-13.071991588692589,-16.887435568152526
-25.364238639416822,-3.491481738655433,54.230165916342564,-26.8844494746976,17.808373587738828,-5.815464591672433,-15.751513525555213,-16.07749010202428
-24.774706081298866,-0.9284246551487292,59.14038279163956,-25.745440950513718,21.438133608419154,-11.608133294697897,-17.50329767399372,-15.70581547072558
-23.971091905973214,3.445365065650047,67.51803775285074,-25.021135464791005,26.145024931717657,-17.636992432648704,-18.64499523257779,-16.518780836214976
-24.020717451266343,5.527241728857019,73.09039743807281,-25.93113160832538,28.45833494794076,-22.921279930490847,-20.009609689366165,-18.98355110204835
-25.518754153083034,1.5909913760834435,69.52082281233217,-29.013884137826576,25.21680189492508,-26.56239447986034,-22.29506809525592,-22.937137225517624
-28.216577653071504,-9.14513223344722,54.738528420257126,-33.65803480945446,15.793750380050408,-27.904312223013434,-25.451258216336708,-27.543429622955955
-31.108651266359406,-23.3477531046473,33.32201603903596,-38.2515437087352,3.1763690097930017,-26.646877900492136,-28.493409651192337,-31.574423703976237
-32.826903872828815,-34.170289792952175,15.977404298166968,-40.748627734681605,-6.5097692146057495,-22.844624080781617,-29.764191781380735,-33.8128386254127
-32.20520870337845,-33.58194699356922,16.07473385589198,-39.47247342283386,-6.008291901459107,-16.88107808688797,-27.60557775359301,-33.455842499185465
-29.012022559653918,-16.56094790541147,43.061893133649846,-34.16091961585274,9.424782062015536,-9.666320388229549,-21.4805599675795,-30.558423876488554
-24.658276679204644,13.639922389177023,93.80499154986136,-26.989345816647273,37.36869028383008,-3.0860934256677934,-13.25711140295213,-26.430881320657313
-22.269520078164938,42.23383569551875,146.36939250940617,-22.69520063350187,65.14351296308683,-0.2068775546069214,-7.702367892524419,-23.587870612230745
-25.533379382975212,45.760320958409956,162.92323986552955,-26.92914224970967,71.89383291629787,-4.542564347902044,-11.124492064212609,-24.84819909480043
-36.558682588013674,2.2958592127736184,104.81355663044383,-43.11964578133518,37.22839110416531,-18.291776783361414,-28.187582378201032,-31.771580992858066
-54.022951784596636,-95.46936944218594,-45.92734203739218,-69.66161647740203,-47.112296535125544,-40.48939532554436,-58.57669916961687,-43.356556089179385
-73.09017494558451,-232.59640671569798,-271.53012004858215,-99.61410455817001,-169.73450119547007,-66.50398147945322,-95.89629983424967,-56.05287907358329
-87.54668574123558,-375.96842409129624,-521.2967707891528,-123.67072796015346,-302.11127033781435,-89.64601948461761,-130.0545351506724,-65.37713148598185
-93.03377882550441,-489.12013399415156,-733.1852167686108,-134.89099118092844,-411.0121474006855,-104.22260764744074,-152.07821189147018,-68.28029148798738
-89.35390561909406,-549.4990878524111,-862.576659277224,-132.27689074873567,-474.02960316194384,-108.25198616453932,-158.5062043894477,-64.77977047288852
-80.3307043217656,-557.7560970454168,-901.2093794007493,-120.87901850272249,-488.95403603926036,-104.1269327596231,-152.6154694951081,-57.77117026958499
-71.34305019527001,-533.7886660078387,-875.4191572027057,-108.42585510797001,-471.6498776453056,-96.8358203179011,-141.8090650033344,-51.16190064176696
-66.26498371887416,-503.1628867073965,-826.6223041922929,-100.86069083220926,-444.77012835709456,-91.00578453246659,-133.10320345015447,-47.641039533371796
-65.8478952490147,-483.5071194707196,-788.1625793214837,-99.76282161253323,-425.3748024768195,-88.74480045425398,-129.77856186284254,-47.57549790567493
-68.30962583732341,-478.9453818710886,-772.743920519184,-102.92457646164637,-418.9373693081093,-89.45205726305697,-131.01833681442173,-49.538235317339456
-71.19636354227363,-483.58014805583724,-774.7593162149105,-106.90805687903678,-421.43389842036123,-91.1986720766684,-133.94282592556732,-51.71890876089607
-72.9611063576617,-489.04308537293855,-781.4005547272421,-109.38586253530723,-425.6895774806291,-92.3568932101604,-136.04433436470634,-53.05316309511984
-73.45808963211798,-490.62487023031076,-783.5902433229385,-110.02244172394202,-427.0997620986166,-92.48164005501766,-136.5349711073622,-53.51422024698986
-73.59182344045547,-489.7053158629048,-781.6608075118021,-110.10734258124394,-426.2931428943,-92.31748112645204,-136.42683495694314,-53.79113175406608
-74.62263098097428,-492.59511142321816,-784.8206156557719,-111.58524174983143,-428.5034311291433,-93.2239729777736,-137.75461412109232,-54.75216471981252
-77.30127633842957,-506.142953599469,-804.6816675343852,-115.72791306323562,-439.88788448406075,-96.20720205143559,-142.15739670001722,-56.82714406035449
-80.97805377805743,-531.1141482397004,-844.4198788155459,-121.69696275669062,-461.6696625612545,-100.79321442055391,-149.13067294321968,-59.414927858069355
-83.28393671498988,-556.8729588992716,-889.0369023186563,-125.92525272478518,-485.137872736161,-104.4209207033349,-154.990308928722,-60.74489577362118
-81.07266813077001,-562.4716832975703,-905.1320282324939,-123.41007100093367,-492.0349600767808,-103.1872746009561,-153.87121969640617,-58.65954226094795
-72.43554648871411,-526.1761612872253,-854.6914382060914,-110.74719476686701,-462.4716135812731,-93.98764425085464,-140.88982440659956,-52.11389826853313
-58.436886547898226,-438.8082450911919,-717.089515893684,-88.9641564124214,-386.7854737932284,-76.8157274792365,-115.6428650327776,-42.35051185022704
-43.08717470967568,-311.9491053876942,-505.24908020662485,-63.85799901555437,-273.57904618910726,-55.491912526378485,-83.44271104533783,-32.68333389302837
-31.34642858686701,-174.65280840745493,-263.9923086614008,-43.276109851748714,-147.84914706812046,-36.05707351770994,-53.11545735690561,-26.83342362648554
-26.538301738106526,-60.220416378066346,-50.37665473984046,-33.147183761366804,-39.79610366453137,-23.780886450254332,-32.70789273643456,-26.93570531579528
-29.018142629928622,8.572433694757352,91.88610978540316,-34.98661205540904,28.698350405756106,-20.757101543096212,-25.937808344836537,-32.611243811882886
-36.87816866584706,26.89116218938986,148.4103672753792,-46.32612729834464,51.73309966879287,-25.562046138855337,-31.505485756923566,-41.636658096872154
-47.795953575243054,4.914615508195313,132.71004834533272,-63.15972041655081,37.690616862623635,-34.853613866275516,-45.114902908299946,-51.47475813226407
-60.23314258820973,-40.882794673755015,72.17578077158251,-81.9967753855192,1.474956247320352,-45.369555848054794,-62.075914803499565,-60.301018208948626
-72.8690153805301,-94.52538616896196,-6.092208869394852,-99.74454891106001,-42.482066979073615,-54.70654034914915,-78.29095734509308,-66.71286759371604
-82.92225183890643,-141.32144791494372,-80.25211900116157,-111.94366521861275,-82.00789357451318,-60.59698161204133,-89.33174614863793,-68.62479613029892
-85.33664276275998,-165.40674073713714,-130.52502549488648,-111.81459347515293,-105.18654787400855,-59.95322166190342,-89.45229175758405,-62.780956695113915
-74.35741421165375,-150.27954369760653,-136.634778253969,-92.20902453861916,-99.70412852825272,-49.25193098458992,-72.67830192876634,-45.926762893618736
-47.007794852512816,-85.28972940000239,-82.83117598796555,-49.98769147044496,-56.836326658107986,-26.548899026404232,-36.14616392505045,-17.194231287202676
-6.087003089935848,25.721348580195396,31.560479679494325,10.214186737429092,22.014266597677533,6.289665922163049,16.590111876431443,20.04725868140936
39.76721813540744,161.15505495404454,185.32677843978783,76.08139898135796,121.9759979946057,43.1122851820597,75.21415608395972,58.55572895836735
79.50590571418266,288.3960916704176,340.3161796090142,132.33826660690696,218.81318881888302,75.61679113186855,126.34447445223401,90.01215785963025
104.69360916268842,377.9644519545403,457.5943214675119,167.5694259671805,289.3123015151955,97.03856411795353,159.43483637842024,108.7146751177271
113.08776049187104,416.68345229923005,515.3614819855611,179.03010690343754,321.8221933138878,105.13576314047697,171.32401170703528,113.93652283188838
108.72984493674802,411.7181123200775,517.1813518122381,172.66206924651024,320.30243826770334,102.65232395202456,166.71181379239812,109.59132483951447
98.89165932183447,383.6388179204078,485.8420217006884,158.78730229107168,299.7410380550565,95.18896662240172,154.61961849020554,101.65722454438276
90.15728090898558,354.12219625778505,448.4182739415344,146.63475948642093,276.8211592073994,88.10683722260417,143.47680157907098,95.17129743444707
85.986511040038,336.5138402952277,423.2665124771055,140.96712198287216,262.30242491023625,84.41445424665474,137.8726342897425,92.52205194135334
86.53678807518125,333.60478272253783,415.84123789249264,141.8927218394111,258.9014315849828,84.46240217071183,138.18365885734127,93.50959283823416
89.91260333207364,340.94297847155065,422.10256396820733,146.67888495088428,263.6341994948464,86.88404811803844,142.12931238011996,96.44471076004692
93.640841181018,351.4178338445897,433.98790502719856,151.84829074243552,271.2724425272164,89.77089696902094,146.65419877865475,99.34172714566863
95.80163099998468,358.6930668668965,443.5026492185748,154.7469016599714,276.92203803832393,91.56149934227959,149.3299107795247,100.78465967061999
95.75546830173478,359.53482236412844,445.6433277664736,154.52980280422585,277.813600226375,91.62689550870041,149.25282110121358,100.4417746378762
94.31578738754949,355.0821344748098,440.5801240015543,152.3901097122508,274.4580688632825,90.48969968274568,147.33949537785304,99.12803035312601
93.11515428317743,349.93871476143624,433.4430599150411,150.67546626012538,270.2251687331484,89.43283919454748,145.65752251849898,98.24213849058444
93.38691992132163,348.7113011119203,430.4049114072736,151.16693531638623,268.79702118055604,89.5501827959702,145.90997296118874,98.77287970620267
95.02286695984438,352.2259594815853,433.4186367493858,153.7110040955829,271.08443429082564,90.8779020263553,148.09240591280442,100.55099613692197
96.68444253388226,356.7219564039924,438.31463616103804,156.33283776753365,274.33003586842545,92.33918282114143,150.44928941065118,102.34782107277609
96.85454284929543,356.87940433108656,438.25453406139485,156.72942790942795,274.3459518574686,92.5654220646875,150.79308296134317,102.73924268009932
94.95408790409667,350.0480244050086,429.42229709107943,153.92754506145153,268.9105452498125,90.91329510909026,148.10846967201337,101.07131406915538
91.78800311433048,338.37444014915735,414.15135636640747,149.02509052508992,259.5683937450263,87.96392203900386,143.33914175438827,97.94739766470364
89.27366784712945,327.9573353193241,399.8747877242076,144.87819067060616,250.9930333745738,85.35290541228345,139.12700615813282,95.13075590481279
89.72788233703601,326.3068339599629,395.797036536221,145.07556110681648,248.97907564831627,85.16112605684127,138.8413725179977,94.9674616158911
94.76960671106909,339.02799231600727,409.00169172384545,152.27104005221108,257.939536058448,88.97370923089261,145.04394441610293,99.3061338426609
103.87854291407999,365.66927042765053,439.77013436634905,165.95024587808396,277.8200408351122,96.63114713999508,157.44924019188687,107.998570219222
113.28641049305823,395.91532963761705,476.775048167293,180.64512547306782,301.10752507466907,105.16360604428858,171.21347252134413,117.6870994716632
116.44339287557467,409.7802336107994,496.36511905228883,186.46711720509182,312.6693352202674,108.96091421641509,177.250028511368,122.07024279021279
106.69216289094796,384.9638336099251,470.67373688378154,172.99343075246142,295.1217763770728,101.89124614518586,165.67447149125752,114.28806979231844
81.06265273074675,309.3570845512003,383.17863360617184,135.02788794165917,238.52734170911688,80.6627489789968,131.20667436224113,90.55133183886085
42.76335306843986,190.9446249439941,242.19724093124833,76.6767511957031,148.46900022886717,47.376021411131305,77.24855724355967,52.87811273997319
0.41127751726107586,57.15942944764839,81.32326880771551,10.666869362030655,45.99953702103794,9.325046232455836,15.565511592294607,9.012170009006761
-35.847210789748544,-57.53633006078193,-55.91542920698975,-47.177885879249565,-41.88886323157737,-24.179796826081777,-38.77564246581554,-30.720662741416927
-59.034425250060764,-128.5650227303688,-138.18846958994763,-85.13534693196522,-95.7055594246695,-46.15117230329876,-74.34218115413859,-57.91333694607175
-68.0234304477753,-151.90916883643197,-160.82802889822173,-100.20432221232917,-112.17893007935467,-54.80271776219218,-88.0008213963683,-69.39984465292919
-66.7830289200507,-142.10084693906296,-143.36014784771754,-97.69720434077196,-102.83809141635253,-53.35056801894937,-84.74521252538801,-67.69080428818198
-61.0714458529096,-119.86371831373027,-112.75841781254483,-86.69626872912039,-84.12109024033144,-47.19578119904755,-73.35566837363243,-58.67499324299188
-54.98902508929998,-98.58010744836994,-84.92598059366189,-74.72186308654915,-66.38936521929898,-40.58039634120368,-61.11557827925522,-48.30760608302276
-49.50303424335427,-78.70281489940407,-57.417044189380675,-64.87392126099893,-49.41360896188989,-34.86205225754604,-50.91333605460867,-40.24516232408223
-43.352997788015706,-52.637366456317146,-17.310717965108008,-56.44633706861275,-26.568548203427618,-29.113381277305507,-41.88454218268748,-35.347336052169744
-35.10720491529935,-14.909396222195962,43.26401456761824,-47.5763825470639,6.536210036753667,-22.061601855836084,-32.19927616437232,-32.64371612353969
-24.751995504454957,30.496261129187435,116.27053590905318,-37.657407552387596,45.90897823111149,-13.7216431357329,-21.580517873130997,-30.728504028419945
-13.981397028060414,70.47182781828114,179.17279772672345,-28.121816826849386,79.73421091662843,-5.690661185979408,-11.984252813837204,-28.751624416721842
-5.3637649311825975,89.73829957912193,206.83067196079304,-21.5936004058102,94.68299870901797,-0.19111489014958974,-6.441189765957726,-26.708795254303688
-1.0661555776394396,79.4024437157445,185.51675653423365,-20.259035195517225,83.45949714614035,1.308727281311561,-7.120679797754358,-25.134402513699996
-1.8168372587509845,42.01202664357559,120.60112474104525,-24.462600107036316,49.0107463420998,-1.0029370549969716,-13.861101567790083,-24.51071717278527
-6.584335792937042,-9.369148686470371,34.21926103243167,-32.306471836997844,3.336466937864078,-5.364907693252437,-23.99721151983659,-24.805234551564887
-13.137548273274366,-57.2803415900776,-45.127434653036325,-40.535412863124186,-38.14715897964921,-9.45280171096568,-33.607558603289164,-25.466853501577763
-19.18745677376017,-87.90151864514502,-95.40773138953037,-46.245885532803335,-63.64693333222755,-11.72097154720671,-39.5055651507934,-25.878326130199266
-23.40499122609147,-96.7793653244367,-109.85005604570516,-48.335321066646,-69.80143151449094,-12.229024591847256,-40.7712926883339,-25.87611951311744
-25.672113926863148,-89.21879005374002,-97.36706642440579,-47.71211118234852,-61.80869880607165,-12.387458700838486,-38.84705505366762,-25.879932909615867
-26.53872237112033,-75.54588124250719,-75.04248125177617,-46.229614344127505,-49.15559595909515,-13.811728007293564,-36.230154152209586,-26.531891781201185
-26.49826164172348,-64.75770890659193,-57.96329324338987,-45.306472785804104,-39.98589029484723,-17.15040646743158,-34.828133223982974,-28.18238243281129
-25.71700819853449,-60.733106372770635,-52.86414407904658,-45.28560971623948,-37.71501931681706,-21.730600763046738,-35.14906509856553,-30.63504822543583
-24.265783482489226,-62.55072956934106,-58.308176589163125,-45.73039878324665,-41.29016796500039,-26.136495945645002,-36.605449513009795,-33.25471196025299
-22.39595307287196,-67.12958848717177,-68.91587736088135,-46.03195148548611,-47.59375382537289,-29.104894498411564,-38.272668799171676,-35.24469076094483
-20.51093828648087,-71.4932484373214,-79.3016975799328,-45.72941613299617,-53.587494209407026,-30.056331803521072,-39.37216872264792,-35.910789427829606
-18.960395328638974,-73.66564595657492,-85.76648417280516,-44.556372791891576,-57.215010305235204,-29.100803363844047,-39.3836567711121,-34.89826664431982
-17.971015468712324,-72.94324241300144,-86.74528911022331,-42.529644199619234,-57.66582390266547,-26.80174404593365,-38.1171385700743,-32.39511760828664
-17.737099890818413,-70.12702615398625,-83.16751725720144,-40.08461790780303,-55.576274710249706,-23.9396965132444,-35.843666777289776,-29.138410470850925
-18.404057229805606,-67.20099090585671,-78.17048273778732,-37.933182719437816,-52.78257916054666,-21.252980358010383,-33.20453260726381,-26.059989184454984
-19.8304929805867,-66.00033288047192,-75.27836562453858,-36.557395780442306,-51.176676220911055,-19.114698811710447,-30.754430574883344,-23.71279396833097
-21.397689345897632,-66.73876817468957,-75.99243686377575,-35.7694146382313,-51.3224661220474,-17.334520120078245,-28.501289762211435,-21.918235888688713
-22.19039579177569,-67.8780188616841,-79.01963358038401,-34.81775939115364,-52.13924114206699,-15.327531643253005,-25.94479064519877,-19.957658547836175
-21.480383827300127,-67.5567746240849,-81.90248730650164,-32.95675723028553,-52.00234337919097,-12.578800947843,-22.6090911989636,-17.1503446135143
-19.09735781372391,-65.0932385350095,-83.21328713572578,-29.91281077601568,-50.105522990578514,-9.007664523417988,-18.518406613500524,-13.327738515593007
-15.407493678780872,-61.10778960939656,-83.06552488515122,-25.878304990341427,-46.77061595619758,-4.931390763152703,-14.163546553317541,-8.881579821368947
-11.037992192635222,-56.52313003303004,-81.96738363077085,-21.242549069594585,-42.74235399181268,-0.7473683148527607,-10.102585528151373,-4.496466874249181
-6.647217587582687,-51.86159017392546,-79.96082622123743,-16.458717518010307,-38.58440684981542,3.3103192886602026,-6.66446635102991,-0.8690401278145563
-2.8059192594563496,-47.481643419354796,-77.12776563811693,-12.063774251295827,-34.78789320313443,7.173883058252669,-3.9376789648781267,1.4698452889054847
0.1610567906254411,-43.93837611436659,-74.32933699403398,-8.539461710085318,-32.0023821803686,10.840046788024605,-1.8212655228446912,2.3243709000967345
2.3818111272817624,-41.59364233872224,-72.6739422229778,-5.945617613659451,-30.66205008013782,14.312169372035305,0.025272101264935502,2.009187379187661
4.43752349439758,-39.93858668408681,-72.17585784505368,-3.729567343785363,-30.357852301413633,17.528376348113913,2.1321953162532874,1.3333935787096434
6.979032637566108,-37.79827651925797,-71.50159467612983,-1.0839323316645753,-29.96234511870851,20.187552318592488,4.841168655341938,1.237763565392163
10.205565233582174,-34.5177635054137,-69.43701887054146,2.3797854915243666,-28.67154267315891,21.631610050566163,7.832030317375743,2.268785651930403
13.687298627888497,-30.791769075551414,-66.37571099294192,6.299534818486313,-26.8563728326105,21.07941351601584,10.11591383952046,4.302149071780475
16.70637358725953,-28.047704498496604,-63.95826662762767,9.892811150826748,-25.696770698648717,18.21161146275812,10.689900058076894,6.7254704049742795
18.770325239339776,-27.032188615629643,-63.32346506098467,12.55977694446625,-26.00937072232278,13.647453109045564,9.3295557860533,8.867003846325018
19.833448280251282,-27.22172668815186,-64.16954415308332,14.16097450163851,-27.620097091464952,8.821422248818392,6.796212497139717,10.30121445884581
20.152017540797754,-27.596576732024076,-65.6434449794331,14.865721690971746,-29.8527122843396,5.287878562523668,4.328081967291246,10.907296868225576
20.075032863453792,-27.63407350742927,-67.61414002338857,14.964936563527466,-32.27620484199754,4.000337096100466,2.9633613511416432,10.833983087013122
19.989584809130445,-27.307249674663808,-70.49981469111859,14.908395725018467,-34.684695231685424,5.058052545038536,3.232150898499179,10.485071029076133
20.304174362124158,-26.39546731696764,-73.9810823340194,15.338332566673545,-36.52218427234495,7.904181342147269,5.187557176052678,10.422829159012684
21.284861260058754,-24.356804233726848,-76.59966268191211,16.806331037233306,-36.83201393716999,11.621686925176943,8.427975098240966,11.082241551468465
22.84672119968663,-21.086790990601862,-77.06695188395652,19.33047600506251,-35.077074523376254,15.12938699170375,12.052969512459939,12.454275912886796
24.59050691769852,-17.45757198485605,-75.69546497017731,22.29943793827896,-31.86513417562379,17.39428484769994,14.86279590747165,14.050739202232812
26.131149356575495,-14.681355529454708,-74.07030576655039,24.91119023581429,-28.580425066914,17.772444735000228,15.934304651080781,15.232011056148124
27.387226120657292,-13.133585604858975,-73.35356575366963,26.720458164565443,-26.271563299548845,16.307530658690663,15.179258657384098,15.6112018020758
28.520284850090523,-12.09504947098973,-73.36492111705925,27.768788637670145,-25.06258095103246,13.707413282060427,13.364811929257135,15.202231227301063
29.643055500747895,-10.72311777966991,-73.42742398238406,28.314409636298187,-24.60473609360824,10.987781220544031,11.591819176704332,14.299222551810441
30.69566156644406,-8.967861653985759,-73.54740944691713,28.628660512909008,-24.72660424958077,9.079626100554258,10.75128810715987,13.331765050658088
31.636578557880398,-7.297150636517425,-74.1924917460743,29.090478525354396,-25.34549467119481,8.642732796090375,11.357118587194792,12.823791378856368
32.64424174142501,-5.78683243809412,-75.13287007067748,30.264334769226984,-25.95212232909497,10.009086905644665,13.601568571021772,13.316109299618864
33.99277365436058,-4.006656997391765,-75.33353382508587,32.60594861869391,-25.733576298798646,13.060827809943932,17.278480670895146,15.118028558083212
35.71116288643167,-1.9324623972166584,-74.43115932758481,36.003791907968065,-24.495080608486898,17.09613929853998,21.618584165819094,18.045868027934738
37.4621172063329,-0.49457073196305434,-73.82684465574184,39.740642942607266,-23.19849113363748,20.971369705621825,25.450885746232156,21.45811249126468
38.829888949683784,-0.6681146606681044,-75.48265968774551,43.05175004441756,-23.128596504406588,23.621991261354506,27.82824687827543,24.63839742578394
39.69630393245605,-1.975495764191201,-79.37361484197271,45.72872891686642,-24.37596755124877,24.624572224939318,28.632143861487535,27.194476829473007
40.277544684156176,-2.2994200798189377,-82.55325656774622,48.11721279780367,-25.34763415972185,24.326048428928658,28.54689555941064,29.11678079176019
40.82065608415324,0.4654923538016799,-81.218127610848,50.54349657338071,-23.988975227996708,23.448199203320023,28.40690102158901,30.515904839938962
41.35068399486991,6.478318138226936,-73.9030416782683,52.82995009348652,-19.561588647986543,22.546083891884745,28.550461180889496,31.37899866470152
41.7322917488289,13.510100434528638,-62.98159739374226,54.382208551791656,-13.397934169190986,21.742214943492776,28.71952928218108,31.591832783078825
41.8986769245949,18.078432831477475,-53.75858671853019,54.67156172614827,-8.32061191619032,20.81383812237859,28.4245964353881,31.14538876481632
41.9833676173704,17.00872129702418,-52.43861288217852,53.6610929495008,-7.500050278211231,19.45462446811321,27.362888251940607,30.31102809527338
42.35158503253738,8.860300249293964,-63.71430025021084,52.03457687828379,-13.160114021124892,17.591257518006472,25.727942142936218,29.70878434687555
43.66440620549353,-4.448619728808653,-87.43517376973178,51.31275220288356,-24.84407313097143,15.71822059486708,24.49427496624098,30.282643650909343
46.82639724426728,-16.27176173873589,-114.97716354374829,53.63148294234526,-37.6474185951211,15.034888629741932,25.483264325539764,33.050942024240776
52.413684279792285,-16.2235561418251,-128.85271319862866,60.67382517840354,-42.368417341965355,16.98609098663223,30.64907655319194,38.4262593074741
59.568353061987374,4.8251598881431335,-109.24790886191607,71.8252352663637,-29.385858649462552,22.121099042770545,40.424907900127614,45.26808814216027
65.18400472042708,47.59418527243338,-46.132920787885936,82.8041251551823,4.850438689398219,28.939982247873676,52.10076490876261,50.41817904428999
64.5110425933,100.33415847131901,50.71711339381132,86.44037361075749,53.10750531625895,33.819377175122526,59.86063921572925,49.537808186768494
53.439672481365164,142.33949123051372,152.3276870686379,76.01736883514764,98.81498207159578,32.549626872191865,57.25067871989364,39.24036017295092
31.259899777325593,154.30966243806546,223.63248694427097,49.465315749264235,123.99920144787343,22.773632156938426,40.94183509094492,19.363338383934646
1.9681401034019583,129.36460725972915,241.7840839719978,11.574270210563268,119.10174353132003,5.743362355716171,13.328331533126097,-6.203245126009172
-27.057495948222783,77.38419855315718,208.06038243416947,-27.594604720109132,88.30307355276803,-13.906493193887192,-18.0062865730378,-30.931158231330897
-48.44783905804679,19.591909310203842,145.7412347196333,-57.4304149899003,46.81675867808156,-30.38402279775664,-43.8920351209627,-48.64030459967287
-58.28208075319635,-23.100650067966505,85.79829821532243,-71.80236308560418,12.057980726388557,-39.6186832708046,-58.07653046464307,-56.30411693258059
-57.489958577947434,-40.33240580300573,50.32920198203385,-71.35097461395067,-5.334811801362328,-41.00038000740741,-59.83598404454977,-55.024399977953834
-50.545677288771074,-34.95527869220412,44.24328064741854,-61.923349547419384,-5.04202917205902,-37.02072026073065,-53.273290986805975,-48.76965446450199
-42.62398350196105,-17.915317426417495,58.461108212295244,-50.67313386582122,5.903226425571585,-31.35623636661887,-44.235729625768,-41.94122796770044
-37.201070277393164,-0.5038473125408234,79.29127914486224,-42.61007890134456,18.9668381400924,-26.886376890832487,-37.217365554038835,-37.401756946828435
-35.30936413826046,10.521894630359133,96.10353886542114,-39.397200420490975,28.32181231288296,-24.814245933889378,-34.03551429393535,-35.91024361861843
-36.192544837145306,13.460159635035389,103.81985230805404,-40.1464347431769,31.786509424687306,-24.934632453058835,-34.29732823542558,-36.718502194476734
-38.344134266735736,10.003117970206969,102.11818565431128,-42.82675510608422,29.92558124017769,-26.327085035060207,-36.50759003554319,-38.483343908231795
-40.264927927981425,3.627841514807506,94.1492008158403,-45.33190088225915,25.03786889353189,-27.90161605567153,-38.93487981850259,-39.935151448632375
-40.936655379864895,-1.7806873707000659,85.04513119398098,-46.17386373281936,20.179394174215517,-28.766371707599216,-40.19557612729187,-40.274466623347
-40.13496377238089,-3.617369983860035,79.38083989805622,-44.961620778426834,17.744847024166923,-28.542717993036042,-39.740002093327824,-39.38906168825079
-38.42279754351163,-1.8436581256168216,78.60252856264512,-42.431343821600365,18.188506592489937,-27.49319213659091,-38.02353699028926,-37.79336423717915
-36.676816134199576,1.5135127882246797,80.84566779577213,-39.79946913980033,20.162272358843715,-26.249018131023643,-36.049101148642904,-36.215751323873185
-35.45451016168926,4.472398173100053,83.5620754743656,-37.85684039832848,22.13213450048799,-25.291466836420888,-34.55127035436,-35.097432460747534
-34.770776937530535,6.683593760569904,86.10969603799077,-36.62246922173813,23.777569549990186,-24.674612421474126,-33.58683563307693,-34.43677852765487
-34.44167963986485,8.830203177709775,89.38707590734803,-35.81924934214873,25.639171889858094,-24.24512289639007,-32.90320117661985,-34.07525527759088
-34.50573104453242,10.783420093363944,93.20344907663413,-35.499646875467185,27.59556012293767,-24.03571720346881,-32.554712095448494,-34.02903012780558
-35.16991186266286,10.962956353948146,94.90915075907925,-36.01129411326303,28.201351839672242,-24.309865502334365,-32.95796512045904,-34.4431637392314
-36.349759907014466,7.835427162642499,91.28692015803072,-37.34837203772181,25.859613609938116,-25.183587958582972,-34.29512855089109,-35.23502057633584
-37.401396684214646,1.8873338979891037,81.81751829492903,-38.71300777642061,20.600491834847002,-26.28323786253735,-35.988701724569076,-35.89272549286718
-37.432765455747855,-4.059574496240945,70.01161114179641,-38.86753808728025,14.618145213048384,-26.860286433703948,-36.88592006554533,-35.72177994498012
-35.93774705193104,-6.367150303306735,61.86348991374751,-36.97390807433546,11.201845137238404,-26.269616604089737,-35.99139474623543,-34.33821486614308
-33.21976033852911,-2.460221461731134,63.11038213319748,-33.207672322861846,13.14737862852497,-24.393467929309207,-33.10910768273357,-31.999362130895424
-30.387566562472436,7.898258396192079,76.72113442374511,-28.848963383348377,21.46553532309229,-21.78348450770918,-29.065538141098884,-29.60387311082205
-29.057736435085374,21.656849407696246,100.382463849627,-26.02301195027123,34.22197096745173,-19.600380828546754,-25.642624316541855,-28.453834195488906
-30.823173324369687,31.91530684006919,124.22215846042687,-27.123814701064212,45.623161789616894,-19.381542407740667,-25.241856456069325,-29.815764554114953
-36.360794811477966,29.301150191848983,131.48274906175118,-33.648273031204205,46.78907681553678,-22.43700571768675,-29.941590281808185,-34.19483130175125
-44.34301608614602,6.593953761433346,105.09081659039765,-44.56786048101791,29.61645667395763,-28.835433818572575,-39.88904631061468,-40.4827427302051
-50.9603557630145,-35.16009014375821,38.543970051657936,-55.345628741803196,-7.458144397890701,-36.56013191224203,-51.95284371477497,-45.62954299027942
-50.97705412022006,-83.81640893989557,-56.12371976018778,-59.014831986452926,-55.89956032962462,-41.77572114901926,-60.116007896720326,-45.541157612618385
-40.28720430909608,-120.41192469048359,-150.8978601968854,-49.50486941856824,-99.55572078317368,-40.57299215799272,-58.18203913979553,-37.126920130501624
-18.557054865791628,-129.25301696511363,-215.57096931663304,-25.41910143323413,-122.88162698411571,-31.33135990720783,-43.46111139505664,-20.341578645819094
9.964114241244157,-107.35254180641675,-234.49312078387234,8.434467408744885,-119.8219298156468,-16.04107060301243,-18.88013539872042,1.2930558801788203
38.34575143360565,-66.21402994552182,-214.54556710486966,43.22617011773433,-96.98371900008355,0.5966359637747513,8.310021319358892,22.33896711412683
60.552225478377146,-24.01401919850962,-178.0786441421441,70.8471141943802,-68.40050403444837,13.930931118201162,30.710134219524814,38.369864043206896
74.3083530589292,6.584563255747198,-145.54394640851885,88.01829899486854,-45.393972929310735,22.139166804638986,45.05162235379813,48.2173560323173
81.23545809095089,25.96458202201729,-120.85254774571769,96.82072114802166,-29.089517916581983,26.96296058777795,53.45525341251745,53.91090198592408
84.23053663548684,44.56577788156231,-90.93453603680629,101.31573635853057,-11.428688312342063,31.762973691773755,60.66171533753602,58.334981882894525
84.22872503167552,71.7702961392922,-39.8169357696467,103.01688532894781,16.15167356547798,38.33948531477201,69.35936095081338,62.40325467966912
79.02291832077468,105.75163693265355,34.3366834270971,98.96182257482577,53.4869093720735,45.01995587178585,77.32774775751238,63.98630529307718
65.14702981253781,132.61702504800385,113.15927520989958,84.02854563495794,89.45705205915365,47.55981896124869,78.70446050072725,59.46751938552159
41.315850786542335,135.58080225187473,167.89290343510368,55.66081471928791,108.5801909071636,42.190296320307255,68.39791589257811,46.72779088259036
10.663110064735461,107.05353829343105,177.5643719945134,17.24229453117152,101.34314681601498,28.519643325717343,46.26139590937737,27.27800426814645
-20.019173572139216,54.67185817224118,142.21433431128614,-22.539081301164067,70.66216601691899,10.19920472626152,17.961502743875624,5.96739443338999
-43.573544448620105,-2.792207042076748,82.28597431107605,-53.95605541774561,30.132803464830054,-7.025961583741617,-7.981220758584346,-11.49219755703712
-56.06080661225982,-46.328095225975645,25.569140428753222,-71.20235342075514,-4.226701928852742,-18.446354535930826,-24.812626089954488,-21.457344285232903
-58.323979798538105,-66.69040970294678,-8.572336763813306,-74.81819716165519,-22.74908570849373,-22.611486272266585,-30.726456898531,-23.85505469838165
-54.7549894084444,-67.24096423007985,-17.30566234094814,-70.319884810616,-25.760581189017238,-21.39942122869784,-28.80395343265243,-21.5171655218297
-50.40004799516054,-59.05473593838445,-11.149449214256649,-64.41172473882543,-20.735545142038095,-18.266472106285995,-24.29365914148655,-18.112712743478223
-48.41851281868713,-52.94475933188988,-4.086318093537106,-61.486802800383046,-16.165866887013713,-16.10959382184794,-21.422397810761197,-16.186408724386553
-49.25648704601584,-53.90415794242462,-4.637872988491539,-62.347538276448105,-16.64054248392629,-16.060598382849843,-21.68961691293427,-16.37833333161124
-51.49575392057277,-60.28103050070625,-12.4835188989519,-65.20004087411485,-21.457221088404697,-17.566394631265126,-24.106965036096017,-17.87384549129422
-53.41357064713779,-66.53404065630647,-20.484562368912005,-67.68506676936495,-26.29254566994776,-19.27344517217164,-26.60402813127093,-19.438194661924225
-54.30135101955377,-67.39934048868773,-19.95288437504194,-68.68528296117363,-26.43396023475965,-20.078397924608613,-27.62666648466981,-20.376753187016288
-55.03066262482622,-61.90616188261234,-7.225901396268865,-69.2131832500985,-20.36814606251535,-19.934816594877475,-27.315102146114455,-21.049256554504773
-57.64135188242598,-55.71616298315467,10.919359868952972,-72.02412121192152,-12.366302642880639,-20.109870458487794,-27.799389100293645,-22.73153944407454
-63.947031588844055,-59.761642755868664,16.928919570081728,-79.84302913046575,-12.067660591809283,-22.597242911780757,-32.180023000921196,-26.74744778960934
-73.69084438865796,-84.29345183111218,-9.88873621602251,-92.81907365312685,-29.82063803152797,-28.736575361689457,-42.3254561648881,-33.18782719922061
-83.44977612287957,-130.9175891577747,-80.1403751909458,-106.81232394556716,-69.51918272257836,-37.78562741210468,-56.70282995287695,-40.05219537097092
-87.4762384370616,-188.19530131648378,-183.8363744173134,-114.23718594085419,-123.65121670001896,-46.58257224974518,-70.01597787276481,-43.68772220016797
-80.53809645940517,-235.28577847757944,-291.2709318469349,-107.7335981539656,-174.9726249747419,-50.900037520071876,-75.5182779442377,-40.62304141139388
-61.24436853153551,-252.76304368978586,-366.98831850653823,-84.74974872756782,-204.99854516270995,-47.862864781086174,-68.91797556152363,-29.784933284397244
-33.63435898270527,-234.1239824280638,-389.034579667308,-50.004229638139805,-204.4036485900198,-37.86211238405908,-51.35790294754069,-13.583670416222255
-5.701404326734576,-190.21167780739358,-361.09302290064784,-13.85404183619562,-178.49994208166638,-24.57694094904193,-29.29675453920325,3.029741459117493
14.495324006825065,-143.15770748710236,-309.26625540160614,12.764975990606828,-143.93184320966154,-12.965614023794396,-11.129040374880713,15.074212704157345
22.79546456959465,-113.61026125290081,-265.6532628269383,23.781564604167873,-118.69493893658034,-6.526339534965316,-2.656759831821128,20.037017755036967
20.528814380399517,-109.7446205007995,-250.01509015560032,20.437916223128685,-112.23049012236272,-5.6683801518866055,-4.366461864406665,18.76167760013713
12.91585960085879,-125.03335432494276,-261.55679497060316,9.443384175147285,-121.98962441587214,-8.187719338469684,-12.129036047114283,14.29168748633412
5.628702535134409,-145.07430081754538,-284.5637543508993,-1.5234551228353477,-137.73594640703533,-11.24533884024295,-20.432641562695046,9.691432768996922
1.8522132662219555,-157.60292670690978,-301.62066166514586,-7.858124701849938,-149.4042512653236,-13.252921108060791,-25.67498560894235,6.409457654130034
1.3410557246098822,-159.1356106114156,-304.8013668512063,-9.521225490512041,-153.0567882555591,-14.485137443276933,-27.595661640151373,4.013609682093972
1.3380489463558105,-155.76886408013792,-299.5270469832685,-10.023772389332205,-152.38240135186535,-16.465087709684454,-28.710769881924566,0.9711681585679722
-1.6459191093493482,-159.46066178829935,-301.360289197278,-14.137439659396078,-156.3495756972896,-20.903856623311388,-32.70258402342524,-4.3069933207645095
-9.937260630358999,-181.6371900954396,-327.669850054958,-25.272852451608838,-174.30593397571658,-28.710242392644002,-42.451244157395074,-12.5504660394863
-23.04314532218026,-225.34272297080713,-385.8073081584262,-43.01930904490377,-209.4519681028473,-39.08859903163838,-57.92227811919127,-22.84619210065425
-36.82703572351191,-278.6117351370652,-461.7717517891528,-61.767374540011915,-252.88412220593634,-48.89366533471338,-74.58352963402983,-32.22128786102031
-44.44380557287219,-314.1408119805568,-517.3047608714431,-71.85202065099503,-282.56586917254964,-52.958567829340836,-83.81398896329293,-36.22109068400524
-39.32285363886337,-299.0628990787824,-502.307684372868,-63.7385021276719,-270.81512518043877,-45.99630782668376,-76.26891851412783,-30.794151755375285
-18.922525026474975,-212.0682309703107,-380.09989596309003,-33.48140819567297,-198.52786447004272,-25.519770744818896,-47.045587092755575,-14.716953931897905
13.097430970825553,-58.128274353411015,-151.66273491659226,13.95223023942209,-68.18293985990631,5.980974428547477,0.4751612939062588,9.026479471475087
47.96847032233961,129.47027066435376,137.66189500637495,66.03612265025572,93.37499898637697,41.30733513031433,54.976033395372404,34.084893300087856
75.7651516027633,302.57188542727306,415.5476674013578,108.2731443394635,245.443011698271,71.46948641594356,101.99685211336794,53.52481342058737
89.91859923229505,419.77916403097686,615.0486375212646,130.7794025986816,351.67059950450096,89.6633775634698,130.47055252209654,62.94984009186459
89.7016997561944,463.8086023267473,703.2985306888137,132.08065336649977,395.48021300347096,94.01171214484317,137.21217984882085,62.14365571195938
79.51738055182479,445.34954814831633,690.9388446855926,118.30092825381158,384.38415550373423,87.62681831704597,127.04373516738318,54.448179027660835
65.86231049539059,393.06101349638936,619.4622392955719,98.87259682686322,342.2141066288491,76.29169354983098,109.08342595731553,44.54279136159356
54.06699726396641,337.41543766514826,536.8143665439414,81.7577816456214,295.412636487467,65.42175348438535,91.89872350048707,36.143841052714286
46.583520005219704,298.0771835938502,476.32656335195145,70.80348251027995,261.73490321793963,58.058645278755066,80.31556018029617,30.866606733410755
43.18416336816193,280.035272948318,448.5147536979147,65.87401845181901,246.27860139949206,54.58852800024235,74.96341171610685,28.4533997243885
42.1965598278972,277.2675396661244,445.40601756406716,64.58362221318083,244.24837260325677,53.67013674338465,73.72996321132837,27.692172871913364
41.696141104764116,279.30600688051976,450.7560077701142,64.07203649530557,246.62548217588136,53.419286667910015,73.62411597373399,27.24491834129208
40.17844421112255,276.88720559224197,449.69815694562146,62.07222809242864,245.2950470408611,52.2598280395476,72.1215802414971,26.077015437404608
36.80437845438342,265.26185440007856,434.75753465898975,57.33988887967304,236.1521744819538,49.35767970523189,67.85524053131958,23.59505086139941
31.408155141407008,245.0290207318398,407.50132050461093,49.686871793141364,219.92069009375084,44.71565392462077,60.76765141693662,19.64749776408125
24.34580682943732,220.5913550966922,375.8309527310351,39.72750870591707,200.72487265311025,38.956366176700165,51.78112295611653,14.439182445968363
16.303862037716808,196.97887399988016,348.12139509347156,28.52213051603992,183.06931107716855,32.90159250136307,42.173697638946365,8.432894123147676
8.271641387468701,176.92251926907122,327.46716976631535,17.444548138022956,168.94957316888886,27.23476121278055,33.10210569797792,2.3701288846692896
