FZ,C3,CZ,C4,PZ,PO7,OZ,PO8
-22.72378057132304,-32.38587143933847,-11.254714664647047,-27.97144017789721,-16.508792748102987,-14.368848602781659,-23.569708692926405,-21.365189386240385
-85.60265581873234,-198.3343127516408,-181.76510730700892,-117.16464042915639,-133.28155358785654,-54.2562393116923,-97.32446162939844,-68.39930974312746
-134.09976422690772,-323.98148488178606,-307.1060962771145,-186.17005192441488,-220.28152586055552,-84.40346234644062,-153.63734479086506,-104.98780571144668
-160.94140747124007,-389.5194002963008,-365.9029016659488,-224.75747363696348,-263.20150933242707,-100.25473458521165,-183.87894096978255,-125.95647629147315
-168.4845656041621,-403.64152971046826,-370.46992888803766,-236.22115195940546,-269.4157530748846,-104.21980637110197,-191.43460400522176,-133.17282206234518
-165.1499908777322,-393.90595677031035,-356.1215460675179,-232.4196124510571,-260.8486533966939,-102.89811990284208,-187.3452637791531,-132.75753120936596
-158.4513215043891,-385.40011311721446,-355.21905741688613,-223.9922289475052,-257.50202577306567,-101.6797878883556,-181.47611292996947,-129.86514701513374
-149.62891752828844,-382.0472923471493,-372.5304665801511,-212.7506256386444,-262.4334754266053,-100.55156256356479,-175.39912168228392,-124.84298180520467
-133.5980228264552,-363.8176959308452,-379.59098096220816,-191.50611611328367,-258.8837492161833,-94.12221124812577,-161.92221565174742,-113.45885765514444
-103.96172745197353,-302.22608899740044,-333.61340964326115,-151.08205239050724,-222.21044995561212,-75.85011408469633,-131.3994395836085,-90.84483025620025
-59.28566638796729,-183.5966587934006,-209.18326595975898,-89.22144968681823,-138.8618349178599,-43.487733123244055,-80.23239112781317,-56.201994526552724
-6.254308334219677,-24.315615403044294,-21.656467763164443,-15.185010848839859,-19.674875566941534,-2.0410068175813385,-15.754198371054072,-15.01044658356089
42.24453500717268,132.05253955034073,173.5104580784487,52.82736438566564,101.36653224757973,37.63039182680837,45.56594076743168,22.604340012296355
72.74730730066926,234.2642654033108,305.96587667130063,95.62081902864966,182.4886491075333,63.64120804020256,85.3495452635765,46.22279797789406
77.22514077712765,248.31056807500664,325.9307533926099,101.63373713353474,194.82526393334632,68.52249081922211,91.74701795861111,49.673757768378884
56.35395285353846,174.03211946442073,229.97304956716738,71.747079983175,136.93239712423147,52.400195670832865,64.63076164713462,33.46933241847094
18.70389257465776,44.81566327087332,62.91074928342629,18.24077547096397,35.361409352451346,22.48934957446655,15.17930669304974,4.185301246851453
-23.349021434038715,-88.90935478585699,-104.85395279046071,-41.0565207510856,-68.66965546591904,-10.526367213814385,-39.514101136411064,-28.598591293622952
-58.73777317267688,-183.14676512051685,-211.71231494206398,-90.21209607403883,-138.97194605639606,-37.1746077049352,-83.80897247761871,-56.15445044894116
-81.37663821482523,-218.30673714572035,-232.03780319603956,-120.60655239615913,-159.78376644062803,-52.56340598602527,-109.1698756440612,-73.45926758590726
-90.93768521323264,-202.95603114959866,-182.23515202760885,-132.1232971160326,-139.18087974175583,-57.0136501916359,-115.66179769786643,-79.95540693742592
-90.99487543258496,-163.29877951405794,-104.77105922577783,-130.41584314258935,-100.18859775256252,-54.199954094810764,-109.36163829557144,-78.34497491623394
-86.17675285528134,-126.4782384843775,-42.16404102156454,-122.62528701617332,-66.38650740730972,-48.402142267953856,-97.97974041694697,-72.5421346852957
-80.05445496818344,-107.82938774112792,-16.800026381475043,-114.12285852926948,-50.77925688002608,-42.5744760070116,-87.3768320561663,-65.99620027858772
-74.3988609124535,-107.31235911649144,-25.41415034983869,-107.30444198575783,-52.6561423066871,-37.85032426386746,-80.18251720816752,-60.85648483923996
-69.382929851153,-113.61144757109093,-46.322630854373884,-101.89762831900562,-61.2702473673202,-33.964301612989054,-76.04119649668428,-57.75889526312665
-64.22144290746685,-111.59837127137057,-52.25073792142031,-96.04375102181439,-62.52167918421813,-29.920344320707265,-72.66648922049954,-56.024040672831326
-58.188435053606334,-90.37379597662222,-23.581674539737715,-88.00664634786213,-46.05509039833522,-24.80040168617983,-67.50868110944003,-54.37507624250147
-51.86675347018257,-50.46693359635639,40.292275615638204,-78.22195126365557,-11.57127638375087,-18.796051466834886,-59.88892498695578,-52.10189264120563
-47.800084563633554,-7.3955754937527365,115.11172373516672,-70.41668336123855,27.842550853291318,-13.971321957589817,-52.518696667028465,-49.94278928987035
-49.56308437371548,12.384963098310532,157.15000467831396,-70.30366115838407,48.75642936522299,-13.824779571630064,-50.8273338144846,-49.77307071295934
-59.3732705173674,-16.111019385131154,121.95265290141803,-81.97380519068763,27.84831982807354,-21.368008368758904,-59.77926876319226,-53.0618279283859
-75.86497917662092,-101.47820086868172,-11.16163080575873,-104.34749713470664,-44.77456934853955,-36.80404495567343,-80.08362439522342,-59.26223328348624
-93.91343425920631,-228.10095447450732,-223.5672535376149,-130.54473650401155,-157.65880634113836,-56.569923857724405,-106.64945127535736,-65.55143303127733
-106.96474404289559,-361.50953454245393,-462.07465087937106,-151.02426099056962,-281.39443794879935,-74.67927928433758,-130.68278407108005,-68.28575860755362
-110.42946522513394,-464.38233669555655,-662.638510672535,-158.5379606189724,-382.00051720830254,-85.63417356944606,-144.1692866561581,-65.15920050588787
-103.94237550075317,-513.7255237965913,-779.4670795352739,-151.7004174939665,-436.50324869957814,-87.07228348610471,-143.85191601171684,-56.55018379860246
-91.16026234243823,-509.4423678429202,-803.0052935514482,-135.08503202137692,-441.82496940398784,-80.56865228696293,-132.3243768058967,-45.208116778260774
-77.45084029076568,-470.47703314534596,-758.0646427752307,-116.15166626007029,-412.78644624530824,-70.30025946003845,-115.90361168026885,-34.615921442698415
-67.0856164572927,-422.473182075974,-685.9364826435784,-101.21970830693908,-371.8904009346595,-60.62727458243011,-100.96860509578437,-27.180980340548352
-61.607143957126894,-385.1912440594316,-622.9692184965586,-92.93002679922328,-337.8957906955943,-54.142524661496616,-91.11861037905629,-23.353103226487217
-60.00045932278507,-366.3231629982388,-587.5160390784274,-90.24211052115109,-319.41350962009307,-51.142830878327956,-86.51802326694227,-21.981670566048283
-60.0414415646079,-362.85631073432194,-579.2228480098098,-90.20255677813032,-315.19859445262074,-50.363097892760486,-85.09921788111662,-21.363307029571775
-59.68188935895132,-366.4833880857242,-586.4655519638242,-89.90104675335122,-318.50448085599476,-50.111259009074814,-84.28553282484235,-20.15836944846091
-57.768193437313634,-368.8583052098287,-595.2016809920109,-87.56940218102159,-321.81374315853003,-49.07778068870052,-82.16465178365578,-17.752403660975876
-54.12294467953441,-364.75788089907553,-595.2133696419053,-82.79662195736637,-319.96844541460615,-46.66334682051358,-77.92433720650145,-14.183154272816397
-49.32063676438216,-353.2305102913968,-583.0473507051315,-76.28503734976715,-311.52307273772766,-43.00015190304024,-71.84210046080891,-9.924202798593571
-44.32243534160182,-337.08272549688394,-561.927613219315,-69.36591158559635,-298.53448858153126,-38.76648162843452,-64.98134836092055,-5.636409632076593
-39.994854510546695,-320.8211435368692,-538.8071861889066,-63.308320355298,-284.87263550730654,-34.788557565096596,-58.58390395003729,-1.8695090732611432
-36.67944946610537,-307.8664918596648,-519.7956370639735,-58.667534147350665,-273.73990266322517,-31.56958928000855,-53.37373288996747,1.1958081732485981
-34.10746646391458,-298.79042496127676,-506.7793834142275,-55.11497989709815,-265.94509172292646,-29.06331186081482,-49.244691138638984,3.772647037012515
-31.728276655472197,-291.78967637382243,-497.5326633666464,-51.879701490891016,-260.11561386525756,-26.861939949634053,-45.56621756063682,6.225979599634826
-29.13062719298351,-284.66277976175775,-488.64455860657284,-48.359754139520426,-254.35890754105836,-24.580638698336763,-41.75909424312602,8.802467893260177
-26.17714239754167,-276.31684856233335,-478.22424292235996,-44.34573608568113,-247.67334486493453,-22.057362337232753,-37.574728868759564,11.5871909441976
-22.849547668986542,-266.7558963055169,-466.2704878869496,-39.818888523266715,-240.05267022367377,-19.262605361773044,-32.94858662289633,14.647145467473127
-19.139295962506683,-256.3537445755152,-453.49439429921915,-34.783933195615944,-231.8428639236401,-16.173035341861866,-27.827797760725336,18.086444435070085
-15.180628248103654,-245.66126484513407,-440.6295487324875,-29.432508118280513,-223.46532654092562,-12.84214237310776,-22.307774414755453,21.87845565116787
-11.40855888925115,-235.69667105214359,-428.6591666044526,-24.354273980532078,-215.61421160052456,-9.551373376772638,-16.869639155406094,25.67889785615183
-8.406054714868617,-227.64296668013506,-418.6026198621778,-20.328434288070753,-209.08199728554098,-6.742991681812126,-12.254345158212981,28.91455336768375
-6.460790563231051,-221.6716997124365,-410.2220596679262,-17.716420750785446,-203.89921267395917,-4.685974221146923,-8.91558714523508,31.157109219636503
-5.227967768875381,-216.13624015669987,-401.1688394428585,-16.00995567508369,-198.73927733231514,-3.1829552193074058,-6.540498258802747,32.48319041293817
-3.8192025739079107,-208.41228831583922,-388.37656253406203,-13.984831326371303,-191.6495089455516,-1.6196890798451427,-4.107962696339842,33.54628244073546
-1.236309515496123,-196.9461924813677,-371.0593644087696,-10.331892576427064,-181.75225386336533,0.6921368863427828,-0.4210214681615161,35.35039619240788
3.145090831489121,-182.70590383377302,-352.45102200996297,-4.318245336605308,-170.3446425835587,4.163452431403102,5.302109729645518,38.857520747290835
9.191288099357942,-168.86126617094746,-338.3124509643022,3.750573089253008,-160.34180046764777,8.720914876491213,13.009761490991286,44.48723372786338
15.736465310052106,-159.18753154827186,-333.21378793613934,12.25492576460041,-154.5636353761111,13.684762178598533,21.52551018383274,51.562735688842245
20.6025035791763,-156.27538407415733,-337.16071986692344,18.359280984349752,-154.0594309899344,17.748442795106207,28.493689456370795,58.00454601116165
21.28720920123829,-159.8436831196221,-343.9817713566562,18.946906706594294,-156.9886428196243,19.314135160155935,31.01025444515569,60.76875776756568
16.37508607638512,-165.07326444546112,-341.35021595242785,12.460872095697809,-157.95557913439222,17.34627925695532,27.160791928775566,57.21150219606496
6.947955708204961,-161.9583155356057,-312.6499819281157,0.6960472655794482,-148.24374893636616,12.360238958877893,17.764758432367294,46.78679457477306
-3.171906074625359,-137.64076545504028,-241.87549726519157,-11.005964178557699,-118.1135403008017,6.719083256738083,6.919723078382155,31.933497711015647
-8.942167952864594,-82.31000639887662,-121.47031737155318,-15.921265036490409,-61.41989432361556,3.7045267616026774,0.44628839117480323,17.325278990281266
-6.667612412999111,4.102906012197549,40.529719228183225,-9.440964387702653,19.596579444138676,5.776985224010452,2.8996846906347327,7.743882592320462
4.068501783154958,109.33895612181674,219.74034598541238,8.412767470949717,112.99865356392891,13.225579729907992,15.126900490553918,5.863032340203329
20.487733515407587,213.4562403631364,384.0957004093386,33.296041466260235,201.51537394866315,24.253554267159895,34.155360842132204,11.340006020972945
38.604220763340784,298.7943871654009,508.5911983781019,59.44558728211786,270.86534922598815,36.44367285629863,55.46068930523216,21.63673065019573
55.45734537575,358.68287174451683,587.1276372661054,82.82350764394224,316.75251516682596,48.33684899717834,75.68278048320421,33.664485391990816
69.69248619241932,398.05198388951027,632.390222229947,101.86579711998095,345.06990470418145,59.62569043395914,93.38035851214713,44.80444411587954
80.0934613665142,424.6226431018706,661.9871708042627,115.30653557554002,364.2163442906094,69.64497812635767,107.14936994924305,52.65595917812417
83.72383639967714,437.28368645042275,679.9461795287395,119.42585445312899,374.8811993660486,75.5824108533082,113.09169145453868,54.301869801256004
75.972746306531,421.86741997066395,668.3783772989713,107.98263188926148,365.84384021129154,72.48577275357586,104.68970688672928,46.51179691425693
53.18858975957265,359.47583916610387,597.9496108210835,75.8507389383122,320.4776841301624,55.813976885792194,76.25719721588183,27.393472641587646
16.06748011533348,242.0858925713817,451.0249138916323,23.82534558728718,230.02057101248104,24.953922132190456,27.756879931668195,-1.624914149661601
-29.102857962994566,83.30487939626447,240.17612208948822,-39.49693302168514,103.52888047972806,-15.083563977098839,-32.982055178186194,-35.32482067774123
-72.77959049085318,-84.83005538370429,7.258163876600602,-100.86715476657879,-33.626970043753595,-55.4473565554248,-92.9755253737173,-66.61458743638423
-106.72389454422375,-227.50750932787838,-197.20215363028115,-148.74304056903898,-152.23709188256504,-87.75828615109872,-140.29478187916368,-89.82287687801558
-127.61891938774602,-324.2005729624424,-339.73149898836414,-178.43268431976978,-233.88338065082326,-108.02824164030753,-169.55190779108474,-103.14507112995734
-137.21488421203324,-375.0398677718896,-416.53476010955757,-192.39693724423165,-277.36730565935426,-117.48850031503578,-182.84471459203255,-108.50539662924368
-139.06081735520766,-392.5361336643733,-444.82809975672353,-195.68866364963893,-292.835464303018,-119.88012340934755,-185.66034654848445,-108.96212722605695
-134.46711360166492,-385.7831316290928,-440.7323239699767,-190.19250331253417,-288.7977957572161,-117.36335395090953,-180.98225381013728,-105.6326382616272
-120.93305573584857,-349.9479003954002,-401.6234379385717,-172.26678846685834,-262.565818703732,-108.2204104536699,-166.1937979602091,-96.51691479304351
-94.36976335520025,-269.68734726530596,-307.18438378112063,-135.78987330392226,-201.89483010224674,-88.1706069293737,-135.25098319302447,-78.18889738807076
-53.49028075235073,-134.22559574952876,-138.74295480567247,-78.42737210215572,-96.83155602334331,-54.3882031124364,-84.58055040384716,-49.15013051535898
-2.9995195652501474,47.395697389404916,97.85228507410811,-6.3733586532627395,47.26756001056615,-9.257959996625996,-18.29288905383539,-12.353064448075644
46.996276787870435,242.88237699327473,363.60800342351394,66.19947636371532,205.7299189065512,38.975152704083925,51.29460425837537,25.046548463195688
85.26551280096481,408.6613355483052,599.5898380681758,123.0220732715918,343.32664405051264,79.35669473255054,108.5355895256543,54.70746585285662
104.7585814278819,510.02962513947097,754.0795975101315,153.3090383841128,430.5438579261336,103.2864654825292,141.73586557582684,71.00045013129426
105.68756432543258,536.9186335209153,806.5367315859484,156.40945674861212,457.1478804704833,108.41546242301867,148.36381685817628,73.40097402771121
94.79132308791755,506.4003363692806,774.4346827326692,141.1418736504968,435.2551862185913,99.24223052352751,135.38586925661446,66.16584546828933
81.7264767755647,452.33440737198845,701.4191536188854,120.97060040414131,391.5804147117726,84.50008034645467,115.2441906418419,55.91333429082331
74.92386305379033,409.8644044215281,636.4953114851966,108.22739406802035,354.9030231093304,73.17042609650065,100.30791442355442,48.756546706503734
78.72725627778792,402.7299566587413,615.7761717089687,109.94124092910906,345.47667873784536,71.08563871253553,98.45307834314201,48.26643041325717
92.21913401477438,436.4545493070604,651.9180267805733,125.90193958504166,369.1851056333282,79.04850275960611,110.72254697656284,54.52232437506749
109.42425801515108,496.6307088695993,730.3703128018127,148.59409817912598,415.8368283549412,92.53671744324905,130.89987593544706,64.02789477786442
120.90158386402331,552.0577793987234,811.838323214361,165.1138176736151,461.2363357746398,103.01032030910113,147.0833705565854,70.57338347238642
116.96503751456952,564.2838294179898,843.4452845722899,161.53691169003704,474.33623918824105,100.92040137823759,145.6921991888197,67.34776438542042
91.9398239919332,503.2062052112752,779.3975276091347,129.01230813872704,429.58395724389175,79.84690871144139,117.32464627762897,49.9844557480219
47.5242699852199,362.8583437273802,604.19629343493,68.85703692109043,320.0960523827438,40.028189077541214,61.981968962758515,19.16191107776248
-6.967082597991697,168.02147789007464,345.153244873451,-6.639805766229136,164.00969583720698,-10.8522660724037,-9.580107014499664,-18.947344783947052
-58.19565637093769,-34.22214258196017,64.19631444920134,-78.94968443940787,-1.3304295064719043,-60.55089673520749,-79.876744892932,-55.04821506970663
-94.56162116480964,-194.87165195491912,-168.8681336085791,-131.39311440316564,-135.4855458305632,-97.5597339911727,-132.32834015380965,-80.81569444373577
-111.00348182495803,-284.32414354795566,-307.2853934191818,-156.1579038281102,-212.67715907679076,-115.96855266748858,-158.34510742217756,-92.44110428985293
-110.25980344482596,-302.82805477948625,-345.14484008359796,-156.45006340548116,-231.2874386198647,-117.27361422709494,-159.9974954215986,-91.68592863307835
-100.22501157486181,-275.1664993039944,-313.1045494237571,-143.04716872368158,-210.45627508351419,-108.41259361977009,-147.19375379756642,-84.08592233892205
-89.34114343325432,-234.35554039446905,-256.901205608081,-127.86665296190434,-177.1247309573476,-97.55639212374862,-131.59837534104375,-75.66979570690465
-82.81576179293835,-204.94883385763413,-213.07970410096323,-118.50344955150506,-152.0798118352597,-90.26471850140389,-121.09946768223465,-70.22190937097488
-81.43434716974774,-194.903368780335,-195.59670950185156,-116.35458754126618,-142.6812839898681,-87.91888186499116,-117.59637107995272,-68.39470304362513
-82.85999650938004,-198.08520951222863,-197.7299273313242,-118.30670704151518,-144.43977288549505,-88.63417871740685,-118.36352458544488,-68.60961229767774
-84.04601778926413,-203.119132147216,-204.01038674207058,-120.10093169468101,-148.14588201922055,-89.49058480900761,-119.27563942824027,-68.76078166865437
-83.32644004726129,-202.40273982233177,-203.25469604596833,-119.32667980597779,-147.39792424570598,-88.65520712062514,-117.83204591958625,-67.69434406317285
-81.35921150901049,-197.0174756602678,-196.12903199071135,-116.82704098539843,-142.8452997410314,-86.47532659395706,-114.67306477728664,-65.87569466462206
-80.64045240698714,-195.87731581104117,-194.59647909634245,-116.07614787258898,-141.6845593024829,-85.19066824792074,-113.09691582648223,-65.03995568127614
-83.71667516290131,-209.37743120200008,-213.46588439883686,-120.6817004670086,-152.5730099216154,-87.3456315220019,-116.70188929895119,-66.91146097548395
-90.82881672298095,-240.01121380385487,-257.2160641348049,-131.03420144232564,-177.8953166608239,-93.53591750158037,-126.10102097211785,-71.52802634073551
-98.38607733406998,-275.1362802198749,-309.11480529653466,-142.08578580131885,-207.5673924848702,-100.75912067760854,-136.60036040473202,-76.19630746142073
-99.63549175229062,-287.8461052718878,-331.3145150472463,-144.23264379604072,-219.38693316567637,-102.72734136774996,-138.83031620164536,-76.06466870204487
-87.71206702362535,-248.16496117927673,-279.9806510675728,-127.62226724605978,-188.06297007836562,-92.53158072332918,-122.82636260201069,-66.40552988915377
-59.56486091601651,-139.77910444429511,-129.51585438488848,-87.78363156905907,-99.24073943386196,-66.45137772962394,-83.66363332073168,-45.453052042903046
-18.37605316546362,27.602632912080665,108.27769545510381,-29.167406268847593,39.70955287910873,-26.67177126011361,-25.27321806088527,-16.033523603774917
27.185163765438762,218.80864257882934,383.3582712184564,35.83704465863197,199.58886655578144,18.89681679703657,40.17768948502858,15.183525076066658
66.63327003476837,387.6431148582802,627.5602527830275,92.13418708324478,341.17735395522703,59.80163205201457,97.33831941689544,40.554491308435345
92.22384069052636,497.40506356326205,785.0009229321662,128.51339234409355,432.6593713184563,87.51269761367396,134.4158046210204,54.8808612767193
101.87581065019073,535.9020135605689,835.5554979045636,141.9480961533274,462.83764776982235,98.73526783714959,147.86726025807008,57.48949479158961
99.10065170331217,517.3069997802883,799.1449628177087,137.57723676062392,443.32663232716016,96.0089091845778,142.74910261280968,51.9768658071567
90.51582804578621,471.8979041107801,721.318266852093,125.12955536476515,400.1970658261862,85.79222012311797,129.22731154679528,44.07479560917082
82.72160881773824,431.4024462932688,651.2161006317599,114.3390706959748,361.42977011149566,75.49126205435788,117.74789863812917,39.023234310466755
80.01335745758347,417.5984532712415,623.7678076418927,111.52716596510437,346.80455769601286,70.83116493269111,115.2324633525028,39.662641876378586
83.30871408118975,436.78181556146376,650.6455754435159,117.97066533376383,362.71206904304415,74.13081268245081,123.16394691190459,45.67075556408297
90.09209059374841,478.7981179938534,718.0615780892866,129.80086429027216,400.9197057958068,83.57041050541426,137.400097836654,53.86836012312699
95.41000842186132,519.8369071706574,789.8574699997273,139.46628177546194,440.6100296124238,93.74703063405038,149.6764518242513,59.51933358528465
94.0632156232112,530.1586105618269,817.8897774641168,138.95811141573282,454.77736725653284,97.85569421626532,150.93417069051512,58.46123384770599
83.41561615919899,486.58759871335155,760.6865190939837,123.97906760918168,421.1177140024888,91.00101212498977,135.70754877219667,49.33650070081877
65.28850688001143,384.95511611953157,604.2723129493525,96.85050021279133,333.50337439581546,72.99398105454553,105.43526338737945,34.67082263708243
45.489863472417746,244.86189668953963,373.2126655842873,66.00352553286974,207.28298804500633,48.81819672772138,68.4393931977661,19.89478715582174
30.95704264556897,102.34671760332672,122.96131487068733,41.91171679905045,73.9422346037035,26.257121740482123,36.136731089261986,10.654885813180575
26.168264825316427,-6.39996208649917,-84.23406752770079,31.78054312595158,-32.86496050096549,12.021793854361224,17.525884925759275,9.956102404297527
31.01526367327479,-61.14544768578315,-206.79120906000716,36.19607232199701,-92.21543355999796,8.66649729946001,15.156676728421512,16.83211788230972
41.33269429185604,-64.55063470334325,-239.32282386821132,49.598815638879934,-103.46071803666598,13.97707070316246,24.782452179190884,27.237409336239736
51.53398713613599,-36.958678279245454,-208.7896863682077,63.94243980120373,-82.96363812937598,22.880921627688192,38.5157791662221,36.449911223604154
57.54747862254428,-3.597172796200538,-155.97318219899725,72.99914904460158,-53.301515394134704,30.41783411041952,49.223662954166116,41.425206170049
58.30879494591028,17.431798383686186,-114.86988318899134,74.73678714130179,-32.14338210079663,33.91496391659776,53.48769985917307,41.77977957933388
55.29835629133593,20.211351187707496,-101.23468157324638,70.88986746870536,-26.701724674358285,33.38511617536715,51.861021226984974,39.159177086490324
50.97298595796987,8.748003887303293,-113.17888682063318,64.8252031054851,-34.80521004070202,30.509671559437166,47.13526138926874,35.80545500108934
47.36139060900179,-8.6180350705813,-138.9360081368912,59.50224920368144,-49.50988033674898,27.287670015824645,42.29487788614926,33.38641995568467
45.467016280798404,-24.06527935545359,-165.18253737760023,56.51421387685536,-63.59805448211201,25.15135567596521,39.301424270145205,32.57589422490308
45.30354785504838,-32.96300043322823,-182.5500630687555,56.037853981444954,-72.34511627937626,24.65423045954948,38.7669528078914,33.191049345970036
46.16788266488107,-34.76773111081505,-188.14637687264712,57.164008874864486,-74.64988995312964,25.504036569336833,40.10443159166665,34.516224566595476
47.032379819731,-32.44361185199833,-185.38137575836166,58.43893591624147,-72.7427147622998,26.838071680630797,41.9804499511811,35.67601153771609
47.07180648687584,-30.370272413493474,-181.05479987079406,58.62986687957185,-70.45473902436869,27.733988030488383,43.06795359416894,36.051904598813024
46.108588868124826,-31.59131729146697,-180.89344135691007,57.40001768948566,-70.75608666881035,27.746094889101418,42.800518544415674,35.58675494021219
44.613043525787994,-36.284114459732464,-186.44444115834295,55.358045286909935,-74.1963467790471,27.081449320546803,41.57423485077257,34.72854720647315
43.22074596700147,-42.583103725357745,-195.52882517066442,53.398657812445954,-79.36807547765723,26.272856427377196,40.215819162494604,34.01781423015639
42.216091950557775,-48.69962204652446,-205.2398932499899,51.95707337872535,-84.66500350039391,25.683132259400928,39.2410903036326,33.68001598899262
41.45351395197638,-54.15379203667333,-214.2411922619727,50.86421897882172,-89.47830143157096,25.313872836634637,38.60450264085468,33.57785651041862
40.67947436811081,-59.25567182845382,-222.52348801671846,49.78248626957178,-93.92327057514765,25.005675079616182,38.03564048677131,33.4771798831226
39.80517508244981,-64.06072729281955,-229.97481802479658,48.594982430194534,-97.99039214892731,24.685891829920493,37.42038340279357,33.27025708104376
38.85817662561815,-68.28822773804613,-236.09629798941032,47.34520095813346,-101.4221675351453,24.368259261494995,36.788141263117105,32.94979732654804
37.81932267056042,-72.03530418760319,-241.038973810231,46.00141777263018,-104.30764683816432,24.013633184771365,36.09154375644561,32.496140349510746
36.662698759489494,-75.9614628852099,-246.07305157565534,44.50312546364791,-107.29739627586599,23.541781673522063,35.22294603485437,31.916735913512362
35.53683426990615,-80.51973242027536,-252.4806311317209,43.023245965147524,-110.96227239373016,23.006550428509286,34.27517833805811,31.37992233288127
34.732561874265656,-85.36734442556794,-260.2838516203495,41.94777335550089,-115.17210820572643,22.63665170188908,33.591317637546496,31.16695688215933
34.336766218306366,-89.96917819109596,-268.608704616563,41.40838428934659,-119.44442043499618,22.579920521047068,33.37231402981263,31.374093893632097
33.95274414962159,-94.67997804255688,-277.1857922225414,40.88554232687291,-123.83141667983085,22.616318386582908,33.25862598209596,31.673033955750466
32.90047843187747,-100.6923772554362,-286.74857971477877,39.47012206562949,-129.025148650833,22.232605072568322,32.471221046288385,31.460528133141647
30.79252716822108,-108.5800354227428,-297.51669766577794,36.654447305275404,-135.32259433455107,21.063796477773852,30.491529524485248,30.32458792410585
27.94667972069915,-117.08463536108866,-307.7572723432005,32.898556162348946,-141.70649020626658,19.276061118719156,27.621002734839028,28.414356777981816
25.272605688642845,-123.72969952611386,-314.7283021486147,29.453325260445705,-146.37061111626366,17.52802186595606,24.88620983723707,26.42253519869975
23.790026894830262,-126.80144592807262,-317.47494126227383,27.668163958314334,-148.35021006145521,16.592243546793704,23.44209564233799,25.26727266097485
24.14163672975122,-126.79422541353699,-318.5434495292033,28.32290281463866,-148.61346673361288,16.967986122284472,23.98735219090326,25.704353312963256
26.21921163456689,-126.2477936427428,-322.74279078351367,31.170478000911533,-149.6196527868461,18.629223477355612,26.402598794779387,27.929724652513766
28.852796897834445,-128.61438906732528,-334.11662367312175,34.59379149898947,-153.95022165921998,20.827134843630212,29.482104452465315,31.15695626171421
29.776629808587437,-137.0382762329378,-353.4288665918606,35.6113367484031,-163.0652039010216,22.0176700916221,30.867998942223025,33.419831887281326
26.356207937422536,-152.78112741848145,-376.8067242668713,30.858947118402234,-176.27607037804847,20.279335340540975,27.73083736764954,32.084714480217436
17.172355809610337,-172.8145929958242,-394.79175357033085,18.686920060166802,-189.51208549140574,14.419427417310164,18.459067836561594,25.21886310545659
3.622405694793185,-187.86141190387247,-392.2981488126586,1.252309336782745,-194.5294097608874,5.254894310214233,4.53656684717009,13.144224087495791
-9.808686557736134,-183.70307315672403,-351.8476319994962,-15.210778449848982,-180.39465201041227,-3.981902984881198,-8.977484508200252,-0.9928875941427636
-17.275301326864806,-147.10971155882777,-261.19742321315107,-22.828304524930978,-138.12781142558566,-8.786906888952895,-15.314716282059702,-12.339575748552397
-14.503877444700018,-73.8065375347612,-122.1325243845733,-16.10673272514081,-66.51819129724083,-5.626877301645041,-9.427754156123026,-16.67186709557414
-1.1341688388114484,26.808637099816927,45.789139335446045,4.951893702329135,24.85152342215802,6.0819251585636005,9.12897207174088,-12.551778441001437
19.000103325421453,134.02843703583397,210.6433769642884,34.63325120467949,118.13844798753162,23.515432935726732,35.72614749778123,-1.9917367407190611
39.70593098763846,224.3752768998305,340.7449290931198,64.19702564083029,194.4002084098519,41.71677748945617,62.797614441343754,10.659806616013928
55.052279561154705,281.06366612251907,417.1472017826759,85.5585544378831,241.1163073964467,55.6707811071888,83.05073850038544,20.725647046070733
61.188805242092144,298.5998300861719,438.32793374985096,93.73214691020438,255.45917695012307,61.8928731820826,91.75080919079552,24.82008723688199
56.80594738883244,280.7288389575364,414.88581397781877,87.28982314278105,241.93866059209424,58.948088616460794,87.2567529573607,21.47091141737398
42.995096732492854,235.47837331251353,359.9749478205636,67.97612790168606,207.60919682895658,47.39098211292626,70.69723828274533,11.16773834020679
23.502771010027306,173.11794660918974,284.72150040486343,40.977187964623496,159.91075455129925,29.961413849664037,46.182733065517226,-3.4330975485086674
5.231149614612747,108.93211602831806,202.71578854523128,15.704427989306502,109.11929160115906,12.061323389748503,21.61206494807729,-17.186362734781888
-2.420938615941443,66.17644584917952,137.62772174609046,5.0799105643635425,71.77914107222173,1.436292064766946,8.345880294910009,-23.005630222549364
9.432567921411147,72.20615884944921,122.75023654674673,21.510333433873377,68.9754171662621,5.950665046015204,17.941087147992075,-14.158406554429098
44.4758509539409,145.80639245503872,186.91556013531306,70.35140577637176,117.00814133289497,29.750172319845596,56.35060701062174,12.179568399113467
97.444558638461,282.23744579672615,333.52321832622874,144.51767402842302,215.1027003979557,69.82765765499438,118.70391156998498,52.07791528541439
154.16888183450843,446.91286359096614,527.6853954581948,224.34075294931685,339.02563932214036,115.46943737645931,188.51109869718695,94.87732974530287
196.33030192031237,584.8280518215413,703.5224172208839,284.1240558468528,447.0563383261743,151.6855548872777,242.98483165411443,126.80364552644797
209.02986729573013,643.280884769386,791.3041876044587,302.80705461022256,497.22761373302785,165.37389163661763,262.5133254630227,136.72065116428064
187.3992372846156,596.5582456340622,750.9086271435151,273.4082141929624,467.2336247175332,151.17924431565183,239.56608407898926,121.12912213067081
138.779466283488,458.9577145664168,592.7422243339223,206.23710030155277,365.8933441553838,113.94202447656819,182.26302352036242,85.74927387289706
79.3037742485341,278.48597261472895,373.5970315769285,124.11471420993429,229.3607039202099,66.38521832173696,110.59950867888558,42.82056828342987
26.703283262281467,114.3853784525842,169.2843047455558,52.124884844606335,103.91571937063439,23.2619074073915,47.3015007201807,5.55819625161441
-6.916326717135733,10.700159094394444,39.311489649163754,7.248873396875766,24.81737027876869,-4.929919272126527,8.143830249376137,-17.326488566173627
-18.79135816967149,-20.15410529605911,2.901718511455756,-6.999956695425662,2.5915923082708314,-15.468593697632123,-3.3707039121024707,-24.331821273428158
-14.359584834220597,3.631110656485837,37.97993029790494,1.0716196134729576,23.20073988183105,-12.709460156545479,5.199766140109952,-20.098926615595058
-2.7137957303820945,48.63560735267951,100.52681260510802,17.968729562629928,60.04661802766936,-4.200940251723201,21.335249031347725,-11.742394759995683
8.265732882174497,85.11999436925772,150.25148387088547,32.18294791236863,89.23388198432123,3.6868832367982125,34.4152688775405,-5.013130827913445
14.532395355842826,98.63739729251171,167.27940588556302,38.13257646612406,99.16054472792987,8.14074779166753,39.59450058165862,-2.330896302506845
15.703252858201132,90.41445260846167,153.4167248342994,35.96648345853871,90.9554425703722,9.572664580696872,37.59057761819025,-3.138178601885221
13.342931616612754,70.32155997793252,122.66023750791875,28.952299806927794,72.75043985723015,9.688847583125566,31.947643208344992,-5.568623940187112
9.278126585787483,49.0180022900673,90.23252025175236,20.7487355494939,53.263117625939145,9.644725293170252,26.143899659617848,-8.066804799229022
4.694725178383372,33.2119051216274,65.97385720732296,13.757693731437188,38.02139214518744,9.270511939880622,21.934656347505644,-10.192210150127321
-0.041700538974214225,24.245371908037647,52.33747367412542,8.603867450798704,28.326022396270034,7.376433886429266,19.06356113813374,-12.550140976453157
-5.083364397904091,18.97054471318135,45.26872792653614,4.497153469371712,21.932804489307355,2.686841420871293,15.978995845181743,-16.110340444160922
-10.488003476350391,12.418428765427828,37.40288350903278,0.2790083008207988,15.036282692449399,-5.087676514631678,11.16377541989544,-21.279102910418477
-15.639864998866708,1.4582303703817503,23.087065355855398,-4.3675613686711845,5.107458368839981,-14.57809570245501,4.449667487572493,-27.24856297917124
-19.241136695222668,-12.707604149547263,2.60980609937259,-8.440826810094848,-6.993151492814197,-23.029515261831023,-2.5858517573585895,-32.16136397184325
-20.08883550129714,-25.350938925252127,-17.81682279456226,-10.382354931696982,-17.45261085522989,-27.63368000425152,-7.618897963302581,-34.16168326294144
-18.104718858206365,-31.942578197594916,-30.75539838014468,-9.492388254983883,-22.43425262404031,-27.226774267003307,-9.329156710068279,-32.66410405185676
-14.711649582503965,-31.743047336660876,-33.153343102078956,-6.747547705413618,-21.14512915045686,-23.192002339064985,-8.505239719882882,-28.87944347645911
-12.156609190002518,-28.453700946002918,-28.511332835962854,-4.325934329771338,-16.631031344732463,-18.86913671091599,-7.62257091790586,-25.176611947197014
-12.268625762818209,-27.95876603084977,-24.815441822632106,-4.307962471385699,-14.102105347831264,-17.823677155233955,-9.298182746659181,-23.745087863811744
-15.48870320050947,-35.287332560616406,-30.695311088291774,-7.531202738841728,-18.42117981538954,-22.024699114868408,-14.766401717974457,-25.427849917251912
-20.605554500885386,-52.31355360847507,-51.82044946861587,-13.112222095946422,-32.01643206593323,-30.831217166361757,-23.154172102424003,-29.292568358969188
-25.132727751824017,-76.17294718198097,-87.44310466077994,-18.588036710688144,-53.22250245136697,-41.094953166372925,-31.617782402670894,-33.01082781128515
-26.21465049465497,-98.5808212126386,-127.40147561244866,-20.693477011061415,-75.22291932382264,-48.28762797529152,-36.22522789936769,-33.89862147173837
-22.05069213410355,-107.7091187484037,-152.64936941306266,-16.998926761832163,-87.13370894509204,-48.40743126737554,-33.63973880985851,-30.395534524720674
-13.476469839824167,-93.88646064770252,-142.64787841814814,-8.088633403381458,-78.6620588821141,-40.11354781117979,-23.32777733801801,-23.454589332129103
-4.687796753092436,-56.97302018991624,-87.92711714742148,1.1249348275949602,-46.905306360764556,-26.050831318024553,-9.110879893033713,-16.93360112662235
-2.0551248227276893,-10.018226096267028,0.1710262077448269,2.5971516497040277,-0.7073517456022144,-12.282373076759155,1.4866351252252419,-16.270229298746663
-11.086042598870922,25.091170551372386,91.09152288009625,-10.965955408367755,41.678696222249954,-5.65513358839093,0.5281545564298232,-25.75037409108058
-33.12847350943148,28.74898979150988,149.3036837616028,-41.58751232225104,61.453039647354736,-10.34136489799628,-15.977308260786948,-45.857530416908006
-63.9871314226811,-5.201255501308849,153.06835305013612,-83.89868514195376,49.47313494975569,-25.583805326124427,-45.3922232945934,-72.45214892554667
-95.58929813061908,-65.68105130040749,105.74695752296115,-127.15514788287744,11.190415187157484,-46.08009185980093,-79.37566279588044,-98.4993688963271
-119.86792445839387,-130.65818799143946,32.397740327354114,-160.417262426392,-36.928484889247066,-64.81734344181004,-108.04927705546415,-117.4320739032826
-132.54936885024696,-179.40962900096176,-35.70081999690835,-177.77263724755713,-77.03693187337673,-76.63031760506087,-124.8907678597157,-126.16426213841088
-134.60744580854262,-202.7755896098533,-78.02734094007566,-180.455846371452,-99.1860063925503,-80.36064681002645,-129.38381321269094,-126.01307407663012
-130.74568235522207,-205.26400507546123,-92.58554344915537,-174.86892618199286,-104.53749438005799,-78.52105671065628,-126.04626186776915,-121.19051000381613
-126.23297430565262,-199.02675280316134,-91.34749385074755,-168.25486381088248,-101.57434328736116,-75.07396911423072,-120.94480067615977,-116.09185088972941
-124.26807359838628,-195.1746851312031,-89.1038327652083,-165.03643513429094,-99.23445085040457,-73.0297557354633,-118.27360195108848,-113.19024985658706
-125.2454946296095,-198.36507839438522,-94.31916226122767,-165.7737272826716,-101.95709509344695,-73.29278522035068,-118.98172704439669,-112.59711517374643
-127.73351052857844,-206.66989277898412,-106.48318129289035,-168.51510034117527,-108.82011713166118,-74.99660637000648,-121.58571937635166,-113.03809167170695
-130.04062681334244,-214.84203489808314,-118.89358644696509,-170.97665326546206,-115.69739961618707,-76.62913363516819,-123.9622560044802,-113.2384826270427
-131.41455286599543,-218.3534530856534,-123.91839230344155,-172.19983154038584,-118.48123904558454,-77.16795711425485,-124.92851514071798,-112.87318201439771
-132.50699950505984,-216.79752620615656,-118.82060618289438,-173.1722399830289,-116.20913643124956,-76.81613122342273,-125.08014577603741,-112.76722475405423
-135.01180721899408,-215.61097248734248,-110.27819534922284,-176.2947356962815,-113.10484532134721,-77.10074508858048,-126.66507191575113,-114.34184470916638
-140.46589075056866,-224.45136557341613,-114.22734239263642,-183.6869465366534,-117.85627339224365,-80.09735618670268,-132.28602302627874,-118.44977079255355
-148.63174875026527,-251.48892198247788,-148.3998209247539,-194.9140177391658,-139.054584152293,-86.89246511736144,-142.72196234375033,-124.0988437086947
-156.54246271784908,-296.26557124207505,-220.14096004842725,-205.65545754586864,-178.6518139911917,-96.14045939581698,-155.17034275966236,-127.9942021812491
-159.3166690627611,-346.60680370110833,-317.833283934599,-208.89471888749378,-228.15598768076694,-103.95240675976744,-163.60365825259768,-125.67824002627712
-152.73576761921885,-383.48356283480445,-413.93062352596104,-198.63437669981218,-271.5416946568085,-105.6652739667582,-161.75146433912784,-114.0111641396254
-136.04905310869395,-391.8956159384953,-479.704663583371,-173.946093650646,-294.1207131998955,-98.60564227976148,-147.09838508591537,-93.49970896806782
-112.93193292102245,-370.49630534733615,-502.30888654647697,-140.35331713586143,-291.59025291081974,-83.97528688259177,-123.0667680793386,-68.70028365009063
-89.63899923259177,-332.6153732043852,-491.7359898835659,-107.12471771723568,-272.5324582470501,-66.3825316860902,-97.49149061144414,-46.067151953096975
-71.43370582780017,-297.1485464748443,-471.76491315397266,-82.01045627277028,-251.95560123248103,-51.14923980972621,-78.0798759715745,-30.450970312722305
-59.796221337386115,-275.4118628644495,-460.7940447845912,-67.05469493510584,-240.12439958529765,-41.19621941344226,-67.89927432271796,-22.595392135980457
-52.5291184063938,-263.7354747576124,-456.8615333614172,-58.62580712964378,-234.96897045211531,-35.762759215309835,-64.19490337296976,-19.457867680882625
-46.78227344638353,-247.9169115478553,-439.0861845761868,-51.80177149276835,-224.2753829853502,-31.95124549557605,-61.55871370737383,-17.20789892645872
-42.675068837536855,-216.75358993330087,-385.71022720653434,-45.8267517305407,-196.62328540092855,-27.92515701886129,-57.162896574104636,-14.717649476145498
-44.4986480364739,-174.50701501001492,-295.8434990322397,-46.24730097201929,-153.08483297697717,-25.218363339983217,-54.01746896020807,-14.866312666971703
-58.1614080506888,-142.4091729366833,-198.40432739407186,-61.63845908558816,-110.67709558400215,-28.213544047323065,-59.54607937615433,-22.527956203511796
-86.38067889884344,-147.12768723192082,-140.4867885348614,-96.86489439543708,-94.32178028368749,-40.977495704972306,-80.22778893940479,-40.55897312437993
-124.94230505282125,-203.37040050290085,-161.53576240854926,-147.5038888113843,-122.08022578669282,-63.62568550229944,-115.95506441273486,-66.59160871109295
-162.83336600763263,-301.90649285374576,-269.14824808644244,-199.47919907169066,-192.96341023169913,-90.79257424352683,-158.03857507197316,-92.9407651774991
-186.65223191644304,-410.959513162388,-431.42909977326,-234.68875716445027,-285.0475702035678,-113.45169261278343,-192.450678252292,-109.91124037893397
-187.03833708322577,-490.81955386929036,-590.9763230102773,-239.69416524254322,-365.4132071910718,-123.23002229534666,-206.62587615643878,-110.65567463614886
-163.55450314568233,-513.6490122907702,-692.9406217086653,-212.62699271313454,-406.45187394843924,-116.79535509934774,-195.9551306009044,-94.78561382357792
-125.22860183039286,-477.3365878286709,-711.5000916722339,-164.39921076737048,-399.37437301643945,-97.7644696041619,-166.2482832465245,-68.67148764213795
-86.35766811092375,-405.62844253421054,-660.126535741008,-113.48835899712809,-357.4014619956304,-74.95582151063253,-130.75490349648024,-42.28426189193712
-59.819505764739404,-334.6827983702031,-580.5874892163707,-77.15505148618423,-307.16052439978023,-57.90906289645952,-103.45401719574575,-24.381648755183846
-51.49517067336152,-294.0554952896282,-518.1477628220488,-63.8761900687267,-273.72309891830156,-52.19673388000701,-92.42419724417516,-18.69641637706646
-58.66180373921608,-293.1405454411685,-498.2445022268588,-70.90354714315033,-268.27104307782616,-57.16713744726647,-96.92538611778178,-23.069222292082852
-72.79826196942317,-320.16933323989304,-517.7968714934367,-87.69165982884329,-285.16578273869516,-67.23283820907807,-109.43426723930388,-31.642232063283288
-84.70772798119593,-352.59780979971214,-553.7669098334395,-102.52010387573978,-308.70302256546495,-75.6157334512823,-120.83161625148827,-38.47220359460971
-88.88814210583921,-371.10322972233547,-580.6714200018234,-108.25910295635565,-323.91243434597214,-78.11335381229947,-125.35725792753527,-40.38742853657193
-85.14952544083299,-369.020463378149,-585.4530724051443,-104.6005893857213,-324.64882320845436,-74.84698104852662,-122.79178466623124,-37.820618401448435
-77.44471304000912,-353.7824869298908,-572.9899912514419,-96.67720468460853,-315.63570604079604,-69.52239330357585,-117.51731674340759,-33.77853341394579
-71.1480974148718,-341.6921626104625,-562.1002615653975,-91.63523440258864,-309.04317341174277,-67.08451896634413,-115.68192659454088,-31.908190096011086
-70.08533777624959,-348.9010295013273,-574.7987415870831,-94.75568557033111,-317.6533331895291,-70.99301263942341,-121.83739277416183,-34.52879178296693
-74.25040250255255,-381.34078078243334,-622.0269910464257,-106.25113649796809,-346.6789138613366,-81.0818254706004,-136.02615510679368,-41.17802415267534
-79.0652130894401,-427.3466302836731,-691.1001419095616,-119.92555849095513,-387.2295863170475,-92.79064150862726,-152.37292463404984,-48.20556655144665
-76.91825710201093,-458.0261441930114,-742.9951001607168,-124.93001108449553,-415.7897569280661,-98.42347843436453,-160.41041254696088,-49.92773456638163
-60.82106919998588,-438.3365483900124,-725.6831518645093,-110.68487627138606,-402.6991535731535,-90.40668746030433,-149.4661016092388,-41.238527766102244
-28.528331144276454,-345.26894108091636,-600.312168532705,-72.8314248022199,-327.2436789537822,-65.2514851795293,-114.38904330003861,-20.500941763433694
15.348714464609667,-183.0717314779481,-366.1560168372591,-16.676643657371926,-191.14894846301414,-26.02873107035357,-59.327212917247614,9.024333819323022
60.81312702511796,14.69241042435086,-67.83407659958358,44.3610923774665,-21.48805308967848,18.341784160126892,3.111336762448715,40.28823134194299
96.93236839032753,198.90366673348785,221.84731746626267,94.75210276837157,140.02990807489894,56.87203906192741,57.256611345788315,65.62310935001007
116.76006061630831,327.0533941279753,434.5669635752519,123.90506142727695,255.7679594711055,81.3358319717221,91.37714823045641,80.18631560258929
119.9646389108186,381.16602878304906,535.9445571356781,130.27668343001272,308.1840237755962,89.48543350164017,102.34289889979796,83.75219209256812
111.92388836533266,371.9371589311783,535.694284724483,120.5503477584286,304.52334156379044,85.0528515233749,95.59479907118165,80.02021121435943
100.24969324116329,328.5603459387771,475.20374371810806,105.01360232461536,268.98715149419684,74.94426080377015,81.05024142167838,74.15665246474295
91.0690792592216,282.13420655920123,402.8980476534683,92.32558484109468,228.65461606296364,65.59984821824904,67.85617733046483,70.22555406450188
87.05603693020511,252.70498756051217,352.8606225522786,86.55761437446952,201.84435610952212,60.584418658435446,60.98370949914181,69.89336899259706
87.66618886722512,245.35826653704794,336.5060865865149,87.29119321405705,194.03800233088,60.240760704409176,60.80947877415446,72.67023132587899
90.6340973954913,254.01752858119,346.8044822981337,91.56479532020248,200.67929510421007,62.82223194024139,64.77844621729314,76.97464951340363
93.51678417528974,268.1037446231898,368.13890001144426,95.99315137380115,212.819645989903,65.98171149770477,69.5224342741975,81.16503473435797
94.67693723588586,278.196690366408,385.41497898631593,98.18385501909148,222.13513826649765,67.88217858737958,72.42187030572957,84.16237011593229
93.68702915232844,279.3875473065735,389.8195762054347,97.38538905623217,224.0037057745119,67.76508459766039,72.4121436631282,85.70178316958231
91.23790215925976,272.2310787745081,380.8921408758052,94.44424582901647,218.5082160993886,66.01190810482834,70.07536597250926,86.27594762316195
88.58126052110087,261.26769881670106,364.83629700683076,91.07503491211793,209.33588835677364,63.71790627521868,67.01613957827796,86.75842581930455
86.73504494177999,251.7408049089261,349.8011323158482,88.74292617836237,201.043557625944,61.95418061223691,64.77663140408549,87.84648669276011
85.95202957718209,246.46553079375803,340.8533840509252,87.87208923719679,196.28845243327027,61.164859964431116,63.96524840368804,89.68719524493436
85.81391218817163,244.9597296859996,338.0049746347496,87.92802884232755,194.8828666034204,61.10562000134423,64.19661023709456,91.95948320620799
85.76444144513064,245.04439762653945,338.16507430787215,88.1461918437406,195.02120520058156,61.26807624876274,64.73369767728268,94.27151065753026
85.52616213477825,244.9707538333744,338.4449295245838,88.12807440678446,195.1293842301808,61.31806190287267,65.1169044282262,96.45499658277748
85.08525765448657,244.13328699996475,337.65219087282367,87.83771683658897,194.60425627321936,61.17710176326516,65.2512644749112,98.52803100883364
84.46081386399001,242.42224604214636,335.54080590056935,87.28474873022667,193.32931043756977,60.844317739223904,65.1310482446569,100.50639388301542
83.63959100688948,239.70315856527333,331.8956905419977,86.43383728582691,191.18788221053057,60.302171958515544,64.7177412315526,102.36035562522618
82.71178596380342,236.16821015941116,326.89250064630926,85.4016879549725,188.30976684132187,59.61432059542394,64.1043473149481,104.13548926051493
81.91433415863376,232.7157540728992,321.76067009016435,84.52643764993837,185.42374151363026,58.99020562952199,63.60763128597655,105.99876050676177
81.43142475524252,230.3894355818719,318.15247772078203,84.08481716332037,183.44539812070275,58.63378320474729,63.52739226567188,108.08853025594739
81.18770032966025,229.35115507082352,316.5811720667007,83.98563501515326,182.59568437367895,58.53169114411671,63.83015075686687,110.35352739222994
80.92874279528482,228.7271195153241,315.90740883722776,83.86955313095494,182.18208004545227,58.46812642784486,64.1882945721611,112.61264180067145
80.51282534145177,227.6298496350776,314.68360191850974,83.52350770861027,181.4111201065937,58.272576096957906,64.35984884610676,114.77586431251437
80.04695775640326,226.09989518602805,312.72602670808357,83.08846265569535,180.24089315996733,57.99326567294349,64.43462892112122,116.93953127761836
79.7005303152327,224.79866283986283,310.95564480878454,82.80660440093622,179.21346024085676,57.78269424524436,64.64336241919277,119.22949094850046
79.45778060665471,223.94590964272223,309.85434206758276,82.66626610345863,178.56507950126036,57.664166934915286,65.00789145026373,121.60421149275165
79.14456154481562,222.98266022949232,308.7099877008031,82.42777523846583,177.86097192938695,57.50090591944492,65.31330503519375,123.88638925749693
78.68565117133201,221.41148465600006,306.6858098626531,81.98346871107827,176.6509085279626,57.20497575921692,65.43229495359752,125.98706436443413
78.2354170003739,219.63596226863513,304.2137886875283,81.54789880445672,175.22496555928737,56.892356057922065,65.54706612390538,128.03174179737266
78.00188296708191,218.6172385659328,302.7481818955717,81.41179518642006,174.4034984844539,56.764659630919255,65.9562425467327,130.2328451964191
78.00179855521917,218.77291133253925,303.13512488154663,81.59045285109946,174.60577261813327,56.87082838891397,66.72073511352288,132.68407787427074
78.0673421164549,219.5460622152474,304.6968192859062,81.8307867511975,175.400987765499,57.060071086414744,67.61267756714359,135.32765250218011
78.0687421848951,220.12044762717898,306.1011907793757,81.93810322531918,176.0578296400098,57.169620660742005,68.40605263756002,138.07872049090938
78.0260481635268,220.21564365714343,306.685132792953,81.95316402797785,176.26557639261483,57.17673681512282,69.08865037219489,140.87477757718074
77.96521766957991,219.918298598972,306.48142298398375,81.95284862643797,176.07786356685912,57.12116722165752,69.72255878486983,143.5660993562959
77.76771818758407,219.02196828106725,305.28580058973847,81.81541447210152,175.3644400256017,56.956141421711635,70.2172645574922,145.86333365782085
77.29964847258942,217.15287877958252,302.63761341296936,81.36862552429841,173.84648591008042,56.60398993206398,70.43100966324944,147.55715101689805
76.70689585156903,214.80991790339718,299.2413950424841,80.78602903479785,171.93189938698924,56.189505296310124,70.53710339306869,148.86782822423407
76.46754034179972,213.87479029869232,297.8859010527941,80.66754369128539,171.19415413312552,56.11214562683961,71.1326158810161,150.52082789137629
77.03025585883009,216.41924837520136,301.8723795749573,81.5587333425816,173.42863995762286,56.752180202490344,72.79416268619066,153.34670945936685
78.36091038072476,222.61950353866277,311.7898359720092,83.3545005684657,178.8604601652466,58.051026133245465,75.45652680948265,157.66389608526478
79.84781990545689,229.83293946243538,323.73838684859373,85.2131190576505,185.25546756735724,59.40065280287438,78.2556023991663,162.90588512163455
80.6386215455307,233.84977355262774,330.96796556578147,86.0617383224515,188.9259014862439,59.976300909881566,80.00954779494904,167.73251083913516
80.10017266949129,231.33989864347294,327.7928446369812,85.22122986726896,186.88628528105866,59.234619015233875,79.91774591089244,170.55339924293204
78.14272337997315,221.88707549490073,313.1690839413474,82.76143169663276,178.72127074266433,57.25149613099412,78.02692262117749,170.3056571069519
75.41898629793167,208.939885532296,292.45092783101234,79.63100165600177,167.45291383041396,54.82800325383681,75.40299619440394,167.32749012291094
73.39804597646403,199.6332134096183,277.0559779858916,77.651276574552,159.32777950393137,53.39917514697266,74.06698829058989,163.95158496473974
74.02184788234116,202.8180741691109,281.23605654186065,79.0641071686095,162.0482291754724,54.60557716689788,76.44366293637542,164.13995229437757
78.6464007600889,224.40361428780892,314.78274410818534,85.25617856743808,180.7591719246203,59.34946141324884,84.0021601951315,171.66155747426927
86.57924838561694,261.08688363789213,373.17811663578914,95.03726494675074,212.6697478506535,66.60806476396903,95.46466413952488,187.24341617220858
94.2377365559424,296.5516512915104,431.26061438111253,103.76104997477788,243.73120605253317,72.86893837347839,105.87092128342204,206.22975489463232
95.90730067658683,304.6824328319396,447.6616788172048,104.47861627693679,251.3149479781522,73.0210547317821,107.75943412920522,218.55798457474455
86.08989808000644,260.43231879865897,381.6746794934746,90.97653228512273,213.5941570163922,62.62731186346922,94.40277217832296,211.84383228167195
62.27214575137721,153.25061171579617,215.05879555400242,61.070588106550495,121.32061671347368,40.391737024674434,63.421357823016336,176.60246906868832
26.550970816876905,-4.855192228622451,-34.015196829744404,18.18499679501357,-14.977030643658104,9.282175991680743,18.583796604347565,111.20124581676755
-14.826250815234662,-182.01617051595278,-314.3686572469416,-29.73160980519854,-167.28423286950306,-24.493528395315508,-31.3855946013342,23.91356155294984
-53.80807447971495,-339.1405883338492,-562.0756464269658,-73.35045899426436,-301.29149779584,-54.15783627061967,-76.39296356411599,-69.32594279808089
-83.60109725147682,-445.90343253095506,-727.0610443123182,-105.49908440877958,-390.62874623073117,-75.19294771187694,-109.00199306222582,-150.6786019723697
-100.99621775973606,-491.85010042857516,-792.0669178219937,-123.41437662699329,-426.69867409050903,-86.8154073622183,-126.85290860072183,-206.96070362011744
-107.05328776081187,-487.85478165854676,-775.4026147686096,-128.99681256410238,-419.76926538938164,-91.535142152945,-132.6025665578968,-233.9165267035686
-106.16575175791664,-459.0323000390409,-718.9165321730086,-127.4854987241497,-392.3592269098784,-93.43967007840513,-132.02451557386848,-236.51253268399776
-104.096018394171,-433.8251759690489,-669.4519988376703,-125.34771360807949,-369.3740019606891,-96.3186085278904,-131.5093703205607,-225.60904578560934
-105.57169031179318,-433.36882092848947,-661.5020862514924,-127.7863365014377,-368.9089373558193,-102.26386293633482,-135.67542094998444,-212.77628467259603
-112.0156213130016,-463.0843602626751,-704.5402221241387,-136.14753361645856,-395.39561137370436,-110.7608421162104,-145.25521234606876,-205.44831484400808
-120.33556305810137,-508.3746175173387,-776.9996598301883,-146.24675268020363,-436.2694219231797,-118.3476221885106,-155.82694823369727,-204.35453882845056
-123.85197156891928,-537.6853570768436,-830.6803458404604,-149.23970042455113,-464.51709305899016,-119.38478145225349,-158.656815662136,-204.32166473925233
-115.56186955885764,-514.9103396300363,-808.584759535983,-135.6975999797458,-448.84020991168427,-108.33374106714051,-144.38849130009797,-198.04298779732488
-92.27068779471062,-417.50053887373775,-671.9737545258448,-101.17789454794209,-368.836052564565,-82.84942105070856,-108.30041123465936,-180.79550229993833
-57.088743463203414,-250.81208202091443,-423.48538022413646,-49.860037388460285,-227.56716879415507,-45.904644539448746,-54.05091374127564,-153.4512657010768
-18.526046065092295,-49.236447885982436,-111.62109691247687,6.42505173455503,-53.35791407479551,-5.3135787794359715,6.822810362714805,-122.13180106853855
13.451328826427972,138.0498018255445,188.5063410225375,53.53482197209237,111.61973635737537,29.445832650052516,59.817953205735606,-94.91333700449651
32.087353270526144,269.21931739013775,408.59992801804253,81.612612995697,230.1666411745071,51.41668694856401,94.05813154604607,-77.70999548364253
36.522904083787985,327.3129666610547,516.1238767893782,89.08368664887924,285.725090856978,58.96177364273645,106.74937017727632,-71.74649321279544
31.184388317568324,323.84054201618954,523.19150722536,82.01534151645808,286.49977448891826,55.68647675969972,103.15600060306613,-73.81602275087383
22.68466098008237,288.18840354417495,472.82373507113005,69.83208768958818,257.1238424441414,47.848490583420045,92.67193794520114,-78.70445939039068
16.417474462860582,250.95150137201867,413.6108103935024,60.4318123069912,224.40442556421556,41.084412598678064,83.82528475496483,-81.99062588350964
14.744989086292883,231.28656495268973,378.5405044298323,57.46565036515073,205.91112823186663,38.34557894941355,81.11630288176666,-81.62413972290688
17.19279845720666,233.44540014499105,377.45032724426477,60.47758842563049,206.31685231543744,39.7272276778543,84.72178066709529,-77.8740184104654
21.751245737628143,250.79075524824478,401.91930725699353,66.6907434085263,220.46389907810854,43.55178823123226,92.09956103795312,-72.32687148608917
26.19420342812732,272.3848797642714,435.34307532468034,72.89486985016376,239.01507869176308,47.66752889192426,99.94509041475929,-66.80921306105594
28.961305428284714,288.61578680318013,462.1365172978005,76.75752664126668,253.45837389548117,50.40133677772982,105.66664690298963,-62.633383612864904
29.634144406223086,294.8344496534386,473.90568117859294,77.57260231172148,259.4101148559048,51.11652149100806,108.28010255203623,-60.18084801678802
28.975719101462758,292.67331870285295,472.0151536548995,76.3797692142241,257.91641226246,50.35743970805523,108.6481595705345,-58.861815730959194
28.391928024153138,288.3998287770079,465.6060637617935,75.2264830851857,254.20890858599432,49.44097378713443,108.8334860001613,-57.553691359464956
28.998814106588707,288.6598440685871,465.32102260492564,75.81019914334529,254.1271234173064,49.58935620865076,110.73761458697672,-55.35543656115747
30.926968916885844,296.1142830880958,476.2212488828365,78.40806802784614,260.2507590573623,51.1449967887015,114.88312238021055,-52.14773214802009
33.39034825719159,308.04554741763764,494.8073796880719,81.89501738177115,270.44908468095576,53.44496588319105,120.22116039103304,-48.541126336749876
35.36864308737509,318.67815337819485,512.0217377356264,84.69455517179043,279.7117161923817,55.379203199256736,124.9850631253823,-45.33410448035186
36.25725166573606,323.01640577242927,519.3765886835658,85.7637481659065,283.5214596830393,56.10363336001888,127.78954978539383,-42.994047357622684
36.07626021654484,319.56427967537365,513.8774298924751,85.0003462381543,280.4084461214937,55.43419450609505,128.27900471678484,-41.488798771920486
35.399780377849574,311.22292883829266,499.93075551094813,83.24630063052102,272.86089744224546,53.92254543910806,127.32327978539863,-40.349441057428876
35.278403078489205,304.9441983809488,488.7872096308779,82.2243443792662,267.0026407463785,52.80656140948368,126.99434185317861,-38.75154850171185
37.007505313883144,309.8329444686107,495.32984422049196,84.157779810296,270.87455198677594,53.72555582186951,130.08053223820772,-35.71827884106858
41.39750776783803,332.54936539686446,530.751187972919,90.5628365850814,290.4290135897413,57.88836239096823,138.65324813137002,-30.692519345555215
47.72677322670727,370.77652428522316,592.1509862356019,100.50242599279277,323.8410722079817,64.83340312788566,151.98218897342798,-24.321453959423476
53.24919733733335,409.00517806241754,655.3700581929954,109.65944576359486,357.70974725228143,71.65156780638094,165.2491011095108,-18.78119047272276
54.019106231796194,421.5772935127266,679.0516372987946,111.4854930820841,369.5023080190005,73.6103182580748,170.56986515833157,-17.08060325968736
46.78218295513613,383.62366448194257,621.7997751524057,100.17857918550968,337.0434466477785,66.19605873229105,160.34772276391436,-21.580402074915416
30.743396060558148,284.40586845744326,464.35179965400755,73.73199788801604,250.42986181252851,47.46473556879044,131.18491695978588,-32.672747736475046
8.088421144515234,135.0504601785688,223.52913504634992,35.20066381315191,119.21888878151567,19.29525838221897,86.06758484190154,-48.47879981959759
-16.94067184680528,-34.147498860929915,-51.05702565242675,-8.410275431124251,-29.69774186686619,-13.130661638162634,33.62074775895115,-65.66980441500571
-39.732409747986424,-185.50471353283154,-296.35005004643205,-48.83039242697468,-162.5893316254916,-43.24314827494657,-15.097588934048984,-80.8181468737969
-56.85252380061519,-288.68390467166313,-461.1299848155063,-79.39129558141437,-252.2538632111726,-65.39174279229582,-50.65581466171027,-91.53023271071271
-66.9052170600681,-331.43409962260677,-524.8262440596882,-96.96425136390155,-287.8049195107,-76.59116296580697,-68.40512943467449,-96.94214309537723
-70.66626990924527,-322.33547862152164,-502.2796660361621,-102.54297003146281,-277.090553618085,-77.23357017689756,-69.65915441382465,-97.6207998009771
-70.69790391481268,-285.8350592291317,-434.7914384644264,-100.60159770088525,-242.03114174386755,-70.77842478181223,-60.781670785932825,-95.1608648765116
-70.51927095741767,-252.48773023354545,-373.14424510111525,-97.44088856626722,-209.75221926667157,-62.57484002743422,-50.65971781904082,-91.64497615414207
-73.18580048152266,-247.33539423889647,-358.56023579302916,-98.59148959469464,-202.40521117287216,-57.889646083125626,-47.15224779944542,-88.86557517913567
-79.38119262342389,-278.8121157566388,-405.7075722874948,-105.68249577298026,-227.76192180350944,-59.41627467679484,-53.31282914343568,-87.26265928282919
-85.91818734025567,-331.6289966981048,-492.17659513300674,-114.17261502707316,-273.216572712532,-65.2228416307144,-64.84812118913487,-85.04463264058909
-86.07315887087624,-368.57295802330646,-560.8335033874627,-113.95504770287538,-307.0900809329453,-68.62413246370507,-70.69366261708629,-78.37984545125833
-72.51225501459335,-344.3806784927945,-539.8503785935726,-93.82357440488592,-290.011735414236,-60.909108841509166,-57.63647728492789,-63.181321500551945
-41.80797047387105,-228.4418259068213,-376.76589791596695,-48.26344944753427,-194.0871227390896,-36.15248319740043,-17.550887154818348,-37.883056550191704
2.0123377800772104,-25.755555059471945,-71.86039297392357,17.188975690974246,-21.27943192722503,4.382224860633039,46.4232930252058,-5.586915704989073
47.434369075519115,216.60168535873365,308.56892184409185,85.75292687941278,189.91365179348844,51.06041998666935,118.66629237967749,26.03971500622334
79.66870798385266,424.1617380617856,650.955522092605,135.48281828079502,375.7969237764596,89.16606314334634,176.39378377491764,47.55404506042995
87.27357350479511,526.001371335625,840.2169734270054,149.00329320418007,473.45949418498225,105.33312651166642,199.38902388874672,51.994040452635275
67.68928189334174,486.9003402536465,811.0322212974983,121.80969378581717,449.0154311277153,93.79540576505916,179.25534645635557,38.31204722123087
28.571416012825104,323.7005661938516,577.9395319039196,64.5238642964719,313.28811012675754,59.0511051018995,123.24954142962306,12.00010483361233
-15.859360088670009,96.96756374343792,227.98623425749878,-2.1759679283257465,116.43665025429478,13.531564273061665,50.674014453106615,-17.484487490965595
-51.38732674647503,-117.30768619253477,-119.88913403083512,-57.0817655283803,-75.41556847415728,-28.287926218729883,-16.047840503784993,-41.00776079456813
-69.69044260332645,-260.529525023752,-366.6540803604699,-87.23829841128749,-208.81901202736404,-56.013579697884914,-60.71589695069126,-53.378893236185995
-70.62851370409845,-312.12512897599083,-469.61020709067293,-91.64405033876965,-262.2699009622034,-66.58663197327864,-78.4653578134357,-54.54713101251136
-60.32919473095103,-289.56684077711617,-447.7637118107693,-78.81444081128379,-248.00483346513252,-63.55549341586631,-74.86343599496634,-48.23103230230292
-46.8567962620568,-231.45446228947034,-358.85721510422087,-60.62759514340652,-198.52097372460435,-53.61596047796513,-60.69552083755802,-39.27927470035551
-36.234359309425344,-175.57127784651976,-265.0576632666775,-46.40848590570799,-147.6047380671597,-42.88568467564377,-46.06597930510459,-31.445027944683883
-30.743766812798203,-143.82617752435638,-206.54058301042454,-40.12241220006686,-116.36265394262712,-34.868860263059126,-36.85563109480607,-26.516866855111804
-29.606956843292785,-139.19023893582843,-193.1415335799215,-41.00333397198759,-109.3646801780942,-30.48974206032106,-34.356379257525425,-24.631306935257378
-30.777620280341594,-151.890008304157,-211.88312062848414,-45.95008496878634,-119.21213078223622,-29.23702430357845,-36.90408427401002,-24.993810559507633
-32.45791235537358,-168.47120468739416,-241.08434508155327,-51.77091534369648,-134.26635764037712,-30.227974269179263,-41.8242202228515,-26.442956738163076
-33.74047945272026,-178.70041020050098,-262.47305254296924,-56.37879165017995,-145.00322804728714,-32.664333257062445,-46.75388087024802,-27.819074637699174
-34.52991524861146,-178.57263468316884,-267.4431673056763,-59.035957349224006,-147.14219627788856,-35.85144492274372,-50.267691041550854,-28.302770477626186
-35.11827351351044,-169.89841691454563,-257.4552974010672,-60.02095714208228,-141.68976945048706,-39.12293795927837,-52.00020245012679,-27.67838009537319
-35.69513568062566,-157.64071568083696,-240.19792485602403,-59.98175318160434,-132.78878355985788,-41.814999130364065,-52.36385325606984,-26.295847617316323
-36.02801591584196,-146.51175450783546,-223.91889756881648,-59.27658066666205,-124.67086607374164,-43.302187212471146,-52.020336250277616,-24.68540164392149
-35.528214386108175,-138.62674997474255,-212.95388863649842,-57.715143590306816,-119.35898685545676,-43.13536146160088,-51.456457335643556,-23.11924948899689
-33.69302727877777,-133.40403323341175,-206.77457059593561,-54.884465000460594,-116.3365025202347,-41.278402863643734,-50.93848830163693,-21.47536214873063
-30.56676094227677,-129.23524057683767,-202.3572160416464,-50.717512284599465,-113.95516205134935,-38.25546191854513,-50.71346217188217,-19.4530599874914
-26.78705374462817,-125.13418481665121,-197.24609485529936,-45.71814963038429,-111.05902164482012,-34.96535953727936,-51.06701211745457,-16.879853117779703
-23.154452344494594,-121.01389039846566,-190.7690111515227,-40.63780028888462,-107.48066897415069,-32.19201580958854,-52.09365122521299,-13.860509775193373
-20.119587086700587,-116.92021304651614,-183.24615990297795,-35.988621460046915,-103.4684146482456,-30.189598131813657,-53.48149470465011,-10.748077726002007
-17.623399232440107,-112.52412490444807,-174.95095990152873,-31.88717871882408,-99.1045607596964,-28.70996772795925,-54.660622156259166,-8.032981452943808
-15.330300002000781,-107.4650466336085,-166.0773525552005,-28.270164633745775,-94.36872642404944,-27.42089771799295,-55.22885316466906,-6.17200575626514
-12.938419705998568,-101.87737429473653,-157.18346963545054,-25.1147791558055,-89.46310565416647,-26.288123746590298,-55.212322566331984,-5.343001978580902
-10.30659158762888,-96.28087163049972,-149.0115131010355,-22.413298209600775,-84.75858513098282,-25.574119306571223,-54.90562800980389,-5.242581330295578
-7.438308440820934,-91.00505787688134,-141.75645239245085,-20.053383674113956,-80.42620854256627,-25.5207856626388,-54.52329268708941,-5.144316239196027
-4.485012931250446,-85.97380914895574,-134.869574757469,-17.866397375904672,-76.35248786987145,-26.05708411620813,-54.06427364192686,-4.276196516477615
-1.769490310133768,-81.1158498342332,-127.8196310742195,-15.811508623118671,-72.51743932088374,-26.761175627074937,-53.4664310912888,-2.2716020590597035
0.3101326783457299,-76.74965192443119,-120.85840478166938,-14.025302952027918,-69.28081449425251,-27.02964649033399,-52.767519231048155,0.6548297204423044
1.5122368835346796,-73.33041218886348,-114.74665051376607,-12.640413903172602,-67.07395811518045,-26.297440634242058,-52.051074876639575,3.9153392148295376
1.919331875610423,-70.86653253693045,-109.77492371051946,-11.61374380878954,-65.81173852040807,-24.242930434189855,-51.305865222468775,6.917303741604613
1.8594773943783696,-68.80451643923135,-105.37553332457786,-10.815913938303813,-64.79614559795236,-20.97407006021966,-50.463385252718375,9.285583903302957
1.6625152596569754,-66.5564005408943,-100.83722625012126,-10.281932637974432,-63.312045887979934,-17.106398348373244,-49.61747726749846,10.84629287451103
1.5059897264619746,-63.977799539294764,-96.16368049059338,-10.281934854624748,-61.24131146899275,-13.57885093147907,-49.13973207820461,11.516790466889947
1.4654215265367454,-61.197509215088964,-91.94643877326179,-11.0770457554928,-58.994063076876266,-11.205702797905184,-49.487418803621296,11.266575170943403
1.6178356872094757,-58.114001202935114,-88.45884612161362,-12.620128098049326,-56.90689244661646,-10.23465631304204,-50.85761941153379,10.165997298824239
2.00314187820603,-54.34012026967179,-85.20159003306227,-14.53626337847639,-54.87407129480503,-10.252564747753063,-53.01610377506482,8.440894698838093
2.4701410986944294,-49.75040542327487,-81.49294134047429,-16.387626247408818,-52.596485949568354,-10.516501040590063,-55.42031933363695,6.485060954683218
2.618559889819615,-44.92416424835106,-77.30921283151554,-17.92326310254405,-50.022917385253436,-10.439803678698992,-57.45815844041398,4.833548166553487
1.9564411571851488,-40.855838075030675,-73.3103117145135,-19.09859250742586,-47.39527740706207,-9.879461842681764,-58.60527618948272,4.071148031619634
0.15609865458434435,-38.215549757320694,-70.11547184944429,-19.956335115531857,-44.92735710380361,-9.093397109022323,-58.51628928434178,4.623555322403629
-2.785552034597526,-36.97104265798521,-67.82648353102512,-20.565226018237762,-42.6322687864923,-8.490353230491532,-57.157991092251805,6.477730502304722
-6.533455437082896,-36.66540501151085,-66.30442083837731,-21.023588635215855,-40.517199224951476,-8.356609880719764,-54.93193407989114,9.036682871453989
-10.467462621442808,-36.83472954372185,-65.58247892858901,-21.383676870787813,-38.771840822267656,-8.666971481375684,-52.58868251809376,11.310888386075606
-13.773464697077506,-37.031286210876736,-65.66224142630638,-21.48770713230649,-37.5711391068614,-9.038972817742492,-50.87668978724181,12.405407866483099
-15.647827524167878,-36.627246404400736,-65.9558756924327,-20.925817882171845,-36.707889854237884,-8.882332349518027,-50.158173677738084,11.997258936637728
-15.624071032547002,-34.9493834016417,-65.31193972005417,-19.271147020107453,-35.60200088429555,-7.7167016247063325,-50.28938014183326,10.492379895894574
-13.833387892519484,-31.792330368978547,-62.87257313391,-16.43176515953489,-33.7885621833823,-5.480852877634491,-50.80483834768278,8.808727204198508
-10.959828819238504,-27.704025247873048,-58.85165464485086,-12.782907303348516,-31.341818457216775,-2.610462343875382,-51.17946186805921,7.976676410018687
-7.879828977302877,-23.59738722053529,-54.29619935570497,-8.95646116732281,-28.729563352267412,0.17175080954322836,-50.97377227590806,8.765931645488141
-5.256248529330594,-20.05743731532041,-50.09531441525709,-5.517866997276869,-26.288131710249388,2.1798063180685565,-49.894719841933735,11.420921950209422
-3.368494676818746,-17.09721977002489,-46.37419282297091,-2.8226689899842743,-23.954045166047276,2.9818818694520157,-47.889185277400244,15.527649097703556
-2.199668398308223,-14.543913679725874,-42.839670450551566,-1.0702461826842584,-21.517543351914284,2.457041900412693,-45.23543079344779,20.080477529126558
-1.5865140944741942,-12.46764893993171,-39.4383752586467,-0.345088099190748,-18.998563439059765,0.7909063087399563,-42.473734437336475,23.80667805147886
-1.294274628381121,-11.107913015080008,-36.444029991892926,-0.5408305649631021,-16.664813732008337,-1.5277703356504684,-40.14441793173687,25.65448071688352
-1.067124718874108,-10.498037291104547,-34.02514404691847,-1.310701647949277,-14.759317962437875,-3.7821055885508104,-38.529530838967545,25.200053095454777
-0.7411616161058534,-10.389872598475806,-32.07595955313184,-2.204335712642874,-13.379641792405303,-5.25194648373773,-37.6061382835044,22.765612830335183
-0.35688772985774503,-10.606117979819283,-30.608829048532378,-2.903826209302372,-12.647145623920885,-5.504706116056436,-37.18056962059858,19.239394389710636
-0.1185877790885467,-11.296007485114059,-30.058230119427147,-3.3139016483344,-12.804191314731305,-4.5478617415363685,-36.99466939974897,15.74389027911799
-0.18608548384980517,-12.677327777414288,-30.85656406776284,-3.4306392981231446,-13.941895760274555,-2.739316627285932,-36.70967578467018,13.290466681991479
-0.4914623523902188,-14.576876533647653,-32.66837370701569,-3.194705338606478,-15.63398723127516,-0.5733975487872154,-35.91096697721841,12.480062360234108
-0.7722431444997622,-16.41156522104173,-34.29077977537629,-2.5476481777656437,-17.016991071624183,1.4572148644067098,-34.292731526899246,13.306291846942436
-0.7841819197853798,-17.698465256680766,-34.51042959418158,-1.6275729324069725,-17.37859742617215,2.8670738063440746,-31.93106567835374,15.167979594747855
-0.4743072789268302,-18.478153435272215,-33.03483953873596,-0.8345425055298359,-16.679959962279927,3.1729688635561812,-29.36603242819046,17.152511094853303
0.030376471203524102,-19.135887171498688,-30.524319611643122,-0.6384580046403944,-15.482659744820596,1.9978953368518222,-27.355062333168725,18.46959136157219
0.5476762456523334,-19.878144968117486,-27.851413076361478,-1.3056093314565487,-14.433516417996259,-0.7500857732364504,-26.47717500438544,18.77076894662118
0.9249834880204635,-20.53279934952327,-25.552916798238275,-2.7951161646522755,-13.904827552528863,-4.754484504577436,-26.882732895518586,18.16941481170975
1.0490727414857701,-20.86250181348224,-23.970532041565075,-4.850081156781451,-14.059296002546871,-9.29161110668743,-28.286069879895425,17.024222228130274
0.8646238373988687,-20.89415392334592,-23.546092254870118,-7.102041909409493,-15.010552093189755,-13.327664791404988,-30.068981918693385,15.713529139175424
0.4337673555158918,-20.806514410487015,-24.59806145307073,-9.085012299742322,-16.70577658905226,-15.69375465402529,-31.381590462784825,14.555574068352108
-0.05507361668634436,-20.590029607529583,-26.800401175397162,-10.269602301423541,-18.682534328258335,-15.388637256604888,-31.304559933718405,13.841162178991016
-0.4049575542505946,-20.03229366168526,-29.185778586877362,-10.24499710821941,-20.160769472964034,-12.006197536080622,-29.164512671614457,13.859677483428031
-0.5673584283640802,-19.106891640894162,-30.890295458367646,-8.957051845612575,-20.546815609432535,-6.0901841516481605,-24.892876275121747,14.864459197168562
-0.6648578164595688,-18.22539032846917,-31.84431987292573,-6.76773625012757,-19.856698465028714,0.8888279074185054,-19.158569952890396,17.002444452012636
-0.8410226364169053,-17.937710636372486,-32.60511708726319,-4.257880230645078,-18.603630070939982,7.053182302274643,-13.13450222063744,20.22892299409348
-1.0995746538285758,-18.391601430648137,-33.58185740428383,-1.9627141752484727,-17.31670645669054,10.889744593947292,-8.050902590900254,24.20694598746108
-1.3041072786423697,-19.201550387590512,-34.62558981569914,-0.26109633259527704,-16.248803105936226,11.832076887108217,-4.808882078168139,28.243683888513093
-1.314644792658731,-19.862277996544996,-35.399810961318565,0.5929132427393079,-15.497673680429555,10.364064246134506,-3.776787573915091,31.387220967408144
-1.0900741939915284,-20.168004132096904,-35.90240401221629,0.47585403474213667,-15.19862821472728,7.681041300278909,-4.7195705720118815,32.75066721132986
-0.6642121052632916,-20.16733628016962,-36.39909094353409,-0.5030973866645891,-15.431167284554778,5.143696302408666,-6.844249901252856,31.93111547433787
-0.08012700800576168,-19.864623985296824,-36.946545796481026,-1.9644608670097339,-15.99895675374338,3.7465786124676836,-9.062494635855053,29.243241451319154
0.6041749194313064,-19.206063979119197,-37.297769760207856,-3.4272317972830306,-16.516819533039314,3.745741136026366,-10.492255598419758,25.584970854067603
1.2689733369471117,-18.412005593500876,-37.41580400196639,-4.5688221286427835,-16.840209889458702,4.56982929591347,-10.941735945570608,22.032543072058854
1.7684343442377854,-18.126930746993448,-37.882129304240785,-5.316019710705792,-17.340534317983945,5.104239972487461,-10.986526788509263,19.446437846596403
2.0674109780213765,-19.019226370241206,-39.52973854264438,-5.69375926484246,-18.630732937538436,4.275310789435028,-11.516133555837735,18.28498723107848
2.3344701159450167,-21.19238686516826,-42.64775105859017,-5.648530928535655,-20.995614282872523,1.646334532980866,-13.072668074276244,18.60096638949535
2.8577970509296264,-24.07281135775293,-46.70465295404613,-5.07754703787875,-24.13406754046776,-2.3088664070439195,-15.468362431399807,20.096719179978912
3.8402855579229476,-26.88269263416746,-50.878961411244575,-4.01544408132936,-27.41693515372322,-6.383202429318146,-17.894570249923586,22.200782805573347
5.258186656163568,-29.12831346837951,-54.66509673485132,-2.7266796315333743,-30.26067871907949,-9.122908855921745,-19.34683837072255,24.22546936938438
6.87702902391494,-30.632911629382008,-57.841045482923526,-1.5836360341761417,-32.21328345223528,-9.38213245134301,-19.068605272055255,25.611486172946165
8.34581657349629,-31.33443386575953,-60.088998181110675,-0.8832242272940651,-32.88615587244263,-6.77400912489111,-16.85616395648257,26.1353705083219
9.268820109342535,-31.348743952867142,-61.09493851941047,-0.7962336384313674,-32.124622474211286,-1.904623157312456,-13.184971823862673,25.939706387660355
9.283303552202268,-31.267519623113476,-61.20443384732153,-1.418603672728824,-30.382872874378943,3.7415460445990103,-9.091379175154,25.384304144856113
8.22388184148216,-32.10793065167121,-61.706124030501634,-2.7436096843230056,-28.768273169772982,8.33887759691754,-5.757271229368743,24.84506702781408
6.314677581076643,-34.63752267571963,-64.04460876626362,-4.526067363584716,-28.437067184384457,10.515379847192905,-3.9451021396161927,24.569729928726478
4.185372756207827,-38.64846051078888,-68.58150839738383,-6.245458232783053,-29.787467846000844,9.988510429995133,-3.635386176067797,24.604314573724714
2.5987812210471017,-43.00034180515316,-74.22809454852792,-7.331499813177405,-32.231578332368784,7.651323390094087,-4.129387905243915,24.77933305743872
2.0503842891085093,-46.46991549580417,-79.37289085187182,-7.508650790622041,-34.75249026066374,5.059427496085706,-4.520687335073005,24.78912126648056
2.5397305894380886,-48.576944797574,-83.1139480307855,-6.944489615503631,-36.65491254567121,3.633204405301475,-4.184068674326756,24.374160102067666
3.64749221472788,-49.676465521811664,-85.63261173271029,-6.092529461682483,-37.85961477091463,3.984613820389986,-3.0339380601513724,23.4907346922543
4.779729167590402,-50.50554987592137,-87.7120485806604,-5.443299838003877,-38.746387112136624,5.62317030579584,-1.5724720559151992,22.29093377134482
5.373764026089413,-51.85434689842019,-90.28669189012547,-5.421768038072269,-39.987351635023984,7.117156117205761,-0.8138147623064991,20.886830647291433
5.019574306090292,-54.55313635424672,-94.42231304348421,-6.390315577369833,-42.505931018545844,6.68433563226268,-2.0122176135964915,19.1206657374448
3.5695383144991406,-59.336100865871245,-101.17064147366646,-8.547293971237078,-47.22612177223947,3.0571458664822986,-6.087555003644576,16.619147204338272
1.2240517279826593,-66.32981042684538,-110.84360190072043,-11.703264988317878,-54.4518214465123,-3.742202978347045,-12.93204956872958,13.16094493983158
-1.5394617152798111,-74.65445667276289,-122.32544635004366,-15.198613092900716,-63.36550694391972,-12.18529925641899,-21.098082553011597,9.065673825515352
-4.2372642365410425,-82.77884589731836,-133.45726326658988,-18.17041076659076,-72.29423313135936,-19.81521819896875,-28.24685135643397,5.255127481600494
-6.65745474770227,-89.46547870717475,-142.4494381988124,-20.005332267549605,-79.67079219205169,-24.357728678289934,-32.18201688405338,2.897421156954641
-8.891396784751105,-94.39143013608471,-148.98596828901657,-20.59841118112487,-84.84863748921451,-24.747398205031697,-31.8378618325689,2.848668770197363
-11.10886940379537,-97.88421514312262,-153.93958985666927,-20.261414652610664,-88.10413042459727,-21.543708298655165,-27.683563305367592,5.193949963400963
-13.342010745410535,-100.27015337610435,-158.20990275516488,-19.494945283788944,-90.0791985651233,-16.629993535700834,-21.47318601739108,9.085038092858529
-15.501249525750298,-101.71520342886868,-162.11073989899475,-18.875756168776384,-91.41348118284957,-12.43409010965724,-15.594408536918548,12.955753504989534
-17.53866594804175,-102.6443365974415,-165.81163516142828,-19.009865830055833,-92.80666374618377,-10.992463506347704,-12.253104971863376,15.104957255009872
-19.499294685968767,-103.9499539800631,-169.86727072014418,-20.334593184416203,-95.02222308105269,-13.148825358334477,-12.662349556737231,14.467323650144104
-21.3808834346363,-106.46292667190129,-174.8516684147835,-22.794635638370384,-98.45028535025172,-18.18889906774114,-16.52054574939407,11.17289818506419
-23.00508151634793,-110.22316681915056,-180.53547930858497,-25.735572951694536,-102.64117345930894,-24.154972204464926,-22.146387692071336,6.4850941473800425
-24.102419474358598,-114.48286566133513,-185.87940781798346,-28.255537783368762,-106.53250909755188,-28.784020896608595,-27.343468435501734,2.0747048262525527
-24.533645809440817,-118.5111891359035,-190.1233429364733,-29.781140517257732,-109.36214287868324,-30.597216372632992,-30.51648152543761,-0.9039002960438534
-24.394296108763427,-122.26800200012259,-193.73165235151325,-30.365421975657185,-111.37708757221522,-29.52074648373037,-31.318206974271565,-2.3041742334656528
-23.912028095234728,-126.21155802070395,-198.01144787656042,-30.496651569990586,-113.59899624467674,-26.736188489960956,-30.492525611064096,-2.7896545447893386
-23.313214204837692,-130.62614954830423,-203.8497081325173,-30.704419732334934,-116.95185645525315,-23.97577521514375,-29.219387176501364,-3.2410767761016674
-22.833854669768265,-135.38464468654195,-211.06091446703493,-31.351481543345663,-121.68287564538954,-22.734052243066518,-28.511188258638477,-4.259214874677062
-22.790892288449623,-140.32230543523917,-218.9238315063112,-32.64294166088367,-127.47147544964908,-23.722482036993263,-28.9077990766382,-5.988197879153385
-23.496476134969267,-145.4856723177274,-226.9148260382937,-34.6013552417842,-133.73467839937143,-26.639696679430788,-30.358524570280682,-8.14759725574565
-25.007242695215652,-150.75898454077364,-234.59220806998107,-36.92835559550306,-139.61794615802867,-30.268037939354766,-32.20720872781843,-10.127773739880697
-26.982453079221624,-155.42946086217844,-241.0623251996739,-39.00612726918267,-143.9374230826239,-32.95703461961238,-33.43058002893349,-11.180523040026733
-28.872727608531786,-158.56580513210113,-245.27368047640988,-40.24200483992608,-145.67074764733218,-33.42914003090407,-33.22158279845151,-10.76665795826636
-30.297637961646746,-160.06127140350773,-247.24128239336775,-40.5248033518919,-144.86145024995102,-31.53086886751611,-31.603730442499444,-8.912336323184615
-31.245900064306056,-161.1487273404483,-248.72083709404137,-40.325356919925625,-142.97200187106594,-28.414992203856123,-29.538235246285826,-6.281253870950598
-31.937189357894354,-163.62003351653075,-252.15228158697033,-40.309581033074195,-142.05746405748536,-25.952282991103882,-28.345469131663055,-3.849570987068958
-32.56087122625487,-168.45754074154283,-258.7176212506677,-40.85854243361654,-143.39088542671348,-25.71887996877065,-28.882581836574914,-2.4095974515956615
-33.185468014591315,-175.24904216929022,-267.5145596103244,-41.95005165678558,-146.8031356734318,-28.187339144904318,-31.110316125336173,-2.2478882494181676
-33.85264459529855,-182.77494917168247,-276.56658551477136,-43.39434330283827,-151.1876002822658,-32.5467539015521,-34.26041524754571,-3.1454318132495858
-34.6395696979714,-189.8564909776058,-284.3233695736612,-45.05052296356327,-155.4045437234822,-37.15684786535397,-37.31741745865481,-4.606843691899131
-35.595591972523096,-195.6194114152415,-290.13411079067635,-46.828078802800555,-158.7163508694344,-40.370374815311294,-39.481933783847495,-6.179241404517343
-36.71196477230201,-199.48612376429247,-293.94209901975313,-48.67129224911792,-160.83958327788443,-41.38540653348486,-40.537053772742404,-7.768923538388837
-38.05320948818074,-201.6425276497468,-296.49642160634755,-50.71684302247959,-162.21270093503423,-40.747204001641386,-41.08442921165416,-9.805399098029042
-39.87864430779917,-203.6970116569554,-300.11537172556046,-53.40681163049366,-164.36640736045547,-40.13102065541168,-42.39867257272491,-13.027735087748876
-42.468288745501866,-208.27044027609912,-308.3176189576282,-57.18115050159528,-169.46463021073666,-41.33851050020327,-45.67768341443036,-17.856283357251108
-45.689750029851716,-217.03354575201197,-323.2811821385461,-61.83162073716164,-178.63306108960785,-45.02299519523301,-51.006220919703466,-23.74028865911509
-48.739119156116665,-228.62213560132267,-342.81423730280954,-66.15632869917225,-190.24377272794592,-50.032047677107094,-56.865838445158865,-29.08362514103127
-50.426810338857194,-238.5501847628385,-359.9719496497412,-68.44273461773105,-199.94300840323476,-53.92790284454907,-60.781456824817916,-31.988114207472233
-49.878861494010586,-241.664797075944,-366.53177992337527,-67.55538417614059,-202.90734285835794,-54.390944247526676,-60.77799081208309,-31.377953199150298
-47.156767132721654,-235.53443167636547,-358.22707443140706,-63.849992282318304,-196.92472361037565,-50.59341280752649,-56.65266115616703,-27.738474473892474
-43.437768505833894,-222.6610437783474,-338.43649011896315,-59.347410758137386,-184.38441907575483,-43.77209705961213,-50.30720088199037,-23.0235553507781
-40.750741870036514,-210.53011109831436,-318.51488644734667,-57.17524628874696,-172.24843277135523,-36.84057969174673,-45.124709759505976,-19.871206142334053
-41.34435140768996,-209.41780778826723,-314.5696717561743,-60.48423996382417,-169.9954322854789,-33.2913024350255,-44.74301112156695,-20.539214561675116
-46.63439329326183,-227.85600464633205,-340.68958721878374,-70.8840214782675,-185.59118479896847,-35.657711466381485,-51.41629217475052,-25.860526908766126
-55.8595559565241,-266.2292756759722,-399.2642377956888,-86.63511057353772,-219.92162435274216,-43.876208879742514,-64.18248116287243,-34.44200136955027
-65.19251855028678,-311.27958883656146,-472.13821834810636,-101.60825158285024,-261.9377236367385,-54.28862794606744,-77.6876142145325,-42.520926764228065
-68.40314679458763,-336.3908376361688,-519.7408071815627,-106.45989709227985,-288.5993864898619,-60.279572644264356,-83.03031023843181,-44.984985585819594
-59.47383121068778,-310.905415781325,-493.7798885239013,-92.49912429932462,-272.5770949313489,-54.92588171847951,-71.26000651534802,-37.560595517904304
-36.05837709508219,-215.79010754697495,-360.7539102713622,-56.634188191095795,-195.76778777453245,-34.63691306626557,-38.235780640276964,-19.23224421746339
-1.6187639196472572,-56.94971753947054,-123.89249337749962,-4.330985111592621,-61.35300955613377,-1.6821974366124146,12.028378501401239,6.60075142898319
35.43944490634867,133.06423162632285,171.19418593526225,51.772535634025175,103.7874129294205,36.17802995248645,68.03655806860435,33.21541243699314
65.45992127158539,307.7677683718921,453.3399807696299,97.3094449788647,259.3077264504174,69.0492189859254,115.64201865108883,53.52836269888189
81.98951025740897,427.4656071899302,657.1498252845288,122.69387655379862,369.26743961059583,89.42520752957554,144.44748008563738,63.30306798408082
84.3818232804018,476.1491777028279,751.1480801503001,126.92604669965364,417.5128616034348,95.29017308984777,152.0820427450984,62.7575523737997
77.1679973650059,465.1881065658934,746.9970571073869,116.68122348219276,412.0082241610342,90.15180410090626,144.0364855736224,55.75146967727406
66.94506994047772,423.12177891112725,686.4639988969631,101.7501149275334,376.81513593577864,80.35668637587469,129.64970753266724,47.29414648631841
58.98769567269616,379.4336849193462,616.7108637267203,90.02995578334675,338.08220582055554,71.65231010855561,117.14735365852658,41.07376501028849
55.51921960037797,352.39074414676867,569.6789596880168,84.91739846714512,312.8799023407093,67.03571822206118,110.6597717314727,38.36973917205138
56.01636609571916,346.0212582124229,555.0489589043299,85.70464103389152,305.81243110900357,66.60703358691659,110.15767948485896,38.48419399337405
58.55576591784482,354.2824699426224,565.332936622416,89.56042081385722,312.20948651704066,68.71330551204574,113.1776976855941,39.84944795845961
61.07034792629923,367.32204495923276,585.5391743241441,93.41667627726615,323.5689712162197,71.26012484834882,116.70209874079197,40.95447334138077
62.10809041211208,376.41140867023006,601.4057268227905,95.11516243667882,332.0470445523917,72.61231435490433,118.41366673699534,40.8380314161664
61.21178680117451,376.90477982609764,604.5371214836473,93.96683105062627,333.2160241841373,72.07772250673038,117.36743873815244,39.29306416966522
58.95214066232871,369.31855157970807,594.5368447071712,90.79235705368104,327.1499323099832,70.01738247481305,114.13914000368126,36.83443277977572
56.48366637267756,358.12276094233323,577.6436146755532,87.27694098931465,317.528065667732,67.48829339780453,110.29018204529856,34.34114032007063
54.7675533309788,348.49739670831457,562.0462847741561,84.84329789809502,308.9143791593958,65.51688777393848,107.29563099863331,32.48489560237044
54.01442049761947,343.0846021275909,552.6413758796867,83.82896409917716,303.8635764390346,64.48321540161345,105.65913645760844,31.352881233795877
53.787260007124736,341.1509751423789,549.0519247794899,83.61195547465879,301.97798875584544,64.08482453140775,104.89921217674072,30.569705974944778
53.56686904736919,340.40771472768535,547.9120121886522,83.42301053830457,301.32294447740844,63.81179386984765,104.27137084674692,29.740543984663386
53.156542966498165,339.2623840385946,546.4475450097724,82.95139338002159,300.414220168135,63.39129118600926,103.40617930161491,28.740509213918592
52.60044961030433,337.3711480667057,543.8235349095472,82.25133933571912,298.85385559215104,62.810518005178835,102.30766997321116,27.627139826786312
51.904672417828984,334.72834808004956,540.0031677099515,81.34075558672804,296.6255294047444,62.08002917350628,100.99009982793626,26.41805792299125
50.99976430847413,331.0945833275103,534.6776732721703,80.12886394625751,293.5411562288025,61.146687951252595,99.36597021413266,25.06645085969065
49.94361696883611,326.53747943826556,527.8496710771263,78.6969809056397,289.6302393198748,60.04611462509642,97.48950019819559,23.618246352508898
48.98896785772605,321.9690981201179,520.7497999662069,77.4039931907171,285.630747981936,58.99577324382285,95.68935389845394,22.259750742422113
48.34455908721105,318.51624893355444,515.1519649242922,76.55490930369753,282.5312632272718,58.21629906354461,94.28784728873013,21.135447674607928
47.926301247666174,316.32448286819914,511.56461818159175,76.0394671763353,280.5459597186035,57.683220172126845,93.23318778305351,20.168542661488452
47.448530733953,314.3832336682766,508.64679305713304,75.44873081576843,278.8662180221367,57.149386224969184,92.15137756745496,19.141631096830007
46.75900142786756,311.70501946062325,504.7675169499429,74.55231803868143,276.6022306730301,56.43248595906007,90.78373597514464,17.950187722576
45.99084675961358,308.395361847247,499.8031251661401,73.53015964658691,273.755755601225,55.6063180325303,89.2574415877219,16.70507773304434
45.348584103846214,305.2921722419929,494.94302729664776,72.6786246202288,271.02023180071774,54.86147323986534,87.85798712818278,15.560731595958508
44.83085082861105,302.7534573380013,490.9201686738046,72.00785273169038,268.7619432253311,54.23950764918448,86.63367265593797,14.509356245026908
44.259742706943875,300.2478270918356,487.10293850488864,71.26772245905602,266.57947548079284,53.598727249886316,85.36418658996861,13.413908276524925
43.55477175073339,297.22615074933054,482.5784396666201,70.33517551061979,263.97730847054726,52.83871827440991,83.90693958002028,12.217745572467546
42.85842581290844,293.98358802578974,477.58969572344756,69.40603879731938,261.14541023054227,52.05702810527087,82.41932745327888,11.031293323207825
42.33863374667608,291.2844557251152,473.2689176041541,68.72394963323153,258.73099778758166,51.4171535401692,81.14451654066379,9.97658508088151
41.94796315531758,289.28118008364066,470.0443185791136,68.2307704013864,256.9256116882553,50.91517183313773,80.06461743923465,9.010815655592415
41.47886285947858,287.2517191747402,466.96827559454175,67.63132096900102,255.15531146289365,50.3741405622293,78.91011515424059,7.9779418901427475
40.841870547787025,284.54297988570767,462.93777920909366,66.78803148072136,252.82496099592007,49.67839031744056,77.51840124801201,6.819076511530936
40.184470842034706,281.4345710916145,458.1519769103955,65.90348906456114,250.1048557790366,48.927013513958016,76.0500580979721,5.651914586536446
39.688722944739055,278.7457226825495,453.8197908970955,65.24226293577016,247.68747440215827,48.29731637373453,74.76814074660358,4.610531098770774
39.32771967032243,276.7367874206152,450.5371076617394,64.77722975431774,245.85844652874684,47.80778542977663,73.6867098825084,3.666436035825851
38.913545134572665,274.81078240884204,447.5603644811821,64.24358766403485,244.1557282975653,47.30457842298402,72.56901123205309,2.6745455735784196
38.363827896134396,272.3938752362118,443.9290560913338,63.51597702870412,242.05896633715338,46.68316246099984,71.2675046574541,1.5756037643909786
37.81367837939168,269.74131068496666,439.82375414240147,62.779779785037746,239.7228772547407,46.0325089838253,69.92700493026464,0.47302078404322234
37.418505427916074,267.5377318948764,436.2477431819857,62.25935059816237,237.7236785246368,45.50104921480592,68.76862495371309,-0.5196072833141906
37.12510722857211,265.85817945802694,433.488729124589,61.8855417326373,236.17971590218175,45.073928140568135,67.75979031589496,-1.4439383829011951
36.73443926562805,263.9675457331074,430.55384844115144,61.37278547751064,234.49878979193863,44.5778068996834,66.6383607347259,-2.4412563894023447
36.175927844639574,261.29110325157603,426.4537729587701,60.61021825015698,232.15221996793485,43.91611339076911,65.27048089232392,-3.5501440106505573
35.618014497930574,258.2613697693601,421.6444662755191,59.83356344438262,229.4494310061124,43.21637614725444,63.85637038228252,-4.638582815625407
35.26032272546833,255.8803983199553,417.65655354368556,59.338703903531396,227.2528707667738,42.685340864149175,62.69808546626285,-5.5700776724487975
35.08498811914434,254.5509726999147,415.3448276131246,59.11822396760959,225.9823797724627,42.36047845193117,61.83361681811225,-6.38335238593143
34.89448184347061,253.67925609484078,413.9917492269957,58.89690195926428,225.18387748762436,42.08000895543272,61.01326007482009,-7.246554615507137
34.567579711152995,252.46407030399186,412.2759980678252,58.48974756854722,224.1363041590357,41.690564016139156,60.020315594824616,-8.252860891423339
34.175254308314635,250.7052127943478,409.62575958090355,57.977815227020685,222.5850681747214,41.19671530441194,58.88189641384286,-9.331989557870116
33.81332831996431,248.57780120650602,406.17405047568957,57.483130933503,220.64111828489698,40.663891198459424,57.705517855012836,-10.379149537699053
33.42150613729435,245.9209374964937,401.7576134198174,56.913955675353,218.19471690651895,40.055906208770416,56.434034377887706,-11.39710134671377
32.88271030016911,242.35904052674522,395.905948275473,56.104908289501665,214.95778025623068,39.290057288743625,54.93835499050939,-12.439137439924757
32.28661537166003,238.34045681997378,389.28635979025995,55.19852454282818,211.3120107521663,38.46864954294156,53.36554179134717,-13.442787336223917
31.965880106614836,235.61231166155702,384.5799715099338,54.7053522796699,208.7623313627427,37.94276392454177,52.2230611605529,-14.227828479824863
32.17505841339716,236.01830674796219,384.8567487730201,55.036532337834295,208.96726849433767,38.02456778527801,51.946342789100676,-14.723581595345047
32.75262201487295,239.52377479975868,390.43412887233745,55.98609964023427,212.00308872907803,38.6092877910841,52.35785250418169,-15.158488299418009
33.163706542468965,243.50140942078866,397.3434841047996,56.75385981983117,215.6171582930794,39.1232920220956,52.623463901154025,-15.943496531267597
32.889767340361544,244.11864879654203,399.1773766576544,56.49875104760863,216.34307846606154,38.878757500312176,51.788017572284396,-17.32978778410995
31.775715613067412,238.67640474920515,390.94073649182627,54.88222964545332,211.6016771106153,37.51795978631109,49.39973835461355,-19.176842215609653
30.092052223563424,227.29457530670487,372.2592242211194,52.23207927905182,201.34355273920988,35.2384363933725,45.78768567366901,-21.01992224261041
28.440497172028913,213.45992174964692,348.668497062382,49.467167102108604,188.6502777861226,32.790276083527274,42.02089491228147,-22.30643614334017
27.67033139857272,203.6235511860937,330.98573791038746,47.98733753236985,179.37105461003526,31.34617092856636,39.7206912696351,-22.60375037193726
28.661874231463113,205.3485988736515,332.13722471163356,49.30660018047642,180.41429839527004,32.143439928808135,40.57174275133047,-21.787116929271885
31.73782633796961,223.17103905468903,360.34080926530584,54.08831769714556,196.0364530241599,35.72467390927569,45.264126180347596,-20.300370529529133
35.90447299346086,253.16640070711662,410.116304354562,60.90125989415714,222.97307664952356,41.006891913408886,52.198368955230684,-19.335930606473415
38.62993856477802,279.98740239157735,456.9282231210009,65.7841568857098,247.66463810999156,44.933506402742836,57.04210906737392,-20.54568036752395
36.70385472325652,280.37039977964224,462.1362359374068,63.50132042616793,249.17956517513804,43.38442527026026,54.0779438801139,-25.1339359282363
27.86759892600909,233.24197662965597,389.25594405426995,50.103859351032845,208.17687228444265,33.15958877473318,39.01755468615327,-32.80834301066926
12.164095212393663,131.3227712555902,223.84509266926054,25.22843430942433,117.53720749259597,13.907753975136691,11.637983849203177,-41.43028106262552
-7.927491928326244,-12.945670362285082,-15.070339352046489,-7.395782842616645,-11.858982021216805,-11.281459417792378,-23.537030630790166,-47.839929767976216
-28.646013406770592,-171.2972706936334,-280.0930763875102,-41.55315209167108,-154.29050511056104,-37.097556848912866,-59.07469313304551,-49.48350444951918
-46.61019688516419,-311.5212855410549,-515.2128071660577,-71.22884400317673,-279.9734622156592,-58.36701798189617,-87.9473974844119,-45.85056693537275
-59.97470506941029,-410.647689837283,-679.2930080787407,-92.79651884406454,-367.46108672459206,-72.18622591450905,-106.4060127920966,-38.81701497573175
-68.5387856432897,-462.2641152289384,-760.298390841366,-105.64196881540238,-410.85492439020527,-78.67661000869015,-114.88223221716973,-31.694056048669122
-73.06304360217325,-474.996984562487,-773.7997218983011,-111.32191742445832,-418.68236291347216,-80.16736301351294,-116.75331548963355,-27.60331237751605
-74.55111601076018,-464.9987384584571,-749.6623733220578,-112.27702690673206,-406.76644956902925,-79.61289418076495,-116.14379821181528,-28.16008038855776
-74.01513871781866,-448.1054212526489,-716.9669885656025,-111.01847282069113,-390.41689762678357,-79.3058484445569,-116.20384211090126,-33.09194053454199
-72.53547127934348,-435.357214256867,-694.9351424353049,-109.79841131040594,-379.8131737946418,-80.34970554055194,-118.42795015178517,-40.68456876508978
-71.09036993397389,-431.7635063751012,-690.8563987657549,-110.2022822513078,-378.879935714791,-82.66012595923331,-122.6514905403555,-48.519895694838524
-70.08676723284717,-436.68683715548923,-701.9861703455242,-112.55902342812156,-386.10517983379117,-85.18821734071349,-127.33780569394955,-54.16393758461775
-69.1405119340056,-445.4113886749347,-719.3182585925834,-115.81512341616065,-396.45980099141184,-86.41260693269146,-130.28146987946724,-55.84255621001675
-67.5393539391891,-452.2401964308138,-732.8954693783093,-118.35947237528828,-404.3844062875295,-85.19146689727418,-129.84098138296412,-53.1216599744944
-65.04284666784174,-454.0684632626829,-737.2661546200069,-119.2617634128148,-406.93731490633604,-81.60866946205651,-126.10570180511381,-47.24161824884557
-62.225683140184486,-451.9320790735991,-733.8149277670058,-118.81723013670823,-405.09219355637634,-77.14512475096308,-121.0240908158594,-40.67697926907147
-60.06187452331261,-449.29259483577687,-728.1386146364391,-117.99874069849874,-402.16301961849865,-73.93437168427967,-117.24880470307579,-36.01175869893516
-59.271266544490864,-448.9023296549164,-725.0031907294208,-117.5710934384068,-400.91366510248827,-73.6521989066341,-116.61713119923733,-34.82381727029965
-60.08689167871454,-451.3019307844784,-725.6063953951169,-117.8028844211491,-402.0509541866685,-76.84301957096562,-119.43341993391833,-37.244113869557346
-62.45806356826014,-455.7852348316999,-728.9217233385837,-118.7842349382419,-404.99442639164914,-82.93878335544314,-124.78338990227037,-42.22054024648839
-66.18944561162915,-461.8293519277241,-734.3084262176424,-120.6125290884735,-409.26154241391123,-90.59607345620333,-131.1628944254938,-48.017923067856636
-70.78319017111946,-469.0375923285074,-741.9172215983687,-123.09171799199468,-414.6127242318163,-97.99547874979058,-136.82277540988989,-52.632488074163874
-75.33744133190447,-476.17175394156965,-751.0727895430488,-125.46281322912706,-420.22207557652723,-103.20869048936379,-140.02397985319053,-54.23475108336913
-78.87705097275636,-481.23345907678095,-759.6148671968641,-126.75958816871315,-424.5542091645515,-104.85507136138938,-139.63632929897935,-51.79972604804557
-80.89875181387796,-482.95675388069304,-765.5051774005082,-126.53814088653856,-426.4847159395594,-102.81139857111567,-135.86628062231088,-45.67679155947996
-81.54923792327212,-481.88569860511564,-768.5445131278741,-125.1564648424837,-426.26536918469975,-98.36629409172481,-130.35496489369467,-37.61078817168782
-81.26838597162985,-479.61124181149563,-769.8282698298627,-123.31208133921848,-425.02030874272094,-93.54760459930422,-125.33873657566262,-30.067558349416533
-80.38401171095818,-477.2164925786091,-769.8796624084187,-121.4737380793664,-423.4703226108827,-90.0896463763446,-122.52105433902484,-25.271840652735598
-79.14465691427692,-475.02867807658487,-768.4079335000303,-119.89315968129442,-421.65649069236053,-88.78250761815578,-122.54232105678513,-24.486558400470013
-78.0149400903019,-473.83606364513753,-766.2704914743405,-118.99191322455154,-419.978791525487,-89.46730159062226,-125.16839152641582,-27.70009642010226
-77.64548674070417,-475.44783618147716,-766.6409493308696,-119.33975069143811,-419.8534096416717,-91.35180585588374,-129.58755466119402,-33.604686661718205
-78.35477563283406,-481.1228918747427,-772.7648800816173,-121.01287375670067,-422.58993944952863,-93.30692015394918,-134.43742417238948,-39.879262557501555
-79.67172833121431,-489.3068433927753,-783.9795083621332,-123.08836236207028,-427.4691330606031,-94.19756532598234,-137.93137404305617,-43.96198076342701
-80.53098065636777,-495.4829007371294,-794.4333933882168,-124.05856993542092,-431.35783238507156,-93.39861796468787,-138.55736534498976,-44.215014911819495
-80.01609961104292,-494.8925909725753,-796.5078349005186,-122.9422731844434,-430.7025534028719,-91.26436612653396,-136.05777498903848,-40.84212552135746
-77.99858815680948,-485.9511943220984,-786.2604139343035,-120.10399058736891,-424.265012104595,-89.0734310715465,-131.81978104448166,-35.84665892394502
-75.25294106824431,-471.8294207913979,-766.7787667545914,-117.18228937081845,-414.4777071303347,-88.3606618510826,-128.26980177093228,-31.98838822260445
-73.19393766636182,-459.72831679301265,-747.9616542580352,-116.42437418935191,-406.93147000005723,-90.15906403044183,-127.80463300217794,-31.46050362513103
-73.46430750536811,-458.6838462202647,-743.6103161075063,-119.90421905202408,-408.6830658974947,-94.68563463240456,-131.9754800907401,-35.045556558957614
-77.22348954074965,-475.9456245741381,-766.0529452289005,-128.53466308375022,-425.4461104025652,-101.35713793547048,-140.91557300059696,-41.87757478030085
-83.98921800032831,-511.5292539701613,-817.7490373092196,-140.6648848057567,-457.2178734073813,-108.60580377865747,-152.56012818336393,-49.49294682475395
-90.6245439704483,-552.850517059881,-882.3704299594651,-150.98307326022095,-493.7035997551721,-113.44908807562948,-161.90673577078752,-54.1154044932907
-91.68786751677754,-574.4077902089953,-922.6788569914526,-151.29559692321402,-513.6245814642105,-111.60416670745344,-161.5647077755936,-51.574106735757155
-81.76897076865207,-546.5177541012023,-892.0723430811132,-133.9712847677153,-491.57295333327966,-98.94294626279797,-144.53241378697757,-39.03848488940979
-58.788231472905586,-450.8031207685086,-757.8278422347526,-96.59145547572334,-410.9753009148038,-73.93565448604024,-108.27933980304591,-16.86157348841179
-26.046306900450276,-293.41465629882106,-523.1849086937439,-44.70496573986445,-275.79786586757535,-39.493152298944935,-57.500414384362145,10.77818116814589
8.649794366082771,-106.44185939060657,-232.85175118166663,9.642417747767217,-112.62241733071396,-2.612662941661125,-3.2171969471310002,37.239395658450235
36.50621977815867,64.95869949812817,44.00161117297576,53.15998239533554,39.64665277023857,28.370720133256842,41.769751034963114,56.25653616710536
51.821596436586276,182.76395844050555,244.47094272396515,77.3153731492727,147.03653107656146,47.44007110483084,68.55726561115395,64.66264012908667
54.22547204242916,231.9610880278938,338.68256680585193,81.60431492940056,194.79263485243843,53.32175507509353,75.6557040403231,63.44374144630786
47.977487775607045,223.6290813734696,338.02886096938147,72.48517132989474,190.9826368471824,49.37031873427853,68.52244401461247,56.654605259012364
39.128927857588536,185.147142772261,282.5907762655605,59.14484695895303,158.73497177982608,41.256599735912964,55.85027133947107,49.04796237007017
32.49778906811002,144.95681706979525,217.87542141190355,48.96053795939856,123.13712765689783,34.0714012667316,45.16658531067529,43.91556002646463
30.103249692014437,120.9587665183658,175.17828630868735,45.10573449947568,100.71735370018907,30.492470979756114,40.19876762145143,42.22590332021052
31.399183001125635,117.24461280131084,164.2940552169938,46.84763104699491,95.99109729992989,30.623101666015728,40.80270401614607,43.107419710526216
34.50581000405955,127.7964860269735,177.85077981533738,51.38226590596486,104.28409683552871,32.97082535911507,44.54987232332477,44.938718882722604
37.44698282223088,142.72121811094956,200.7962524343661,55.721813169248556,117.09744836743322,35.6470309475187,48.55947454096573,46.27895014244055
38.92315579195554,153.48467321092795,219.06516113126622,57.89015373393408,126.80287408992403,37.22487688895015,50.75544216192656,46.34435761708134
38.621431217266014,155.88971252577878,224.87185688830832,57.398129705031316,129.4073598952849,37.15749073889911,50.43578755454672,45.110574274387275
37.12892742734683,150.72716398777587,218.29259739296694,55.10725211820659,125.2721484980944,35.79883983664507,48.240520518150475,43.14952471294851
35.470231335896734,142.23570154700246,205.32935333771167,52.53901082294798,117.90680887137283,34.04486374300456,45.56455789316267,41.24634694217717
34.461341724816535,135.10905200948716,193.45893652984597,50.920348153073434,111.43497714836543,32.74071861161685,43.656329147522634,39.94131844495044
34.29001047009027,131.8012006603958,187.20374229159827,50.55700158918634,108.1894676528186,32.21374088425684,42.9472029689938,39.277606323727916
34.605600415279376,131.84836765134318,186.51912054520182,50.94794706197826,107.9610840703498,32.24523799348645,43.05659075343511,38.92589581697752
34.9536724710443,133.2771773737662,188.55619348640676,51.414408133491854,109.09624788829343,32.41943724047446,43.342926345874154,38.53178443015913
35.107575106837466,134.44400261961883,190.55862069361805,51.5988656796966,110.1068728016707,32.46950834910836,43.4159349957368,37.94972977927157
35.05522911525947,134.71369940554413,191.26749601095645,51.46843939393159,110.36440383145272,32.33743296052247,43.20446282475615,37.20561795668054
34.81884475364989,134.00192442597603,190.44416247052874,51.05979974135845,109.76966869793984,32.03324688724946,42.73432514436816,36.34331578652827
34.4024336963207,132.33523199629175,188.11795969623077,50.39061122090447,108.34604964284765,31.559275903386894,42.01821100257453,35.380113261655254
33.88862546741326,130.02195826512337,184.70138181040394,49.58613699304012,106.34064965832626,30.977227741789964,41.15851220577997,34.379081851338384
33.46203580665439,127.84210082261362,181.31901898621027,48.91302559717925,104.40120370226978,30.448164043194744,40.39959150768404,33.46737147702166
33.2550308178654,126.58467793147585,179.24733036937414,48.56442178801115,103.22552152832043,30.116702508287858,39.94758636438197,32.72610878115021
33.19874424082951,126.30891872418391,178.78085679192836,48.44632325036235,102.9256780453327,29.960488338368464,39.75219034440984,32.08994637554749
33.09263164309667,126.28792464452594,178.94436831896013,48.27069927600695,102.91747890847113,29.811064909000095,39.55362059575671,31.407965654190004
32.82540101064516,125.8046659893986,178.56066401028056,47.8700107943442,102.5591877468281,29.53997017664839,39.16703334324057,30.606871726394115
32.475647996192976,124.86351044921577,177.44421010137296,47.34903643673109,101.79624114746784,29.184325941296503,38.65954047577953,29.755461284107867
32.177098915508026,123.98455334245678,176.3167395454344,46.90032409208128,101.054830359342,28.864134412490923,38.21281779056617,28.955961191230465
31.93983946409637,123.43889287359941,175.6994693709285,46.546467154141574,100.60203353941267,28.615234396025347,37.8734254240145,28.212588041510806
31.661758535955588,122.95888208040842,175.29964297031088,46.14673599880985,100.24329229915256,28.360492285841424,37.52145167173039,27.447115574398286
31.29493631205455,122.23978227048421,174.61795280291946,45.630006044026345,99.70507497949927,28.041491445493357,37.07377886907314,26.62523167647278
30.92448172070795,121.45957801353028,173.80663868226318,45.11293936552358,99.10263896268454,27.714853735954403,36.62089458826879,25.811066739237898
30.650439685479572,121.06770104371685,173.53060796777595,44.738860201960065,98.81572721048771,27.476988469092475,36.30465101328916,25.075909999240547
30.442517824862858,121.14983327457581,174.03760924627903,44.46953855409057,98.95451425934344,27.326143997881093,36.113916164320614,24.393186238383436
30.17411200324588,121.27549562165737,174.76640839196693,44.126411908292425,99.17873212968902,27.158064879288396,35.889119192018384,23.669260525896483
29.790883352356488,121.05841492201468,175.0678490855771,43.62800465131176,99.13771111694132,26.904055779429374,35.53348987179553,22.86883266760985
29.382114164911002,120.66591349885421,175.06097482309687,43.09726991152482,98.93298990811252,26.622017359511542,35.141014306563484,22.061999022035803
29.057952639912163,120.58312833036378,175.45681058894687,42.69292328967806,98.97270583542013,26.416396802086428,34.866712024476826,21.328706670020107
28.802622918481397,120.9633650598264,176.60356158865136,42.39846251152085,99.42416632539936,26.29860243875866,34.71952103224592,20.652547676346522
28.503654355991124,121.45412680502245,178.0630893124175,42.0564025617999,100.01490125469662,26.17875417008958,34.56066734254211,19.948451648953082
28.1122986657699,121.71913889371116,179.2742060402102,41.59388869656729,100.44020712430917,25.995972316889723,34.30358495117054,19.182999629924595
27.71116124252581,121.91840656718944,180.35818176721844,41.124351048841284,100.79908973778973,25.804256995118127,34.035255968090524,18.419967191128666
27.396966960818695,122.48215342835567,181.94829983000682,40.7865488474573,101.45451136706272,25.695858878845808,33.89258977989997,17.729668908092755
27.143291276535855,123.50216933522212,184.29453804587797,40.54759221053039,102.52024932080853,25.670662581161338,33.868605308739575,17.089568953432263
26.834446532469645,124.59183669072411,186.89751399000104,40.24456632301662,103.69251894184283,25.633962175434565,33.81868754505148,16.41430740596241
26.423908958946708,125.41236015164833,189.1852925847357,39.80776734133733,104.66276772788584,25.52619928136717,33.65860958721532,15.673305250691879
25.99928714216819,126.14229514885531,191.3041314121464,39.35849884996527,105.54456324053183,25.406134589420567,33.48160782895223,14.933622643799167
25.66610095371787,127.25072286835552,193.94397651833222,39.04925943442671,106.7322567547657,25.374328922065484,33.43542315937993,14.270007354221796
25.411607629069653,128.89377262848464,197.45102248537606,38.868025043861486,108.39268495565958,25.44355218489689,33.53067237908414,13.666885585831086
25.133348658621205,130.7578866193355,201.44109052119828,38.67179292283201,110.28471431931128,25.5323648598803,33.64151015062909,13.045704792566422
24.78600395918229,132.536169411822,205.40412738402284,38.39251132850615,112.13129636373371,25.58424052849385,33.68864068048554,12.37586478533368
24.437613935166336,134.34565872319686,209.41066224279848,38.12168616805121,114.00069725982263,25.641369258109624,33.74310083583114,11.712795313341323
24.157461631889664,136.49659505235226,213.91903639967765,37.956672483949944,116.15770302643395,25.77026335345349,33.90605459354005,11.111050280534398
23.898533238650682,138.95832124873561,218.98215955754335,37.8332137829025,118.60969433298891,25.9489279687673,34.140015221819255,10.537352545098653
23.550458700110035,141.31972218882396,224.03768533658675,37.596238964079674,121.02373485089376,26.084325700536304,34.302021952006974,9.911111497433525
23.102508207874365,143.36793312976266,228.67978129484283,37.23055469903607,123.18797487746615,26.14882961404022,34.3505102160162,9.222779314646562
22.69558689683183,145.5262699702056,233.4179581731899,36.939007079384005,125.41720369661806,26.252387274584514,34.447763597043874,8.567880911745204
22.480798107439412,148.5218784110304,239.35143526581123,36.943870682560714,128.3267633768056,26.5420818409794,34.805496133257854,8.043220421662905
22.45414061991888,152.63718218043957,247.06048056406138,37.24631914923787,132.2034666525109,27.044109736181248,35.45513070961967,7.634505741455534
22.46327994522897,157.4195735695638,256.0036510347115,37.626740309394826,136.7092959419356,27.634952598430665,36.21692491905857,7.23373293874798
22.355788929100886,162.1121096025745,265.02628357840445,37.85313783940072,141.2056377056742,28.158769733197964,36.87823979539229,6.752206562555886
22.07429053500823,166.19759280788932,273.22646671295513,37.82558000364494,145.22818388720864,28.534800768303754,37.340882801923165,6.180289159454527
21.618702691225206,169.49296694766275,280.2353383442648,37.53620582641997,148.6021049604608,28.752503681139086,37.59525339161396,5.540447922935126
21.007204825858405,172.02975803552408,286.06833190599303,37.021329340774635,151.33979811216886,28.836881835876195,37.66027323124324,4.841090794876299
20.35678353705882,174.26964099640045,291.3642457423611,36.47363914307365,153.79305622950932,28.900458807465853,37.66787078225573,4.128620294277791
19.974100581888745,177.50516030487742,297.97681839490286,36.362062704014896,156.99771176501258,29.220784704388194,37.99403010733339,3.562583299209765
20.234596104065275,183.58568560044785,308.7218586150441,37.24595244504432,162.50895094448796,30.153164420564188,39.14600959198344,3.3538465984154664
21.23893259669766,193.5709887956942,325.4999951986219,39.26869718893243,171.32414547621633,31.832353838680394,41.33551056528118,3.554276769267615
22.542236961762207,206.2191206163332,346.9028728467723,41.75722320007497,182.57208506394002,33.896392788708965,44.07996861836358,3.8964788090742917
23.268712522007323,217.81814202219707,367.58820592600534,43.38760895863565,193.24587700064936,35.53668430369059,46.26858130048921,3.881588831743368
22.60765709595186,223.95801874811903,380.63841920203504,42.92477748368928,199.58137179520443,35.93039319562096,46.761887780517135,3.087614969437534
20.379810923689067,222.3261703545471,381.8137180841282,40.08658283085067,199.39992963971198,34.802608698633364,45.15987373982777,1.4786321329385503
17.346937907346053,214.92763442528891,373.27433469259876,36.03368930567957,194.07268409915474,32.78651054232981,42.28773706269996,-0.4740390635660019
15.111580648401356,208.51859658559587,364.7068710382091,33.226031836370844,189.03320007551923,31.383319091012645,40.153723858265806,-1.8974850128495475
15.564235645853278,212.6568476976809,370.75817481128445,34.56391890398916,192.29380968187067,32.45729555304298,41.30030332038019,-1.8258191816730056
19.890477495020257,235.25392398106857,404.50762106650956,41.848728054027184,210.83187690094036,37.28737112737128,47.54744163116785,0.2949730589589907
27.38904588519514,276.5488274217416,468.20874190618014,53.973214489974815,245.53307945099712,45.40997262220939,58.4048390791428,4.0111364203798185
34.774298662029814,324.30851773351117,545.3080870583924,65.8693671582524,286.9361790945425,53.860048120627454,69.97670066683956,7.527746284075145
36.78917122747515,354.3094771359666,599.909854227832,69.44646836572124,315.1850808194663,57.59160775676098,75.47066192331661,8.098123630547235
28.380246815261906,338.53692363789924,588.0043285319352,56.88604742344762,306.4560095351655,51.401354725099885,67.80476313280768,3.2572244597361397
7.564102742803685,258.8227593412492,478.0009588275104,24.988152133890164,244.29486042190464,32.66351259727508,43.3781052884903,-7.644170491263697
-22.71236192561922,118.81988334513964,270.3720263351037,-21.975339657928796,130.10579185864614,3.329669536770984,4.856143330188862,-22.593995274692325
-55.14067863501723,-53.59413218138914,3.8915356708616082,-73.04927316593144,-14.006418578233525,-30.242846954227076,-39.04457612527384,-37.50354071445218
-81.07466289839122,-216.5042845811193,-257.61072266294343,-115.09201238492092,-153.05088319286406,-59.84846575781053,-77.09597538725252,-48.07407071699311
-94.39612525706303,-331.8380785214768,-452.05797096796135,-138.58285882157597,-253.98721991049732,-79.00526806595659,-100.53134773810773,-51.8626920194783
-93.9477734306302,-380.6788053689802,-544.3026758833855,-141.33140887032258,-299.09239852875754,-85.40644212568031,-106.46938489262571,-49.22566440561598
-83.22217711893138,-367.4661708095843,-535.5059631433595,-128.1017548182449,-290.33482630299426,-80.9008488307103,-97.87584779172286,-42.59318022010111
-67.95351314645553,-312.6067357773733,-454.0457530140376,-107.08470762007926,-243.80883084006544,-69.49396904878579,-80.72751512939841,-34.80487686738999
-53.58235533482193,-240.96961931478646,-338.1809662082281,-86.14906611234282,-180.22396518029808,-55.22417659116052,-60.97286494051583,-27.896507402226987
-44.08160068012227,-174.64001423054128,-223.8311942475427,-71.12274227647447,-118.67043340651198,-41.40737543708645,-43.38244366431246,-23.091202158091875
-41.946696693171916,-131.80008780232254,-141.93620140270198,-65.84988094105292,-75.60235906181455,-31.054070979644077,-32.01777651006229,-21.427178008732252
-48.11998584411186,-126.83353020188126,-118.71502588250277,-72.16842007891051,-64.9786930073355,-27.029186815914848,-30.36144227001536,-23.85429301903587
-61.287881539624784,-166.81944740738308,-170.52587764759133,-88.86495705944856,-95.134939446359,-31.033474686246137,-39.92186047128224,-30.40411507019138
-77.40891036733899,-245.79831855428907,-293.92683321916695,-110.77938853604154,-163.20909056041046,-42.10173117318618,-58.36772705288089,-39.29632316412158
-90.70917996014653,-343.12402921818745,-460.4338949056164,-129.92644042439463,-252.6388393373207,-56.21715242131626,-79.37396866621874,-47.17020209077219
-96.19197365040753,-430.2241855597504,-624.3513509632833,-138.8924703157349,-338.09731244477894,-67.8613011266367,-95.12225649592186,-50.66402124920812
-92.19599572334944,-483.1635238095722,-741.8696330956857,-134.55716423343515,-396.3331644248585,-72.68139713918833,-100.09774921681566,-48.312213493984444
-81.22537219846963,-493.25160729988045,-790.1367360719101,-119.59635004357001,-416.3776254185036,-69.52925524362183,-93.67775976103516,-41.383857302124376
-68.42218793049487,-468.9656533107718,-774.403330348512,-100.7209848488306,-402.744926959347,-60.62251771762964,-79.8992946236177,-33.07034655768045
