FZ,C3,CZ,C4,PZ,PO7,OZ,PO8
4.199006448422894,5.558617556793998,5.274209707999994,3.5239515376874313,4.85160238340371,3.622366653761846,2.6342958240298517,1.8984618878065997
-3.6038360642532226,61.978785369379985,33.35681743582343,-10.00488501216485,28.317709340204523,7.637093379946731,8.51862482050751,-4.962812893314817
-9.51608616662167,106.74245305575334,56.51347962440662,-19.817843276161888,47.56783153527922,11.63826414559447,13.81752653528437,-10.32386277014845
-12.065669051207657,136.6994168095228,74.52117118858008,-23.672497314908888,61.84685730636009,16.32784334064349,18.873129496266497,-13.122885531667702
-10.6264234112258,159.04997046861746,92.4464112147007,-21.58978460758742,74.44412325322102,23.00855330724564,24.95417083447704,-13.03192363532139
-5.69237410751409,185.11451636876185,116.45174978093961,-15.601969329469062,89.87058625468465,32.59240572551531,33.23245951228289,-10.496555957059881
1.204139301897602,220.88399057427046,148.07250153508838,-8.676735908249254,109.82349196788843,44.50767170796051,43.52587870961037,-6.522325211287795
8.005490015060886,261.46502318271126,181.45040404604214,-3.4284255493665654,131.04932040823007,56.44859657463593,53.837778114711234,-2.3117932345836665
12.89380196439738,293.32283171830784,205.72123826761683,-1.2338225140402044,146.70989911683705,65.28845294094558,61.13231908385851,1.0967913715652728
14.959442238832198,302.45187243164276,210.9823214598933,-2.0273004741220224,150.27913440552703,68.61133282580802,62.88719994300168,3.0761450392538006
14.457512457697582,282.7937850917033,193.9315580406813,-4.662014567902709,139.3562785537235,65.89694050231793,58.449375034286476,3.5044484614985865
12.538181764044637,239.76420589166463,159.80758664631185,-7.550367775028317,117.0956932596589,58.67462771527422,49.39709671972123,2.7163476399003805
10.590888846323136,187.4389741432546,119.82555165254293,-9.329926530434424,90.65978242752924,49.65045636148428,38.7604291203538,1.3276453727877635
9.5311154743626,141.6972300547271,85.88783396649474,-9.366844181536425,67.8253885576791,41.384223155288154,29.593572485242596,-0.029962667773357137
9.393014387723523,113.26510429037961,65.50276638191127,-7.933402087374315,53.64050311268065,35.24441442134947,23.6788985611315,-0.9745161238578288
9.435007552526391,104.01248158651877,59.36531314968859,-5.974927007428904,48.739242070443474,31.131905396707403,21.006691467419216,-1.5130846673737517
8.674323735993537,107.89549451019643,62.477316430282215,-4.580013674186246,49.94891155302299,28.026356635588794,20.22734339206198,-1.9743159874372143
6.507807366080746,115.49208551672098,67.7692152557821,-4.455318759470184,52.609072616944204,24.961130144209285,19.724156745630932,-2.772144069920863
3.0423300683817542,119.21714877307349,69.90518482308028,-5.6827571886078845,53.13836795270742,21.786104570562877,18.609614605662813,-4.134952755569177
-1.0117165960436796,116.24558360444668,67.17585485540334,-7.804776927860266,50.415019335610296,19.22854906341322,17.06020719727113,-5.936374574650258
-4.726736065526504,108.10673366090742,60.97860042888498,-10.07545006939075,45.50914838521164,18.266793637758145,15.910846338282878,-7.695882070994171
-7.343718062412443,98.27956569238545,54.01902228331958,-11.71787631092962,40.430523635349005,19.320227822447773,15.92437195812783,-8.749033348073409
-8.492278296980047,89.92197486402576,48.71367810970477,-12.15925236142383,36.91809567811055,21.835663632789558,17.25469553019101,-8.53828228844744
-8.252496521819165,84.79374982858722,46.397867478118215,-11.254271583837259,35.803491236928004,24.491673507416273,19.346379993274883,-6.918605992940715
-7.1107347471837885,83.05791138928076,47.08266982718257,-9.406506716994855,36.86750416449153,25.810184202621407,21.1932884336665,-4.320220531982545
-5.801888459446627,83.4225029001512,49.507563866713895,-7.441283704536881,38.9944461093391,24.80042109802354,21.766490842799808,-1.6369640382067632
-5.027683804619592,83.68859925628452,51.641419185195254,-6.222707044271797,40.63162591215061,21.366756140789487,20.45922100415455,0.14833744756704542
-5.148856117473322,81.87567101962723,51.69006781052912,-6.228081670246869,40.524947312911046,16.3683724155106,17.405874537956272,0.4143255287975676
-6.033977589554136,77.3790283478629,49.07082176799613,-7.3464231734470085,38.36460152595409,11.309252637007619,13.505085927934035,-0.8229699022379496
-7.17084251261576,71.18712650982768,44.59974325592247,-8.98800098701483,34.85727583067226,7.738288440107565,10.06281084859181,-2.9498399588119373
-7.959553197736631,64.92682777391478,39.778038389164664,-10.376315240446697,31.164204041939065,6.600841916867303,8.205094771193998,-5.058721812899902
-7.996040687101526,59.67989093094289,35.87695019708603,-10.848764885460948,28.200490250573235,7.8711751247924235,8.39421926717842,-6.334288262360623
-7.213039603533227,55.66742345611042,33.54026606939392,-10.08872081154903,26.334012092148114,10.654123870380918,10.310277620028845,-6.33990013887139
-5.8724776674747154,52.81381600479034,32.89166843094612,-8.267617687718017,25.521051605866738,13.649680740605408,13.091908789481213,-5.109542557792076
-4.456815725074701,51.23726947893915,33.63288575089982,-6.029302860277147,25.50362258043829,15.691389883903572,15.730707912978847,-3.0473630473686173
-3.48564582347423,51.02582139554936,34.93796875069822,-4.238342759062429,25.832592477361374,16.13696531927856,17.431473975630734,-0.7090253848400079
-3.293307686712044,51.707726886494356,35.519390219774124,-3.5545087815824292,25.877722524386392,15.052565324218103,17.860081376397222,1.4173861257853029
-3.869668613145905,52.18584231707272,34.17567844749782,-4.074993791947707,25.043078764207493,13.173478260446597,17.224798098637795,3.0204092764398904
-4.87992961865394,51.21295333345913,30.488161397075366,-5.282802742691705,23.067720560672768,11.57804890245769,16.11301324931975,3.936896407054022
-5.861831319926012,47.84165894440363,25.04001070829816,-6.321131219290151,20.098433263685454,11.102858506349525,15.105428577003797,4.074768706463756
-6.452194326783983,41.603442700497055,19.049078229157065,-6.40101375693248,16.504733697128806,11.791965617773199,14.403426009082303,3.410044166795242
-6.495808996937216,32.845570959983334,13.943485298159063,-5.146628576463051,12.770811018360165,12.811166383974584,13.772237845485622,2.0743632719334837
-6.046680506337671,23.4526351898757,11.260074529652977,-2.8212231111130133,9.663855286054831,12.986827611180113,12.849158091720849,0.4001693970263692
-5.3859280504264735,17.1531020900318,12.501880987578602,-0.4279469815279177,8.347200340774998,11.60717591561664,11.504173174662512,-1.2184550746618457
-5.094567071445116,18.245273657585855,18.359897075164827,0.4165438374503425,9.920873176103855,8.859639032730101,9.87582972091165,-2.61086279190468
-6.035722343347216,28.827081470097603,27.50760858425724,-2.021392207589267,14.434639778262955,5.572924788065899,8.048185826591144,-4.026834578458999
-9.073277176143874,46.41723289234341,36.13191366289791,-8.785623082035816,20.178551702777458,2.5261211386825226,5.7328248008057985,-6.024997739711428
-14.573167090690076,64.18435848443686,39.200312878603896,-19.501993132067287,24.10441776617874,-0.07819059572645061,2.344261315695962,-9.074936591124793
-21.998761599819208,74.21364986812111,33.09497226175379,-32.234985944282926,23.380446524487287,-2.5840770550588696,-2.521357756162343,-13.149591416454742
-29.942887658139146,71.84657080341127,17.929307766661616,-44.151653213216434,17.096132995810645,-5.407832697790846,-8.593807552876386,-17.616841195994084
-36.671159197932504,58.207087906962755,-2.145090663888519,-52.70308941927353,6.913353052998285,-8.572409071877562,-14.858469518990637,-21.522953195347498
-40.8917831720098,39.288383792832654,-20.98926035192349,-56.67857807388178,-3.816801278125002,-11.63040381328657,-20.014966678822656,-24.079772352726234
-42.297778497490256,22.36440104294939,-33.602883255900366,-56.556512523881864,-11.877116889396065,-13.9889429118868,-23.15936721574546,-25.038909391562587
-41.57568282984083,12.207765153907422,-38.349997520393025,-54.019904716525005,-15.741586372577022,-15.324634650233216,-24.219655959879095,-24.738947914223402
-39.92780085583842,9.425566520672758,-37.044479354423984,-51.00628081431087,-15.947613600365472,-15.753678134122067,-23.875610736573382,-23.84744285757184
-38.44950906495851,11.429711612726917,-33.21973075759007,-48.873878681462934,-14.285982601222717,-15.681871478687725,-23.086073867934772,-23.003635668279607
-37.72825358012419,14.70472832317704,-30.03510688093641,-48.073140403748454,-12.596361820201373,-15.530664409598073,-22.59739561527978,-22.577461907613024
-37.803821604933376,16.615256272944222,-29.118051329780005,-48.31857513030035,-11.990628328572718,-15.568613762832356,-22.725277052198074,-22.626356871355785
-38.37237648904167,16.016916340320297,-30.575721048573435,-48.988868346739224,-12.737086496186217,-15.898198545701275,-23.41913860806292,-22.991568926916564
-39.03396892479959,13.071020845093264,-33.57196618875385,-49.49102877445076,-14.505885986064639,-16.496839830064694,-24.431574207474377,-23.43419924705915
-39.47160340904572,8.844408529872213,-36.90145672211072,-49.48169513795452,-16.653251729863985,-17.240143072095567,-25.45946324343318,-23.75149018823122
-39.551447140101295,4.7903795634636,-39.47070931963487,-48.94420996209741,-18.49540033590404,-17.94353387937618,-26.254503950536257,-23.853559247334438
-39.34711772380809,2.0326242745870657,-40.74845082175277,-48.128545258999715,-19.61410659239612,-18.46341058682475,-26.725095430262193,-23.78395803169249
-39.07055521573605,0.7573435179860861,-40.99603963580556,-47.37375251064977,-20.06454899218995,-18.796139530947684,-26.976610569879025,-23.671384164326483
-38.928839067540935,0.23508705405986804,-41.01034074765822,-46.90248841712389,-20.28043738083809,-19.068802664969343,-27.22539882215849,-23.637439662835877
-38.998023306410815,-0.4920983612990652,-41.50469593963888,-46.7194600979898,-20.711726028668348,-19.418252883990608,-27.633346972201196,-23.724039299978205
-39.2064250418697,-1.9006879429148027,-42.65664182758133,-46.67015980197431,-21.516327599533266,-19.8812193564634,-28.205931616963394,-23.88929780408193
-39.422746129450026,-3.8778918644390714,-44.18662119238931,-46.58041808776965,-22.566682613102653,-20.399753949854205,-28.835803313638284,-24.058531508355735
-39.55358626612135,-6.113879442514548,-45.751803596497396,-46.35014711565832,-23.673760606268356,-20.905070085382402,-29.419010780777885,-24.175304461442373
-39.574324674551626,-8.381229366665945,-47.16320566477618,-45.96166554322122,-24.72479491344874,-21.364127434696897,-29.913783853422903,-24.21930419537634
-39.51095157198115,-10.422636774384735,-48.2863206194796,-45.46294207508705,-25.624985355219337,-21.75332629751074,-30.315011294327725,-24.205579840026317
-39.43146363659653,-11.828964255176638,-48.95403983320974,-44.97288192590424,-26.238814028594312,-22.039886335140594,-30.631225197448572,-24.18778793336811
-39.448983471453516,-12.332923272756675,-49.15934101532269,-44.66685958658204,-26.5154374678023,-22.235403241995375,-30.92008129075021,-24.252876628068282
-39.68046156680411,-12.297057583516903,-49.30569412729075,-44.681109822373124,-26.67466220409446,-22.45913981357574,-31.31603122953734,-24.477346369859468
-40.14454771031745,-12.740337004066056,-50.08052213557359,-44.972629560882794,-27.164232008608007,-22.89463205560706,-31.955713315636963,-24.85411514039845
-40.68020396043413,-14.667054902977721,-51.91800756800582,-45.2655745953091,-28.329624086957487,-23.634124309433496,-32.83054870194544,-25.251515265416216
-40.991723898087756,-18.23931994725578,-54.534161893509115,-45.17353151035171,-30.083104290621353,-24.549768028959715,-33.71598934994183,-25.461283471437884
-40.82714269935385,-22.508655899630572,-56.9883263790346,-44.44138453722094,-31.88218322547841,-25.325641756385256,-34.27941636558931,-25.324346041073543
-40.176612251712974,-25.843898304337987,-58.20621323974852,-43.153756000667165,-33.0175132196933,-25.636450346437343,-34.30114672952594,-24.85883102946632
-39.357088326681435,-26.657572820557732,-57.54974517663088,-41.78827352082284,-32.97055617237453,-25.344933760376982,-33.847788750436465,-24.310728373615778
-38.926540694491116,-24.12806877421461,-55.18335364201203,-41.0778902850946,-31.681293660048354,-24.61785012398338,-33.29892899466544,-24.089278930899233
-39.44745448583021,-18.92580680934249,-52.26455234342445,-41.69494877241069,-29.73800872350927,-23.93927396936437,-33.232461552978556,-24.589615872724863
-41.152687817213774,-13.757187754634161,-50.88390375371729,-43.80848964446589,-28.434810558716435,-24.000155743121937,-34.193540852261634,-25.938300908406056
-43.61299535827535,-13.00300522824452,-53.39904004973792,-46.676099313981965,-29.438075895800594,-25.404877371576106,-36.355032968422734,-27.75254786138175
-45.5942072859308,-20.832786917184453,-61.014178797895404,-48.56442230027806,-33.8970016977858,-28.21630945444335,-39.159385618498156,-29.068128151239513
-45.32038433019733,-38.366398760051716,-72.27325835071684,-47.255825156717,-41.36039661377542,-31.577476804788056,-41.19276000019051,-28.580649447199274
-41.19039965587822,-61.7678174488859,-82.751338366432,-41.07928220372059,-49.33649822295185,-33.77709711901123,-40.56356196050458,-25.194334544834604
-32.665058605971524,-83.11508179044782,-86.75613075463708,-29.970606289322316,-54.139527407603644,-32.936867657924054,-35.78262869737355,-18.643985298488882
-20.801846371484853,-94.14744908164823,-80.41360287112482,-15.881328170413354,-52.78908189869274,-28.049630560983584,-26.721106248197078,-9.82546904334088
-8.017252769508737,-90.80890540834041,-64.25120740616913,-2.144986070943485,-44.84190963989738,-19.737433934171943,-15.016099327729165,-0.5770788581406001
2.9016867610772286,-75.63766194292911,-43.41913992549979,7.962448751337716,-32.89243237337395,-10.158482900721635,-3.5366292957696714,7.037178478063921
10.024671976597256,-56.28901782563188,-25.129424639787057,12.689677653822073,-21.271126816756652,-1.996502429497071,4.9021899873412,11.580653047171031
13.049368751504154,-41.06988381001492,-14.793964079246088,12.472452658632882,-13.688308826880771,2.9064324011493734,8.865746015402884,12.776914927184434
13.196513962617006,-34.44980217832517,-13.317770350777096,9.459830173760098,-11.333464646718152,4.422752614430579,8.874415953655006,11.461705328054428
12.360840405228394,-35.42576382679954,-17.22119942048248,6.2779772955330015,-12.61720507107371,3.976520964087423,6.899809966115155,9.047331603111205
12.082806787711084,-39.371851899508314,-21.255578869777,4.799504083358321,-14.544006287429308,3.5128316444069374,5.159199527331454,6.852885812694515
12.917327929701857,-41.53677379867743,-21.569780578548396,5.524767260223135,-14.620641155660874,4.321861397202018,4.98778062294252,5.649121616752377
14.418139755614163,-39.7333777442604,-17.53071011680756,7.696136988910569,-12.105060930873847,6.417913939995829,6.384437358472224,5.554434284346648
15.574559660953133,-35.08645527823356,-11.624635614825369,9.897041377164753,-8.153291813216473,8.688200144845439,8.293362313401914,6.2078003133628155
15.410243298208892,-31.196347189512707,-8.008022565626591,10.825719336111684,-5.132984656711402,9.56372034599681,9.295375023201803,7.0748026302398515
13.537981795593648,-32.36459946164382,-10.426730338508687,10.005152647990611,-5.4804097886632706,7.843422355014179,8.36142055064422,7.769939802781109
10.529959061292422,-41.16575714258158,-19.984670939738578,8.185109903720281,-10.32880737655163,3.399458414929563,5.458178428884563,8.291680385001532
7.926321900851112,-55.965931018415056,-33.497689866230765,7.173694968260432,-18.318815381320224,-2.4679031079242493,1.8207640535012344,9.056876129997423
7.731527385106996,-69.940338514475,-43.64926604481781,9.025647171391025,-25.390711720324646,-7.277703993907774,-0.3321713582830209,10.675445653131737
11.494397375909188,-73.1683978041188,-41.73972386694282,14.921374179491131,-26.204726634911776,-8.310082330582446,1.2924594198286579,13.556248720784495
19.412593810221406,-57.54836632277188,-22.150255802153126,24.378736211172036,-16.82460215710181,-3.914363252919045,7.869246446273148,17.57593085800786
30.02129088547471,-21.834014983186513,14.011437724766031,35.32295835367497,2.8348556536583196,5.521316884954613,18.650431191558994,22.034915154094364
40.735581841912364,26.61665496520868,58.58864065908943,45.02263088272365,28.449246545556832,17.57650871004335,31.111365632002897,25.949328026191278
48.98775460374937,74.85821851537554,99.89367689378928,51.35254971533838,53.14287325349126,28.860091879370074,42.04644607065541,28.510020823524655
53.32112291471515,110.4685235648761,128.08982541845512,53.659767803388796,70.71403412557427,36.545174116296096,49.009404854508894,29.436838391237814
53.84738692885872,127.09996061223508,139.31320747255415,52.799149305946194,78.32642362858826,39.514189794978265,51.283124491032375,29.034502563644118
51.89933788219253,126.3680136063989,136.37094810647565,50.44426269959806,77.2125798586254,38.53599229204909,49.89420080853664,27.954733657872268
49.200234051777095,115.52372768611986,126.13324972691751,48.18548555835712,71.29045809769856,35.5254032908483,46.80563123690086,26.845922291522562
47.0859674370742,102.98774961934056,115.66979721490202,46.938584297932586,64.85200662852748,32.45876166201717,43.881760451759384,26.105008684265727
46.14924670849265,94.66474557904,109.46114056720928,46.86000758371609,60.774864112621,30.590462339752936,42.217914439406535,25.829536080103356
46.319721899478495,92.66247047436788,108.71059298348735,47.60777580571703,59.97912525051156,30.256083528247153,42.03822981389113,25.914757634222436
47.15200068944734,96.03163687709102,112.20085479308709,48.66715203985204,61.8645018295143,31.11090226262107,42.962230832368334,26.177180150501187
48.09984262745553,102.17708166454123,117.5534373844852,49.57657995662805,65.04471381652215,32.485232733661476,44.33364027879655,26.433036481988392
48.697245281931494,108.05811382283467,122.23450618652744,50.04086020395195,67.96008057428853,33.6676817906045,45.46579351586381,26.53475016816487
48.66352695959423,111.1299923321203,124.29362171187076,49.964192483657754,69.34953012364778,34.109026096828394,45.825435430157526,26.39253929997741
47.95072882237956,110.1485375036979,122.92521989813014,49.418612632028925,68.63480839215771,33.57670820759622,45.18597957271594,25.988722977057325
46.73664177207603,105.61500676517313,118.7159471947671,48.57969835728302,66.11655459393378,32.229100607856005,43.711328991326994,25.381723762441748
45.384304307942905,99.57552711584788,113.4399237528339,47.69383498450854,62.86822184047649,30.56926661799217,41.92676246971628,24.707235963209317
44.389024732039736,94.89078053763133,109.51956364007437,47.097804573245284,60.389423372085766,29.298928887637068,40.58899522535788,24.178017818134272
44.276999423128515,94.33892015693405,109.33814181225806,47.199921177524324,60.15884681321641,29.114864169136453,40.47403748698787,24.0484388572112
45.380471655278676,99.6431650972511,114.35642955927965,48.29753989978737,63.09147370654123,30.439282585845955,42.0554992394536,24.497273224771938
47.50263217282717,110.27573734991304,123.95027544373919,50.248345939253866,68.84835148369287,33.07798706450804,45.08646679136633,25.444327687534827
49.66908190300089,122.35585137864612,134.42282428533272,52.22207291711514,75.2412045936537,35.94846400209059,48.286231855665015,26.417428788449637
50.24758226704882,128.75692855852853,139.25142716036115,52.80635881838966,78.35694599667023,37.17832055888551,49.48506355749448,26.617959912409415
47.54894096297463,121.44805970232142,131.340582999547,50.534056260375465,73.89602872438036,34.78367219338858,46.43043451759967,25.231597550336282
40.6788438606134,95.58879330239765,106.66111963172982,44.59605241852694,59.38972683998597,27.740518488573148,37.99734820178176,21.856835611985517
30.16161854624396,53.08388300238681,67.21905077622736,35.34741415196971,36.05133189882344,16.84837476628043,25.116352360970527,16.811819724918
17.919876110879773,2.982171834356611,21.208012530638424,24.31134309033818,8.91026623700114,4.746001848769294,10.738312343052083,11.118287532451903
6.552382701914935,-42.08819984180106,-20.192832869223665,13.652801068953373,-15.15380064718287,-5.108177970077374,-1.3205906310852835,6.129429713819406
-1.7261494121064958,-71.55796379131925,-47.69797387515542,5.366083997499718,-30.465838085337417,-10.01593099959172,-8.096849703715947,2.9655345065339445
-5.9213302763946,-81.24010694098759,-57.63385023233784,0.5504531325181532,-34.91584351351989,-9.300550383885723,-8.80456752036411,2.0316239930963227
-6.47423492264298,-73.89567446894608,-52.48886203230006,-0.9274047223826073,-30.31392598797284,-4.534026810784557,-5.03416653319908,2.8490696052061293
-4.856050120758443,-56.35556123920738,-38.53294848011104,-0.29010941282065017,-20.83538049650758,1.343176577656658,0.19871267082806982,4.270697582743535
-2.861090549448231,-35.89940053389539,-22.632428280449297,0.6924170695967716,-10.901048278946757,5.413296131755673,3.896307569860287,4.975635210113909
-1.9463357272229043,-18.569122429246303,-10.373560972966283,0.4792895225621815,-3.9141833844408516,5.876412217182763,4.19565836072081,4.043770523380219
-2.792165360553101,-9.705301308144303,-5.862849317048029,-1.4680918080049346,-2.185071128893762,2.4000959026441167,0.7436298998992489,1.391808707411435
-5.123589248036076,-14.597481746974143,-11.910649671601057,-4.261231152445229,-7.22439024653616,-4.164718669882586,-5.544965032823792,-2.1171502535042745
-7.828885352621753,-37.17214527429961,-29.364417191661904,-5.846131235893431,-19.495333033466597,-12.299768545422786,-12.98972668932448,-4.98719748313331
-9.411578924068047,-77.05355737001082,-55.88676959497649,-3.9907759190944483,-37.65974714850176,-20.280631631469547,-19.678945216122,-5.744664222156094
-8.674839243455704,-127.60569185861446,-85.68784400311142,2.4498084499659685,-58.24413864931259,-26.554826884126662,-23.9968546759486,-3.6474995248094877
-5.336615606280959,-177.36435615936,-111.2845885977598,12.732149796846391,-76.5327613996514,-30.102805519004278,-25.11094573761079,0.9221119264012113
-0.22299699252971253,-214.74319570950266,-126.69734845649415,24.42094700075449,-88.49261416000815,-30.736710764750175,-23.26260925348757,6.611336053425664
5.1069891377872265,-233.28717943173714,-130.16842150248524,34.51017743484844,-92.59781465674605,-29.1661748215008,-19.666083983365645,11.722608651635186
9.112881846030437,-234.18638790906218,-124.63909997059145,40.81819733939895,-90.35977902454488,-26.699072613211875,-15.97676479516005,14.970769732336253
10.975504808799624,-224.60724524921352,-115.70944381567611,42.86133871754825,-85.22286338596265,-24.654142717593373,-13.550632642137446,15.972559070871485
10.862421323182575,-213.18932917023898,-108.47880059223185,41.774143213726106,-80.58648976523719,-23.783685687906893,-12.884661566389042,15.246928564863534
9.651899380454909,-205.7168753689007,-105.2742751499978,39.447723333841836,-78.22957049183083,-24.038430708242377,-13.547122320112484,13.794034039288238
8.348852285512091,-203.38713457665457,-105.41928738469811,37.48992844475287,-77.98181696620854,-24.788088110172623,-14.598467635049792,12.539834509788212
7.579028268424853,-203.98411060228133,-106.67195790844968,36.60557175080806,-78.5322416922021,-25.30561706850736,-15.194490119116148,11.955084712807148
7.421593550237254,-204.4720994769711,-107.04633321129904,36.618892276191374,-78.6030508809222,-25.190657357699006,-15.00221499638773,11.994773424288494
7.571424440237272,-203.242940510163,-105.9508285156713,36.939921011914585,-77.76589572268873,-24.532021606324243,-14.263561536388053,12.295863854131218
7.642138716140906,-201.06703375456522,-104.34198580440285,37.09985207659414,-76.62895452453537,-23.816850572523155,-13.583486829971468,12.463048916002819
7.426576920875574,-200.56989760022068,-104.05377771815907,37.06834778573945,-76.44146979740546,-23.678709269707856,-13.592632782011773,12.295215331441554
7.025226554755453,-204.40214242698846,-106.53097403557608,37.24009215853376,-78.24430584029156,-24.546221079395202,-14.581103893009896,11.880177252927478
6.8073400202348475,-212.72154080287663,-111.38162674331444,38.11090528113532,-81.84310196181913,-26.27291642751904,-16.19953926522486,11.536701890560748
7.191001094511222,-221.38137162745386,-115.59913222666071,39.78074995894547,-85.19025550370768,-27.945724389165118,-17.40793551550431,11.618278073156029
8.307280025261395,-222.4976614281566,-114.36328668616142,41.556845021351556,-84.83633934243117,-28.10934037191892,-16.841924283452666,12.254542339570868
9.743866905690242,-207.92591103242512,-103.4616247571467,41.981058135291086,-77.55910116358976,-25.43602850259855,-13.526390815021735,13.175479522461371
10.600124987829837,-174.03668049231018,-82.04029163935111,39.42159462807455,-62.35464458024007,-19.51582671704182,-7.545759320956866,13.759243997556714
9.916479544280286,-124.78055115565869,-53.80660355687282,32.98611131116556,-41.481719283320416,-11.258973547533108,-0.19660898430017437,13.323535243213641
7.256989961869,-70.78619218545393,-25.670668392588986,23.20989864938271,-19.735039449521413,-2.599541892037569,6.554346950387982,11.511740726180072
3.061125895295301,-24.779239564761053,-4.558219085566418,12.03300908677163,-2.2985031564886844,4.355194532156389,11.006088963467663,8.539393680187649
-1.5017032692269885,3.932406693438373,5.605363568506039,2.0124811336025834,7.499300644558394,8.216529455304533,12.466502940448505,5.1393510773707005
-5.108839678658574,12.654212701769397,4.945954280734246,-4.780811355981483,9.193568890412575,8.734480660881596,11.357120443822632,2.2322654869489758
-6.919014393428851,4.787572241454702,-3.5220723798711284,-7.531050053403254,4.59954483590468,6.608371239929879,8.71203685623207,0.5232450987585102
-6.848726080947987,-13.02207819199087,-15.858850715632135,-6.7215403866170345,-3.5222471403773996,3.004390581734332,5.551394102908969,0.25992909783387097
-5.349978921161505,-33.339373162864675,-28.206290524877815,-3.5855002005782914,-12.31829598945255,-0.7624571502437394,2.640311988174734,1.2535371591584152
-2.936914109837656,-48.52159238959142,-36.41680150514595,0.535974773249563,-18.762538756846205,-3.235026501909666,0.7087410744648402,3.071529720092433
0.1202337344672967,-50.51612849991257,-35.6024097349196,4.505632958357848,-19.387445214831654,-2.8108204081664114,0.711053220634207,5.222660294354968
3.715356615872468,-32.08963660630331,-21.19072626943524,7.361933127382103,-10.910040285566941,1.8791296839507603,3.649659211672025,7.236037964688599
7.601919737146023,9.911909860413692,8.510255438167597,8.27126093507106,8.107958764329291,11.230127391349743,9.950107235281143,8.681663052590462
11.224253186859755,71.42011044959929,50.150560449659174,6.7166148134474355,35.73770855273605,24.094975742145742,18.898323843138442,9.232864244687322
13.893265910036487,141.22030925348295,95.75189568734348,2.8291792203925166,66.7859238952167,37.979649603984,28.707946810800042,8.788514209849973
15.178674599388454,205.2999723105301,136.0594367900761,-2.480336009288615,94.91163652953999,50.07981913070584,37.30592260703689,7.560066126812385
15.18246177527003,253.132593434064,164.82962051472825,-7.829617059335506,115.54214237522731,58.561508290715835,43.33027404691911,6.011922882259554
14.447953028638617,281.7425503644739,181.1328262061053,-11.995431172457177,127.6260207927564,63.23154341193563,46.6309395006483,4.644732491881448
13.557095601853774,294.7735961033339,188.08956043580432,-14.461233497019407,133.02547154508537,65.13749687539742,47.924586270334196,3.7425571356881595
12.729304029994742,297.4234431283284,189.09383576087984,-15.499372730517589,134.08395849266105,65.40660851272006,47.90286045167169,3.2550679912463796
11.742861393133596,291.2326433516453,184.49097323057757,-15.738824079557194,131.28352733982544,64.19852985782705,46.520359080592264,2.903399219284972
10.236607785358583,272.8140587803779,171.3184977515711,-15.562935375531547,122.82401974954738,60.55973143207945,43.03875954286561,2.4337496771036236
8.13080233672371,237.49075679806884,146.30068065315146,-14.814586121123341,106.43741202552607,53.27879773825991,36.78477370981394,1.8247866627547045
5.80859806370302,184.9092357592444,109.7156878537096,-13.029898311066148,81.98883340162728,42.083880274451694,27.997778858387218,1.2892293149120968
3.9092697861164067,122.11349137090373,67.06935145525154,-9.977707585672837,52.80505093810129,28.28038315928187,18.072714374126598,1.0774503872880228
2.9151155268222415,61.51113114192475,27.198658713176545,-6.024101138146465,24.65667490472387,14.362632404737601,8.985443874322906,1.253902274317242
2.8815400885550644,15.048776733926797,-1.887236482997542,-1.9894752354366911,3.090318818360826,2.8877552533347326,2.318652161374251,1.6387382420181638
3.525529514863689,-11.281874698711933,-16.514963276355395,1.3978440906846041,-9.011100609368766,-4.604641925238899,-1.4120328269281284,1.9657188919847082
4.562375675222065,-18.896999019546975,-17.957331129624592,3.9768977633164284,-12.051721548464174,-7.963844545812841,-2.70969659496509,2.113189844209256
5.941081432074088,-13.581816678817923,-10.257383194767316,6.100152611091463,-8.435497925052665,-8.032173465778998,-2.5032465031360798,2.1805431056965467
7.707294366737723,-0.9424921504238073,2.5432691227893662,8.027210655736548,-0.7221234610344165,-5.988373379491732,-1.595321609734318,2.3015494124058455
9.586698634481369,15.933767924873802,17.538740879120404,9.264879835665662,9.24206307344344,-2.9848570496737463,-0.5913467004354758,2.333284309340827
10.709078731318296,35.36269139584393,32.13585807046653,8.492006615440227,19.85747692672949,-0.1814784060246315,-0.202991777675409,1.7184933177468793
9.846373372275089,54.510349133804496,42.91434798141249,4.282291710112708,28.953139465948542,1.1798622051320904,-1.4186932361607387,-0.28235512781131444
6.115837706450115,68.48493181073752,45.963846243833736,-3.8254506236127286,33.84723478513964,0.022000913462786195,-5.178116132089269,-4.096426416911214
-0.3291498418803105,72.297558172078,38.85447582734263,-14.694374254512738,32.54004063251199,-4.042456215601394,-11.715045954250042,-9.432233257974884
-8.147338227851808,64.13781376773265,22.668445037345784,-25.89609943185313,25.12164821763381,-10.3224823123026,-20.113824934610747,-15.277471048099457
-15.352800274015074,47.20213455615219,2.267226817642105,-34.79704284003551,14.17644937186378,-17.188192279556326,-28.510929916430534,-20.33069928719248
-20.22779457672476,28.46047645001572,-15.724405351146642,-39.74423884937562,3.705229486633894,-22.754964343137637,-34.8943980483813,-23.595923895268225
-22.05275659135343,15.077936158798481,-26.04744210066755,-40.6535757745048,-2.8171298164260934,-25.72940653865074,-38.02050543952149,-24.77987865925312
-21.265395762243543,10.854252854996528,-27.12162684035556,-38.7526028619543,-4.033214449414502,-25.920027743052287,-37.901512779216525,-24.29580362091106
-19.060880134540415,14.847395429154787,-21.277167501888865,-35.78162972788849,-1.0378678533967811,-24.157923173024532,-35.638201462187745,-22.948357579929404
-16.769841841839458,22.639941211807685,-13.106299202779125,-33.211680420814076,3.5411157964330164,-21.77140845645614,-32.80655367513646,-21.546975538376902
-15.37859432509601,29.002857231546148,-7.1866716587267945,-31.86361710814623,6.969158084599187,-19.992057697760284,-30.815416010821888,-20.662753089806685
-15.330037575358924,30.326955561565477,-6.334931100245472,-31.928987662682612,7.550635182339477,-19.575725161357674,-30.508217918212743,-20.572493455514167
-16.51511899054172,26.004068452726326,-10.744110038127273,-33.14831543144658,5.186648753091327,-20.657216551580046,-31.998832590507938,-21.290279822235526
-18.33252049348888,18.723149410773242,-17.862145375391524,-34.94667997066122,1.406179637267997,-22.722347570181043,-34.62369784583908,-22.58296285683027
-19.814267129047497,13.659221412317802,-23.0520842104854,-36.514005744308946,-1.1095703188585255,-24.678242006903307,-37.02309401996315,-23.964286263762883
-19.886620613428036,16.361049764310494,-21.27883524845705,-36.92019508565396,0.4061123330237646,-25.131538015682978,-37.491044786367134,-24.740667189134033
-17.751804545368742,29.722228710688558,-9.568085179747094,-35.31057655404731,7.346043722763674,-22.910825623143296,-34.62031624625639,-24.166581350823982
-13.234048514544305,51.55190856370217,10.944631202448386,-31.14247666775736,18.60705029412126,-17.63043856790997,-27.98701399599553,-21.68915120325968
-6.897663395258097,74.62774209257694,34.85043245972802,-24.392469150857593,30.674643610005248,-9.955782602179086,-18.467870338052716,-17.19199125446155
0.14004428076756614,89.83704741375944,54.70808456844579,-15.668507444209462,39.152040760620636,-1.3781077613584891,-7.952711169343746,-11.127188442444549
6.608224270573104,90.83307352877969,64.5901636677653,-6.1607445398410485,40.95639810561654,6.368036233783523,1.4092902382356154,-4.454072017214237
11.49870143293438,77.32538422890083,62.834352299139184,2.6170931613102653,35.835707805441935,11.88694534955194,8.002748386404303,1.6235311495259417
14.32683542982099,54.87880236945234,52.3650696640262,9.270531861825758,26.25429998268914,14.407871970439551,11.17033211724402,6.037559098787417
15.186817444111817,31.493930236117883,38.61447848533569,13.019894503042865,15.820435633031794,13.767693084647021,11.164043014421162,8.207329457495934
14.663825064638896,13.511257800508448,26.694656536553055,14.032484610055722,7.446209904765082,10.331993860740132,8.851395754517634,8.22130361525887
13.662451233566724,3.6696676888157653,19.73102429248495,13.364051548139617,2.499066088759523,5.050132670804403,5.464944208080649,6.7684570856056885
13.125549076612767,2.105030044138811,18.936344316680895,12.411726571526495,1.2256982955464297,-0.47809485342890545,2.432525060090273,4.8246503042002935
13.619584757395062,8.458188041798058,24.368719175279313,12.074506398229332,3.5793166522424933,-4.279791006971435,1.0768917922503636,3.201126790216363
14.932815596444287,22.54765419826746,35.01608247352277,12.11507468075922,9.373314849346576,-4.790581341974884,2.0707611893527873,2.160055676253227
15.997446438319283,42.941156710933264,48.11856971931901,11.218537638146586,17.611697395516938,-1.7773219590303866,4.918085372707825,1.3207556835998162
15.347689900799248,65.26981154037368,58.98650879239772,7.823683507625465,25.91290120642609,3.293037698071131,7.9566987248728624,-0.05392010233386246
11.95195080881156,82.67071311851873,62.43036495606649,1.2330638719988791,31.012982069409787,7.866678612903519,9.106686012022713,-2.5418752148047514
5.917020239982013,88.81320589986699,55.38523240207373,-7.7404991866292585,30.339034795307516,9.625007523743422,7.00695735606638,-6.138152223806857
-1.4199063639782663,81.51764000597473,38.95758702020219,-17.037279963025,23.586591674246666,7.69856350756268,1.8175295579752726,-10.1951162463031
-8.104179342466894,64.26651382107435,18.270619791850823,-24.355947871569718,13.097040374128607,3.0194184000731275,-4.847610332674117,-13.754766006700942
-12.509635369107055,44.41752293548571,-0.0019850642403510255,-28.260748727876084,2.6844801713532824,-2.3453832981190827,-10.80565067675175,-16.047321834004894
-14.048788370877427,29.297468454880963,-10.90288099372861,-28.737170320742543,-4.332941855762787,-6.38049446872177,-14.427346095003818,-16.845101014614205
-13.269908321702424,22.744600732215332,-13.245832998106893,-26.95360679915969,-6.63193400070889,-8.071485576371318,-15.314678895947596,-16.486515245781504
-11.380578619966794,24.11653483142124,-9.385875759123264,-24.498980050422578,-5.073576224647549,-7.627475058646322,-14.214419293495824,-15.61283390056119
-9.571283449044603,29.8484905456921,-3.2464623847628817,-22.619291804301263,-1.7243337618895145,-6.031215373418167,-12.37712811604748,-14.82262183141857
-8.54315260572163,35.966282505052604,1.8449880435270594,-21.84033795122268,1.421339816240316,-4.36286993816057,-10.865878522372611,-14.445924363015058
-8.407166783845243,39.82860950747832,4.266083475603825,-22.02345041277778,3.2090545639206605,-3.331556206952273,-10.200635868478633,-14.510610933461049
-8.856966562880277,40.55431530679613,4.019984494669385,-22.65814466744366,3.409403392560532,-3.1505814295530548,-10.378509364837626,-14.843624903056352
-9.426269938323063,38.68269060032232,2.115371612673036,-23.18302438203054,2.4517021357371096,-3.6369606282248013,-11.076632949923537,-15.2107698169679
-9.713315677178851,35.67146907898423,-0.045994177818871385,-23.23241529392183,1.1183842410878941,-4.387272767687036,-11.865558865604068,-15.433358906868992
-9.536092947002542,33.292767725089945,-1.2044751456206877,-22.767246607394277,0.23274229442370334,-4.9746404772807225,-12.387357538837472,-15.456636197147493
-8.98908045863164,32.835502082706725,-0.7487610843064454,-22.049281480629155,0.3048358335310417,-5.137764376820152,-12.489244407950933,-15.353527655750177
-8.36653142965784,34.433230555453584,1.0185114550916126,-21.455978278431225,1.283445883494719,-4.881248923837159,-12.257337523271024,-15.259306410823136
-7.977286065376097,37.048924497302686,3.1243381599603732,-21.235135688705064,2.6274579786016816,-4.416443350845391,-11.912033773450203,-15.271793870243098
-7.961597289057376,39.170795965230795,4.553273189369675,-21.358213609195396,3.6668155647157357,-3.993531197449446,-11.641818216290844,-15.38478111844182
-8.2240770062499,39.64001673450059,4.766923193429598,-21.55868188277214,3.9564513245169035,-3.772038375404942,-11.521187127785526,-15.502031323254895
-8.501045525819796,38.05736019404467,3.7955320662506984,-21.501059307939116,3.3943309894896934,-3.813288565377119,-11.564176542552847,-15.515138121798088
-8.491670316119924,34.825365531191466,2.0851351132327456,-20.962224280545414,2.18400095630922,-4.125054791486999,-11.805179509525074,-15.383665491880405
-7.98889549310379,31.190617381678653,0.4380342366334817,-19.957051372835664,0.8404703970612435,-4.643373141549999,-12.273734237775956,-15.169429691603558
-7.000656975441651,29.221561503459778,-0.0051233274818376015,-18.79776544631891,0.20283085687528138,-5.158836255459065,-12.87610906820178,-15.018189018389748
-5.845663169651805,31.17739292601975,1.8702252901893108,-18.053002821102528,1.1889123342173449,-5.317561157917897,-13.328814632145077,-15.099727895429028
-5.138659167663569,38.090323319550954,6.3545472919864965,-18.33659281648748,4.210525788027617,-4.7744623062856215,-13.239724171746143,-15.51072272506818
-5.571963742943378,48.4001971164676,12.260393721276433,-19.93672619150765,8.626808954230366,-3.3999537988944755,-12.26755321531245,-16.157956340240197
-7.535291660796065,57.94972739035256,17.168689573607335,-22.477953689969407,12.789106197790037,-1.3574676194670752,-10.217846251848606,-16.68491576680496
-10.796163391357625,61.8179386923351,18.6677371012178,-24.9004459873762,14.830645217289133,1.0162808176181257,-7.0314670855742,-16.52773448050499
-14.494815747359013,56.99099599875224,15.78783845233655,-25.886307937951216,13.726815176048401,3.414476349334726,-2.75213162984536,-15.12835117929377
-17.516600417838088,44.108820265987774,9.604120640788183,-24.539292552092082,9.897224047792918,5.67879901820898,2.437715896843304,-12.21632668308766
-19.03000091991645,27.160006561982556,2.6237650112576536,-20.89561004185008,4.963270505516415,7.775955704613258,8.140221555423059,-7.993336867294119
-18.84638918137085,11.481969853418994,-2.490551199074284,-15.918872666068795,0.9065836046514232,9.722048190720244,13.751349963353716,-3.093540472439392
-17.385883793534795,1.5601407272460897,-3.8742175116039688,-10.980630015695194,-0.7266187819622272,11.58439488794162,18.65296813084864,1.6683677897675055
-15.332457944032578,-0.031623189462605124,-0.5641411120712224,-7.192613129458407,0.8973999032738889,13.574923811086448,22.519916414113922,5.610040397105654
-13.291418203845836,7.440920038830831,7.7761367344924235,-5.0427349136537485,5.994503292448553,16.068978740264846,25.487774143353178,8.368686344777865
-11.717822827171066,22.825649665619643,20.504180225717445,-4.507071764673923,14.02918175328026,19.339500884028922,27.921471304019633,9.877651218265857
-11.091271913932582,42.01960221784308,34.731912234828236,-5.401112115334436,23.061383832249728,23.030337077058014,29.819162411585648,10.208926733983155
-12.044380775960613,56.82767785375271,44.32908613114052,-7.572296230346611,29.175492451869108,25.760730568833118,30.295894807825004,9.444959336051408
-15.181906719607852,55.99511923842578,40.995115668716004,-10.767967186729942,27.08957686413094,25.3677239710285,27.70322568649317,7.684691025072594
-20.63984444311625,29.563388224179903,17.904499098177503,-14.388554776659277,12.366093082956027,19.913472916811006,20.53111796897683,5.148615398282649
-27.728337334898534,-25.251789957666098,-25.884238893315423,-17.471755580911626,-15.791893130217874,8.949424832681636,8.586513528199447,2.2556281425464153
-34.99820429674033,-100.55225632271546,-83.28712804849256,-19.034558100345688,-53.05490398119952,-5.809059028656872,-6.385031555716831,-0.43009795902842657
-40.775259773978,-179.5942951843949,-141.21994182987365,-18.565098075092603,-91.09880349067204,-20.949113683832838,-21.159666607960094,-2.3783196024664415
-43.87412245018112,-243.55507813092385,-186.0034887158739,-16.31515078951651,-120.98804452723988,-32.79084715296783,-32.38531006575885,-3.296819689156039
-44.0864088314301,-279.57309394283675,-209.1746691506193,-13.189222801085728,-136.9716470997321,-38.98767715198191,-38.048615651821606,-3.2380725104261705
-42.19809209300708,-285.6835863658128,-210.58027182164662,-10.311055993393573,-138.64037853949054,-39.426432479072226,-38.246284107283394,-2.5513284901032502
-39.5859303287208,-270.3905274792737,-197.45896971237448,-8.547920721935727,-130.49571613228184,-36.0310128200517,-34.92797996193415,-1.7224670635864694
-37.65103305292013,-247.8578452714002,-180.57556908672103,-8.248363488370085,-119.51677241873995,-31.720341168329057,-30.88959357246078,-1.1977740921886253
-37.339589449198485,-231.73875158965586,-169.70919959513907,-9.243115200494255,-112.1937508132205,-29.139555676056553,-28.60670923592648,-1.2581543596211264
-38.84823110203751,-230.38688490212013,-170.3468288115628,-10.9710342108463,-112.28510809257709,-29.700401559119214,-29.377431412161204,-1.9444264521785033
-41.50701076992721,-244.5114661486818,-182.1716002276332,-12.597402815678697,-119.75346192942942,-33.14703292829896,-32.93404851588763,-3.0146885241525783
-43.87146563643765,-267.0985467050345,-199.18559589085115,-13.150919278511438,-130.80447976401763,-37.648379502478186,-37.51319341369288,-3.9595457776465484
-44.11995097716802,-285.4321314971219,-211.43077947431703,-11.797176841170302,-138.99029599591478,-40.40453783508713,-40.39998025348325,-4.136908485443994
-40.75996817260039,-285.3481022457455,-208.40656023650916,-8.24396531482037,-137.42881980037123,-38.72877796575981,-38.944064096427375,-3.0380230041124046
-33.39370964291541,-257.0943639517166,-183.5470810612091,-3.0512821234391807,-121.73877747633179,-31.327460502278395,-31.79546232175285,-0.5804647346790047
-23.104523270012823,-200.50348326671582,-137.8667174029668,2.4442203751462537,-92.47236243512992,-19.1778448028836,-19.779593713493718,2.7499273974851826
-12.13959093018157,-126.35034544280963,-80.47454586225524,6.664423491747887,-55.52019797300256,-5.37746823802364,-5.802624462714887,6.0308358861717135
-2.9732909038172655,-52.25447486787889,-25.023082208727068,8.515930051236966,-19.817415260139498,6.173870634372568,6.354852221492383,8.268616596192128
2.741081564061946,5.206294426955899,16.327655336414008,7.857236596137813,6.657503012659189,12.63496230074089,13.779133068322054,8.80122536198811
4.725275341492486,37.7143069280091,38.00614998206055,5.413397947389111,20.320422498465785,13.528358261073793,15.68696335538992,7.5178406270646905
3.868069264683228,47.37109845291523,42.16972970995977,2.251250008744313,22.78355306623933,10.653346693066727,13.445515659833413,4.810403906565697
1.5203787234228665,42.686427490641535,35.49904852251473,-0.7351104233004361,18.67408562255141,6.681901688918069,9.41049940070762,1.3650679231277068
-1.1431452270091194,31.572565525420814,24.237129577334535,-2.926893827235636,12.17477353581512,3.4305401055650147,5.449762318460421,-2.0225387909291017
-3.311726742208521,16.50404355846544,11.058980145516223,-3.6968243823661795,4.774830719296036,0.9969792614583326,2.161819609394332,-4.534200266609786
-4.360020152033995,-4.975523514139361,-4.428747211535275,-2.1777754888403518,-4.407254243706277,-1.7510798422453142,-0.8283494335872209,-5.409466239882537
-3.698063640193817,-35.54495440420086,-22.760150732312315,2.5029758529731,-16.44477398394261,-5.8737777768791135,-3.960803741681208,-4.135574831786442
-0.9258796098338968,-73.4394097496887,-42.14048885179491,10.577708547834398,-30.586207394044447,-11.307194781919053,-7.0529702395391105,-0.7123932428381733
3.814575530824607,-111.59472406814686,-58.49755485126912,21.096597205257982,-44.00766738090684,-16.79702512270813,-9.33652724110403,4.200604309344354
9.651856943957888,-141.09729246466804,-67.81397683540516,32.019264702781506,-53.37417914500581,-20.737161896576225,-10.070467980761965,9.434271793677253
15.223004978286037,-156.19336687477244,-68.7315735205244,41.01406747295188,-56.88540560343349,-22.2042923444771,-9.160439128881924,13.744516228510566
19.25908753410715,-157.2466228738673,-63.40948345384619,46.50623456497643,-55.276296852285036,-21.450384104232338,-7.2888893218854305,16.3120014777016
21.16046130637511,-149.82892778334696,-56.101490091764774,48.32507861980144,-51.16232393858844,-19.600222234032167,-5.490386402749915,17.02880664011166
21.198353361799352,-140.9851843242864,-50.62537822836779,47.57754451865437,-47.35704525753253,-17.88241045811231,-4.528516369421105,16.425261539619786
20.239427956789864,-135.4587261842218,-48.543623113909234,45.89386024600092,-45.41208386349135,-16.977260081692656,-4.53322194815784,15.312487817676603
19.21043755725428,-134.16621781884285,-49.08434494412834,44.56600491928717,-45.25055276824026,-16.861645410674523,-5.098787736294781,14.37347076830092
18.657585619672076,-135.2190449447106,-50.42019143001269,44.080971823352954,-45.83331191220986,-17.105865448114514,-5.678054005443142,13.92587663899215
18.62602345795545,-136.13929013088418,-51.13211789550777,44.209184638511054,-46.15357323877215,-17.30362795515497,-5.951582322103853,13.93052222216271
18.832575935856077,-135.72809672411535,-50.9788942676837,44.4480316999785,-45.91068008287302,-17.35137703270444,-5.972341578830299,14.159941244093813
18.948872160679773,-134.8209151968617,-50.83566548752056,44.48779191626523,-45.641714038504695,-17.482065175938803,-6.085857347816158,14.385552102467784
18.829730506811135,-135.7953716116026,-52.04124228157696,44.45622193798486,-46.36298852388527,-18.081852038604307,-6.704356147239603,14.491602683322744
18.610344180095122,-140.92015020860086,-55.372952507717585,44.8461789528189,-48.823536079638934,-19.355168176132427,-8.000043044016694,14.496672198288136
18.642899799056895,-150.0594716262725,-59.987454123027,46.1478296286522,-52.61741445781894,-20.97611104507086,-9.625248560093375,14.498801173332055
19.267950999374364,-159.06167993967156,-63.03920891266324,48.3339743416278,-55.71323243015816,-21.977429540627146,-10.665633411474298,14.573175570641398
20.499993984408928,-160.45425909070053,-60.69180868759692,50.495167927116164,-55.013751249038116,-21.101212871072345,-10.002131823611144,14.676102299974067
21.82676380488901,-146.90541212429974,-50.380082273533795,50.95710714671535,-47.980081103149395,-17.546592759485858,-6.991535501290367,14.628143539363903
22.332578360439836,-115.7889265828705,-32.988184325443406,47.98924566884543,-34.44872257321457,-11.674076675183167,-2.055548085963769,14.212427845514236
21.168465910024867,-71.88769069745219,-13.255552531325508,40.801099653640215,-17.356187027205603,-5.118490035801655,3.284990066065084,13.332312030059162
18.117824829483066,-26.125839699580997,2.23371526410795,30.226808477964855,-1.665059389341534,-0.0941535662565986,7.064771164871823,12.104774590162384
13.877583098102441,9.248232922445881,8.410226047682682,18.599533415594596,8.009016282348263,1.7638828132217796,7.870965918487705,10.800688073359147
9.822587528344094,26.27133715917329,4.342902570617549,8.797491578320182,9.655537305154454,0.313272778138788,5.5768826113895384,9.666056782615787
7.355397319574779,24.47834865593005,-6.466984511060091,2.976486165286313,4.6723820818545025,-3.013471485885275,1.3735427239748776,8.76536186357098
7.226305324123369,10.258271538998535,-18.08699859130549,1.7042778021238751,-3.117136400227395,-5.994428138180729,-2.8654224126173053,7.9794477592434925
9.227283682291397,-6.594083093898471,-24.92221858721547,3.9308078735719465,-9.39612175200609,-6.73225392832098,-5.430289186523799,7.16156720234932
12.392903833283993,-16.7769668357366,-23.57132625321346,7.6772606520381625,-10.997941819245385,-4.413531693124839,-5.346212498774633,6.310666441477003
15.488746501599262,-14.25748314468703,-13.32545259913212,10.928365496629617,-6.658893591057512,0.5755116181174162,-2.534694208656953,5.594203803039054
17.425669845271,1.987702882205347,3.8288782696482073,12.247873727490598,2.790533076855973,6.929181334356798,2.209692103774786,5.183834657396482
17.41239819229794,26.688064437000225,22.889804900258056,10.994193431342081,14.261379802062065,12.700105270059604,7.217267377151018,5.0466794509978214
14.95138691112878,48.06660735455829,35.71132422583126,7.3100927835217115,22.429765488182493,15.506140489070402,10.04276296970163,4.893075860647793
9.895776687557595,50.426780835955746,32.531739421998765,2.0493513082718082,20.76860679417194,12.961094650548988,8.007238719766967,4.3551970259861505
2.6320971222232314,20.28435099798544,5.8192435162198155,-3.3941425167123547,4.03848756593,3.544029695863089,-0.7212642104542175,3.2712006192960374
-5.773839346116269,-46.048288925736216,-45.013170357797414,-7.471739792780912,-28.591570453123026,-12.36719548385536,-15.945348372129464,1.8551960873534554
-13.690597780204808,-137.7235250033884,-110.9518076846479,-9.044220020825644,-71.64491149129721,-31.970531952074634,-34.90272075685499,0.6194928560855196
-19.358877822961425,-231.0838456742621,-175.088779362259,-7.869922593364184,-114.23526795691753,-50.571994077722714,-52.88379259808719,0.09792223512811615
-21.487518747665085,-298.0414996895017,-218.56706200745379,-4.714435976516148,-143.82713876981748,-63.13213940082613,-64.86118165531487,0.5500205039317176
-19.718889265994047,-317.4159775584429,-228.08865002714785,-0.9713755350369003,-151.21261411539604,-66.15713283831634,-67.39463361458733,1.8228573951579712
-14.735284405046734,-283.6949564022347,-201.2920869772177,2.0188338419847365,-134.2708479753346,-59.03174040841133,-59.91264814320098,3.4341615773028007
-7.969469967137164,-208.95009371282177,-147.38849653607073,3.5702762577796148,-98.67163985758948,-44.17581946742647,-44.807589363810116,4.805162944401609
-1.0781969692083204,-117.19280101766509,-82.92537213441274,3.8374800788368466,-55.276203549168066,-26.00744961491134,-26.382799525665583,5.5008423292341435
4.574027741375252,-34.27453269089983,-24.995083036405052,3.515980058290891,-15.658165340458611,-9.262376455959055,-9.215757734152113,5.361841260456421
8.221782739986212,21.553066916745685,14.706483068804186,3.2952067446353817,11.997364833886216,2.5416108777398203,3.3042651839442847,4.500305125166503
9.736161951598678,44.17383317757304,32.40058073789821,3.444203915081988,24.804054841210803,7.894349072879149,9.709068000615941,3.2127675787722128
9.481212382276354,38.219701720470994,31.005522330368304,3.7936683581551107,24.53458565164756,7.220678543508771,10.367341059997532,1.8865795382213537
8.139955443863432,14.257061319614934,17.05526287501836,4.0711406841615325,15.586576075932967,2.2965322979403973,6.929548372703524,0.9348234011994154
6.582991923641698,-15.629383041987658,-1.8119382338676036,4.256828722852091,3.195453861884344,-4.370963941009626,1.7448627567743409,0.727475670483573
5.713285201780318,-39.79611465604034,-17.81275762722489,4.597198421026046,-7.332159095411716,-10.00032289226047,-2.5828214649754377,1.4660438529769495
6.193626114428614,-47.55184528734072,-23.427302137136927,5.21916153403161,-10.92166295486902,-11.989793608203465,-3.658675802062665,3.0188644612690507
8.116816908946278,-30.58811074476319,-12.77908771132605,5.694990245771532,-3.5851665783360223,-8.569983967249133,0.05844799576105342,4.839153791239855
10.852838204703513,13.89370723928112,15.90295260254507,5.0266044996811114,15.995932913726035,0.47407208986277927,8.598967710444322,6.102033171651054
13.276036251735086,80.32778358978454,58.42420401253239,2.191914018278753,45.189697041333595,13.47415827295157,20.26274860911408,6.061827070483565
14.317327051135322,155.15358247956766,105.31892590024641,-3.0997422252891766,77.75023997120606,27.345561330585394,32.16670506141362,4.445055720415835
13.524775103436047,221.48513638578814,145.44140714642182,-10.013354473945368,106.10847476570503,38.78114982123084,41.41520531454608,1.6278545969493425
11.283805733708428,266.01226849927707,170.6800130576818,-16.878217783618116,124.53450302373419,45.59475041463013,46.30157212740824,-1.5297949265834214
8.569448771503966,284.26235667049343,179.1158026019537,-21.994253825346703,131.38969824411495,47.49186795847329,46.887701519250285,-4.100496802420052
6.403677345921573,281.28594217581207,174.91739294605352,-24.440888526776547,129.23553238470083,45.88437996358345,44.685309961526926,-5.511273269454319
5.360967611095739,267.7651998031764,165.35674868603942,-24.406286325066347,122.93872625181064,42.94818207819436,41.71011975101283,-5.739042858716727
5.398587146382214,254.29245886219942,157.01130485744224,-22.90459163802578,117.09676642061427,40.538624568655806,39.514802297196425,-5.204868940844457
6.044636000686136,247.18003974093926,153.3242229213107,-21.14415125304794,114.27564772034708,39.550099506664345,38.70758025217208,-4.478179918711833
6.746302811492609,247.47946632693473,154.36054599296102,-19.96945589886498,114.7157683953297,39.908718794722176,39.05459135950336,-3.9912633779054296
7.135182122640175,252.57474744406983,158.08669144964568,-19.646799279703977,117.12932397132874,40.97627953960015,39.902634134163655,-3.908447436445118
7.104835225983504,258.6182257869373,161.9735213885952,-19.97679167679428,119.79161923224144,42.01880071499624,40.59799080184717,-4.160484611651347
6.755261924281664,262.5262777331736,164.18600518199355,-20.54658321534428,121.39093056103187,42.53532870481087,40.74771922988479,-4.560001970595559
6.298112707223254,263.1288146352609,164.20789207392724,-20.96295169672162,121.4973081691784,42.411360427176675,40.32236794053567,-4.914230068677579
5.9576534790064954,261.3926115067872,162.8800146827828,-21.01113043903471,120.62478337710124,41.904059100201714,39.61402915668196,-5.10209802251919
5.866964946271662,259.618998498499,161.78285617460847,-20.724559107082598,119.83855807745044,41.458009326996226,39.045703124396326,-5.1120796686807815
5.993810812592526,259.86079566408387,162.16073641435284,-20.336779871687664,120.02842557043529,41.416365671200495,38.89862440560542,-5.0325356694070775
6.1588619211985565,262.4640969346564,164.03390971741584,-20.116969240610047,121.27412382521051,41.79630810460745,39.1244482532954,-4.990416337200471
6.155507163802305,265.7814291305701,166.16240828854347,-20.180288185427354,122.76732844736937,42.28810805876462,39.38359132446553,-5.068045511632594
5.889927664062869,267.30052614834716,166.90984273576964,-20.408769908996838,123.3638024682703,42.47539849684768,39.281933854092486,-5.254148274545284
5.440697474505651,265.3807193108791,165.37808229281688,-20.540373139779984,122.36977193479652,42.11278876451318,38.632313938097205,-5.462167505341374
5.012579321527089,260.48614930437714,162.09588298483195,-20.35135782728165,120.06622123439791,41.29126953360187,37.58572730103692,-5.593569104407905
4.836559367590136,255.33747337073007,158.9790089234122,-19.804793153516332,117.7395235220888,40.43687528836305,36.5994205856143,-5.595638870899218
5.066319572865943,253.98070908585194,158.6371692082084,-19.097017836581365,117.2356857746817,40.165702845672506,36.27434358376248,-5.48666295233215
5.678476596418163,259.9155207101296,163.13057711458904,-18.605601881771054,120.09836105061252,41.00650767439529,37.0725908892833,-5.355902130701504
6.392810131792349,273.58987315088416,172.37525501990876,-18.74715152616703,126.4289182548333,43.01781204661617,38.94747929313596,-5.345054745928891
6.690063512675475,290.27624559452556,182.89542964629985,-19.74177032870387,133.94902061318848,45.458228203452904,41.057507545620176,-5.595499287980387
6.00936827173728,300.0684841865578,188.07176767875785,-21.347039952288902,138.07094537396057,46.796049116327126,41.84648569623078,-6.154529507565301
4.084210783923703,291.23753789294705,180.5855840042607,-22.739549421462623,133.5109604583786,45.24839721567797,39.64251261451978,-6.885758978571194
1.214143013978305,256.0980482749438,156.29436500820432,-22.731499819995037,116.99419607049666,39.69155446375008,33.56479916202247,-7.465181493843447
-1.757587686517763,196.25323193535132,117.35299453381757,-20.320081480869852,89.57712355528953,30.44048224490682,24.21441180050833,-7.504159632488758
-3.8156107576554237,123.6606823754004,72.35721438360997,-15.293296621411466,56.988869112636806,19.372035228146146,13.661405818033513,-6.742081161339056
-4.293905326692811,56.171413124612236,32.94828793682982,-8.497190746730002,27.45935604082332,9.229287730814141,4.645478507702064,-5.182955527674002
-3.217703056428165,9.688261638716554,8.601221341801644,-1.5417373737082287,8.092211544390192,2.4469805098269775,-0.6023161219263449,-3.081718638771282
-1.2446014741557974,-8.634015616335112,2.5646249247800275,3.9140638974441684,1.8158292562779648,0.12547886154823176,-1.2842127279631044,-0.8001433944488728
0.7366578917017131,-2.419604854714517,11.152898650781394,6.866708207174842,6.560589766563154,1.6600759942959669,1.7329676619424215,1.3435506265757124
2.0540682624379394,17.173706581941794,26.340263311910235,7.245748930924803,16.825876402050593,5.1168969259651185,6.375806663689082,3.1096945414023534
2.462397513924977,37.240648633217965,39.6326641115692,5.680100376505177,26.372382186009563,8.068211585967706,10.176463399112588,4.2608892663629625
2.087007499415566,47.98248716931788,45.036826502821356,3.0571468381938,30.502912202145026,8.516013567562766,11.113394536295928,4.522100455999838
1.3161462310989411,45.08177515767608,40.41428693122986,0.2747470155973442,27.269805226545238,5.675102515351407,8.352356495402283,3.725682898943165
0.8198086766328829,30.267648787092224,27.84277521510097,-1.7072255802204654,17.867852394652438,0.4687414611119446,2.795821771030634,2.1002933391726115
1.5983784337142022,10.987348853340636,13.448177247678043,-1.7930396963280326,6.493398569250071,-4.500207278844079,-2.8491437827976744,0.445522637963044
4.788056224942523,-1.2294644345025545,6.133661760268364,1.007625104569306,-0.628158962841942,-5.755108906200062,-4.8491701489330055,-0.06816193781137499
11.123414911817688,5.362770035480414,14.499869598735831,7.030798842983084,2.583988066148406,-0.44002418460365406,-0.038015021494380616,1.5369046446406565
20.337578753943205,37.29677335586329,42.684520362961734,15.50724152448307,19.216648251145283,12.147930366011085,12.484296622165456,5.4533021522737455
30.97358649188637,91.74399106631698,87.46025394316597,24.654148622805298,47.376864118344415,29.904439016052528,30.5858612760448,10.882350461889562
40.8612790819577,156.67792283672955,138.82473224512538,32.380722760325945,80.53504438808395,48.66047134088765,49.87026944960273,16.381331370522215
48.04763867080362,215.90910639045657,184.22898148019397,37.217263793349844,110.30598919959601,63.992500742178244,65.62610143865004,20.55629707472577
51.63555540600529,256.3215534873229,214.14675410753665,38.90435002743217,130.17255595074244,73.0999995175223,74.86020035157708,22.67804641348477
52.04227034469075,273.19012014270737,225.80495939615463,38.31227963194176,138.0496574138741,75.7383242137235,77.30761908893734,22.883547965340895
50.57783622268377,270.798416908006,223.170332500635,36.80690030746969,136.38760041086528,73.8190203140805,75.00119837293114,21.917499109847306
48.67070091489988,258.63722195618584,213.71438941088124,35.50502509242614,130.09641759536203,70.09439302478803,70.86023946445873,20.64590816274235
47.23347145246292,246.04831639902758,204.3208542846127,34.8564315225297,123.8150055778662,66.79890540719721,67.23968587737683,19.65601157038708
46.48481712482272,238.55873580710238,198.75619779715836,34.704556953145264,120.14338800032571,64.97315421338318,65.20975790254138,19.12864164971294
46.199836159187086,237.33614043312238,197.59128063519432,34.66443294025554,119.48886836909116,64.62377678941549,64.72353493610397,18.96238394561733
46.116577738593335,240.8739768488484,199.7068367631189,34.52532856573952,121.01696864850996,65.32853806754466,65.26470928289606,18.995658471211126
46.210666523303985,246.99672873866237,203.84020798414056,34.449403740266455,123.71421281317622,66.74137656487294,66.41175879749562,19.167567804773807
46.6938660821209,253.90380159496914,209.18890035685263,34.875095282463604,126.89570414589454,68.68950319883949,67.9902579340136,19.53321288606824
47.75875844720519,260.14310699939364,215.0331238261383,36.16251503371212,130.08692774879265,70.90839123346274,69.8313731146031,20.138270610377592
49.21661273788624,264.0268550901735,219.8996392614259,38.14525488460846,132.5618253178688,72.68081492706729,71.38010702558286,20.834451394331477
50.25772839062081,263.0338371174939,220.91517015748738,39.8670504029702,132.8982681802061,72.68311080437168,71.46428518984726,21.170337476584244
49.5663742042267,253.72669315832263,213.97403572686196,39.77562166740277,128.92688072765148,69.25297471492168,68.48344062795213,20.48349050177921
45.87123968856637,232.71575943772172,195.13289174399557,36.420517208595086,118.38662923682516,61.097551088800074,61.089433742038324,18.213388331900273
38.72067885839224,198.7487597380693,162.9850109182064,29.337027866403652,100.25346412448812,48.17376727840566,49.10926152894752,14.287450290460628
29.02066872876697,155.0017657265826,120.82990982004128,19.559211869265432,76.11721475520065,32.23389785880306,34.16838384919864,9.324472372214947
18.893796500430614,109.82989534457859,76.98289721083606,9.330816663527703,50.58950492237926,16.558462258987834,19.472747919184332,4.461775906648998
10.774652640811633,74.50377492786218,42.18939161499244,1.0586923399714592,29.98034668284158,4.774351807262432,8.605438004184697,0.8352632626166276
6.157357560349528,58.015374780742135,24.701393081653524,-3.9181753819280445,19.40703694681708,-0.8030528144022646,3.797727675826891,-1.014373349121641
4.72111185477617,61.21217461571304,25.32100161509126,-5.975627702582349,19.64970515640354,-0.4750972137980738,4.579479271600914,-1.444616578306841
4.426638267695749,73.95817131409446,35.48923458664686,-6.830287004912321,25.710698497675434,2.693297157332396,7.68232669108438,-1.506381638706005
2.6169377687667446,78.22203553548705,40.376589670406695,-8.380891432971566,28.480462502781112,4.167230223385748,8.46567822842363,-2.329956381157905
-2.4937258511481777,56.62338105819684,26.0580228034705,-11.535159052036436,19.1307102819488,0.13347785809058352,3.2258801760443183,-4.475044622223914
-10.8346277858337,1.9880476208762214,-13.042545422087663,-15.77312277119474,-6.09200259924414,-10.576480891779157,-8.882096432333238,-7.646054571889279
-20.567383423043157,-77.93193422786231,-70.88195735382088,-19.647264131543086,-43.56963261480862,-25.92735713068666,-25.424096655531777,-10.92370101342056
-29.129122977580487,-163.7093509061508,-132.7251304621625,-21.78287978412893,-83.97203808274637,-41.78402219966091,-41.98127634856558,-13.325081691654667
-34.54994330029272,-233.60290174923662,-182.46762645348582,-21.68654749853834,-116.86340495595081,-53.99150238548642,-54.352305939254045,-14.324268034338553
-36.28971745004848,-273.50946864398077,-210.03218802193396,-19.910039358380693,-135.52040586476113,-60.23680288968587,-60.40202287342402,-14.045013455117457
-35.22776385219951,-282.0777279595634,-214.88740063374624,-17.598109953788896,-139.35068261060343,-60.75420581905925,-60.642499031882814,-13.080069787898779
-32.97577619177564,-268.9544818716019,-204.44134437984624,-15.813250262917625,-132.99443005013322,-57.70543873685791,-57.46475560413101,-12.114629659836094
-31.01874837223635,-248.28571351365258,-189.10390532184775,-15.071645085249536,-123.18572036111554,-53.812641767851126,-53.68386519784974,-11.601747521566951
-30.157040011924515,-231.79042077095568,-177.25509393162469,-15.284882388764458,-115.45814452028266,-51.09904893229336,-51.28286198994904,-11.643762378397128
-30.426066911347224,-224.92291292711974,-172.59789311093328,-16.005509627434197,-112.34922096862996,-50.31719317117764,-50.90513141524197,-12.072897345490269
-31.364408807020947,-226.98117462263994,-174.38233691176396,-16.739269998695892,-113.47795088065341,-51.111202504545034,-52.08760155455988,-12.619064391566985
-32.381629908539274,-233.7019352933989,-179.367097656769,-17.153838569381666,-116.78798788659866,-52.57450601722956,-53.860334580832514,-13.054804909238745
-33.04248978439204,-240.27764941933702,-184.02794803590405,-17.151081693723633,-119.98340442787472,-53.81661496731394,-55.322393081186675,-13.270741723102642
-33.20048581999103,-243.49179568049993,-186.09431839564468,-16.839956541819653,-121.5451846501922,-54.3237210824525,-55.99069924967481,-13.285175629660005
-32.982327600430715,-242.59152782745528,-185.1402225239392,-16.44239295185692,-121.14177988073699,-54.06544892990199,-55.88407945521762,-13.203973432125714
-32.65718081769706,-238.9634699218607,-182.27953705089573,-16.163085365959372,-119.45910124213972,-53.37850746470506,-55.38030488229386,-13.149943460124124
-32.46315383595328,-234.92048961385726,-179.22528999750463,-16.08446406788281,-117.60574611817785,-52.708170048039,-54.938224889655125,-13.195225750308726
-32.49039314858418,-232.264112925557,-177.24248602343744,-16.15248012857125,-116.42666030455116,-52.34940433185904,-54.838296778839144,-13.33581312844489
-32.682735129775914,-231.4669547405697,-176.60806582653774,-16.254528784423176,-116.12952511899213,-52.33545617651964,-55.08844538922711,-13.51959583877906
-32.927464478401795,-231.8826445276828,-176.81873572436214,-16.312500708815058,-116.40055384242241,-52.514808986063535,-55.520392718803215,-13.696237637007586
-33.14127776381273,-232.57252903193248,-177.19803656248953,-16.312220223540315,-116.79784771287575,-52.71215675129618,-55.95644457581293,-13.8445443429509
-33.291882405121584,-232.943525933727,-177.32763885411762,-16.269004207813875,-117.04309668055112,-52.82919315385261,-56.302757432217355,-13.964913881969085
-33.37508846824236,-232.80950528165204,-177.07140301949624,-16.192833911411416,-117.04474797403992,-52.84048034040618,-56.53741046141629,-14.061945467242412
-33.40077892955788,-232.16871123321008,-176.42721362483994,-16.093598545440422,-116.79892091404028,-52.753131834189674,-56.67053351947172,-14.142134411610176
-33.40039347794768,-231.13224033028555,-175.49307027389239,-15.999393444173737,-116.36331818353439,-52.599244210539105,-56.740311824106314,-14.221169302802135
-33.42282392366108,-230.00237995196125,-174.51260509602062,-15.943988343410245,-115.89065567398552,-52.44500100543092,-56.819879886204,-14.31963490205694
-33.50110904899804,-229.18402578149562,-173.78196200063496,-15.931547702934205,-115.57534001860093,-52.362443006778584,-56.98217750860873,-14.445284869418611
-33.62256608749556,-228.86527720271263,-173.41264886679934,-15.928309874914255,-115.49855094211239,-52.370287755137795,-57.23869098856483,-14.58413273638652
-33.74252412836381,-228.82349343470244,-173.21984503376862,-15.899406084220477,-115.54593502045945,-52.413870357202136,-57.526128382448974,-14.714795863098297
-33.83003358434206,-228.64890912907487,-172.91124106751437,-15.846690431830977,-115.52381395575898,-52.419954929417074,-57.76891215871964,-14.830133395964666
-33.89229106687552,-228.16633106108742,-172.38205569905037,-15.798698978201108,-115.35652700515253,-52.36885996243853,-57.95075163020804,-14.939711006746709
-33.95194171993698,-227.56733927039676,-171.77778056999742,-15.766631612823549,-115.13795895406628,-52.301528604063115,-58.11504082012461,-15.051873535000999
-34.01261763571602,-227.12510717014788,-171.27743072472785,-15.726081452331034,-114.99244280242826,-52.26067833838755,-58.303516351267795,-15.161320788067203
-34.06039857380492,-226.88201657973698,-170.89412167664048,-15.649848343691865,-114.93544030827323,-52.24554995780549,-58.51646970568525,-15.259697024313862
-34.09602940854056,-226.68834715953273,-170.5304536511856,-15.548371394029587,-114.90072602891345,-52.23249569528443,-58.73820193793928,-15.353959292539416
-34.14793766383137,-226.46553442652896,-170.15955882642112,-15.464045366045017,-114.86085990244841,-52.21954517982022,-58.97655998246086,-15.465165108358574
-34.241698800521114,-226.27747996096008,-169.842348200835,-15.426940906686205,-114.84816954725838,-52.2237058765126,-59.248700426624644,-15.605934349274017
-34.362901792545486,-226.1137186568217,-169.55574221340606,-15.428142954038586,-114.84734785177744,-52.23477075463177,-59.52983927367849,-15.76370342233246
-34.46302834847092,-225.75218555728026,-169.11423142359317,-15.438283797599285,-114.74037023690182,-52.201085575476284,-59.74724576803659,-15.910111246055116
-34.50400785453323,-224.99851091097037,-168.36764371719684,-15.436213136859232,-114.43222531666456,-52.085732523456926,-59.850770329377156,-16.024288650764568
-34.48952181909278,-224.05869657433539,-167.46634724421523,-15.405615926352546,-114.02808200340507,-51.93158739449931,-59.886722532389086,-16.103769333842628
-34.45290469194032,-223.53330910255215,-166.83713209781763,-15.314809127406674,-113.82167938598225,-51.84776374847377,-59.98425357825906,-16.158258299769503
-34.42909942305601,-223.92695275138047,-166.83246355605095,-15.131298697663919,-114.05828544081945,-51.91871242211977,-60.259492579017994,-16.205288423992084
-34.449756112319626,-225.14678117793775,-167.40062801058326,-14.8779362928386,-114.70095837795257,-52.12758098145872,-60.72968672033588,-16.277220781267797
-34.55216188598128,-226.48185845637545,-168.0877398785656,-14.666029668433817,-115.42162013612848,-52.36349733402923,-61.30247369526211,-16.42018105566135
-34.75911632013947,-227.02397801505205,-168.30523189038416,-14.642685843045072,-115.78901294009371,-52.486185797230284,-61.816341156728065,-16.663248620507034
-35.02593479748514,-226.1219107202704,-167.591536747407,-14.875231932148996,-115.47057758102125,-52.382204936388476,-62.08526091727413,-16.97298333640256
-35.21635652748642,-223.66345345362788,-165.78392144122532,-15.267015777713688,-114.3715457929756,-52.00374219081209,-61.961009444608095,-17.240855982083716
-35.167287636583545,-220.3126611450214,-163.22676873221494,-15.57579086990417,-112.77630509984819,-51.42744279135221,-61.452108349419,-17.334160291633147
-34.81835003937624,-217.68725898481497,-160.97709850296096,-15.524106213598355,-111.46379447295561,-50.9154096901868,-60.850798166423886,-17.186831350655083
-34.306537630624305,-218.02011624637365,-160.6272707218586,-14.944156124653407,-111.55378473957028,-50.872193220690484,-60.71560657033448,-16.8704777364464
-33.94200935180485,-222.90321268747664,-163.43188766062127,-13.909973573641494,-113.88617173931404,-51.61989578264515,-61.59985011708775,-16.598115958756352
-34.063882634923154,-231.54575574641373,-169.04810796970355,-12.814034212790244,-118.15161648315738,-53.078784768051314,-63.61608816955165,-16.64933897034765
-34.836650626158594,-239.8027391286338,-174.7763311376078,-12.311005141799624,-122.3868279479221,-54.57941184212909,-66.1020208382305,-17.231394626608555
-36.05578776777618,-241.03827212321872,-176.04198743678057,-13.052074876292844,-123.35200139536376,-54.98278007135866,-67.63231588987048,-18.310099615871067
-37.03318474637635,-228.67306021427348,-168.04210216382643,-15.25457904336923,-117.7350646583666,-53.08003368710576,-66.42509206715013,-19.480572143852974
-36.65803331054663,-199.07175562274188,-147.7118494652659,-18.34113742920215,-103.56592743898383,-48.06504604437485,-60.98461032566611,-19.98218523322765
-33.71569405184247,-153.21627563932668,-115.02894348007278,-20.95514773610638,-81.10571815283608,-39.84921833028268,-50.71905655358331,-18.931956355647976
-27.423844455562755,-96.4015197226768,-73.11842950084511,-21.48326137303361,-52.806414628566735,-29.09112495491329,-36.27649538960675,-15.726421254407544
-17.959040734715746,-36.31216417195446,-27.246757600316514,-18.87324501345796,-22.43862335657521,-16.955249429804034,-19.435075462542006,-10.415036553565786
-6.656773605814117,19.382635942793705,16.72540201175502,-13.280184271115257,6.115758123030479,-4.73560216574305,-2.5675605210286156,-3.808188477220152
4.31113499251751,64.76494879197747,53.74113641960727,-6.1221746449080285,29.819453439878966,6.467788942444137,12.090182261190433,2.7841308508403406
12.695031210236756,96.33249475543187,80.4145948421385,0.5208519695745655,46.886576041780884,15.892634529384525,23.045488153487955,8.056994972290585
17.006296074347237,113.03531293464899,95.42095336513891,4.811990405504291,56.76448135467867,23.083174754728326,29.801029786031812,11.175212357361104
17.00964406372293,116.20236744982152,99.54748538548367,5.840897272273933,59.960561512556914,27.77502919698658,32.711776176704454,11.955987431928623
13.640896505167492,109.25524062832777,95.32010617258003,3.7699019245675744,57.80180808527381,29.79133758674843,32.57941714343923,10.737837031328619
8.474005196921011,96.84811158600739,86.15545902401722,-0.47599827528786853,52.09602057957037,29.037786411416512,30.236323416254365,8.110387673142416
3.100226991959713,83.66493792420461,75.42610649722317,-5.660431904268338,44.80919665157415,25.669092088050007,26.377640197430622,4.713199631077178
-1.280469771100604,73.60302972104564,65.9815274939769,-10.598813349564654,37.937251510493226,20.373353633432775,21.705311870030144,1.1669154511356952
-4.019745468701876,69.50208641695154,60.06491426685737,-14.41400729185639,33.428385629237866,14.503330146234198,17.13297811257379,-1.9566431407111018
-5.060751255682683,72.61726996865974,58.90693433796859,-16.71499705867615,32.69596462713465,9.739350795736682,13.682303315474002,-4.220927986328574
-4.897728133758126,81.28231614869073,61.65946743105597,-17.60773604660773,35.60379229264916,7.302770790986638,11.997664033673654,-5.427536721631694
-4.344360385870717,89.80263331115688,64.59043952303604,-17.41805863348849,39.67540055528576,7.225596007194508,11.876809167651656,-5.605613988605054
-4.066336246505258,89.60144464217782,62.03398424375899,-16.22829386969978,40.64624948403162,8.3018094935262,12.336093632384571,-4.8473203196666095
-4.1058691845827715,73.28276341886222,49.38720726268626,-13.595519918285476,34.61483757779155,8.872069140585488,12.294398049328745,-3.129564717757417
-3.7787818130519413,39.47549840698962,26.40006732958446,-8.778352088398666,20.578572822284627,7.913635904242449,11.373511027360358,-0.31712387778965484
-2.1116825407054836,-5.095829931907702,-1.7755434000260941,-1.3963273876242737,1.5084351832819682,5.6505274234217895,10.167850109342892,3.6167180889927377
1.442756394577512,-48.256845802391695,-26.870612340269737,7.9653564442560265,-16.962031269788007,3.287577230908132,9.774419944447692,8.33680795052523
6.522313241541696,-78.33414626931085,-41.764612486000146,17.714243808600518,-29.44787188307378,2.135500868967796,10.96866707956718,13.103747834612731
11.952114745766504,-89.70656977703135,-43.99547046984932,25.875962340596953,-33.45934117720033,2.7814995403025358,13.647174246392014,17.025247158585973
16.347862770236777,-84.69485618969807,-36.43703246417377,31.001554079524748,-30.227424336215773,4.831153011729574,16.898951028339447,19.451808952721564
18.812069042183474,-71.12443639040923,-25.074305450468128,32.784455939478306,-23.468113839333864,7.282012680478502,19.582058830505805,20.2578693774946
19.290087473466006,-57.63573409252974,-15.619948325478058,32.043252697560455,-17.147088543144694,9.164485732306762,20.952745316247146,19.83657301858128
18.42822265426386,-49.81649539439538,-11.121252217610852,30.16530080055545,-13.713994992329022,9.991192883411946,20.93519527261043,18.838822109056956
17.117677757905675,-49.01463120626127,-11.60588006064247,28.419542174770537,-13.632046031082556,9.806885982759008,19.9543368144444,17.84769922373052
16.062711776115272,-53.4962214925918,-15.246146276711405,27.530099209737724,-15.979592533599899,8.969807035504942,18.58062860810219,17.185022992549154
15.597469548972319,-60.30910471566487,-19.77191290497487,27.631037041118887,-19.328003571016907,7.924859713967564,17.28601534655966,16.91433498661153
15.739081242087433,-66.58031057517869,-23.304958766720283,28.459477470080962,-22.322653245581183,7.093473671044727,16.39808061267568,16.95918623959697
16.324433229960437,-70.12606295469656,-24.651108798113547,29.58334088287953,-23.946462756366206,6.816972811657809,16.126391433506974,17.212062414211882
17.113369484192532,-69.82999847236938,-23.430026334451963,30.56676420689309,-23.693434888006472,7.263622558563939,16.52991364389285,17.57110196337808
17.84653405702951,-65.94680678660396,-20.152650788393387,31.08115130717684,-21.71724674955874,8.323740156457038,17.43915431771159,17.922533398400642
18.290905202097502,-60.09834608704941,-16.092188965376295,30.980723440357135,-18.835126240895434,9.590969387405147,18.436263834453804,18.1177106843183
18.283278143044146,-54.84509344023596,-12.912411573796351,30.33322690295032,-16.326260626833548,10.475078051794814,18.949895181447598,17.98277034462943
17.76945062120995,-53.00361335207661,-12.213650166159251,29.404556760508147,-15.593971183595269,10.409039083214093,18.445318074156326,17.383426148013786
16.855939020622056,-56.78988215747048,-15.051369681461502,28.617863238098,-17.716054745920943,9.103762189074747,16.679610523974073,16.345406364375954
15.87680781498637,-66.62420749620217,-21.287219926207566,28.478987214586827,-22.816734047093114,6.815422446288683,13.983820812290066,15.176865185472646
15.402049493078055,-79.75488116730025,-28.85821922325871,29.407504711720513,-29.38398031667455,4.514183883596728,11.43290640443303,14.475829823083323
16.0686283611282,-89.72956318262948,-33.630250357486304,31.446993865621,-34.07494000100124,3.731201370083948,10.652754492224116,14.91583895416861
18.21453855507349,-88.0571261241995,-30.645358201293966,33.981826776330635,-32.64918031769662,5.923475408328589,13.112900699461656,16.836133898575042
21.503195047369694,-68.2126424824964,-16.70856720239218,35.71891013528824,-22.029467646361542,11.529986278803815,19.129452102215872,19.847739846408672
24.84435610494898,-30.055105207985253,7.072857045270985,35.11460032299707,-2.467370939750851,19.27637945847558,27.1890862743089,22.747530586608214
26.788165551349543,18.38741695614803,34.71435357973831,31.130587609192546,21.696877541157512,26.337769865160844,34.209252897743355,23.90650291617386
26.247248433005375,63.645252824694786,57.66403617237251,23.906804492147025,43.54738457471002,29.525047185257538,36.84385051922486,22.016966792211818
23.129419288194708,93.05461188978528,68.98921381855882,14.902376550238538,56.80187467954476,26.96660886475285,33.22718624139799,16.82226329745942
18.464403074919804,100.99586646976238,66.99006753176434,6.344786714485764,58.91542700074204,19.30553685607618,24.136678637338676,9.396117120492745
13.909154372733669,91.32610113314736,55.966545200937276,0.2583879682452365,52.19938927667441,9.597530862665787,12.796448610324202,1.757562568263838
10.918510064809016,74.58423041403766,43.65073197076771,-2.387441187887235,42.29370680845629,1.8500861073531896,3.348462916047751,-4.009096024216141
10.077236138444476,61.94202898192838,36.98089646200639,-1.9632006208209538,35.02093780944965,-0.9873048585658797,-1.1440939554890959,-6.660680845182804
10.94661048063921,59.73459311407856,38.80166803029586,0.1673440177097649,33.56177002600831,1.5816626956576574,-0.03533255214396727,-6.2558416916036625
12.414664069174771,67.39854611491677,47.09411054783994,2.325956898804735,37.39324931577013,7.551273720070074,4.85883591403601,-3.979917858308274
13.269139364974762,78.98951203906091,56.51662192013854,3.1595140312089853,43.11903184934214,13.587485664940504,10.34328733013345,-1.4889574477957108
12.71972746687554,86.62731880008266,61.02544488955156,2.0605135727262036,46.38532414589597,16.684187011368714,13.389496597423797,-0.1166071637370348
10.7551447325065,84.28957468519853,56.59564558691978,-0.6323811503139772,44.02439076815706,15.520132837951545,12.490249948072158,-0.2804130857181271
8.286795518450493,71.10427905893037,43.52607755004863,-3.671700690596968,35.84655963153035,11.053287426958324,8.397929987306961,-1.313941995229392
6.968987053332135,53.17665397229139,27.55226889585274,-5.280493348598673,25.465013190316075,6.201104984837033,3.9835103448807607,-1.8009391439308367
8.602566696263533,42.448183873286254,18.58576077344166,-3.884334329624088,19.419662285807746,4.681440038597192,3.1259975847572847,-0.2919780660574783
14.26538042464755,51.849291594614755,26.65344886870359,1.0793578002504043,24.416862533852317,9.374267027611417,8.932461298613285,3.920624952545421
23.60777058667807,88.47465343282495,56.59919707420895,8.74698133969908,43.77358554606039,20.890195715463282,22.081599906067822,10.374082645973743
34.78926289018533,148.69883037494924,104.65379795053181,17.130033078132804,75.11664366212344,37.104312265635684,40.23082210705885,17.601390060967915
45.19515981702583,218.68583205473826,159.35740231733274,24.016544480812563,110.95967550871518,54.0019770411075,58.93521910288265,23.809316198056244
52.58001016552755,280.50789410577283,206.6730127625486,27.967665264472753,142.0525732550848,67.45656347559661,73.64410928312539,27.690324992938045
56.00344819953913,320.44288785877046,236.4106016390555,28.852140461407767,161.62074769886422,75.00179599076449,81.68301445091586,28.930653494556157
56.05656323731253,334.66066478845266,246.28968259519183,27.671096828573546,168.08044242051662,76.66861885092175,83.16053237214872,28.181766845196005
54.32380187125953,329.3165707233759,241.58797700550997,25.867391696607672,164.8573658406513,74.52891217718647,80.42384333397082,26.58620040645872
52.47244931442113,315.6670505417406,231.12983912080506,24.58347190368791,157.77005987803122,71.3460260198966,76.54710015515359,25.179368373092824
51.513594268516485,303.69333030273265,222.41212562303696,24.267840475429892,151.8028673445424,69.18305722917711,73.81042501648606,24.493847828692424
51.57343816619063,298.01185872858287,218.6729646952871,24.730021700938536,149.13347763857644,68.70065587057012,72.95513724013418,24.50618035023238
52.15416211270494,297.71586249351304,218.9778104639327,25.467649119082292,149.15811435130723,69.3407810114828,73.39769125837783,24.849160534393647
52.62142171140375,299.1419354770851,220.436112102528,26.019365882310918,149.95059865858244,70.06991923764805,74.03115938549351,25.10997736218845
52.636681325042495,299.28026432951515,220.80370829110643,26.193968115831296,149.99789806667042,70.16993032797413,74.06617101981816,25.063515640967303
52.35909993960405,297.94672523782987,220.07696041313724,26.130447082397232,149.2748367365221,69.6961833116736,73.51357022447948,24.766291643630822
52.34568607246767,297.87514046430584,220.45914370305016,26.182421672381867,149.24027429262878,69.44051367185925,73.14203856806714,24.492067679564986
53.17091970139202,302.7307963820718,224.72641360959176,26.657411039218395,151.77052354863451,70.40995921775036,73.93160419546943,24.534742157199698
54.92119245946063,313.81766390751494,233.65809387143105,27.531328264285587,157.45881188797702,73.01516824057315,76.2446497602716,24.967050583812718
56.85555191648843,327.2045495502331,243.93197312846215,28.32892104204102,164.19055897578409,76.38240461223938,79.15832035607288,25.49578676234055
57.51625658465817,333.4925234190754,248.16681276043738,28.293362384824178,167.10971777630462,78.29226152441483,80.46160367646934,25.52681744570789
55.33894506235226,321.4279978986049,237.88221930942387,26.771515113409045,160.52320293388382,75.9949072722659,77.52328521745089,24.431692945810795
49.47588681300303,284.071074029229,208.2146599806897,23.576062935925165,141.0257834788072,67.60544068882137,68.67678036468268,21.873006007786678
40.35676165545241,223.95311057734338,161.6235448493499,19.099067024472692,110.03349806629566,53.31316251045798,54.33688586737952,18.00265446291728
29.629643849259658,153.6159016862247,107.97475585079559,14.128019032210538,73.95800652656494,35.63680756557691,37.12638830535609,13.426486722011566
19.488804052039143,90.55442847955793,60.48120348584322,9.50887540177626,41.60356635942988,18.487708964029697,20.857170581647765,8.969051059482249
11.770144214698737,49.20399439435578,29.66420637863266,5.873604576554332,20.16074472962193,5.52887689776654,8.912925160274616,5.378313129869653
7.323889235075486,34.64002275886682,18.86039629241981,3.56303472748009,12.129337838847778,-1.258248045154773,2.935387619135863,3.117437758662301
5.9575610783630975,41.535024720138885,23.769730570809323,2.7014345104631117,14.882502968224134,-2.0689863457384043,2.4715617167081985,2.30418147081693
6.843791202876299,58.388946276876695,35.822437572853644,3.268139861067794,22.805610642925068,1.2549495536026054,5.5895868659811505,2.758000964033377
9.030569506383994,73.79535768306236,46.820249809495365,5.074542666042823,30.36880339484383,6.274435458104654,9.929592787490778,4.089098868426581
11.757997685687037,80.98152518996177,52.11876692499433,7.718160952656393,34.30375634969708,10.90192959543953,13.603845355729435,5.8090343599037855
14.533058030525149,79.03402240979347,51.33337899016196,10.638690528740243,34.15846637323252,13.949505704703851,15.686233559889006,7.465778305697815
17.0616828135596,71.67583367776842,47.291602510409454,13.259984121291954,31.676975484870095,15.286929875290475,16.305878258830262,8.755862355163826
19.103675133805723,65.05199182935449,44.280126845168844,15.052657185748759,29.69848004913905,15.650866107857354,16.36970494931764,9.52056654815162
20.2717052780885,65.07385310232304,45.995330805317195,15.427931892834874,30.839822750680963,16.081031589644564,16.90728905376736,9.600635574480023
19.8790137335414,74.46009266876814,53.4274604010323,13.626099216149987,36.07363497335377,17.11771914605262,18.23669669566192,8.676923951955242
17.036073038178376,90.50888383744915,63.56988267814887,8.878134585739476,43.75461817814268,18.21394365439784,19.459408859561083,6.294441889852942
11.08961685845319,105.40227613559708,70.19293014197568,0.8965479490773715,49.94298577384348,17.867271794568065,18.767359998364114,2.1374491645874065
2.196601849554919,109.79190827284998,66.90222147252145,-9.621438779600664,50.27614034470958,14.528118728224612,14.518464231675395,-3.614287528391305
-8.389582030385196,97.9812372374497,50.90595822831431,-20.93156619841674,42.458247864465676,7.7188049637890925,6.408311709917618,-10.138944215522853
-18.623780759566404,71.45033638002549,25.047361462752043,-30.806249691160435,27.777430653220208,-1.426601175607493,-4.08471056343216,-16.20442480929125
-26.47342017512149,38.34857429329135,-3.341811106356144,-37.45438551607838,10.605904288125725,-10.600406065660406,-14.317487739142424,-20.676942403994506
-30.77446987110845,9.256844060937372,-26.098050954774987,-40.25836464765294,-3.8218112338538046,-17.45732412139777,-21.773544330591793,-23.00532786456916
-31.64575365585231,-8.082174659310107,-38.123307891281634,-39.90602468330725,-11.956609075549324,-20.72528473370425,-25.221309855715162,-23.398453657884552
-30.256509829475913,-11.918486153552642,-39.258760727410504,-37.89226615852376,-13.308766536264946,-20.644087701424937,-25.08509100137322,-22.621127392712367
-28.14504776334285,-6.038637198952704,-33.35412283592747,-35.74437089273445,-10.033894866570693,-18.572642186864552,-22.932008633588143,-21.570212802864535
-26.520860086707238,3.3540767221986005,-25.57209079940651,-34.426568878114665,-5.3010080480855075,-16.133139879929942,-20.52224475502005,-20.89319502587463
-25.90754035464563,11.042843832114839,-19.82218569162139,-34.17210327573205,-1.6357632040988621,-14.463422019623426,-19.033485503717095,-20.827875995822748
-26.19964886446396,14.571914059717992,-17.63790707788184,-34.68013938149631,-0.12720619397978844,-13.935714992222058,-18.80417665028801,-21.26814256564176
-26.95671276459549,14.108699264189749,-18.5197097386015,-35.445437119586124,-0.5722220012292754,-14.31191836760745,-19.529487461801498,-21.939856501956896
-27.706540372217706,11.330258137075784,-20.93147326973511,-36.029246185457204,-2.067455252342759,-15.076233873599058,-20.627342328758726,-22.567711509922294
-28.136750823300527,8.283786309986935,-23.22677535501311,-36.20583364244093,-3.5856564259070143,-15.726775414014234,-21.552236657074,-22.97869948762896
-28.163961335536843,6.545684469218263,-24.277698355130983,-35.99122359369344,-4.384293953323935,-15.957926656706489,-21.988603885132523,-23.138040868376677
-27.903252103323748,6.694651622213503,-23.802572812582483,-35.57047721156859,-4.23911305854636,-15.734623273247252,-21.920952979122845,-23.125904392773396
-27.562040475289727,8.249796127483815,-22.309559351233048,-35.16015433770666,-3.4370177081139435,-15.246126652857246,-21.57003088257323,-23.07134649358603
-27.311402098648852,10.197369801655991,-20.63076210100012,-34.887215641104696,-2.491707648918778,-14.750037357424366,-21.219842013000736,-23.081295323615322
-27.21525042898507,11.776200013517567,-19.34357978631217,-34.764399384019725,-1.7629193374380545,-14.403397304131959,-21.046121554019475,-23.20805186226371
-27.257957318875974,12.863032649030938,-18.542152633813515,-34.75875397817165,-1.2926673826224346,-14.209653412010189,-21.070617992658736,-23.463411481619794
-27.419335149277188,13.663553456697372,-18.094011669889824,-34.86122409342741,-0.9729968516683134,-14.106800733300354,-21.247503451085308,-23.841130593692345
-27.70245588917002,14.159420827038245,-18.00378370195585,-35.0755377589526,-0.8090247846208616,-14.080133600008235,-21.556573679856875,-24.308013457481334
-28.082492014855312,14.003656657176077,-18.42286001641363,-35.34708055602979,-0.9541021203195749,-14.169711450675317,-21.990510149982494,-24.77405557712072
-28.445016355773454,12.990634100649515,-19.30456309200144,-35.52804909070272,-1.4810704146483777,-14.375945656432455,-22.46750166460063,-25.09478078029859
-28.603863171182407,11.544684163820389,-20.146984869654595,-35.43921878637854,-2.1648374061175177,-14.58571437251593,-22.80007234292401,-25.139539393679822
-28.410175561299614,10.673332168063354,-20.169433467345755,-34.9911314407432,-2.525385480249968,-14.610535419551521,-22.789347966699108,-24.89519943136011
-27.877994670614008,11.422319060940577,-18.80020608101229,-34.27908382800393,-2.093824432880785,-14.30339470465895,-22.375773961634312,-24.531952688012986
-27.241748157057994,14.272316080808658,-16.09566417568568,-33.597227021949784,-0.6894140868832784,-13.659632556396055,-21.726533513492942,-24.37378848208082
-26.908317123577845,18.75314898971243,-12.878373445897969,-33.36020111470327,1.4135946643411252,-12.856756439328095,-21.208445276427394,-24.76568298442943
-27.30250019776728,23.276813283461724,-10.610448753125665,-33.92895364426392,3.4258641329994264,-12.241472296861692,-21.26702715706994,-25.873672305455255
-28.622387646190756,25.316609714667536,-10.973203732055,-35.35635626080115,4.153535352478972,-12.245186044860107,-22.229550350067488,-27.488852222104136
-30.574461570345772,22.311346123741036,-15.028080795029899,-37.1523918489106,2.4505069116607685,-13.174932674315501,-24.043751713217162,-28.941687384869986
-32.24891871839932,13.342640437186148,-22.121995093716183,-38.26021751786856,-1.9945136050549988,-14.909075959523223,-26.049404821057713,-29.238897352379475
-32.31796316972402,0.6977850862026908,-29.269138263223507,-37.393493377621226,-7.981190510368155,-16.69417151917143,-26.992723465860287,-27.45332601724933
-29.589894248025587,-10.12892587111395,-31.88033478503395,-33.662557867063185,-12.896402735685138,-17.293101110701397,-25.4477044848134,-23.22689054542123
-23.68350060353098,-12.699003416790339,-25.9313737523661,-27.15731683419359,-13.852438709912466,-15.539376351564426,-20.538001208592583,-17.098701043202258
-15.411611746549829,-3.12422943941979,-10.420392794104226,-19.089969539693247,-9.304874852903144,-11.023044317522185,-12.549604586557718,-10.395853831521029
-6.5655063518371275,17.52800203964682,11.636602099498727,-11.333559025219461,-0.04225385637700102,-4.449390114707528,-2.979724077148119,-4.666054653015469
0.8491018410499824,43.80929633928579,34.659545574316596,-5.586267779762703,11.270494073612612,2.6381513283433193,6.1135147691423555,-0.946827294411365
5.497312622828213,69.2317751317729,53.63329292441557,-2.6589829515498713,21.77356875648515,8.656726540732182,13.105883267811521,0.6836316232833611
7.186278075596632,89.8710725840827,66.6728753418646,-2.3015328273184004,30.056924202193688,12.77869089603268,17.49035552078981,0.9879423154268928
6.659845372275057,105.23145122863109,74.95046674893537,-3.5890012645180143,36.38282515621592,15.135642342311886,19.756366721363435,0.9780651353327596
4.92753156476779,115.5344744055944,79.9193907444276,-5.496646514398624,41.21222536308412,16.269769397314757,20.55860458678919,1.2707827631582371
2.646614501850056,117.91412812384117,80.17126124783124,-7.236964511129384,43.31904328241365,16.29895739528813,19.85500183593489,1.8241489384805345
-0.03179700494456747,105.4593815590503,70.88648722431905,-8.244167705715064,39.365447534932606,14.543957473728485,16.760757935833464,2.178529238866287
-3.158006423293122,70.91351730016535,46.85195617228744,-8.0427122239727,25.716941024738063,9.995955956018632,10.29235568983124,1.9469330189078293
-6.5783874972610885,12.737603024741073,6.9896057039755615,-6.28340015260566,1.3447236962861155,2.2797930258190813,0.42804000456945923,1.1565930647072622
-9.797744146601968,-61.17070201002782,-43.1007617112614,-2.9707803356400326,-30.404279420544196,-7.667580966491103,-11.367066384163277,0.2209089519073657
-12.196972768490795,-135.35858845425523,-92.70576293574469,1.3545731891067148,-62.65376081168374,-17.768373766225572,-22.59384823991809,-0.37067395632483513
-13.398438821276418,-193.4983568517781,-130.81334644107486,5.716275038163336,-88.05429926851224,-25.741395206328068,-30.86650922432891,-0.37544515704617554
-13.486344645615915,-225.72079720234916,-151.12251700673428,9.09285837933378,-102.127796458445,-30.18025122554231,-35.00415099194297,0.08886513604031819
-12.933874856021182,-232.23513428585855,-154.27998576175094,10.871605844583762,-104.91005833626672,-31.09791862105146,-35.41372799060179,0.6730053245050552
-12.318258528322133,-221.58914585412418,-146.41589818599016,11.083561808807197,-100.16413093201709,-29.681551879815807,-33.632999097575436,1.03395930253674
-12.03922020137789,-205.3541093718682,-135.39727310739838,10.289556400066312,-92.99602451780328,-27.530784861771664,-31.432782367090063,1.008813473129221
-12.209042213217247,-192.74903349440095,-127.24995685446535,9.222537160292669,-87.46449390598747,-25.90582566265404,-30.053362725284135,0.639410797397451
-12.721635900951858,-187.89405891685766,-124.47578395341259,8.43279555726694,-85.375410669653,-25.363849762527764,-29.9177387538967,0.08444535021835953
-13.388270446383764,-190.13538825147245,-126.41778227206042,8.130589104144798,-86.43291254081788,-25.81724895573005,-30.786092836343943,-0.4876453274810032
-14.03719002871178,-196.13346446822322,-130.7196322147676,8.242245736472254,-89.15630905099637,-26.81277200760021,-32.10180082029132,-0.9629542659171304
-14.558163571530038,-202.14016095056,-134.8463493594691,8.559466892630132,-91.87860636653676,-27.827983166608423,-33.31258014788748,-1.3007142932825662
-14.919738750169492,-205.5927922310376,-137.13005256155708,8.865620822816352,-93.45584492375663,-28.490653855898078,-34.07927432071572,-1.5264266527785957
-15.166521933186198,-205.7920349346922,-137.19430967353907,9.008876627618125,-93.57875212339434,-28.689907838097128,-34.35291146893743,-1.706817664213739
-15.382253046425145,-203.66972822248408,-135.75000068191056,8.940774843595701,-92.67137466571342,-28.555577132590454,-34.31386176796268,-1.9087603806201061
-15.632227082991857,-200.86429557811854,-133.92823788722936,8.719475586299753,-91.4691938198998,-28.3218328465614,-34.21208089431205,-2.1625608333146427
-15.935067244404568,-198.68676209778872,-132.58482593452734,8.460744856406137,-90.55153134941877,-28.171947276688453,-34.21914145047261,-2.458828379816483
-16.29134892931576,-197.66255149691523,-132.04186374543931,8.257610612109309,-90.14544343400978,-28.180788640759896,-34.397808864330834,-2.7802638140137206
-16.728165933798355,-197.8198872785683,-132.32564233927374,8.133071732122957,-90.26716662415593,-28.37171310884183,-34.777324955543506,-3.131278961844812
-17.29186905554439,-199.17486213002206,-133.47543111306766,8.06468152006994,-90.93666916437012,-28.78205145982986,-35.41008579165905,-3.529164422974508
-17.980442469164135,-201.74160829274516,-135.48797008927528,8.041224621473704,-92.1647296568275,-29.432950078011547,-36.31545426246788,-3.9654079525802333
-18.686718166456547,-205.04723584680016,-137.95922122025837,8.076709628300778,-93.72439425350431,-30.2288863917477,-37.362980096220205,-4.383016039230073
-19.22715102612561,-207.80700361915726,-139.91144013574873,8.164304775064197,-95.01605860512979,-30.915861470968125,-38.24087889068128,-4.70120606824035
-19.452533469702335,-208.33858394146213,-140.16086714141383,8.23293792189693,-95.27557036799438,-31.18328036561032,-38.589368161377855,-4.871308809058637
-19.365353449621118,-205.58858283421802,-138.06716644900536,8.171621790470047,-94.04534617667044,-30.859430126394336,-38.23178823260627,-4.921788881919691
-19.170524500929407,-200.10298311200427,-134.17741407970718,7.910048194042844,-91.60036966512733,-30.07386714007002,-37.36134767722521,-4.966103363503159
-19.232498921399205,-194.3395221861372,-130.37272379814178,7.484576500859522,-89.07167122732382,-29.293705783274373,-36.575805914310074,-5.172135136344641
-19.938671005021934,-192.07085786334852,-129.36787228516587,7.04083898681912,-88.16766007368989,-29.20234834167872,-36.71185888737032,-5.695650555377898
-21.479372455061682,-196.83901915980528,-133.54480765122645,6.782630770297994,-90.47334407971525,-30.413079929054184,-38.467353560388716,-6.580021252377429
-23.605279264045528,-209.65631744746352,-143.2908967705944,6.892162690133831,-96.40949352113489,-33.05184566345025,-41.87809449110413,-7.6542562875569855
-25.511532757146682,-226.79237469928967,-155.50779681742478,7.422282699634704,-104.23983474288981,-36.37379907350282,-45.883117618664755,-8.50663010412567
-26.018917014421433,-239.23740881966762,-163.45403823325876,8.17209521977513,-109.86139601344152,-38.71344215508001,-48.34218966223208,-8.607570551566898
-24.07984767622132,-235.2514886110133,-158.83069102946024,8.62593772633549,-108.01005488559616,-38.00531926237306,-46.74424525267119,-7.566912027305435
-19.387962322964743,-205.70890110335975,-135.70662999248307,8.0728837593635,-94.71025106321413,-32.7715699870216,-39.42228551886068,-5.391259715305422
-12.714412733675042,-149.6347407712439,-94.28451460127721,5.933797986506723,-69.74628262010381,-23.06165502754733,-26.637236869075895,-2.563867477136736
-5.697470288696879,-76.33532112942045,-42.00106701518963,2.141945525911441,-37.52173919653588,-10.705482007040057,-10.803006269315969,0.13998942844734386
-0.14340266990717784,-2.097288802471588,9.22616992101014,-2.688985832417781,-5.44251904414327,1.4092438936563274,4.43342039061923,2.015044666987685
2.7695536000238583,57.13338634826778,48.326383686551495,-7.488079370789804,19.458301830410022,10.683211804741857,15.810399514194819,2.7462523788985314
2.9136040904835285,92.75785437684117,69.82125879188776,-11.257496781023342,33.64209176886738,15.947691508667932,21.81689976578774,2.488398074419297
1.0526434207855675,105.8411654427414,75.09404767913517,-13.56473516755779,37.97820238042718,17.672857256042125,22.997699357673913,1.683881315670845
-1.6887410310174233,103.61067155170237,69.72407180526892,-14.615015298635104,36.03055220202543,17.18116712164618,21.137873358113495,0.7979871373564098
-4.294226711851893,93.23224437426543,59.24310441965183,-14.80830425326406,31.20348409166484,15.544468027782989,18.045324109414153,0.19229053628814424
-5.989017458734605,77.71904984805659,46.54229359370122,-14.121719117028587,24.941733447841223,13.02916750088272,14.818923412363068,0.18898662616457956
-6.141075180523894,56.60019367661495,32.36944559835425,-11.8674381190012,17.083462751429014,9.419300058860577,11.93518120576392,1.1651275025912273
-4.244821755377915,29.791886606763853,17.596571472200747,-7.115066766179265,7.576523545590369,4.780627691907999,9.754749414059013,3.4793014142964442
-0.14645369318056273,0.6996961283193729,4.698860272071801,0.48507571776478386,-2.2250342971351924,-0.08868906651929373,8.803062803857882,7.217232602985314
5.663021176435548,-24.21722075087246,-2.960345290975365,10.10836530607544,-9.828395354739792,-3.9201115677138243,9.551144703409909,11.960206180475508
12.01458188979993,-38.90254642628326,-3.2785753849112953,19.88094299216725,-13.096641413887149,-5.710581895961455,11.96655080814522,16.812227267528343
17.440311238570583,-41.29815380677881,2.939646594824678,27.68824770208597,-11.668700368090278,-5.3356249673051455,15.310545584083178,20.735622877809814
20.788211245406433,-34.40823008433396,12.20223862997081,32.15443058145809,-7.209838183764882,-3.596121809934897,18.415625192201965,23.007541676529975
21.70248200939603,-24.301199421345803,20.226187660696162,33.194961298583834,-2.3932676325140547,-1.7133940705487332,20.26655366800767,23.517585218459466
20.685212604890072,-16.69815857073275,24.12212431759673,31.866858004647646,0.5742837533532873,-0.6648896349895503,20.47875560311066,22.73974472597917
18.73716552942359,-14.458747363543832,23.454277968505153,29.699702556407942,0.8870324506447882,-0.7917478571719163,19.37242933168393,21.42896828280506
16.834045152139606,-17.19923768932022,19.764783214246258,27.960131371526593,-0.8997818159921289,-1.8390841303013927,17.65940934140205,20.249952820191236
15.548180094104588,-22.59341032448679,15.254916192448386,27.23649701714832,-3.571150358866566,-3.271204888177603,16.01682481617803,19.543633907496456
14.965350957046963,-28.044040513712627,11.636818184861772,27.44592941886573,-5.9927804352746685,-4.592235900720667,14.82179812905812,19.307000371329757
14.833046397803853,-31.793828662470155,9.651684302169794,28.11368989236585,-7.5191418572146524,-5.52145749610863,14.12105797829932,19.324474392954517
14.781256783232411,-33.3619146828898,9.110281681196689,28.709453603875193,-8.08845375252343,-6.033707857371843,13.734824510781642,19.33898504461782
14.504664686056675,-33.5102776070025,9.165639126961661,28.901331419232758,-8.13902888257802,-6.317519213512365,13.386267136499947,19.183403175599455
13.875599245863295,-33.76081883009878,8.748464273191528,28.670866130144148,-8.364668954457008,-6.66109320138745,12.83015061695773,18.84063346282536
12.979195059885662,-35.47262449719568,7.151065383495102,28.26755063562438,-9.310502475473173,-7.280436009585546,11.975521037182894,18.423613224054794
12.051748709564016,-38.90265214484438,4.496657337759535,28.02132313308169,-10.995764678524933,-8.177231247199083,10.942124449512862,18.084137023232646
11.333596712403734,-42.951903475061336,1.7007126308131262,28.109165649597383,-12.862118191839121,-9.139730422411972,9.980468812518673,17.895748955077025
10.915450459112574,-45.891120680549996,-0.14532836667764332,28.423765784414083,-14.144010832401477,-9.900900267722518,9.285736927766314,17.786660480445658
10.67953787088882,-46.568945621020646,-0.5406557462635266,28.638101402529724,-14.405931449395997,-10.333653143420113,8.84469455153294,17.577891327599204
10.37075296752132,-45.259618582246205,0.049356727497638905,28.424960915588265,-13.869490030480968,-10.54178105970661,8.435231209550986,17.109962917160935
9.741737257841939,-43.698536734162715,0.3835032199927598,27.691578181416034,-13.362954149830546,-10.81011678216004,7.765339438137004,16.376910352513892
8.689284813705987,-44.4131331618861,-1.0028004025652373,26.699009721148254,-13.980784331081548,-11.474054877271344,6.642263725189233,15.581557940840522
7.3378704301075315,-49.59644614983973,-5.105058073801803,26.007671708967578,-16.581762565568933,-12.762293908243198,5.0894266479993515,15.072281688975131
6.051921954060428,-59.686961619094866,-11.711421811843824,26.245476629236308,-21.19787221778571,-14.625385846227301,3.3970642742249617,15.173535090728091
5.339466651671267,-72.09194217908934,-18.85673871409892,27.736415342945342,-26.543345909478177,-16.600749142375665,2.08758153680871,15.960991063973491
5.614935009532831,-81.04507218312999,-23.026999452182796,30.11438645120664,-30.050007728429478,-17.851876804950717,1.73013418454468,17.07259058627923
6.886885564667578,-79.53477287610347,-20.56294103423655,32.15988673003669,-28.80082464307985,-17.494131435832927,2.5904924164215073,17.68318007647071
8.568906058228848,-63.00167966963703,-9.879750878187028,32.09725968941442,-21.158910464708246,-15.111981278235252,4.282040977798567,16.746203960003065
9.62417276425412,-32.82328169852017,6.838041753447023,28.36790712300029,-8.1703523743952,-11.144189267542812,5.716367420893687,13.47469388447038
9.067188418202953,2.956767969490896,23.89666567787648,20.54257670385067,6.3432343783415055,-6.81140250488653,5.536598347951075,7.847238156872972
6.570398745628049,32.796699866117336,34.61531459625019,9.823202117889066,17.379598435730227,-3.546345232490203,2.8768414760246968,0.8273265383010767
2.779779901404057,47.29531295747444,34.815972884052584,-1.2677339425960832,21.270747449133097,-2.2520607342853927,-2.0102332808145476,-5.906940223756166
-0.9238408539126705,43.98665678803806,25.125258630750135,-9.943695539378593,17.61216898629857,-2.862655802180727,-7.7102595826237055,-10.64492997327915
-3.1302111679948097,28.271497026831323,10.555001308680815,-14.40070220116128,9.372706971749782,-4.480627322593408,-12.289443095649368,-12.388164266393199
-3.1529143954106607,9.941116567899323,-2.38868709166846,-14.544651427303322,1.1253224684894367,-5.955586689201167,-14.256761812133337,-11.245300700432077
-1.3575769410375411,-2.320625688259624,-9.154089806707358,-11.811528288497483,-3.4165825890711865,-6.474922192418086,-13.250730956572266,-8.271715913606435
1.1188189283783125,-4.970258657973576,-9.02453920667411,-8.27121734487289,-3.0342282080969802,-5.80805364747311,-10.066573392004393,-4.888596344342984
3.030252347907191,-0.22684008029512256,-4.692140662373672,-5.607955447870793,0.9089782554512261,-4.201771010091704,-6.131093693054805,-2.2473043593999114
3.638102696014111,6.0835716499817005,-0.42891458964123813,-4.51684314339969,5.515266979986927,-2.187554562035759,-2.866753021782014,-0.8671071404712934
2.988807632946782,7.603700266669261,-0.16978775307668834,-4.674513108809411,7.705771756475954,-0.4596572295243073,-1.277982657050667,-0.6340872789762616
1.832597385331819,0.271346168591606,-6.013163271928867,-5.112877850329407,5.457980812833324,0.30761435695127154,-1.7384536487390527,-1.030699933652244
1.3051216589000774,-15.348320876256345,-17.00803702157438,-4.765832342772803,-1.1078851523146844,-0.12443034546894084,-3.815386738689728,-1.4255185573447071
2.4705741255103724,-32.801472409397924,-28.530007577873462,-3.0384363747698258,-9.089848210308997,-1.0810103375597373,-6.189166243856188,-1.3378759669386437
5.816472763096474,-40.96860384027451,-33.24295125633984,-0.23747530022904587,-13.343218615260731,-0.9300994157561409,-6.96011246083594,-0.6439856805139927
10.89198654818364,-28.56870185717074,-24.16230267221331,2.3816995742742764,-8.591759223581667,2.20495444848687,-4.468401946338047,0.34214117740254124
16.346728880701352,9.673235261946777,1.3787156957853928,3.1197564487846736,7.684089550416163,9.279023673569357,1.7354143175297174,0.9956461591393257
20.46729930898664,68.89535730796034,39.37058792846564,0.7251491313200529,33.34351211446364,19.49817835204923,10.431340956625245,0.702639083254071
21.978697463567986,135.1124677012749,80.26877092889518,-4.831607950577583,62.09279526819604,30.47990296209359,19.19013471857322,-0.7860633526720225
20.65531349167394,191.2848270078068,113.26506504744788,-12.212115512736125,86.30385119843228,39.36550085903856,25.533951883544805,-3.187687717477874
17.38065832429538,225.01097370044133,131.21354681550798,-19.31764457818655,100.51493384895919,44.19475284314384,28.09894818552599,-5.817210331388581
13.640760958123717,233.44390622803934,133.3759162024694,-24.288328133215575,103.59859385292744,44.71629664251756,27.126987417591632,-7.9331018953457475
10.776040036255129,222.98805668910742,124.67826185271487,-26.305376482935202,98.53589430468344,42.233294369407226,24.083102473979977,-9.086813864267416
9.424822767450456,204.66258355068254,112.38512159265385,-25.776897637648954,90.26830176208335,38.71682569088496,20.744225480598175,-9.278809428569172
9.421366054206691,188.3707412869407,102.45028434039294,-23.901297128433043,83.13087175770187,35.80849027340982,18.3570891749586,-8.863267987687383
10.102666217651024,179.25973443264817,97.50488049098925,-21.960924841434572,79.28409773563098,34.25654470397857,17.290048300288216,-8.302394253975894
10.755045580167685,177.34635629890525,96.98617540148271,-20.774106769334672,78.61755557122592,33.93192494179589,17.2005373207909,-7.938759196460285
10.932059017130559,179.44378286664877,98.57666329230885,-20.527135292005028,79.64839973144055,34.208163084078635,17.44577776782648,-7.897457725739711
10.545009774177716,181.6563389089753,99.80296597094522,-20.928191287278455,80.63549503626396,34.4000392852954,17.454990095081463,-8.1174531936105
9.787815420313992,181.27289871380134,99.13789920588238,-21.48847164086429,80.4091752309072,34.079894398072,16.94451200244972,-8.442562926221648
8.993350203117341,177.6844918461124,96.45923103077061,-21.77717344979353,78.76299485581518,33.217542125128766,15.976243176221779,-8.711297459680132
8.472102002780048,172.26503915292886,92.85522770948467,-21.589815657287197,76.37461762301311,32.12678026869819,14.869934033966828,-8.823722805405886
8.363728038331343,167.2775850345325,89.82728332192697,-21.00592223204386,74.28185080339284,31.23174741293597,13.98756682600623,-8.777645710721362
8.560094019582994,164.29186564719927,88.24483206766587,-20.31507561522128,73.1508427342288,30.76378509444949,13.487488790673513,-8.659090418113808
8.759879319840786,163.07908688612673,87.71562918821608,-19.83421443971956,72.79364661106456,30.584560633683168,13.211833834478487,-8.582995692488463
8.642743668718268,161.78727858489853,86.85696587271764,-19.715060879160372,72.29474132541546,30.272367716637802,12.801435402711517,-8.616500228971073
8.064324280753242,158.2948048440144,84.29827424006267,-19.859697731356047,70.67140801880443,29.419831520872638,11.959510813691852,-8.737791241011367
7.161585458777754,151.78578979187128,79.71226230105245,-19.984730187867548,67.60795000417137,27.942005115790415,10.676630617272457,-8.856403475640969
6.323142294402892,143.55586240307554,74.23659611397794,-19.77531432999202,63.80805507797635,26.209055986052718,9.282325057336147,-8.871761461681471
6.041135008423958,136.6785276512225,70.11050403204678,-19.044795922076656,60.802961918358186,24.939669819965847,8.316855249740126,-8.727886622624112
6.676159438978378,134.69185141435,69.68266920853274,-17.855857837349138,60.29070173771937,24.88469977071907,8.281794608969852,-8.44438597654501
8.183570720997045,139.62211118795977,74.02651313667303,-16.57734905658742,63.16008290882214,26.37245378680079,9.326224387297138,-8.126178547965951
9.918124329263337,149.89364855113428,81.57503232647173,-15.818538141072084,68.48699330003117,28.865464981956485,10.96339730317863,-7.945812474629603
10.694627479428863,159.24522441201745,87.5829659198274,-16.1838305344679,73.06956392542531,30.802034568438515,12.008882354010677,-8.078038696200785
9.208300747282587,158.02385793080205,85.31328163153978,-17.904927148783166,72.15202549855454,29.999675246279214,10.934595266682718,-8.591901441427792
4.684274727891076,137.23220950991188,69.0309833437763,-20.56793241597684,61.45769969142875,24.624368281657606,6.607920794364813,-9.364014029071079
-2.60807853283256,93.6487695093785,37.44026873047537,-23.18497330291253,39.65284293623408,14.283614699743458,-0.9615082264782214,-10.101193710533073
-11.348622328096493,32.821842203084955,-4.6855804125109115,-24.667778971663992,9.685859247247457,0.5423157506199907,-10.400278145292667,-10.500157814886489
-19.750432655914505,-32.58798761157208,-48.20453092728828,-24.454353214389247,-22.152402449868468,-13.607959893957844,-19.55135709130933,-10.45869497970661
-26.40394520584757,-88.75113854034731,-84.00861013824736,-22.86113427852946,-49.173405501988874,-25.138225773792353,-26.579600796524826,-10.181090182669324
-30.82754157083733,-127.34616137674887,-107.41136947781422,-20.859848691941174,-67.47168404522262,-32.40098535093179,-30.878222865720403,-10.064081677630348
-33.350424482319475,-148.47138766743345,-119.4901798086364,-19.370723783867785,-77.20714891532099,-35.63976766342795,-33.100706903775226,-10.398068924091838
-34.44953153809328,-157.7345128916476,-124.38903110493159,-18.553646608701094,-81.10322144046691,-36.2465043649221,-34.24748620950783,-11.075872354835324
-34.09833554846248,-159.81474943913733,-124.66547552491862,-17.638958158858102,-81.35664657427313,-35.34653296787903,-34.49350939333498,-11.540493483354458
-31.682634119840213,-153.65711707982578,-118.4313309432633,-15.464791824822955,-77.4351226704389,-32.81819378681503,-32.724776486792656,-11.061138129601886
-26.570803638309947,-133.24857031148917,-100.71148233034789,-11.347782703761622,-66.5578358151245,-27.512794789220557,-27.246319904634728,-9.185859275268342
-18.880546957057923,-93.41571858849541,-68.05632753581125,-5.654347596060221,-46.48054445773647,-18.476985433644515,-17.19243835723302,-6.069300970650008
-9.818270184934777,-36.013455333040845,-22.799277507594773,0.32634321330920096,-18.345569711949402,-6.187381766600545,-3.5828578031993716,-2.447568779227139
-1.2978508361205925,28.405941082651335,26.38572150800626,5.090993604955995,12.671716447927968,7.17747443379812,10.789614090220502,0.7253245400040331
4.922110145623281,84.84096202290164,68.16767233452025,7.714508875114287,39.475456459041226,18.64686140854243,22.605696262794563,2.74405314327003
8.024308392568992,121.11935053820443,94.02033262506625,8.234425702848398,56.48403281383324,25.91481040106022,29.592098695472735,3.4424019587768084
8.37867483921567,133.4620159271916,101.98107721840314,7.464124155364921,62.153915779106136,28.388927782357406,31.456455225702136,3.169446796453825
7.174389335603785,127.13431317387254,96.64362407355527,6.4508980521013255,59.15826026980576,27.239818137862354,29.716487853814755,2.520976728846099
5.74336926069926,112.43144903763879,85.89382559882287,5.965027215785466,52.42078395919537,24.56050334260278,26.68271724308345,2.0245025512764743
4.995998703069281,99.01780931033007,76.74808968349409,6.287870396554069,46.461528949712395,22.25812468277669,24.29932750972722,1.9541200912958614
5.215139792496384,91.99706011579615,72.67434585285613,7.30219018809733,43.61118814684988,21.31718705608125,23.467371114791693,2.3231282579133885
6.180571209462353,91.26825761541065,73.33182004525017,8.705817359849355,43.76399738148162,21.69576430510514,24.037552821971573,2.9837791303484877
7.441041160892099,93.49354244961003,76.10562197096284,10.181760282952563,45.316815014679314,22.70628205894272,25.254668340090358,3.7374060483602136
8.571457069519338,94.95899114401418,78.18667910550026,11.48016947192855,46.497516485923995,23.565279921239036,26.312485025008716,4.407959619407775
9.341915678830114,93.87805057360258,78.2109635502803,12.449210173690604,46.43194437467834,23.854042002831704,26.777834519328284,4.882437316887107
9.774865440093341,91.33681322387743,76.92400187017698,13.045511068805597,45.59051314228882,23.73416109663993,26.765134106305865,5.1301316572840285
10.08111939279044,90.51918763674634,76.62074185058124,13.328811384139513,45.44265271101624,23.828399311812703,26.809073943782245,5.201164642004708
10.505103280777124,94.36975697339516,79.48469856898629,13.453404360455343,47.38641783426516,24.782530081078164,27.47293077163905,5.207535802092943
11.169717253966017,102.76759686184607,85.60405428727378,13.673956299814236,51.44833133628241,26.71104101194892,28.883941664798954,5.299659279350161
12.01598001202148,111.0334949202308,91.93119760022253,14.337133399525438,55.58647881720122,28.870266918466918,30.485666503120573,5.639911860769695
12.851002138290296,111.18691914300608,93.11311716668939,15.779311528863246,56.229593631103924,29.82025140543459,31.194608380781307,6.349902443377868
13.427550814589912,95.68625549037685,83.95901024900799,18.095081447798407,49.92068084925601,28.03763292495427,29.882626638365377,7.415782665102426
13.479000704446298,61.60067020044238,62.174199672327696,20.888272050743367,35.15492393503934,22.646049154537383,25.89293463302319,8.593900894185133
12.719499332045963,12.693172636090027,29.763094640237924,23.227893241685738,13.323263664555146,13.859172130160111,19.304806470561783,9.413913903647517
10.885680455119738,-41.88763440189476,-7.683404388783895,23.957696299685335,-11.783890308094126,2.913715670111414,10.855121971412071,9.35130442543805
7.866005171483725,-91.56610763830083,-43.35410183252781,22.265721577231133,-35.59393361589017,-8.435617620395616,1.6367888499728533,8.126185827461562
3.867723264988962,-128.66437513444055,-71.87768622625445,18.194464641767773,-54.542844897132554,-18.557558678359378,-7.212533259431449,5.96209057257261
-0.5007328445714109,-150.7514709442453,-90.89598477386433,12.755283561435366,-67.08744482495494,-26.38493235330155,-14.684235843531752,3.61323851409905
-4.33700796042316,-160.1491374964803,-101.017689718314,7.541408203066969,-73.6028305920708,-31.497551443975794,-19.953041302507845,2.084881229369984
-6.734109726243833,-161.58770631426705,-104.65676855346535,4.061229348610779,-75.57082854980187,-33.941653797393386,-22.440048350765288,2.169552891596161
-7.105305913626142,-159.72396276880156,-104.62675077662075,3.1884105970578673,-74.70732595907856,-33.989909041090506,-21.945333836164515,4.064011357901761
-5.361878287391416,-157.49667613239185,-102.98348154201072,4.991910933758367,-72.3455158862592,-31.971465028196963,-18.75276638693795,7.291014106286049
-1.8913179315283837,-155.37372504806723,-100.27761511403317,8.880066726468353,-69.06804157498125,-28.211181938800905,-13.590492536750384,10.937368942252965
2.5431169411247843,-151.5494934965369,-95.56681757261074,13.7918060660599,-64.68175213753925,-23.119700798239897,-7.498332037202424,14.011185341418802
6.854153631709491,-143.4951833214614,-87.62022080137872,18.297623601845032,-58.79251075955879,-17.448203019531647,-1.7623577311670815,15.702010795599554
9.6914148373972,-130.63689929651468,-76.95754330667536,20.75916359169812,-51.8800732901154,-12.539015757902513,2.077353904227371,15.490079559232315
9.708187486825738,-116.48941368280504,-67.20320998751318,19.765314225860127,-46.0744294560583,-10.226940996388254,2.387550019532615,13.200787040757298
6.097415242439556,-108.11835836029687,-64.16988757319021,14.78485001851064,-44.689312869160375,-12.182629510112909,-2.0163562304103078,9.08193733236043
-0.8586658540969965,-112.51692937610295,-72.70538654483161,6.635650234909271,-50.44652146189497,-18.955267945758425,-11.122105516222563,3.8474787393192713
-9.650818546922583,-132.12463607205325,-93.35059856985384,-2.648064872061995,-63.53511847983506,-29.363635967403763,-23.31207033003524,-1.4391392111749157
-18.044270637970723,-162.76620443516262,-121.33025186987639,-10.600084187267383,-81.0054352615504,-40.776988806890685,-35.76202928231281,-5.682623734443817
-24.012338648071346,-195.639065917135,-148.78447638835883,-15.35423651646352,-98.08618727774576,-50.24055259230026,-45.57717912403243,-8.150179386278733
-26.575603175306735,-221.99558157427032,-168.78234646088555,-16.345962097190785,-110.5883838562301,-55.79540538228177,-51.033170042724194,-8.7267956416566
