FZ,C3,CZ,C4,PZ,PO7,OZ,PO8
-29.834549749264987,-59.57504601204113,-52.190788822023244,-39.82595642367576,-40.3495775153921,-21.530408356096327,-32.51157498104147,-23.537150303857622
-57.95052671087617,-283.83413644345455,-441.22337498811515,-78.0501511138456,-248.3154819252659,-62.60965206966321,-83.16408941056474,-38.47197431164179
-79.35847754599212,-457.6506747705441,-742.8396052211701,-106.87140728946444,-409.2310378788058,-93.32730347738361,-121.3853440725871,-49.145028704756506
-89.6360480188168,-550.9990791821574,-906.0975938104626,-120.1744108977707,-495.44404689295857,-107.3518304214583,-139.60264265554338,-52.85669547104689
-87.71970004828202,-562.6508684479535,-931.2423370675888,-116.62701547777111,-506.603482636826,-104.23211837987122,-137.20256566253028,-49.16593850196873
-75.67318346551123,-513.9363693034065,-857.4942859807362,-99.25524494502329,-463.4312005213445,-88.56272461318065,-119.38721599440288,-39.67679350310304
-58.09045335888244,-435.7497883310319,-737.6353255520502,-74.50957501252113,-394.6848304933115,-67.77918968241815,-94.67499723545147,-27.61698056511754
-41.62792846466784,-358.4695823652347,-618.0750747931146,-51.61244391378699,-326.9107280910154,-50.075432077367395,-72.8831815437705,-17.550539018210934
-34.039352961573556,-307.82423232536036,-532.4056913904539,-41.30793355741535,-280.7071964798299,-42.795051660215236,-63.61561797963942,-14.731323995473517
-41.901071677982074,-302.7639269739965,-502.6333749378546,-52.777202538042815,-270.21571615725736,-50.78547897555487,-74.13436147361381,-23.492442518494553
-67.49986964846886,-351.2725423148201,-538.6334242619279,-89.28354285386293,-301.3526402519746,-74.64313348663704,-106.45082607081935,-45.033934397854196
-106.8035197119192,-445.56416838320655,-633.8214750182468,-145.23431537524047,-368.70556441928454,-109.8251144447047,-155.32337650824417,-76.02338142350686
-150.35553089114308,-562.0882255173808,-763.2794164140989,-207.3286271924365,-455.08824043340945,-147.79625720118426,-209.2730016177915,-109.33460740233174
-187.12609429924024,-669.5178280789445,-890.5715710071806,-259.9299911658635,-536.8614861205808,-179.23242628267667,-254.95408443072412,-136.906933797832
-209.27758462747855,-741.6656403831454,-982.096778220699,-291.8235982020656,-593.4337527393346,-197.78045309386033,-282.74852249612354,-153.20343796495845
-215.13954567701794,-767.991090452727,-1020.8701537989176,-300.5067977154337,-615.574544769901,-202.32484456811227,-290.42150123113237,-157.29511536778634
-208.89223375392936,-755.6934220148896,-1011.376833591195,-291.82381986795826,-607.648317988718,-196.601177456128,-282.903237056568,-152.51200565266237
-197.5622667107184,-723.0376747430222,-973.3691488475,-275.7452745263932,-583.0176669595602,-186.64352413381232,-268.7498133222511,-144.15621107036972
-187.40884309060823,-688.9900556664812,-929.7829173369987,-261.225391443561,-556.226933665703,-177.756186241462,-255.7299309317611,-136.83523998016312
-181.69433120951038,-665.484739232881,-896.6333726147933,-252.98995031521343,-536.8678607317382,-172.6624335390151,-248.0169751265272,-132.87284741157765
-180.51509465270965,-655.4325158898705,-879.4779288665633,-251.24967229412388,-527.7428811763482,-171.40237695374847,-245.90171452041977,-132.25364127196175
-182.01886175550254,-655.2381121286267,-875.5701703814716,-253.40297405454828,-526.5506228007614,-172.3985761197716,-247.2366103919004,-133.56402849838366
-183.90334111935474,-658.6824141611966,-878.0412732385798,-256.15969436288043,-528.716283317139,-173.72200922266202,-249.23790767052571,-135.10178341461653
-184.50407618142646,-660.054522036481,-879.5274684568961,-257.09863057873116,-529.7374156934313,-173.96673438699935,-249.79196700727582,-135.65922454936907
-183.29937635527614,-656.0996851965151,-874.803839703653,-255.41320253034553,-526.7450213819112,-172.6376101679993,-248.0942023858824,-134.87458154890572
-180.83988060735513,-646.789153819089,-862.4509698103445,-251.85063568517384,-519.3020692403973,-170.11776352142093,-244.6573192776161,-133.16731520177618
-178.1632309995402,-634.6335672299944,-844.8824835621388,-247.911699093344,-509.1345410461016,-167.26122056306897,-240.71507439044458,-131.30248955823768
-175.99556870314595,-622.7335419356663,-826.4089538455759,-244.71494142332017,-498.7757065295712,-164.78582108260255,-237.29553417058318,-129.80719197323563
-174.2929418195228,-612.8941522468234,-810.6535173675261,-242.30214008056836,-490.0446078987791,-162.8588054792497,-234.59284775203847,-128.64695543212846
-172.49483849885246,-605.2767936777317,-799.3383663435693,-239.93256361823384,-483.5478421461454,-161.19494554432742,-232.1382525279321,-127.42751488078075
-170.25185585278965,-599.5330240509825,-792.847613523654,-237.064062091194,-479.29764775197884,-159.53995894973767,-229.5627036764068,-125.92904943294722
-167.94269046878838,-595.7716939764291,-790.8571061174831,-234.08010884120762,-477.26985191275674,-158.0326801793102,-227.16124405173971,-124.4596747076508
-166.50206059092267,-594.0456197870067,-791.5354951422283,-232.09794681632155,-476.9316201581402,-157.07626949975406,-225.688344312884,-123.69138611846142
-166.704719247178,-592.9803073055552,-790.2738965130251,-232.05822880621025,-476.2911493772347,-156.8593581998907,-225.5923619955673,-124.1175008716595
-168.4243730254178,-589.3153151189591,-780.3743407345496,-233.80134721774735,-471.927452443799,-156.97269216651097,-226.35687050875538,-125.53547119906834
-170.23884267851975,-579.0715690925541,-756.3762852633403,-235.59464725745116,-460.4987479461945,-156.37281533145736,-226.34183440607438,-126.82053625593903
-169.4625543864839,-559.1743070016225,-717.5427395779044,-234.1479721119042,-440.5023097590111,-153.58312205135854,-223.01739654200347,-126.0173158320697
-162.65783322339195,-528.0080258148718,-668.2363439865945,-225.15018262276544,-412.6579740829412,-146.96247629601348,-213.41946007942423,-120.74953038201241
-146.7457006466927,-484.8753572912824,-614.6002589077378,-204.55109299904376,-378.6901240908938,-135.08886704683604,-194.93613605558176,-109.00869081597455
-120.5705029444819,-429.71920844978615,-560.3465866766501,-170.53190529469916,-339.8805456468542,-117.37164094274728,-166.51771932138584,-90.2042295775208
-86.20829024662201,-364.1238215706649,-505.2646744914543,-125.32528201200655,-296.9121075821556,-94.72724268360001,-129.88634584652362,-65.97145343239004
-49.04895135062984,-293.0196097209486,-447.7666499091137,-75.57858548860976,-251.23114724673286,-69.84115873305427,-89.86931054070413,-40.08342556960307
-16.176445223899066,-225.27320904285452,-389.33631713410983,-30.48508706233523,-206.61989397226407,-46.58646656931448,-53.19792082500495,-17.20720420324659
6.41726776732299,-171.5286432648586,-336.6908040608143,1.7865000273460905,-169.07901530093244,-28.617983763008873,-25.97138467417136,-0.974246646907925
16.39510947939872,-139.47609294637897,-298.77983580410364,17.611027716555217,-144.17553511970468,-17.750682465794,-10.953895953588644,7.6120494678515485
15.925550742515673,-129.27642249830544,-280.27159720410305,19.322534139586388,-133.35931078924486,-13.094873783975876,-6.319143526158577,10.443665236819097
10.208752889823964,-132.90490084776363,-277.17914942481985,13.520517333559114,-132.3961002628081,-11.675459328769698,-6.864163469744522,10.984161585315936
4.526116149613917,-138.78635022658156,-279.1229191481188,7.235387443591545,-133.8233398969029,-10.323722094973514,-7.142915213477093,12.14123578086226
1.6805968310494448,-138.68534246439094,-276.6546148017605,4.430160821822755,-131.79368858903996,-7.608028806156181,-4.487727474426207,14.738667907969688
1.356148402101724,-131.6995241366981,-267.27726353725103,4.986049700709749,-125.38777914616271,-4.433457918955222,0.10729999599821272,17.5606557932404
1.4449698959005506,-122.80487613001715,-255.48856738995767,6.338489111458518,-118.00014294197233,-2.9618822246027863,3.595481327430557,18.74304897495849
0.08236374581448225,-118.01516408065336,-248.08767736308454,6.099815807562019,-114.00016650444483,-4.784527686188965,3.50002933156745,17.364059935018755
-2.9575391196605323,-120.10428529651011,-249.29899196241615,3.8538273977240523,-115.60804087203267,-9.660050580791076,-0.2996177555903219,14.194099619004218
-6.012455006999072,-126.90896219911535,-258.2687116641522,1.4708270405011388,-121.54262288754344,-15.459950371365109,-5.397709939883698,11.376958529466938
-6.259948788707191,-131.8390006106556,-268.3930523396918,2.2225893708241387,-127.09816703869217,-19.1209773809878,-7.991548896906318,11.420789902983923
-1.1845290674022406,-126.20723187714087,-268.292677683352,9.00602745389678,-125.40240917481903,-18.1175271959779,-4.777102263192669,15.90346922706231
9.5106574864695,-103.88448595141837,-246.36065251470734,21.962626763344524,-110.61605005538671,-12.019472064574277,4.817801288175451,24.2077046558866
22.39634862359241,-67.4368713691009,-199.4398092673015,36.51431289417132,-82.91551311756407,-3.5391742892786495,16.918645139173766,32.8409323400628
30.546449603413926,-31.719533848865513,-140.78603927055863,43.593004551120316,-52.23699735061176,1.7754930070241524,23.437026675982445,36.11531700934599
26.218604124059322,-20.166629754733687,-99.31532102266581,33.127031723267095,-36.52555752318604,-2.3342348163200555,15.145843265230404,28.461197893960218
4.976311493359172,-53.42625460315739,-106.7718076813835,-0.46645366009518885,-53.36619432130416,-19.616781045856715,-13.426107960198369,7.4533906096725095
-31.202343043471934,-136.49966023203956,-179.16386198738294,-54.08061704475312,-109.35048997401341,-48.807199796903205,-60.11390260728322,-24.25518392865703
-74.01886016758452,-253.08941004462565,-304.76922214581805,-116.04227651779915,-194.30462736156966,-83.5495962632467,-114.97177568924582,-59.51466555802096
-112.37648270153902,-371.67851427978394,-447.483354333758,-170.93748038811623,-284.7733004302762,-115.0298884292412,-164.3491327610417,-89.67327731123278
-137.34977680943607,-460.1192157818082,-564.0258699005254,-206.45572014222472,-355.00843662478496,-135.89291653457164,-196.95734495344877,-108.34269764004753
-145.77752833057684,-500.0929271254996,-624.5116025342935,-218.35305654700943,-388.8754674088027,-143.25198160404514,-208.4910411128796,-113.84481595119196
-140.69118922051373,-493.4233475367805,-624.461198995536,-211.0340229267392,-385.92227894475553,-139.26866092373254,-202.44929802978862,-109.16976222261574
-128.86787381349407,-458.0017351343148,-582.8425630916765,-194.13244484177378,-359.1147783476063,-129.3603137098834,-187.29786408912514,-99.85767899914427
-117.3882323075353,-417.50312564154575,-529.8481736577207,-177.7031970991233,-327.0312352927359,-119.43863552814229,-172.1885461994125,-91.32662676468148
-111.1281987491413,-391.4680297100033,-492.9451879743007,-168.7159839899749,-305.7058194637986,-113.7669541555211,-163.68114825927742,-87.08007732102854
-111.87870607732395,-389.71685623493914,-487.6007618649694,-169.80985057197924,-303.62495548268686,-114.10049141918365,-164.45036628397617,-88.21392601220231
-118.55868085543202,-410.8979065432617,-513.7207871987607,-179.5415082648949,-320.10458105972015,-119.73357459493025,-173.37441370096232,-93.71472272031079
-127.79025128559967,-443.4014491856213,-556.1089699646741,-193.10827614315113,-345.8315852761085,-127.85653697259121,-186.09927274881986,-100.94879501887068
-134.7238604189989,-468.34771797358854,-588.6158290142985,-203.44108707339953,-365.351295857895,-134.15427972639972,-195.98807171935303,-106.26777681103061
-134.39978056062452,-465.59593331974975,-583.078081658214,-203.1465386138541,-362.2002051875259,-133.97203731431685,-195.93644175753994,-105.98269447003952
-123.54429149500288,-422.10374806892764,-521.8061917752873,-187.1894515201155,-326.019458923786,-124.02966729793043,-180.9924470183276,-97.66188915699377
-102.02095091286157,-338.88334843983677,-407.87781640440727,-155.16165676023505,-258.39443913652025,-103.95498393511498,-150.66363568216897,-81.18508707328165
-73.04756082961835,-231.9765356230475,-266.227684682757,-111.75499151633979,-173.47257014414248,-76.67857032962822,-109.48422712222096,-58.89467824603877
-41.960226392863355,-125.9890752300028,-133.2933086887524,-65.01260869690125,-92.13074332513477,-47.33260446402287,-65.32224563527122,-34.68246302339498
-14.195151491984236,-43.58751886251757,-40.644718190151096,-23.285064699343504,-32.752301539623474,-21.252096893215707,-26.3139770543869,-12.510275877203169
6.42779807952267,2.909843886735412,-2.431164917560146,7.477437571046059,-4.094565459498994,-2.2183379228508806,1.8812455092358655,4.832046748276352
18.3810506792099,13.390633153573209,-13.773174887546181,24.894614323143365,-4.200776011262452,8.215198615523823,17.207007984633456,16.189244784045275
22.16526353854038,-4.17973186978736,-58.990139950180186,29.820189686084902,-24.747500118464348,10.398226253585705,20.72359839263811,21.812522142235533
19.83709076378691,-38.88780387066264,-121.13535488792654,25.545513412068495,-56.15898150185073,6.107200519084975,15.655672852632218,22.99894767054541
14.84533102982789,-78.27833954215589,-184.4011193741478,17.381222265834346,-88.95208673258863,-1.4158422477078298,6.9897624389748545,21.982552131568184
11.819587650992842,-106.37479172135151,-229.22705090032773,12.226596693229459,-111.36094604589522,-7.270810240429694,1.3268402507806014,21.801900977158468
15.484576373022465,-103.53114468843071,-228.81142332639854,16.993640202974166,-108.00799202859552,-5.657575599989777,5.713798699667087,25.534634733516103
28.573338483735405,-52.52105499340021,-155.85758536031267,35.663880962399745,-64.16024926405755,7.891732729464051,24.886169485907832,34.83566785394112
49.90114884516443,51.0851624932303,1.3673944750058287,66.56435294713349,25.38762859189231,33.82409956425381,58.240865392327784,48.65709129267207
74.22383427161273,191.9349417874602,225.16853500887984,102.15047688233476,149.31234925984091,67.40078805492702,98.92584430749592,63.29919303798602
94.46997448981324,338.1898710302281,469.32297904785077,132.16964188656127,281.2285283020263,100.31844288371674,136.3753916468287,74.11361306440699
105.2166659396107,454.95538094666296,677.3611239687777,148.64415662178519,390.42800151646975,124.47197119169769,161.20228322381905,77.93612225874433
105.30767896051444,520.2181933310322,808.1036870639499,149.68831578577846,455.8557229666855,135.6733007229566,169.58213630954134,74.72824368671394
98.03893339698767,533.6382417774932,852.8820649584803,139.8685650771881,474.79421156902447,135.14238596611568,164.51336404358722,67.41093370796382
88.9372368916998,513.3407978268432,834.566469634403,127.07875616272388,461.3243381271453,128.07158553565924,153.38408639687574,60.07255597850881
82.6772583737271,483.7829324786142,790.7643960607013,118.10407075547958,436.4684973718614,120.42236438154937,143.6295132613778,55.763252222602404
81.05281180370352,462.99448399145723,753.1812845575267,115.63853312359846,416.91799748670036,116.03664944069618,139.2514541146161,55.23201435676208
82.94590737801578,456.4833050762724,735.496805782565,118.16964698813601,408.9687655821701,115.57773843984953,139.981294303894,57.16337737703682
85.79428237998323,459.42423512891145,734.2304611138894,122.06480246389482,409.66232805917406,117.37432532937378,142.8636419058082,59.41707690455812
87.32332548509774,463.47567603862,738.2471153653624,124.08889386519151,412.36534344557447,119.14071063111321,144.69904572197373,60.31530008435059
86.64170747575136,463.3134140572464,739.2119532963411,123.01648155587081,412.5107751167417,119.46185551293993,143.902794059821,59.357773338564726
84.51411859265852,459.94721800438674,737.5362189539456,120.02527575842215,410.6857930676487,118.493277157388,141.21940095133388,57.30758282663335
82.93372366744647,460.0061584611774,741.8749304782089,118.03589192925541,412.16354809261344,117.78037878880268,139.286949257263,55.793464245340054
84.05978787559155,471.2049758922418,762.4667918357235,120.1165177539469,423.06245415580037,119.25642096591227,141.12900148697236,56.48748036247689
88.75548540886643,495.47965321890206,800.7955118715964,127.33036018799866,444.48698983520666,123.72278553438404,147.9554387339437,60.02008226751647
95.48289518950476,523.5110976052848,841.2857510604591,137.15243812834126,467.86527304993064,129.60523654413907,157.40095259353058,65.18372690221163
100.5187429260382,535.3814765118674,852.2751801326332,143.8663522982025,475.55857766889477,132.99640805791353,163.67654834058126,69.13426948230857
99.74435910508465,509.2373442174908,799.3745758113415,141.29894525389517,448.41209623232317,129.36142392520378,160.1647851031241,68.76780792201839
91.01942115313983,433.92988883715293,665.3878196665154,126.40986186144431,376.85115713162804,116.05183463856181,143.15324718167224,62.521035740512154
75.49092690403783,317.4045912370901,464.089720691165,101.26426550447985,268.37935250231686,93.97420466296279,114.23161110319383,51.35477063019727
56.837099029039955,184.37668209035007,237.20234345261372,71.8634119394852,145.67542715309887,67.20412182822798,79.57371695004751,38.165089804749016
38.99168054682169,64.0175762753535,34.759849722241356,44.614492431027045,35.65788270973258,40.78932257522229,46.52626242868715,26.01986363782182
24.12836643587155,-24.237401571890846,-108.95382351262806,23.10492209302422,-43.525717216923134,18.34005671721726,19.97171787799842,16.554064764008704
12.544291682050954,-76.92597907316681,-187.86457586245822,7.706270967299583,-88.77792196634606,1.1703499215284165,1.160423921149992,9.788344639754152
4.5070979625592384,-100.85303909511316,-216.9788057450971,-1.762972424775035,-107.57296030803613,-10.49796193002049,-10.257800154677794,5.490214884512475
2.305223900097279,-100.84542954646764,-212.33560881608088,-2.8320460956752784,-106.9032922144005,-15.521389776294052,-13.015091286420727,4.81549380200925
10.302386519691435,-71.77315481551797,-174.67205661116208,10.077013373711704,-85.03765224736117,-11.068950718555971,-3.0276785359115843,10.565562375866694
32.358476704218226,-2.099835902403779,-90.10311445806833,42.23079979563182,-33.07678072030982,5.825238517255921,24.187398487852125,25.481844439335962
68.34127991650004,113.70820644377605,53.280971079013604,93.62132077047612,55.04489027791504,35.394709922871705,69.11155681776472,49.74133131161525
112.54952504108493,264.4798205763139,247.40986941967188,156.51439495537642,172.72576364782708,73.33980269731292,125.50732570876025,79.69400949964022
155.65120222118077,422.93781038166526,460.4281316650609,217.95576127369824,299.64418509697975,111.87858082975674,182.0338144567797,109.07644084015453
189.12935775717432,558.2042225156525,650.915755187369,265.95857497849414,410.96276648622353,143.27838690071246,227.53450402638055,132.06496874362844
209.274081031024,651.2721162056641,789.3795542304392,295.205442729889,490.01482766933464,163.51195336458093,256.40474200123595,146.08334536287836
217.9852283862797,702.0021014652996,870.568494810018,308.29803520166183,534.9222966451126,173.458880085878,270.2237568020579,152.39080091090503
219.92803446448534,722.6533183996751,907.5666367263948,311.78450494398265,554.3609808102581,176.82931350655184,274.5444492188271,154.09429943973336
218.23908864835462,723.3951177825375,913.1833421222425,310.03024149508343,556.2449905497201,176.42124530124084,273.35284727555194,153.14811860759394
211.99952367947623,701.5363807015939,884.3969144258216,301.5520322073306,538.7305704662424,171.57315164940312,265.457040993762,148.64466246626006
197.28253521806448,643.2715662357657,803.1862423945648,280.49159528332706,491.0813385960274,158.74590485921124,245.5507570216684,137.67278203177574
170.8603151816195,536.8092078185044,653.7643578465254,241.99616482365747,403.99195714658515,134.7756410865757,209.10322580451538,118.0448898388849
133.73571298347818,386.72513511964,442.7594146990515,187.43703366056303,281.3179552184558,100.3444722997732,157.36777695063876,90.8206129125863
91.91123376468218,218.27800004021285,206.04249955282788,125.65973578458716,143.84559122874487,61.09280533243183,98.78462777241943,60.763619681861506
53.864418160938534,67.78722736314673,-4.349921061109384,69.38479074459299,21.57529543257413,25.517458051351962,45.701107660512264,34.376898249815035
26.474930400496735,-34.79480810769118,-145.18157997191057,29.206960906787167,-60.65643104807785,1.0219539207416128,8.581948692703538,16.813416523379495
12.06356612350313,-79.65095809012443,-202.3867357759863,9.062338722084444,-94.7361906227625,-9.361832677976807,-8.560735088644776,9.626215507398573
8.215624367111896,-78.766796361405,-194.00681843404453,5.699001532780245,-90.8236782915601,-7.705519256525994,-8.898121083672546,10.61922338807663
10.01928346221285,-55.86474039149341,-155.51110488089287,11.763039394481346,-68.9824445048371,0.6562730728419333,0.14550918317997696,15.57527172692496
12.879688819191331,-32.620504662028644,-119.04436107898466,19.92664337215874,-47.51835496032445,9.982917621182102,11.039155653077911,20.519791212527377
14.20310976470195,-19.988978377283967,-100.10389179437911,25.567890546715173,-35.55369485906384,16.263739460537536,18.95132770047735,23.193799053726078
13.50856228682275,-17.95790544891568,-97.23773458721509,27.248444936692447,-32.812705915356965,17.916334643440624,22.308393042303965,23.280067026410006
11.581643657597262,-20.9232452613775,-100.72260172472289,25.741558499228518,-34.29849076331317,15.382942603585704,21.807682238718517,21.736071866191484
9.43291009019265,-23.88764232968464,-102.55384248124578,22.61265421820922,-35.69129812478778,10.240467629315846,18.973507698643637,19.80926357844556
7.5068814069586125,-26.35183423192254,-102.5597893590722,18.963672286370013,-36.711580953341205,4.221564908409787,14.93430000723435,18.18996740150498
5.454778089215769,-32.66783341050174,-108.79669626042504,14.842896978160722,-41.41907746965277,-1.5217798942922398,9.86311079209408,16.68639080687273
2.727223261971845,-48.4263476494178,-131.7972229417991,9.823829556125593,-55.117017892763066,-6.4858239485541205,3.4995980846067654,14.687390844645307
-0.23675627655336517,-73.88212705416838,-174.04898154096608,4.5942461105414365,-78.61849394275136,-10.072895379945747,-3.3530446617278242,12.202316330128893
-1.1966131843296142,-98.30055194430392,-220.22742337681908,2.2354407447267026,-103.04702322019362,-10.659346038939933,-7.514601830428106,10.636962843709988
3.244083887803899,-100.67522267142067,-236.71604962797878,7.54809071627646,-109.92173423692967,-5.5679779845930675,-3.893300103084743,12.404110318449368
15.493706748210101,-59.153799883678644,-185.2140027045339,24.16506521125104,-78.95227637199899,7.529993503985622,11.810270670419142,19.330101206056334
34.72772207474566,35.23742414465749,-45.02176344786394,51.29749628246988,-0.20521699514937874,28.568004177940544,39.72328397407415,30.954035370044508
56.373112405489366,169.7089493292346,170.02547678265003,82.7549781074355,117.21349675224735,54.014160970464665,74.33286368797896,44.126766085463494
74.0309118323551,312.7455803832308,412.67911778173226,109.43396145863596,246.63708118328734,77.89096559940003,106.4233321066879,54.4248358951473
82.75837822119247,428.3409170204554,622.7614126391634,123.9262467479848,355.62779277969065,94.49969489386109,127.50138232707367,58.53599989159915
81.61796836428722,493.05394907076936,755.2939695873495,124.31683257390122,421.2405661953161,101.18594649387983,133.9833374175021,56.04979090305851
73.89255537351016,505.651017230657,799.5140047719105,114.77615240018386,439.63150264866977,99.40020985570538,128.5502544206686,49.50732694807261
64.94584590246525,484.183905156709,778.3757394500016,102.73191041139904,424.79842851227806,93.45749222548594,117.99023042231013,42.76260675895025
59.225403672278084,453.59830393206136,731.0380286816439,94.63344882467213,398.4085982837775,87.93117338242739,109.14181616424625,38.807685510117516
58.29398240712756,432.4459403677529,690.9569542920719,93.01023775479663,377.91456410521585,85.40730345220535,105.58462137333295,38.44290954196452
60.82621715943569,426.3462861082757,672.6893304673284,96.27563130145091,369.9564321723441,85.8362336200521,106.82902884141185,40.420594304912484
64.08717226970428,430.05791789844,672.3690647870079,100.70704527166076,371.30233016468395,87.46235612826489,109.83670167300079,42.63249725990797
65.68628186978154,434.5294429696145,677.5549682964232,102.93058438897408,374.6023803898128,88.38015515212615,111.39885941774013,43.41377194283866
64.72309021586733,433.8705748244424,678.4764760346103,101.61889783555556,374.55014796773753,87.75420462032368,109.99362482659073,42.32121262850567
62.11991233369893,429.0867273722304,674.830947373897,98.0453975437933,371.4350514207752,86.2768676451337,106.55904324777939,40.26753158091529
60.20733979284658,427.5469287144033,675.8422921971058,95.53702233604746,370.97620235403383,85.81983956632932,104.10241585384385,39.09362668023268
61.56619534638394,438.2381405471817,693.5887797958646,97.80869149157338,380.4428215581567,88.33630327180842,106.12731101541125,40.618911844212505
67.34785304393128,464.2609100473206,731.922284548345,106.5038213218661,402.32270291450897,94.31071338192099,114.21778334015875,45.385721117630695
75.90454710132032,496.4708707038626,776.8186055064249,119.16578721118398,428.84979016351775,101.57094062065727,125.98078779053664,51.75843270013315
82.84887656286621,513.4517540946622,795.9559383145643,129.29862544077474,441.82226799083486,105.5092441448881,135.0053857398241,56.193566881339684
82.9683913144321,490.2605680079594,751.5257656154531,129.17401257817062,419.91760880575794,101.09392369466036,133.57957812167413,54.8959708103627
73.08458965947472,412.2834746859198,621.2315156935394,114.07289430523036,350.54492874083337,85.74342737931461,116.95298123571072,46.03487430318094
54.08703526886322,285.7666304960002,414.8169342780386,85.34701630433872,239.05369962848908,61.24887030736288,86.51773962297395,31.100805629583707
30.792692830658122,137.60911953141547,174.36940234060657,50.25535108751415,108.77432748213295,33.34551237441159,49.718214706143364,14.430562592543414
9.713323866943844,3.7264177245495254,-43.409192692987894,18.63477789754105,-8.958124854899616,9.065738474157605,16.613335192614638,1.1432643380821776
-3.8178181898123498,-87.08120548509731,-192.7238630284892,-1.4641247125990886,-88.94916423823778,-6.4713949545816245,-4.738909313299451,-5.192758341811485
-7.446883543161719,-124.00707844741031,-256.57749966669957,-6.576951976174671,-121.89708999801233,-11.849809145885327,-11.243031338513957,-3.749693234597358
-1.8527467785525467,-114.34865172520614,-247.40774112394868,2.0516561939825015,-114.62133101168453,-8.905630556637169,-4.709858210618375,3.9377850293086873
10.20273715753102,-75.34958085203913,-193.4006591607666,19.99516970215243,-82.64087305704408,-0.9458789684086,10.202178044960556,15.1148652009434
24.609085578523416,-25.47306508798303,-122.75560527745618,40.97287641099961,-41.89565690031443,8.656806676287236,27.855709244456943,26.56795371290866
36.09800519587994,19.09923246151668,-56.69328331803814,57.330105956739224,-5.204245444184792,16.62234255071373,42.167166781452266,34.69543103760058
38.75653507571381,43.6110293829546,-11.754455598210296,60.78782032526736,16.70719351412044,19.37375999476696,46.68945657219331,35.64608368284165
27.7583212961413,34.871850120651565,-3.1584625718580144,44.75977008040647,14.219228731920396,13.443795030525878,35.85986541593319,26.35968084315247
1.8713747779551657,-14.347302406138825,-41.91018811221036,7.732626665683017,-18.612913063412925,-2.9353674498418205,7.611586565782097,6.282782944178727
-35.025076584614176,-99.42859518764241,-126.98725695174912,-44.68514673463884,-79.42701211569175,-28.19451008797796,-34.474036639981364,-21.544833074410466
-74.99314342448291,-202.66721730754523,-240.88174043779506,-101.25319088842667,-155.77236743889802,-57.356315716906586,-81.69240557524842,-51.244216793775344
-109.48462391388863,-299.9567830857198,-355.1530927241616,-149.92810454975586,-229.46772639720785,-84.05606280879826,-123.82506961770792,-76.60100229222999
-133.13291439637018,-372.1799046478476,-444.2451929498558,-183.1882476873738,-285.27895225248585,-103.49195059156335,-153.76998533874382,-93.81605886510823
-145.4118354946643,-413.67126298656194,-498.23488680202615,-200.3731049539182,-318.0770503048805,-114.3105232991635,-170.1191857403682,-102.67475423016904
-149.13740298330794,-431.64051814129317,-524.9376975466139,-205.56296955210496,-333.1868019482217,-118.15771798609565,-175.96748739981135,-105.38721820325631
-147.0865835300964,-437.01765288469556,-539.496260091854,-202.76411934447367,-339.5744238292962,-117.37635341442858,-175.00571221317725,-104.06227275600838
-139.40531068754572,-433.8446088003654,-549.4362719453292,-192.17998509538214,-341.1288107858119,-112.74957033895745,-168.01677183022943,-98.80564039468742
-123.82175752278512,-415.62909778606553,-547.1279394041318,-170.47075714570195,-332.97258362172374,-103.10869095563218,-152.54711241270283,-87.92090697716912
-98.40836438205356,-371.59284390019496,-515.9114203971567,-134.69918895302072,-305.8275138703343,-87.05056444748041,-125.93327165665275,-69.98733573381803
-64.5479974712407,-297.7480069438569,-445.1511567956592,-86.65670637223415,-254.96328960493872,-65.22086266810601,-89.0892158016377,-46.04962794372199
-27.558090979446266,-203.7299135076545,-342.1194578257795,-33.903265788045005,-186.46580161178434,-41.11241126020778,-47.788061034430555,-20.037991998031004
5.713391178504387,-109.54419840271011,-230.82735904223182,13.557423235726255,-115.54232744200056,-19.531316981143178,-10.162722843435882,3.055773400455237
30.561196036221197,-34.3179877632487,-138.03661829919614,48.558312770781775,-57.799729937001906,-3.823137930584866,17.78670210539211,19.906544990663498
46.517489998277085,14.368258398099735,-76.98387540142797,69.96287510064465,-20.10596014838619,5.937872385802734,35.188605662937555,30.367977421928906
56.20972535667368,42.15307140967431,-41.67857179059886,81.30967651925069,1.7428492263458357,12.253074595438884,45.38289268340348,36.56298452158343
61.93383207704657,59.26301775342862,-16.478737572935774,86.0995361577161,16.63632916572622,17.451832216615614,51.801270087496015,40.29611395315583
62.826597358496706,68.85488689637897,6.97473418130777,83.71571734268136,28.357088312229116,21.10141359006978,54.0514696216241,40.94624801710029
55.094372350271755,62.33696118152985,19.79769600871713,69.4947378446321,30.70347612777766,19.77838679348267,47.556859896731424,35.65095385981806
35.25116549776051,25.900575061208528,1.4795697608287335,39.02514862957948,11.81112366227732,9.549063796201914,27.225832144294817,21.723869772691856
3.8407051373515313,-46.86495024953837,-63.288998036715284,-6.750744828305654,-35.69224744923449,-10.673417900822896,-7.669604894872767,-0.5766518700547791
-33.28874043059904,-146.31245180064798,-169.8928768626703,-59.71763949813645,-106.73107870283555,-37.42977520992272,-51.200988274171266,-27.0896745482416
-67.21356470364888,-248.80478119635325,-292.3987394249475,-107.59170215570553,-184.13524565775214,-63.94582277276266,-92.8730297215478,-51.37504666482147
-90.18787441181291,-328.1346636592593,-396.33738693712274,-139.7595790711087,-247.03225474264264,-83.45360623237355,-122.69292908484621,-67.8233237588965
-99.15547394420075,-368.4647518022929,-456.50771498398456,-152.1301293436043,-281.4013709179269,-92.4104358181136,-135.87035902749682,-74.22002250763289
-96.482457234635,-370.58737217539823,-468.09377021113545,-148.14362711980863,-285.9737130521271,-91.69077429884219,-134.3321513779723,-72.27422916595881
-87.86981956448459,-348.5805283183571,-445.19308496953283,-135.8536903178896,-270.5061566960924,-85.34140209962857,-124.59417491292866,-66.0943531794066
-79.13603214415177,-320.50107394364767,-409.939247648445,-123.42954257616094,-248.81893226712035,-78.0606097724969,-113.86287952492044,-59.857618403552934
-73.8580565838886,-299.72658706780777,-380.7207409582042,-115.86551556778284,-231.79063985143677,-73.08095326380437,-106.90665824177961,-56.11926485891866
-72.79153241064465,-291.3545008677494,-366.1945719561487,-114.19283600584095,-224.09673219364507,-71.42306667378836,-105.0680885241348,-55.41031714982396
-74.66831571282553,-293.51912047305586,-365.862981403529,-116.62126517565532,-224.88229863304014,-72.36010423467972,-107.07935620384755,-56.81425432170929
-77.43281044752074,-300.7837235466868,-373.8285028568173,-120.27832819066278,-230.22754231541361,-74.35312277355504,-110.52817980383816,-58.84734508703023
-79.28182811778598,-307.29579860324645,-382.63301917239886,-122.65312949572203,-235.5567365408958,-75.89485889625618,-113.13949630465662,-60.20350928345392
-79.3198178918412,-309.07835512814387,-386.34413932165785,-122.49823267461446,-237.4869407558151,-76.09024367332827,-113.6319278548999,-60.23674671427716
-77.75766905178489,-305.3481241354861,-382.79104045158016,-120.10605882539494,-235.03749258954267,-74.91817194808105,-112.06942293686755,-59.11499917115216
-75.57482558071186,-298.32514219954106,-374.0331849194069,-116.8446900401862,-229.7036490572172,-73.06888231145612,-109.56068223205322,-57.56954794675563
-73.79413859134654,-291.3527708439282,-364.33590203278726,-114.14669418962364,-224.09937116279878,-71.39777447549244,-107.40059890508498,-56.35105002322658
-72.85266700392647,-286.54230948066004,-356.9403297778019,-112.62210761334946,-220.04214809384115,-70.35525144437537,-106.22228365009535,-55.762171152050115
-72.51773981658226,-283.8165761734473,-352.3176778078774,-111.93653762314152,-217.64215482842462,-69.82365936942736,-105.79621636490738,-55.60396586280607
-72.30514017410756,-281.9215688426434,-349.15769968502843,-111.40488789914193,-216.00325250436026,-69.42219925014605,-105.5252872451265,-55.495705048664234
-71.91887746519438,-280.0103379422333,-346.4582076893149,-110.62022224604962,-214.4874490088628,-68.90494198740524,-105.04472632637962,-55.20565424336554
-71.33712325081792,-278.09483953316465,-344.2210745595106,-109.5741405180207,-213.1083465499279,-68.2725482024866,-104.37111491106377,-54.7200240955697
-70.63974788991568,-276.2907167720503,-342.38815640138785,-108.39775608731377,-211.90917942848068,-67.61364374368041,-103.65460116332395,-54.12655964576516
-69.90404513793075,-274.2029772235766,-339.92218296606643,-107.19683157064635,-210.4351015364138,-66.97077392582344,-102.98146833236437,-53.54402450085048
-69.25180384374808,-271.2917123319731,-335.4793209893947,-106.11575103651583,-208.07176440665668,-66.37240798050627,-102.41690114547029,-53.13762707150562
-68.82948450173781,-267.5357321771525,-328.795370119883,-105.32488648324582,-204.71828694447782,-65.86912903422785,-102.03497640288641,-53.05386460075924
-68.60409295952095,-263.3588454635856,-320.9796558938189,-104.75290524969371,-200.84427979432573,-65.4180250257034,-101.7269307004585,-53.21692601986344
-68.21470221285804,-259.00287818516716,-313.5220676878466,-103.89106263703424,-196.95151542074126,-64.7600485547152,-101.03654977881249,-53.21002130368592
-67.18720102417008,-254.4552086936871,-307.5275021688759,-102.10242851906985,-193.3385025005558,-63.56536011606825,-99.42974708741724,-52.49403779785101
-65.42485278631646,-250.22045656630107,-304.0186233258743,-99.3127002474366,-190.52743341965345,-61.827889883605835,-96.92737423081888,-50.88033305160137
-63.500676497634466,-247.75157420435198,-304.13167679931246,-96.40468561519363,-189.50902676034386,-60.11446699002006,-94.47395188978581,-48.854082085325686
-62.401144930994306,-248.39479180038953,-307.78997998814015,-94.81368575053946,-190.90436605779345,-59.31733244116844,-93.52064508153512,-47.42622817272574
-62.87240508568495,-251.46407220718407,-311.6917118953394,-95.55140128534738,-193.5369866662907,-60.01271913289779,-95.00611801218741,-47.576347829477456
-64.81963793030496,-253.36132508781046,-309.2406480425833,-98.33350798723747,-193.98930047520037,-61.8781064501213,-98.43435312737138,-49.60766204858885
-67.044089992066,-248.77312493513762,-293.62691825348594,-101.24781234158473,-187.95564035568174,-63.51413731336177,-101.57737864738488,-52.680976788292945
-67.31772902223929,-232.92985063513876,-261.91517673300245,-100.95915277251194,-172.3830939338447,-62.68276587105721,-100.84283318741383,-54.66539741602018
-62.791577028647346,-203.14255337510485,-216.62753303539634,-93.3965072687648,-146.65078711967598,-56.84398237727463,-92.16320384805962,-52.47498866702524
-50.86922742421597,-159.0503971311012,-163.59849296335142,-75.04389369836541,-112.172864733708,-43.9730522941959,-72.37324008455627,-43.08142045974455
-30.49891730492753,-102.48488758592545,-108.32776139111981,-44.73104821988549,-71.39309532839316,-23.601709981724014,-40.904044280188614,-25.06843459162846
-3.307867461110051,-37.80934383534859,-54.12421453330077,-5.120767540043772,-27.421328744141707,2.3093754478439843,-1.078133329170187,0.0008032060226478566
26.32308704371872,27.726066403842378,-3.226082317656865,37.32770047918871,15.573775977004315,29.346346417964615,40.06938189066001,27.431399154573793
52.74810312464102,85.05099520393271,41.07463542760101,74.56472503501286,52.37355654516562,51.9328730835752,74.04256368114854,51.009198121333064
71.59912052935891,126.63537006496409,74.6364071436164,100.56500786981474,78.38174616195305,65.6505393490277,94.55681868558061,65.81674070135641
81.91827984811287,150.9047868398637,96.22680539342014,114.28248319815215,92.70253196294202,69.43706168657503,100.71067117083021,70.67139485674616
86.29784935964649,164.24184928562383,111.59290560256137,119.74147271997049,100.15893775225584,66.17413458785411,97.43722484255332,68.50221323262502
88.55941397419619,177.31031089837674,132.1471410026758,122.63997105001964,109.22166166058264,60.88753290277037,92.33077486069845,64.14377856437449
90.34937481446056,196.45181201994683,166.1955569999056,125.44232569687442,125.6172426049415,57.38997418071946,90.44178022826905,60.855458786122476
89.19310595034817,216.0964112686009,208.41320772778144,124.58239450378208,145.85629866717017,55.58935424005457,90.53671619387323,57.99655543909013
79.78228698132963,219.17954093940216,237.41205470151118,112.30886034796875,156.56503916679404,51.52177018263809,85.7401746450447,51.615513832643614
57.87858280373593,187.13309688623656,226.19852255954714,82.30311331379924,141.72692119872414,40.276325108501155,68.42253619003023,37.59257190409513
24.102139540315573,113.21509039600056,159.70485265097744,35.172660897095845,93.52546588267272,19.796773110756142,35.998979319141974,15.072140996829127
-15.169752303988146,9.665980711722995,47.00342772143277,-20.167435673728562,19.130473006329197,-7.122068901785022,-6.40640149550156,-12.248383020579006
-50.51538949117585,-96.66470361979086,-80.86399134744286,-70.30266859846101,-61.55743023885928,-33.97870050662818,-48.18942656528758,-37.79590028167743
-74.02706184285971,-177.50758828328748,-186.30921148045454,-103.83231351427943,-125.82380293239179,-53.974118385621836,-78.75786153492011,-55.529408040432344
-82.85041828594773,-216.71250036787865,-243.81037210052614,-116.49484436278527,-159.27193705610046,-63.399483455683836,-92.67672964530695,-62.833496890249876
-79.74405392271484,-216.0699266482046,-250.25031644542509,-112.06283150802088,-161.41324551059682,-62.98078027748838,-91.47239090230168,-61.247372529406704
-70.77217997470215,-191.05926041519413,-221.97733954789226,-99.11376773287783,-143.192966353358,-56.713139870392055,-81.58252201390533,-54.96382185783617
-61.945714380660185,-160.75657519891774,-182.69691344225242,-86.24032182567778,-119.34366868447287,-49.34061630128137,-70.37300171429696,-48.39484311549648
-56.846110730166316,-138.85358125252588,-151.21599055369416,-78.61850250870405,-101.07058285190557,-44.195382420579165,-62.86128918269975,-44.34279496659689
-56.1221986513777,-130.199781729225,-135.7205073702218,-77.24221826844482,-92.88063844515565,-42.404553396067314,-60.60535324257383,-43.50162906050586
-58.388572996654155,-132.48387957891754,-134.95144376528978,-80.17816148814342,-93.55067054668815,-43.323038667578196,-62.456920582207886,-45.00461564175943
-61.52552175763241,-139.92280054545802,-142.43740065990784,-84.41478611113311,-98.84878171710115,-45.44985945790969,-66.01629350355933,-47.326622420503874
-63.723987283871885,-146.5047998398435,-150.47502521431647,-87.3571140632981,-104.03367586951123,-47.261522207859976,-68.93156277617965,-49.07124329069071
-64.10538254251644,-148.20731356182424,-153.103935036926,-87.71971155150021,-105.66100968025263,-47.79620672671541,-69.78835432879706,-49.49280047379405
-62.87705102867565,-144.20571331632294,-148.17440800860857,-85.76404766310655,-102.71603766207282,-46.936689968421085,-68.50197572957047,-48.6752920312461
-60.97092049620045,-136.62249102053138,-137.7111795912395,-82.80164699685805,-96.63969142094301,-45.27837007513013,-66.054573143312,-47.2912872919675
-59.33506872064999,-128.672289821805,-125.88488430837592,-80.19252625105987,-89.97803449119736,-43.61486671694773,-63.67180261089936,-46.064319601025176
-58.36834394663665,-122.44058926400739,-115.91363136814672,-78.5303272595687,-84.55128603394847,-42.403418152923784,-62.02099391555121,-45.322734389963976
-57.919232728195134,-118.13542728920923,-108.57033483645102,-77.62311236611671,-80.69155245318036,-41.63841297161129,-61.061147966807475,-44.97911828277737
-57.73480774722087,-115.2054900594758,-103.34393582302638,-77.12241889761214,-78.03030670850362,-41.159727455217485,-60.53531283877697,-44.85395151578905
-57.81018369201825,-113.68691026233618,-100.29091687601114,-77.02147188198461,-76.59361238099893,-40.97073396051967,-60.43988735199731,-44.931411785203814
-58.27313178417347,-114.0350492784127,-99.98052461241065,-77.49259633424964,-76.7246935594338,-41.184547388378064,-60.922905051031876,-45.27920097695713
-59.017401273543356,-115.71919187671838,-101.5917113206085,-78.3618973058728,-77.9576949937144,-41.70495142826569,-61.81017914398193,-45.79645147836511
-59.56852246212558,-116.49546879867026,-101.81597518762224,-78.91906284829275,-78.40258553989605,-42.0749069450485,-62.408879437829626,-46.14018574744771
-59.345440703603174,-113.52180735766589,-96.46168719833022,-78.30711839956015,-75.67396445389187,-41.70986653757519,-61.87613331889421,-45.927708363661914
-58.038964897738666,-105.39903773028999,-83.57607434201283,-76.08965533443858,-68.64025222957528,-40.29355224740668,-59.79431295791876,-44.99129246966678
-55.8123247893013,-93.40984140203983,-65.36240590308594,-72.55189335995739,-58.484761653448885,-38.00627849098465,-56.47793379651962,-43.47863764876424
-53.33608075104906,-81.3459541338196,-47.69993486595769,-68.73265128427695,-48.48172078865033,-35.525463239033286,-52.9557790903946,-41.842819688588456
-51.75803251258763,-74.45750210234515,-38.13197055422475,-66.33475746798047,-42.96909697042069,-33.91604955345222,-50.807567082012135,-40.825191447631106
-52.44009077781693,-77.71312152969077,-43.102334108131274,-67.30027945274286,-45.8338031640598,-34.358382126304356,-51.753068472699844,-41.30920248039063
-56.18218368327767,-92.8761426509353,-64.0952155690227,-72.67956452745014,-58.205105353314615,-37.504212858232925,-56.6776686210672,-43.81769708650029
-62.121304725197106,-114.92254548210965,-93.23696782467553,-81.07915506655429,-75.72304297692814,-42.56184020428893,-64.28105899724247,-47.76439918181561
-67.1503370092245,-130.56845140607632,-111.80644832450669,-87.89833472794845,-87.51043074116853,-46.7863608247352,-70.38566414343836,-51.052720566479884
-66.69589107167216,-122.04940638589825,-95.84865561013886,-86.54215330918007,-79.35666685966156,-46.14478259633436,-69.01554004317758,-50.609183516813495
-56.777069752693066,-75.96454634785296,-28.67148572451197,-71.46305343678344,-40.97419804497972,-37.172934714235275,-55.182496147703205,-43.77810804747938
-36.19532191454053,7.697827922306651,86.70087952394509,-41.324318576065615,26.692519080311307,-19.01584637184395,-27.821347806265976,-29.764085241264283
-7.46236650019372,112.78948284720082,224.45058265876213,-0.23512446711247065,109.46076338075916,5.693708547960358,9.085788460420078,-10.190564258268662
24.13477002188733,213.35066292971482,346.3554241403127,43.800737474011996,185.55981920786556,31.76725188859138,48.03901768687016,11.561114127657229
52.764406728328055,285.8046534375438,420.42841500510167,82.31928924829545,236.05969067678453,53.68493864544092,81.31221030664463,31.783392898666598
74.29276363480207,319.680487446713,436.4524430905637,109.73257060802855,253.7680342914285,67.83148396869603,104.05823987449473,47.79774746376293
87.39818356644753,320.55757465102874,408.8533819605136,124.83116383081408,245.2481871371521,73.58710194246908,115.57761283329957,58.57658781536973
93.25829485998537,304.274229442392,365.92347635397465,130.04735419508978,225.30687693703254,72.9574625229095,118.45708423342074,64.55189115419063
94.40723748080215,287.19430748045454,333.4858942375534,129.48853323766195,208.2775062749681,69.31507314937211,116.64648542421071,67.0347986023814
93.60692437787561,279.0775963680022,323.7666025935606,127.14771351273933,201.88235484829937,66.08338181794895,113.8393529351902,67.69643370630553
93.1016734175004,281.76397676471197,334.70485786330875,125.92766455085616,206.46258592883422,65.76559535085876,112.67855681615569,68.17763892742643
94.12180128219745,291.9751240605313,356.569870697082,127.21858168797874,217.95206392873305,69.25550808785185,114.40239957109422,69.64304591056622
96.57178651218543,304.63231381803956,379.05960147746123,130.73264794693716,231.1813374643834,75.45284120127256,118.58507985496679,72.32196786428096
99.1974050985712,314.94435911010834,394.99902701325516,134.8200606141405,241.76052330520804,81.58047596473044,123.29314131748143,75.43120729183846
100.43094560431784,319.8110837600797,401.38506088079583,137.50513316068532,247.05125754792337,84.48755891356384,126.1014799013204,77.73941169924855
99.47637011557356,318.9987631197641,399.5767144169809,137.7501403452819,246.9137055510705,82.43200097426033,125.59805222380736,78.42258511425798
96.79969220826779,315.14831635144367,394.4175812487595,135.96736961585688,243.6641109548139,76.17390081521293,122.2552853949759,77.50010875875542
93.65081430742416,311.84233279133554,391.38593749460864,133.38890527752466,240.5337746739929,68.54832907789384,117.94368516087972,75.54125830044828
91.12846886601476,310.9882282631505,393.069333561085,131.0051700337763,239.47892616906287,62.83407061260837,114.59198978208492,73.07246029319082
89.62082467688903,311.905551259358,398.00536103668475,129.0944317146987,240.27191205403452,61.08610527859557,113.17599617185878,70.33143198239932
88.90638452131714,312.84866569743434,403.0220584843996,127.54594872075897,241.61683014503524,63.39067342616472,113.63899882939569,67.4915732054091
88.51456854638276,313.07348867503697,406.50802500753656,126.2962771305031,242.84690607341236,68.13820456540492,115.33263589800963,64.91056031205241
87.91264182392614,313.2114551674463,409.2070549569927,125.31204194197414,244.31563920395575,72.85213711895885,117.33539581770415,63.027514390021395
86.5689932648453,313.9912761754008,412.29666856466486,124.35590541190805,246.4095799891562,75.19005216784018,118.61011464625517,62.06503219430877
84.17261666370408,315.2513705419747,415.6277881251648,123.09506353264517,248.77859225206836,73.9337091280998,118.37232461084736,61.9483179846392
80.96295986936822,316.39700037644195,418.22296265514854,121.5465048011698,250.8063330205854,69.66337763326231,116.65658360626077,62.53543154626926
77.78451136933536,317.33823767282587,419.861071687034,120.2655284950806,252.50776320025327,64.65780959055613,114.51966680656967,63.84111515707827
75.68790117951644,318.4837436502996,421.3656235612646,119.94951762723144,254.52798503411498,61.88498851564262,113.5062825876853,65.98198003630753
75.41149071968293,320.0147668650827,423.4694242714029,120.89534346425205,257.3306982916893,63.61159897092156,114.77240607478407,68.95803416183006
77.18811368434906,321.85100488237146,426.34939260342503,122.9378882837095,260.87625804976886,70.44927771813069,118.60497411173267,72.55724599147686
80.87000046975285,324.60260412136597,430.7821352578761,125.82681398051928,265.3037775390995,81.2308400981838,124.54108322670247,76.42870126073552
85.98021445066013,329.9546302203258,438.97744910261474,129.39354589805473,271.4517946210604,93.47300140963782,131.61090195517752,80.11855726991259
91.52604325461557,339.17352833084067,452.84662139962967,133.17822089866132,279.95936257556053,104.02430328659516,138.31115893591837,82.9859108730722
95.93458044528198,350.8075104357419,470.6837465269184,136.02273883100534,289.55022860569096,109.81495652067693,142.5906097073539,84.2178076086962
97.53355657632842,360.1787823692724,485.9558570969619,136.3574070675461,296.54527707626454,108.80256278318635,142.39834493131374,83.15895659872194
95.44127437942878,361.82641503825414,490.4093529568153,133.18115129801856,296.6986963939947,100.90653049790929,136.76370501365963,79.79850819668589
90.2264102919489,353.23969872183403,479.56069018355737,126.96260998905215,288.1605104918468,88.36264871862612,126.66103930496618,74.99037179668039
83.86373961907928,337.2004605527661,456.579254172858,119.78417020280591,273.3814264505648,75.1021775749108,114.97355185846735,70.19526786382329
79.08573413933632,321.513693660742,432.3500722001604,114.74748786241025,258.8908034250927,65.39430129709265,105.595960239647,66.96453995594058
78.4829775389592,316.5335042765974,422.1112206360289,114.9891366002581,253.28082443093862,62.4044374537431,102.17683142320067,66.48850233934412
83.47845396259304,330.9498149306854,439.47411216030133,122.37631603769447,263.83161801256756,67.12710048521274,106.77520064375473,69.22286267987697
93.20049361826335,366.09144933139675,488.1779929010735,135.87679581081406,291.937516212794,77.76892798686282,118.45081441364417,74.40832549841012
103.73035875042359,410.5930454732964,553.8613586257799,150.3038255844239,328.66761472054145,89.68572232995139,132.2410838448227,79.61728775393627
108.67152742274939,439.68397407229537,601.7904108402454,156.8734983889419,353.85403356539405,96.29675666136995,139.66371183299216,80.94678596321798
101.56132247390549,422.86894828474675,586.6101071968318,146.45170787496255,342.00003131641955,91.2778278410016,131.60290090432295,74.3726716622408
79.27789425223364,338.63450019224575,473.3615170205957,114.39638928577655,274.2863590670087,71.45989528132567,102.81196641632289,57.89760825302949
44.424963565384985,188.44922010190288,259.28927555843717,64.12548322955672,150.5503392004526,38.919603304104946,55.54201907533159,33.208305327581286
4.912496813756417,0.5937115949664626,-17.92945462897932,6.753181962628371,-6.761869134648551,0.7623932470861646,-0.2953944920213966,5.548448963744056
-29.37692936553353,-180.2462457222818,-293.14381363542833,-43.52324710382256,-160.5587058641955,-33.67720546377195,-51.08136972569284,-18.421022896784006
-51.038434041082624,-312.64432950226933,-502.1551309139226,-75.8114627118684,-275.33691443226616,-56.86565725454385,-85.55013246138546,-33.639083011344454
-58.16404015019826,-376.23941143985945,-609.6381454995358,-87.01393487493705,-332.54292173661366,-66.12537117341955,-99.51768566545113,-38.77253415605588
-54.327578592868264,-377.79043896493476,-620.891987672346,-82.00460122167041,-336.4710275124219,-64.07878204441168,-96.69097205095228,-36.2689155422599
-45.89948512034403,-343.2936033174196,-572.3960295882846,-69.88990370734513,-308.32091529798174,-56.48812702611794,-85.51967871430669,-30.526888917072405
-38.62768944858457,-302.57377480704173,-509.3888525751077,-59.0796900392968,-273.4019908280662,-49.05982004522989,-74.4573526173341,-25.526554840254505
-35.49110475100497,-276.1116943202432,-465.02468733687857,-54.08893210201389,-249.70073591765876,-45.14029940872839,-68.52752724422152,-23.340922951978815
-36.542192353111055,-270.2132483465918,-451.3735514199029,-55.18833428123808,-243.2962850829873,-45.23894907986491,-68.58087703120697,-24.03353273561539
-40.049956305967136,-279.96404379507237,-462.6675377567166,-59.98240658360656,-250.51350554025706,-47.951230359975256,-72.60754774446653,-26.445731680053793
-43.841998859144475,-295.4428124834942,-484.41095986749673,-65.34155714758788,-263.10344617673263,-51.25301348471812,-77.61128222954332,-29.101995491373174
-46.26114325686653,-307.326396518054,-502.14541827064886,-68.81636647558382,-273.06814606510596,-53.48634490569807,-81.07754627266142,-30.85153333714159
-46.69930977043018,-310.5390880972448,-507.35912180181253,-69.44902664926893,-275.86141281923557,-53.92215159776841,-81.85944839854405,-31.246167192109837
-45.709658379914934,-305.72192258034863,-500.1038334286657,-67.97123080748244,-271.754992166504,-52.92735659531768,-80.46951020810022,-30.646244578454176
-44.57330978219564,-298.0665295525548,-487.6864048778582,-66.2057728090224,-264.9927478600997,-51.64228523521848,-78.60048501906991,-29.934521073256725
-44.431684256766495,-293.65388598023094,-479.4489428632792,-65.82174297294915,-260.77972208690795,-51.20797866713204,-77.95461365750508,-29.900917031728643
-45.53622433186224,-295.3094023340805,-480.34099793702956,-67.23168713850689,-261.7103543942463,-51.989292781267224,-79.08691636487667,-30.706089495690815
-47.18550102725281,-300.89906198321285,-487.7320903968908,-69.46512139265194,-266.1363742742651,-53.3756555659187,-81.12944574036636,-31.848814902579512
-48.34404847032106,-305.2367915743377,-493.75924067483385,-71.03739302127478,-269.6324390942178,-54.29841321516231,-82.56018920648003,-32.62468312896475
-48.372522046088676,-303.8655175898836,-491.08519727653413,-71.0068059178853,-268.229935598612,-54.00694175815457,-82.31027658006866,-32.641626252777236
-47.35800576431452,-295.93139078638654,-477.78897251801465,-69.47150958076409,-261.02560570918604,-52.53629637027806,-80.40154491189006,-32.017859265683974
-46.03747131118335,-284.8705163480436,-458.91744917068553,-67.47404490096987,-250.9144548884786,-50.705183260460295,-77.93632362631878,-31.28258205926318
-45.56239594613593,-277.33745691588086,-444.9689259638522,-66.66484570399075,-243.70346063857323,-49.82425461243963,-76.72480695380163,-31.192083644264958
-47.11922558427586,-280.7742456633907,-448.0056462807311,-68.75732212043773,-245.97612795451363,-51.20773922399895,-78.64500812038717,-32.483429193319154
-51.2247911698155,-299.35638610683293,-475.24020561583393,-74.52007282278485,-261.5536572255329,-55.406905202621296,-84.55991066552762,-35.42139666189242
-56.85629880024287,-329.0792255285219,-521.240956839281,-82.52379279154212,-287.1974009759012,-61.324214421442946,-93.00823961212176,-39.2332858776018
-61.12503886323603,-355.1611332887313,-563.448393251928,-88.65026320216124,-310.22773340037605,-65.86673359284258,-99.64962442670097,-41.923910096067004
-60.14789017899345,-355.4809877843503,-566.8892243017192,-87.3142831398263,-311.31113167672345,-64.8231309520053,-98.47235126190908,-40.91336477717603
-50.891770573075064,-310.27719252388346,-499.08222442890224,-74.10345486121287,-272.80368839840554,-54.842939552697295,-84.5813023186481,-34.29701424529348
-32.84007665255025,-213.06910195173842,-347.85350907787335,-48.19639147073766,-188.45053095016434,-35.37211167085345,-56.92446728219374,-21.887022281520874
-8.30560390573226,-75.57204385144283,-130.50774642570028,-12.85175534295642,-68.08805853671683,-9.167456924203599,-19.040343148041746,-5.24924836760199
18.81316041262347,77.20804229798976,112.73109546481183,26.359701679275776,66.29040734422314,19.079367740459574,22.772377495728808,13.284576771263538
44.87379923668171,218.77773483949375,337.5376202823963,64.22275770671448,190.87979618436637,45.09910197236951,62.566795158639486,31.825374274282566
67.54127894517333,331.9363807386187,514.2555342115683,97.43469833127338,289.95420447240605,66.70123179925018,96.86600116382623,49.35305150857113
85.31251370227722,411.2984245774104,634.1394977939718,123.95117106536979,358.6837490109064,83.53097243987392,124.26307924620563,64.9762863214254
96.10029763911429,456.6789020146002,699.9974170075101,140.92126443807317,397.6462389620661,95.22409347773055,143.04203308936548,76.67930331979395
96.44853890956709,463.9615650715047,710.5693200933979,143.46438294055113,404.52349771494596,99.66853794152847,149.19977854525905,80.86674134444077
82.6370062241451,422.45034837995377,653.2832850293294,126.14610161726702,370.9797521785037,93.17099799732378,137.19975390112322,73.60836135995984
53.35631442183904,322.3553585601352,513.0587677227,86.77618893384968,288.43484350557634,72.83217548117636,103.59271467876377,53.13707280112368
12.067339807264966,167.145465505769,290.9385140490724,29.872305905522925,158.68024343716414,39.518433632242335,51.02877463260622,21.92883304990885
-32.97424782262657,-19.382265508805556,17.248557410080544,-33.13728175995338,0.6309599892625886,-0.8928363091615886,-10.569894947392694,-13.303798051230398
-71.54510027216924,-198.18444048529196,-252.7571431080746,-87.80545116442114,-153.1399261485033,-39.21092403101257,-67.09827156392116,-44.05221060811916
-95.68434589075929,-330.40731946099686,-460.172768227334,-122.66086927525127,-269.11853025657877,-66.75553017581923,-106.10109691052487,-63.60106942958429
-102.92523777965417,-394.12480731171945,-568.0844691573498,-133.88186028237257,-327.34717763769714,-79.06797157872906,-121.98022634607617,-69.73914442940088
-96.81565748807324,-392.65885457620703,-576.3985194720393,-126.14686133202748,-329.20846074733066,-77.4320684325684,-117.70807192166538,-65.18849781070726
-84.75326891427636,-350.63181868945605,-518.4395458583211,-109.6368017049676,-294.74291808992837,-67.63043431452954,-102.51016712844327,-55.8100471446815
-74.62939632875205,-301.48234747566937,-443.48342494825465,-95.3107728591007,-252.29993419196484,-57.01476938601541,-87.33110443449647,-47.848542173209154
-71.97374676236475,-273.8478201827322,-396.04389459919884,-90.90676146915753,-226.79383940380012,-51.58214465271011,-80.60335394323666,-45.62858051358397
-78.38912960293081,-282.24960026273476,-400.82970168116316,-98.8182149942041,-231.4506211400087,-54.12809758030394,-85.76829229573018,-50.35816952953156
-91.17084884877622,-323.28232439160774,-456.0260867274918,-115.64947343035499,-264.31476314496115,-63.584912276018976,-100.56763838547498,-59.936209461688485
-103.93715172643012,-376.53421267927376,-533.9060551148913,-133.0948361732451,-308.8703244370167,-75.32110885645892,-117.71643485144197,-69.55916955427406
-108.48342123047425,-410.39877658002,-588.6966798936911,-140.36345013871625,-338.7735886833074,-82.46690233098916,-127.04345831259401,-73.20909705559657
-97.8982800581049,-393.2803401167475,-572.4729037752154,-128.24331683762057,-327.1024295017674,-78.38387329894064,-119.22167208972131,-65.99994919721064
-69.95626081443808,-307.70634458402816,-456.02535962162443,-93.572170524009,-258.2123211252734,-59.68501666334097,-90.11013900119384,-46.630090087108066
-28.88644666204953,-160.60947326294638,-245.28882027951857,-41.62027512609616,-136.70758904952083,-28.30438829441009,-43.44976946663951,-18.544837049192363
15.980374269974707,17.43095068222657,17.680200663735643,15.634218709247317,12.619410035949368,8.884939548673168,10.174187002933323,11.251585468423485
54.36194191653128,185.52502192371378,272.69850979883745,64.95021899483346,155.5206971060216,43.10061153880326,58.11706497623307,35.419611038863835
79.66948857353712,311.4607099373886,469.42583899653147,97.93628194628032,264.22362300538555,67.73258863003751,91.60569532148635,49.757560108702485
91.2953849827261,384.7161460615439,588.3211265069027,114.00322878647722,328.84078711566536,80.98554814601907,109.12277629450024,54.75345793352224
93.1715871775664,415.22563719244465,641.2428274058675,118.30281266625147,356.99047014834406,85.4156304943248,115.06467236608289,54.20155008565804
89.79473312211329,419.38740781425906,652.1917935942105,116.29492470923351,362.4017514700677,84.80650418742347,114.75249969888297,51.87219540234349
82.68307006797696,404.02653366303974,633.0285232377313,109.03226788738996,351.2398030898015,80.73615259022571,109.53993056622613,48.623318684026884
69.80470180236104,360.5057484136211,572.7175689106749,92.66667582157248,316.5721448573924,71.3980740903818,95.70321467397274,42.01453125760519
48.19666676416777,273.38255638413654,448.2847095048009,62.42260553234249,245.1657886031112,53.5143955436453,67.92958886125284,28.61811009360065
17.60500235422116,136.85848055819213,248.9761978357074,17.90060279661005,131.34761610862128,25.827335647147237,24.733696573038355,7.247596019442323
-17.666490377125267,-33.60274667235806,-4.956509942615009,-34.33047847232791,-12.693793542370177,-8.50496713711664,-28.2824460552936,-19.262225358579165
-50.06905282039217,-203.46979763416576,-263.4255176910621,-82.80191811783791,-158.1263141392363,-42.43236467374805,-79.78599382960016,-44.95161778316962
-72.36760068211358,-334.2107406409485,-467.833006111029,-116.50282904974951,-271.89564029625956,-68.1695923076208,-117.86581990743699,-63.63843510609936
-81.09287857336403,-401.60463367728016,-578.9874636494347,-130.0585550289364,-332.43160549096314,-80.92946028555832,-135.67442874597822,-71.90179857376037
-77.84826857240178,-406.1490669012242,-594.4208538122498,-125.71271128705496,-339.0304433530179,-80.95827305386135,-134.2120432428079,-70.40288946639512
-68.06301419729323,-370.41178869470735,-546.0192473544736,-111.48669985429238,-310.13274272759674,-72.92456713889585,-121.0726485003973,-63.10222175778845
-58.36573629585353,-326.6291384069788,-481.81082893638154,-97.23952785068336,-272.96856429951146,-63.43376559889694,-106.51787931603239,-55.24584352885311
-54.11749357154842,-302.44501214482665,-443.8033569850744,-90.9357399841627,-251.27222435714683,-58.2464687686886,-99.27512138294291,-51.34615673660169
-57.84542016907334,-311.0780156221105,-452.35072469634196,-96.28514227468182,-256.6839431734344,-60.322300774555146,-103.63493666577497,-53.79444648744619
-68.48205208592583,-347.67749603460516,-500.61793357921226,-111.65849259682481,-285.5730714981779,-68.92626267256405,-118.11445810539772,-62.09590062486081
-81.33175251298633,-391.0540372673715,-557.7988023087325,-130.1308905005168,-320.5477821761805,-79.70924669187528,-135.58607156330928,-72.71884534575713
-89.19357786052107,-410.40167415795554,-579.5583888251484,-141.19667437718613,-336.0918717197405,-85.92624247011142,-145.21537151956173,-79.92480611959657
-84.98207916342045,-376.8191734026871,-524.7116855965057,-134.59141034378516,-308.05408592616277,-80.9402208508129,-136.46075330170862,-77.8552078681121
-65.13148630821998,-276.7643634906783,-374.14813450808117,-105.18385165353756,-224.74152267666426,-61.37457592350449,-104.07834571068706,-63.30811770875668
-31.96980761198631,-121.04098303283695,-143.41794038882938,-56.3552719334888,-94.50480441936381,-29.33953450136103,-51.60867612442302,-37.75988722223563
6.644939366046333,56.928669443362125,119.59997520722821,0.5552983181787396,55.34620693351196,7.825346140417333,9.091792615403376,-7.239466613521762
40.607412691278974,214.3475239989291,353.25329778481404,50.97646115043318,189.17710337622472,40.543401332351166,62.62354912263974,20.166363893893283
62.06694523269026,317.40557252469523,508.199625612514,83.55491939566008,278.193689768353,61.243917852344794,96.76767008060315,37.909033861542255
68.62297006986762,354.834780056662,567.1305898200764,94.72104264935982,312.0212455236694,67.50955519774718,107.48790325788107,43.687825864422
63.54111435623969,339.5836444387594,547.8453731079132,88.99393852566145,300.6489445951936,62.45698359737223,99.59690962255634,39.86328671217886
53.23811124044042,298.87014887945867,489.47335944116156,75.3950392450056,266.57930335913716,52.4337344703552,83.18038050989496,31.62586839381871
43.871425958159826,259.63264711989876,431.4504726794712,62.5948779919701,232.72859126976863,43.693328379789946,68.3166858225695,24.25725381639713
39.01787118339517,237.94010802312735,397.67274926839264,55.61899696505953,213.2319313717646,40.00247305564227,61.133439242398396,21.0504436082432
39.244010522295895,236.64595047278078,392.5982840657369,55.251025572305345,211.03101498141544,42.082590365038726,62.71835639050818,22.651015966742587
43.02754610245,249.51485948587165,407.20767053830275,59.359030083521056,221.08106365073215,48.42920955120542,70.36529843487838,27.585625952777523
48.030268175003805,267.133692318074,427.93208412161795,64.72262692703026,235.3445496145943,56.50062941186954,79.69953891526768,33.32717449406731
52.12636361203724,281.30887316355836,443.3094293545044,68.5119164295187,246.6806072278054,63.66565640641936,86.61366466756269,37.4106876868076
54.06918943617868,287.3961384428765,447.3109739798086,69.24112125440647,250.99979550164488,67.88521345648225,88.64539380620819,38.337961216386816
53.752843493155154,285.0503277992755,440.2004438883129,67.112053423199,248.0176611043221,68.21492514960421,85.62941223691037,36.023664790831745
51.965499650746416,277.3882029778126,427.14511925790964,63.583442856086755,240.5848792537724,64.99218440855793,79.40090435750048,31.58616445071734
49.749642362437754,268.64830595732303,414.6824249841609,60.34419871312373,232.6407859209686,59.550828146399496,72.64019226669359,26.61486088206471
47.82141251030749,261.6482258182199,406.80891201505733,58.38837579357323,226.88328235228994,53.61195168670155,67.53619865753653,22.412945065662683
46.4510568534195,256.8686958200827,403.4713941879516,57.83129559316912,223.79266573249015,48.71390254451758,65.07847551193942,19.673999996987273
45.71034994709597,253.5416179031372,402.33568235501855,58.36424450590883,222.4893651983497,45.87087316814267,65.17267300093313,18.593718427695112
45.62618389767733,251.12923552481004,401.56311474024506,59.65430646496937,222.1366537736054,45.36011652054576,67.0774636781601,19.055645065628845
46.00888909071973,249.49994547738947,400.6956154903106,61.26713274886974,222.33767157062627,46.56560518637169,69.6662463599241,20.654623596173046
46.24982000364416,248.02965445398075,399.4151748121144,62.43822605255631,222.50798517322747,48.0789578901139,71.58383375284409,22.6986783177794
45.50537537775276,245.27659513210517,396.4964318242324,62.249144356990506,221.5209453280519,48.27462181511025,71.64215240608469,24.42239284250996
43.229258855906004,239.98711828351497,390.57045360046544,60.19674697186244,218.3713233277767,46.15346669778485,69.39826175585121,25.337893130379648
39.56872349649718,232.28748312562524,381.5966814674788,56.567640587620104,213.0662092593341,41.86808957953036,65.39420396781952,25.392402778167067
35.27389904429846,223.6059354382397,370.99497636713363,52.22604384319059,206.5844322876016,36.5404206978817,60.7470213159073,24.78025042378069
31.289437049276163,215.52283881773067,360.37515137778115,48.11036254280257,200.01253873389848,31.600775555645605,56.4657843437714,23.65969122789742
28.43423075047023,209.05185547233836,350.76435630496894,44.98067299735599,194.04927026254347,28.221103105964126,53.146628230876075,22.120125987249764
27.286237394693718,205.03049127083673,343.32783758251844,43.47056670191602,189.42753893018502,27.125438866734136,51.17363869589433,20.39739662262268
28.05086134835887,204.5416722777084,340.08117770055316,44.00072163870456,187.32658107758567,28.5603832776638,50.90312595700844,18.988177469944706
30.299441478131712,208.1098858649371,342.6488310390739,46.33308356967339,188.65245763489196,32.13545576417482,52.37792951383895,18.410091666351637
32.844163816422494,214.17122698249932,349.6590924285127,49.19518609468414,192.56450757999374,36.634133294522364,54.81427715276101,18.766466487252792
34.08411818033297,218.69559161500106,355.6753945915834,50.576667016310715,195.90891100165868,40.183881644176275,56.53157132482157,19.504679598785057
32.750884953872905,216.97363414433335,353.5512156001597,48.707607613093984,194.58660926776423,40.95113215881223,55.631056881881236,19.582145292274426
28.5880902029653,206.49929065086877,338.8675709604759,43.081306689018085,186.06286199307465,38.04742668188006,51.043049994747555,17.948132813676445
22.5800994521572,189.01356796373892,313.4005010957285,34.91198789199941,171.32172000028072,32.127558155753555,43.318113139362005,14.131682435676574
16.716075691861725,170.71625808348878,285.7828747190553,26.917278214633892,155.26643338938118,25.36201260042908,34.803394929820975,8.734143764629291
13.414697122790011,160.67576615882808,269.3157711437938,22.54409150592384,145.4994374492272,20.746215532181363,29.079069119467626,3.5361853623198836
14.575511972898239,167.36857894424747,277.0195425451539,24.58183618695759,149.44379206259114,20.839723563831473,29.52720373271405,0.8549226258705802
20.27198209144137,193.28613143662963,313.84235748910174,33.21621771910836,169.77047082487888,26.19812190659915,37.149321883029025,2.1129656974007003
27.646250984157035,229.33817202044656,368.17854654595186,44.36956966437981,199.52261870486885,34.16258198239351,48.56257516750953,6.323043367699969
31.064448490236327,253.27944508758114,408.58866949854456,49.881311798729655,220.44893029554885,38.98282522529292,55.81584962305618,9.690685536324683
24.19437254302486,236.12003038038273,391.93487300631483,40.498606031994335,208.01307680839633,33.85486700272873,49.14528974158994,7.081880616836231
3.3263156745993876,155.7609061379379,282.86173210993263,10.704856176426702,142.73424633540563,14.269568740352753,21.883434377152206,-5.188627711495329
-29.979912984844944,10.929543181508372,75.24875031788359,-37.387907069865875,22.239672909914674,-19.103219657800736,-25.183556297017276,-26.91915535396618
-68.79218238410921,-173.69297196454224,-198.04910405454032,-93.81371325151217,-133.74603124854823,-59.876859345848395,-82.92511048560615,-53.58394134719057
-103.63225936556123,-355.79768182894924,-475.3397567467896,-144.79447846536019,-289.78657499339107,-98.38441833677763,-137.4174941901185,-78.31490202211852
-126.72497244145562,-493.51324739088943,-692.0862692678032,-178.9041425775679,-409.7861719185842,-125.88958258877446,-176.11783326942844,-95.15708756020622
-135.2378414388595,-563.2141643203773,-808.528551270144,-191.83373618991698,-472.4186901101187,-138.24538738379758,-193.1746960010273,-101.67067999654074
-131.79114017283038,-567.4036824489324,-823.8640463172251,-187.22661382989443,-478.5287155061278,-137.06086563599825,-191.03617362284888,-99.48222164829744
-122.34536788980621,-529.654096752557,-770.943569544471,-173.68126531603724,-447.4835326373091,-128.06825792143383,-177.99140613007833,-92.80744988700636
-113.13144503778561,-481.52823290976124,-697.4993612870533,-160.29805674305422,-406.2652801780077,-118.05481406466971,-163.72441252030407,-86.18884613887221
-108.42830102413092,-449.73401639825124,-646.0365111780732,-153.39650013150057,-378.26629111469384,-112.21135429746721,-155.57678880880243,-82.8181765678611
-109.8330058065639,-448.7657351852231,-641.1585153448762,-155.38659212195205,-376.5426866076064,-112.88084651401093,-156.84995483351,-83.9455298015091
-116.47253887159692,-478.9151038713342,-685.2628984229797,-165.03998581563496,-401.7735920016348,-119.48143568833905,-166.71666971641747,-88.98207535869038
-125.44677381768446,-527.1733283828216,-759.3413200981707,-178.13902913373897,-442.9493668233942,-128.9635533155591,-180.80567367081184,-95.79159108291223
-132.45739859641265,-570.3016295078439,-827.6005506204881,-188.4161827415197,-480.0825627263253,-136.615676530413,-192.27517665880552,-101.1573190855498
-132.9842769805449,-581.3956329593252,-847.6803158548518,-189.28729974180283,-489.9497712599868,-137.44755446317333,-193.78975368922494,-101.68675149242438
-123.93962804694064,-539.900992570024,-786.4899872614083,-176.2740773024853,-454.80136357231703,-128.05344691132166,-180.27294915871207,-95.06820686968535
-105.01907934657291,-441.22220301353644,-635.8483749324661,-148.9828271855424,-370.73901554519165,-108.14197439195009,-151.22361176553736,-81.06820554279005
-78.88680837386744,-300.1836392522958,-418.7049164115511,-111.37447178438204,-250.75238844375355,-80.73192911715329,-111.11773833856137,-61.635301086722855
-50.05035389730065,-145.3664579051331,-180.5694846483232,-70.0972857127564,-119.72099071686698,-50.7390158329709,-67.46874828705865,-40.043440353534756
-23.142354019789284,-7.018049995989639,30.121250820295703,-31.924522496792548,-3.685584350521704,-22.77293967067418,-27.658227292097717,-19.642518344312183
-1.6183165061198392,94.51547580262651,181.44788405001586,-1.7956424280855463,80.41905053972992,0.46549516565178917,3.562159289832744,-2.95910559554437
12.579040938783216,153.33541868357938,265.97410812897726,17.688994078217842,128.658015522683,18.239287883790357,24.57022866150451,8.492990366736203
18.67487408837874,174.0992456830889,293.9949780179337,25.70122898599051,146.2327831338376,30.531700225766045,35.600221632558316,13.963648481678929
16.85322847156052,164.33748189154386,279.3357500828198,22.744364861454567,140.04594931729198,36.811914386202666,37.276253189596005,13.40782825420727
8.683435066442126,129.76192804478308,229.64204184875302,11.13131859208457,114.04054589760062,36.08802194457044,30.479077506410277,7.943432941525647
-2.278552765708855,75.65171445311813,147.91156716822596,-4.195280296901469,70.49840081258515,28.302101793253037,17.545755066355568,0.38335477794759354
-10.796599059662313,11.272779579013518,41.54958570452719,-16.02041585661264,14.812125131836206,15.755251002023089,3.2191770735126886,-5.052241655169617
-11.736016127066137,-48.5649829051688,-71.18877860035629,-17.251293520534066,-41.805498525987076,3.0383963091248853,-6.262153102940827,-4.260885122068918
-2.5752692705269573,-87.87464339614083,-164.64620800585297,-4.378677662577807,-85.12927565589646,-4.871200292789679,-5.914170278936158,4.655353074102697
14.995095808166724,-97.27451197582867,-217.50851903023948,20.268313843169853,-104.71084151638334,-5.159528497923383,5.187521519524545,20.12187861425832
35.64400041108047,-79.36566722617549,-224.20209113689663,49.26490074886,-99.62312721894297,1.3919890543115991,23.146664715979202,37.647572953666256
52.988294061425826,-47.40084665560835,-197.44232664560536,73.6705295400241,-78.80312005164453,11.065675225845704,41.252285157450615,52.01078350340389
62.67422022276723,-17.867295887800775,-160.14117340690532,87.34595966746063,-55.677824855608804,19.4519796951704,53.51940422108051,59.77470243811073
64.10787068708,-2.026636823235072,-132.667485699715,89.41449030525119,-40.913762375333846,23.736214526049558,57.487461153413825,60.63183786627878
59.96292309892385,-1.8740783826115837,-124.15303818611417,83.60680819122668,-38.126930363078586,23.638617465720507,54.6465432382026,56.92175576774515
54.125511331617716,-12.153537442985206,-132.26372615981035,75.38481137203078,-44.568818360711724,20.757954958044408,48.662272410483865,51.91054241993851
49.62545673434725,-25.491351504918974,-148.90137529310937,69.02111795835005,-54.86886947165132,17.18571427124223,43.016531280392805,48.101465730399724
47.71347775062368,-36.42247214738023,-166.07505854212766,66.2863972444413,-64.41370991427326,14.452072357704814,39.62639392955678,46.498152425849675
48.11629885967388,-42.54629204808587,-178.63406590671386,66.80461758121663,-70.65422625063687,13.199832490148179,38.78028930427286,46.82969962250427
49.761067682815636,-43.96031796321723,-184.63192087102334,69.07450322683378,-73.01435741146169,13.311299070215622,39.71471182901938,48.162834692968254
51.40519253923697,-42.510025145157634,-185.13365766329392,71.35337132711663,-72.54653717067329,14.151386405802217,41.190184633591855,49.44273973186066
52.104843788436696,-40.930740807597886,-183.49476106974467,72.31175818021676,-71.36793175096307,14.892999799710093,42.00540730534926,49.89311004109888
51.57957019106938,-41.39207877628641,-183.30983640607775,71.55036024323168,-71.44754797458984,14.955408909492034,41.54658503472878,49.30729344085391
50.29533680026747,-44.10717876805853,-185.9374139130611,69.72868243093099,-73.29243037156978,14.328879682783818,40.10387120785493,48.094016614658166
49.07394446120447,-47.472798068239584,-189.9926569197018,68.01909028556575,-75.84453279446085,13.469845264035072,38.56410290395138,46.94594235796474
48.451560682504436,-49.92983644666747,-193.59745733104475,67.1885238093128,-77.90175128243663,12.816091220282296,37.621628481849044,46.322110984232566
48.339027549830014,-51.70217805478838,-196.98696799801374,67.09787825501999,-79.60353770741763,12.393565485287526,37.22423517300238,46.17572904846951
48.26969036793266,-54.503595808723944,-202.42895766190856,67.04682929581762,-82.30162713735805,11.900154947317095,36.777312049264566,46.138995130629816
47.911843126297136,-59.534097555115764,-211.44640459351436,66.5201886870625,-86.93789396886987,11.118737662209927,35.82017693730465,45.91129497139137
47.30466134666712,-65.94946066194349,-222.42348429124635,65.55711501757186,-92.71924101805381,10.177600084546121,34.439060665729194,45.444843715961284
46.68801805492924,-71.27592531282195,-231.11768586800298,64.53341342179964,-97.42684406280023,9.426006267578542,33.103995774808766,44.84328406157885
46.26819757568084,-73.0651042982843,-233.38552424525804,63.824592187482615,-98.8697534301585,9.154786003777676,32.29512048993925,44.23304880525119
46.19410339597854,-70.23199439138739,-227.67333639022246,63.73952258808775,-96.13815857558815,9.46523022836991,32.33743918246046,43.789360954383724
46.588663304633414,-63.660427947747756,-216.15194993648953,64.51445059277233,-90.17367560459377,10.260279861657876,33.34604123370443,43.760994429163276
47.362586761465124,-56.644557985297446,-205.0421535511307,65.99464668508296,-84.0627663991988,11.151069667872866,34.95824212229731,44.26749301747394
47.9344110764986,-54.90461533329571,-203.93607218269648,67.205113257276,-82.88939477434731,11.337554153619125,35.9979116856202,44.979649501229694
47.31196352215153,-64.69760265571132,-222.3039445207938,66.49345725083803,-91.99423431623764,9.821972948991577,34.69674323908536,45.07507918843394
44.694903756559704,-88.52620164260685,-262.6477472189387,62.49436113212643,-113.25013166007999,6.093575473503123,29.742182231820678,43.64801507624839
40.11216427158691,-120.94915866580743,-314.10040677820786,55.19555286136464,-141.46212887253776,0.8126303679809763,21.460497563671414,40.25353660704053
34.42284188765312,-148.6167148479359,-352.856121889864,46.06153545846078,-164.43766668787714,-4.2348212135068595,12.010600240143352,35.09053990529108
28.58817933992904,-156.27095484473148,-352.34820902178404,36.980656788485476,-168.31046173862262,-7.111176241366433,4.197221543091488,28.701441847250685
22.860834438287537,-135.63331244566822,-298.42802583311897,28.914051997795973,-145.5158298864164,-6.976024816197537,-0.26344907100175147,21.555436722941906
16.65360663557257,-91.18450600120038,-199.64560501835655,21.401941729314732,-100.1239911699068,-4.626285608804996,-1.6833388174504111,13.950517137628658
9.248176898418288,-38.53537992658227,-84.97482450526279,13.317766599394687,-46.565938118979616,-1.869655920899878,-1.8537431863216565,6.292041173779978
0.7617514190876038,3.8613178545016154,10.415342275170428,4.206491621280596,-2.2228776350366277,-0.19660223944242677,-2.5049539105359098,-0.6037474046872506
-7.476790984794074,24.301324161157233,62.5873491029459,-4.9403537782324545,21.426155006699897,0.21626084021872022,-4.032690447717664,-5.604266232850956
-13.56451844413215,22.601755563704206,68.66988321774073,-12.177191565731645,23.51443291038343,0.38734994374445797,-5.49704874912537,-7.849235063087131
-16.267270186588316,7.635800506518494,43.970719410710984,-16.003246692152583,11.916512604233592,1.4227033956453898,-5.798860430638508,-7.440755741045436
-15.891600735911814,-9.52110076787218,10.23322291630776,-16.487658855088736,-2.905286899459321,3.3860537005698585,-4.899665902326852,-5.617023223439417
-14.077781844679942,-21.49336301884207,-15.969355624423269,-15.18025898001279,-13.56586270048452,5.111384827844054,-3.9645727400213713,-4.133344814855169
-12.729657839513372,-26.31619991640611,-28.146584836773254,-13.999925919780173,-17.753735768207743,5.055517900045131,-4.396097267920449,-4.259490361268863
-12.983342330163005,-25.786347492917457,-28.17479605714032,-14.159457030909307,-16.964819981732717,2.3962734299800887,-6.768028667184182,-6.1667391504821785
-14.905432881175123,-23.19535676362823,-22.14476257197613,-15.90537548043063,-14.335961656175519,-2.490730699060103,-10.592837213641145,-9.11738275361493
-17.837950708576845,-21.878655259741414,-16.8929463566302,-18.878322584812686,-13.06328484663182,-8.355857016443007,-14.880225101294048,-12.152019491685422
-20.86309983889074,-24.135931953913467,-17.41758852691902,-22.430828551558637,-15.259365988637585,-13.739551512164601,-18.749886439079837,-14.639945756320754
-23.09885891867466,-30.147347601215852,-24.822867543819818,-25.691488765337787,-20.974789183120315,-17.497035835456085,-21.625569118675703,-16.375958226875582
-23.936208417623153,-37.75675658981679,-35.9134992743175,-27.73410965048978,-28.061741931499384,-19.069094279078058,-23.199443056304172,-17.401620252190302
-23.302903873815076,-43.93587039710002,-45.572070724091695,-28.05401682538453,-33.538832844118836,-18.571727723520343,-23.498465634462672,-17.84561338953301
-21.731914877685288,-46.99151717736448,-50.52916943673273,-26.94657921983103,-35.656586862196534,-16.678866791200047,-22.96601769245379,-17.84240987420529
-20.016197908095474,-47.48157937367245,-51.269481601634425,-25.2796342198342,-34.86269238034039,-14.257203635681801,-22.253298111535724,-17.44247535078775
-18.66607509021415,-47.098455889281,-50.53268614618852,-23.800821949333248,-32.89679288161332,-11.953692464034335,-21.783636562079312,-16.55023493381473
-17.678422262095047,-46.99358895495089,-50.43938250842172,-22.68310794571729,-31.20312127540601,-10.086716956555996,-21.555744636613063,-15.027961822605189
-16.814664556416425,-47.35625278979133,-51.34661880420177,-21.71421022633742,-30.31912653264988,-8.905990255218086,-21.423808507701192,-12.929852782598049
-16.010233121529268,-48.192578601734745,-52.93142803819789,-20.756248902968895,-30.394313875155184,-8.822385480831217,-21.469792532566718,-10.59613101078608
-15.433588812731728,-49.76167154704882,-55.28841997492069,-19.86701521815186,-31.607258938949993,-10.182621452436642,-21.930968518416734,-8.434499553859085
-15.20987439957166,-51.96821861094474,-58.48271967280521,-19.05521659808206,-33.77965013266103,-12.715339104139844,-22.742759369870072,-6.604790571931273
-15.257671268958374,-53.84372598447581,-61.739500447881746,-18.19131645583886,-36.00471068783262,-15.284221425106747,-23.33939705230563,-5.001128740160392
-15.485344642582016,-54.343323824483576,-64.16778269279321,-17.33056342784098,-37.31169239063045,-16.392554023012764,-23.105836323056003,-3.5966750488381973
-16.050447704036262,-53.77957989795086,-66.49111317982627,-17.004892912131602,-37.87319831949521,-15.142224824311219,-22.0548796539876,-2.7460012239371703
-17.259707498066227,-53.960369338578474,-71.18482282587053,-17.929781630655626,-39.15267577530131,-11.87456430020232,-20.960360879527542,-3.0359897492339334
-19.164664927085667,-56.42236235374477,-79.94097441403493,-20.287199043291867,-42.413607746537295,-8.010738913907433,-20.770369356604714,-4.786344776554479
-21.34754811382182,-60.51963731377536,-90.84697937769943,-23.366937583830996,-47.031922506942465,-5.284460740680317,-21.913465480316738,-7.7155040290266665
-23.19715096976342,-63.50759659578924,-98.57776076192982,-26.028511905522947,-50.49398416456343,-4.907299301040869,-24.139097236290507,-11.107234434567713
-24.40066575956626,-62.658907912581334,-97.93482760907794,-27.561968514853852,-50.23093144222552,-7.058085545963706,-26.871136800322198,-14.281581761936286
-25.168661620457435,-57.494856917311665,-87.81165282784272,-28.172932676336284,-45.674309597058226,-10.848274317014413,-29.61442993538478,-16.93743689404173
-26.080969202455215,-50.58132682060878,-72.78610298887908,-28.838953684645016,-39.082705187115515,-14.83132329753825,-32.19115378409564,-19.193711986261036
-27.818425176930187,-46.95295607363116,-62.05306110449991,-30.872295143666005,-35.06107093251948,-17.946043101442694,-34.92188362186067,-21.46300032283096
-30.920201193068046,-52.633578869796025,-66.56839031899953,-35.41841237079729,-39.181724657256844,-20.33346677830358,-38.663045569373054,-24.23715295273816
-35.37741654129401,-71.81496256121959,-94.2271462213049,-42.69795825811638,-55.442854023489446,-23.198258739435367,-44.2230860554862,-27.66876720818116
-40.00698224109528,-102.47065750240003,-142.9104613448932,-50.9922391016969,-82.4190605341436,-27.434766280375502,-51.00820256803796,-30.983642663340493
-42.14360086517465,-132.63215833637562,-194.4785193922565,-56.18789997823573,-109.94039198670842,-31.922419214777715,-55.8187893125191,-32.21239804155533
-38.41905935367078,-141.58707401002923,-215.99466527409945,-52.98399115874076,-119.91470901864695,-33.08299461549427,-53.30462847931431,-28.839754839255047
-26.665756141197477,-108.28163457107533,-172.14361408665204,-37.77966262914862,-93.40109357399623,-26.55668454258493,-38.62320919548941,-19.330773697273216
-7.816058253020976,-23.5635793292021,-44.56696101872699,-11.56726312733197,-21.294986574945764,-10.127978728229692,-10.900031804673908,-4.586599682182697
13.72877436551099,101.55210837355952,153.5899309070577,19.42203782549597,88.02072363885759,14.174190177346661,25.020286865115605,11.857275959715658
31.864043761841994,238.09791954373412,378.8136454969257,46.23481485683645,209.9195556604906,40.450565261237756,60.130457216582705,25.289452628887073
41.74787386782425,351.69489416066773,575.3691126617973,61.54382143277969,313.99101618724427,61.695556012860955,85.4368567074434,32.13595743104942
42.132883450614926,418.2930272996077,700.4872162869988,63.154327205544014,377.86785122834425,73.21115759367119,96.22080295775655,31.685756692505304
35.64241200487748,433.88068520625694,741.9771924726057,54.555006298770834,396.3553529035125,74.5668162254948,93.81179926028145,26.17909945417491
26.95955446622578,413.0927460324332,718.8759424940142,42.3970359845167,381.0403878625444,69.09599712053019,84.02449424401007,19.314703079053967
20.23906403718996,378.9253289079507,666.8749902293027,32.7537883465386,351.8022432501355,61.58874355635723,73.59698199660431,14.239818169967593
17.38190200693104,350.85323344310893,619.1720913945761,28.544824665419895,326.3369207486804,55.844652400729856,67.02490927136114,12.280642717998903
17.952192766614647,338.1008207507899,593.968144051225,29.309088237648012,313.7444621227514,53.450702284583265,65.44147809395804,12.96201363060284
20.264132827243376,339.8804264652708,592.9023675070098,32.70499897016185,314.1741241220622,53.99951803084159,67.46708595617426,14.900675726498857
22.585122389866175,349.7306346569038,607.0033677010217,36.238174046300735,322.3468786496133,56.04222840745875,70.78626215570925,16.743462752358848
23.79280806732828,360.1301888684569,624.1840122318857,38.24119499777594,331.64037337789006,58.00917634713296,73.36329414660067,17.65535557241669
23.524459851148688,365.58129764138806,634.7814979843413,38.128212573741,336.9739535401832,58.81008945612734,74.04767030083639,17.407993125921355
22.104020371732016,364.1689365287146,634.6113428501659,36.3177413004848,336.3411968148708,58.141907886953724,72.77656024352522,16.298388586969548
20.31564744869334,357.67964740454005,625.5861718299896,33.920964878869114,331.0380745035544,56.4819736011489,70.42570621597976,14.954725653212206
18.969041928628645,350.047150272899,613.5937857621585,32.11743078373836,324.4023014381666,54.70326941673008,68.22938087770196,13.994079511316103
18.427307895270335,344.7142504316347,604.4280489694053,31.462712179846207,319.53989026454184,53.487627486365284,67.00239744499072,13.66922339151845
18.464890312315752,342.69016583095845,600.4107448019896,31.66205279522181,317.54157965330484,52.95867650090915,66.729858903666,13.78078847050373
18.58638181564671,342.72739972344016,600.1238440670097,32.01241397307876,317.47946540008604,52.799526288346804,66.84222167643628,13.938144953753417
18.475641646511036,343.0691938537855,600.8480107055838,32.04891451875029,317.83785438161516,52.65512632851608,66.82943456953788,13.903451675438816
18.135945713166958,342.82922906424807,600.90012658349,31.760007696351735,317.76166218359054,52.381535509962234,66.55702530804508,13.68742001912438
17.678312471453303,341.89653234105344,599.8645308046504,31.29496319793234,317.0837318940834,51.96992586919422,66.08745995465867,13.379134320897897
17.11408977956276,340.1655006801643,597.5359020931184,30.66688121925706,315.7001450748459,51.383177406232576,65.40755590655267,12.989490227707767
16.41513101727386,337.44374077782686,593.6169079047884,29.835152703895243,313.4452076361553,50.57875726921231,64.46698242013098,12.50215670212857
15.687879689230154,334.07704624714535,588.5500847002324,28.955573192965765,310.59126508807276,49.65701004385355,63.40748911267437,12.004782862564
15.14940942868414,331.12629612699845,583.8989224462616,28.349087475884815,308.03148215927297,48.861744856626586,62.564000930123264,11.663687382533231
14.893896657982962,329.52045104929005,581.2150417269318,28.16402502102866,306.6001980298734,48.36384021203871,62.14909195767958,11.543242260027187
14.758380009375154,329.1101276300611,580.527951886549,28.173021958001527,306.2437537149844,48.08045735802325,62.006928640330045,11.509646716169113
14.482383574427633,328.81155354255833,580.3139651925841,27.993462905448894,306.07180894112014,47.762217987867395,61.765454345241565,11.35986977688713
13.966023845212673,327.6627394088829,578.9828143015877,27.461195342352823,305.2254235037414,47.239711821363045,61.20081419001902,11.018342306181813
13.308248227229907,325.49573665830053,576.0571211734429,26.69889373168797,303.496433034378,46.52790664834141,60.36781979633199,10.56132978068584
12.618179118467609,322.5821011555087,571.8508474874292,25.857798400190728,301.08716357356536,45.703352402532694,59.39759610911642,10.073135317097236
11.898944533249598,319.07278017448556,566.6214050139865,24.954848918581483,298.13369180421427,44.78489105339736,58.322550730331066,9.563994145469094
11.173865425512863,315.23872521688025,560.7741061236597,24.05054673009039,294.86596651736215,43.81720869349101,57.210037798357234,9.068723391187316
10.64138838287765,312.145260388817,555.8529332102011,23.464012064035757,292.1743423365189,43.02078700360193,56.378800050679864,8.754272265652896
10.555849741315559,311.427024491166,554.3928781324269,23.58796659731861,291.47247211901635,42.71225367329027,56.26376716780574,8.811483293957945
10.889431938538152,313.77663430109766,557.778056649733,24.381531181983625,293.44944437721153,42.97019131638279,56.923439297824956,9.190166798617712
11.16995902815198,317.53204083595114,563.9159683991713,25.11858366127196,296.8102237771236,43.388050654434096,57.7124941264718,9.487958344077125
10.747570336840994,319.04954074861223,567.3867808288401,24.776798606496254,298.4733470891492,43.23336150791421,57.56585223699129,9.17870418195308
9.284644515781658,314.9088557840142,562.5522292409479,22.784468806175205,295.3851847261473,41.93158587189042,55.72715076044847,8.008293047057393
7.050542539048637,304.3388507504624,547.4360963880326,19.508594377317415,286.649925814063,39.49494359311042,52.341267864354236,6.22844289223765
4.84657610865525,290.31556688735975,525.8640522829398,16.193736677754874,274.6068391096753,36.62883324385449,48.539833602798204,4.531043743630813
3.704225500827672,278.9774609279968,506.9850771475188,14.517686415811092,264.4525257748259,34.53328986407979,46.08481184943996,3.788164181819129
4.494291496904809,277.58556466311364,502.367677231016,15.947669847869614,262.55561362350176,34.486511628119324,46.72437630816147,4.702577681587274
7.4105621217339905,291.01262272883827,520.6679679825193,20.86654641779909,273.45375462143204,37.190811668565686,51.24763869010931,7.358561380007906
11.393243115215672,317.2211744075094,560.4813255132173,27.617229326838245,295.9007292955356,41.96325217373815,58.37728601639182,10.761001925514357
13.944296162160473,344.04242608188827,604.6849790083755,32.188728084187325,319.8826545673913,46.251799854728716,64.20849921120448,12.742782957508323
11.892989955594908,350.82350029097654,621.7902311007787,29.40968974715844,327.6843693945156,46.164501151390965,63.146452004618574,10.662327004492315
3.076324139928033,316.5827888717316,577.4974160331836,15.606183481548424,300.614253518261,38.207646565693125,50.51133738883341,2.808696905953854
-12.003907885557075,231.54818919733762,452.6142772199212,-8.709766930882463,228.98388427020942,21.444412023222558,25.55286451013817,-10.278875216822433
-29.801455615362226,105.15753945156033,257.0683277752551,-38.083992036811644,119.50337224713343,-1.3346147712830119,-7.166387279282586,-25.57837244755095
-45.15764231707704,-35.44762734148167,30.05532470378811,-64.21331318947576,-5.264560915707998,-24.42347718655444,-39.29277766404552,-38.81959304817414
-53.818422182552375,-156.69255947209913,-175.59494284643418,-79.87113193722269,-116.0609521579345,-41.73761486622009,-62.48976840245841,-46.54115629713886
-54.495142898140365,-233.37154479390455,-316.41846730122796,-82.31233094234513,-189.69552891308234,-49.63301653304942,-72.30202072458357,-47.70076289942294
-49.21089224270198,-258.33831141533784,-375.30407121153615,-74.11812413092375,-217.99066701060627,-48.33869269076467,-69.76040058918169,-43.85633481989295
-41.879407199519015,-242.11942413628833,-363.52362638247575,-61.22503077593314,-208.27487719707617,-41.27725751363812,-59.98749165679959,-37.949534448959376
-36.27297221597103,-204.58299559061126,-309.537939349066,-49.78529578672677,-176.79912429199598,-32.98699272127991,-49.13215086402409,-32.6853695813077
-34.7457428102345,-165.60981834347874,-244.66765988756424,-43.97572955314281,-140.8295470344149,-27.1567996369241,-41.85646491277616,-29.614754713473907
-38.12393597656143,-140.3309440258493,-194.89198530048384,-45.56031843301051,-114.3466566929517,-25.807168866861698,-40.59997656084529,-29.209081484826623
-46.03981987446935,-138.7944449823772,-179.6809472911737,-54.29939148615596,-107.52417975734828,-29.444596342144685,-46.019660610312926,-31.284993794786047
-56.87204714441954,-165.9572791515749,-211.8137966559164,-67.9723616378218,-126.5495952809585,-37.32747603376324,-57.22807465264836,-35.03871934263128
-67.42019454702704,-219.50001736509955,-293.49319396292384,-82.0496401527765,-171.44334005008452,-47.41811334042709,-71.40270951588786,-38.72377277183074
-73.2773869256637,-287.64997470864904,-411.2760879700771,-90.26239276110364,-233.57545220050062,-56.47742730692253,-83.740758077465,-39.71675037243103
-70.48446477039687,-351.2479085383463,-536.7654440330634,-86.89352236914662,-296.690520934793,-60.95693329509256,-88.8586388813224,-35.50678529382514
-57.75932858241107,-391.24826536407903,-636.5739742709045,-69.87931706103632,-342.95904761920787,-58.59559132517567,-83.38147378862944,-25.20337257209623
-37.73477121525028,-397.82819838017247,-687.217776369206,-42.59061329830169,-361.18251077110625,-49.76149049863563,-68.0759455136365,-10.468054648522843
-16.10799020628277,-375.1763749921533,-685.7929093581009,-12.746412411727752,-351.9926834946641,-37.50756142114487,-47.87127821229251,4.96309879879456
0.971402444567181,-338.66737787512136,-649.6129450720799,11.150797617754932,-326.6535997068935,-26.13415207578814,-29.517938100995995,17.010261501757302
9.724812815920918,-306.2704078264848,-605.3732020916455,23.747953174379713,-300.37181769616984,-19.090644754573066,-18.28501749598143,23.17951241133642
10.11442220926659,-289.74971063952324,-575.1621497180604,24.815113233327097,-284.5483050140898,-17.49954991846731,-15.72941490947906,23.51262592590078
5.129636057876903,-290.81029138182794,-567.8364086288017,18.33483916942638,-282.6074811563114,-20.11229626304025,-19.73669797002046,20.09651666332381
-1.254080448075908,-303.3431285871672,-579.3809551073243,9.720370010490253,-290.96663310329797,-24.478655014147233,-26.407107567294364,15.662294702878873
-6.004441756035892,-318.7458819471751,-599.3062059387642,3.1621446423125943,-303.0612015735065,-28.36160884949842,-32.248487719434195,12.287837357808302
-7.864898075959514,-330.3013318144152,-617.3722028885389,0.48290770223181156,-313.1111924096311,-30.534225197522535,-35.370302324469776,10.872458512490985
-7.126783035942232,-334.8858056267018,-627.2701890518806,1.4428975643266975,-317.92598651532137,-30.81627172508288,-35.50770916206328,11.312607746747627
-4.984055106215516,-332.8609808970173,-627.6016018970555,4.578528780306831,-317.18229282136406,-29.763024189460484,-33.53010132357259,12.901220062943993
-2.938440698676563,-327.3683316262513,-621.5648037757828,7.92509620841764,-313.072952483263,-28.354272536388493,-30.960576704719024,14.649572016709085
-2.279393525010338,-323.0531636354705,-615.4159838807246,9.637183536439878,-309.34714416414994,-27.66717058166682,-29.476225202192516,15.5786425753841
-3.583421821408209,-323.87536444812235,-615.2477396882299,8.654269068114447,-309.4646630717061,-28.430324067130435,-30.237939208835424,15.071343170734995
-6.429073812902852,-330.80771298042066,-623.2753630566991,5.182490111429322,-314.542837161938,-30.620157813380203,-33.28769842785587,13.158225505177255
-9.589258542592132,-341.09389553414826,-636.2791208634145,0.6153624049462412,-322.562174770338,-33.419501088416105,-37.46836543619019,10.526675680652966
-11.639249497887407,-349.7785975926879,-647.5925981930716,-3.0897557371328896,-329.5400266296595,-35.619833662366375,-40.96732881767297,8.245833761766027
-11.604033746181152,-352.38995837217755,-651.1143275919944,-4.1641852684562695,-331.78451841757885,-36.1957380333007,-42.10549987089887,7.39335317191634
-9.360909128295578,-347.10582127489016,-644.5809476115114,-1.635828612588343,-327.755527767217,-34.749713822521265,-39.99783600727056,8.689237595299625
-5.819253003935434,-335.81388541180945,-630.8429861016655,4.0977967523990015,-318.9310958694197,-31.776310223784602,-35.07135906140848,12.071214759051463
-2.9206727199924445,-324.3198904498886,-617.601074422756,10.720389672481065,-309.9023287314988,-28.782014816447514,-29.467416577927604,16.258678856689418
-3.2082854154213933,-321.3202395754098,-615.6425129137823,14.052669458485836,-307.5105250179224,-28.062872901605257,-26.909518486450462,18.705894305180514
-8.672200563628374,-335.01851076722005,-634.4381327783435,9.46949333219459,-318.18366890055785,-31.820522647866287,-31.417450980426818,16.41691675837405
-19.17463431462538,-367.59083180927644,-675.2130519793676,-5.477045253060932,-343.5596091530167,-40.73950214075137,-44.98115842981935,7.5362928732488745
-31.520944014098465,-410.63946786752706,-725.325331533303,-28.750687862200877,-376.8208219036062,-52.89118427131582,-65.53271257489423,-7.1778735271580505
-40.2480216584513,-446.03822652547154,-759.7273410773724,-53.75069539594447,-403.30281909367767,-64.03810547623813,-86.9681290280273,-24.140359302603017
-40.1411366750741,-453.7503932145399,-751.7538385088255,-72.09839021493369,-406.7721312164935,-69.61452031415803,-101.83025224902863,-38.428499616064684
-29.127177349116412,-422.9020611636544,-688.2736670533853,-77.87359991122334,-378.4610739017255,-67.36441130452972,-105.29990811959948,-46.23490247809767
-9.680405730164516,-359.0637723899214,-579.4971971314001,-70.68133444455599,-323.11605920616745,-58.904406746114375,-97.94928363706833,-46.782246310811594
12.27574086140815,-282.45611541864946,-456.03965496530157,-55.58155833901937,-257.6309740205489,-49.02214835736541,-85.34528957971887,-42.477135912574674
30.336324506709992,-217.70602516439686,-354.0583265475233,-40.01726153322388,-202.63424296233094,-43.01682079690264,-74.70155148408827,-37.255783352448574
40.5688228202558,-181.58071081803303,-297.5190638338234,-29.89069562526915,-172.23514028381527,-43.763582446869705,-70.83312041453632,-34.30424304600396
42.692282820532995,-176.39313375041363,-288.6696682867985,-27.298188583622714,-168.34517957353208,-50.37453642088489,-74.06013863620794,-34.657811286724716
39.12784359421652,-192.36861537998473,-311.7275155146309,-30.879597485407434,-182.49639191564384,-59.14694098930673,-81.09271711920225,-37.34908635734093
33.0689795534562,-215.69750608200667,-345.2214756709628,-37.70176853173533,-202.61374472874076,-65.88231889889755,-87.68873651751197,-40.55821079537548
27.05554909064494,-235.77294392900959,-373.2529894764984,-44.894365246110745,-219.31373113354138,-67.93675392460244,-90.93061543721146,-42.70010842298956
22.612986174564313,-247.56451577715103,-389.14886161892707,-50.24198729780505,-228.1480241650483,-64.96682810383732,-89.909163991381,-42.85479676715225
20.455546570275985,-250.06802941875156,-392.57246219939015,-52.23562399265756,-228.3852705868994,-58.47699610993586,-85.19068605115207,-40.710957563543445
20.58644227676771,-244.2490951968833,-385.5239469818331,-50.30091752740952,-221.1785298328552,-50.8734961198032,-78.09349325080288,-36.45530189046608
22.215429920994932,-232.38939127457442,-370.8029331613782,-45.18201999620608,-208.84278137135686,-44.554705026897096,-70.28363186956526,-30.763668468100263
23.833648735589936,-218.2194852838252,-352.39485378147936,-38.96500735075303,-194.8233686580693,-41.22289555559599,-63.54937718249653,-24.77591503129017
23.59521499478906,-206.71689783394882,-335.85927704725384,-34.54399238700832,-183.42490633493838,-41.549346898624606,-59.58613039043577,-19.968509132076576
19.832340796445735,-203.45623918418772,-328.1189234767601,-34.802459576769735,-179.22431842995465,-45.323603340095985,-59.84657510984741,-17.93344656621119
11.611144283796051,-213.55023833416394,-336.56624501696734,-41.672365993808015,-186.28605095851844,-51.891622299393994,-65.33804677368325,-19.97181993852472
-0.5291823053379578,-239.32764119751516,-366.205261746386,-54.90678653020958,-206.49545866810692,-60.299757741823,-75.92428768651679,-26.340084932811543
-13.749688951475985,-276.31845464872447,-413.8379659703111,-70.74899038650146,-236.47821957165516,-68.77908858231687,-89.04917036107493,-35.32743728039637
-22.744504961139146,-309.8461671773911,-462.1048196698003,-81.61260309493137,-264.73242331043167,-74.07704549797167,-98.86956459777883,-42.91617443658203
-21.133641706243065,-316.67898309331014,-479.90640205089045,-78.10120619220078,-272.5736485961116,-71.74995548362656,-97.32593025019598,-43.83965086709407
-4.342616673089258,-274.0433262244246,-433.62547048924824,-53.276234881507364,-241.07173153936634,-57.97233248850459,-77.58836440660762,-33.97883344221694
27.554664321124218,-172.36103803633293,-305.31879842819245,-6.945447296056357,-161.4110349027497,-32.00046161574513,-38.194707589837385,-12.814788619527432
69.04888065557667,-23.553071285151645,-106.61950851932076,53.03713639613872,-42.14942495076277,2.505451722726282,14.983007971412228,15.770332137448364
111.31084215600593,141.59341972292245,122.05869529669448,113.80934371718496,92.22234637542941,38.54041509169238,70.70262671794569,45.11716267681101
146.02395352100606,286.34020340832285,328.0302290088037,163.23109965553127,211.39733307886146,68.75072669338951,117.30750503167987,68.94294652537448
168.48200615777318,383.4203103843464,468.84890014540616,194.68530648812563,292.0419647316409,88.47445136352931,147.5658868333569,84.01386905395353
178.05174504826513,423.62434108669277,527.2550256857493,207.9834219477781,325.5342312220898,96.88649570204217,160.37342090134527,90.65111615302649
176.10002668502813,413.33712526875456,510.73934869268066,206.2846968440357,316.7159612581941,95.7217269991763,158.61925588728195,90.96054795317286
163.4033511883481,364.71638705218965,438.8162741797546,191.87178875427543,276.1270203702113,86.8492163613784,145.32050735408492,86.33520349531621
139.34509799753505,286.85174411068124,328.9336932444753,164.3101470450781,212.33935282286177,70.74390383490228,121.23806142786385,76.24207731442156
103.58480429123586,184.1816429667713,190.96550715521184,122.37804231130211,129.83296946299345,47.02541613104648,85.73114049583006,59.19815086662418
58.6882126718282,61.75645306161485,31.95578346516435,67.94528308045663,32.66659255366507,16.450240100231476,39.82981974629733,35.059863092196025
11.279310522584856,-68.62787049818263,-135.50138752692362,8.336659736995266,-70.5055771246165,-17.460825585198926,-11.294859131838452,6.7159038470237595
-29.649102667426583,-187.6173097932662,-289.8375074482868,-45.122540595199936,-165.15224449301738,-48.6858285966042,-58.757134801069746,-20.263262644208087
-56.48241740393601,-274.433730659687,-405.8950092103236,-81.78903822178648,-235.09049679975686,-70.94250861394087,-93.33222092789593,-39.955634244035544
-66.46407016040054,-316.1694692278813,-465.91159537272904,-96.6623929116711,-269.6613348181694,-80.55606441461582,-109.67512987616702,-48.939263900383786
-62.73751811515755,-314.0798606266923,-468.6176673503052,-92.50317692958158,-269.06270567719423,-78.1693263604047,-108.71311340473105,-47.8915315701207
-52.43791628576982,-282.86121005011876,-430.333139939124,-77.99342423429492,-244.361200952516,-68.31860356640706,-96.86125207098343,-41.066102209996565
-43.21489444044086,-243.83868760678837,-377.8169347152287,-63.42110560776731,-212.49714051457286,-57.30348685200107,-82.8430534635143,-34.15857673936327
-40.278277591826686,-216.6718249043268,-338.000208402085,-56.57173788168581,-189.72470123267757,-50.69003279553562,-74.1702995181536,-31.879334401361263
-45.18770767637806,-213.62967649084158,-329.9223164293021,-60.59869241685692,-186.7695994357602,-51.57286713470184,-74.88036309534012,-36.31570721817818
-56.16085464138223,-236.9852036342323,-359.97945508088384,-73.84203275005964,-206.30559337737853,-59.8369076777372,-84.73904274366537,-46.38893675004691
-69.03833158479826,-277.97082623797604,-418.73432499592565,-90.71815779094241,-241.62264399951778,-72.14438283494799,-99.37654264325747,-58.247680894516066
-78.51269438024421,-317.2645968747847,-479.692563238922,-103.34155110068902,-276.5860650466031,-82.63646829369657,-111.27566311863528,-66.50555862733091
-79.80540343512773,-329.3954319139713,-504.20797809485384,-104.14995122919633,-289.0452154954214,-84.68666770863365,-112.0891851794405,-66.26035888173038
-70.69596706753009,-292.42594094844566,-455.49334594342696,-89.23092852083435,-259.05674122713765,-73.61424152994267,-96.18222947878742,-55.36074304430994
-52.96496198455827,-199.53999344099302,-317.43724091171265,-60.77790806834205,-179.21574270168747,-49.232453552637374,-63.872408291485016,-35.788012898648724
-32.068574667439634,-65.4062840856407,-107.18201533930848,-26.80057429102342,-60.903573120766474,-16.59383053823364,-22.18863249162717,-13.1223963447266
-14.79836412406162,78.09552754682784,128.3139882662459,2.3269040559127405,68.61213964645823,15.901200237650048,17.85860849682766,5.894788848706958
-6.097342910650502,195.61593005949572,331.90832159870735,18.73148780785277,177.7322115885458,40.209216559021314,46.244359542737065,16.43825536601058
-6.884706326840917,263.9964636320708,461.5469598475472,20.504182656493555,244.47111319861273,52.11459834981059,58.32985047701354,17.586434517182994
-14.122443526849104,280.9780984238502,506.8554386272842,11.824131346456959,264.9110235390557,52.55751491621969,56.23841795926818,12.179042039141128
-22.909199907128183,262.67769931239167,488.5234389525038,-0.03766138074498591,251.91789821321095,46.29108110268296,46.709719418409335,4.8374110533246375
-29.151363103195486,232.67921714368273,442.98231908796043,-8.727270082447326,226.06771127271958,38.97085159468897,37.10161867666849,-0.50419523108136
-31.193939881435387,210.1815326487078,403.23451134040977,-11.392525662479946,205.07406278427905,34.53674049135919,32.0774054185464,-2.120428487033329
-29.745380302724573,203.70042168355045,386.7944243720902,-8.75780685527903,197.62854648964512,34.1875097503519,32.58451575953174,-0.49018609579737404
-26.66963752624544,211.79392759878456,394.6525906152773,-3.440917712882115,203.4052440394706,36.95916878472141,36.91832761325086,2.746881068022283
-23.73926566199334,227.7140127375372,417.5809144727539,1.9029974201335946,216.85934502733744,40.99304708539602,42.501507936526494,5.932911493583062
-22.006414085775944,244.06883212322575,443.68954957936234,5.597740403561434,231.40219319835424,44.59945290740896,47.20467526784286,8.035780354543181
-21.728431200847105,255.70173847736208,463.72610052315224,7.145008987359469,242.1676957682978,46.810474631574934,49.93049516438209,8.78603218278019
-22.52441529612172,260.9130822137787,473.7097342389018,7.040108174829552,247.29354608205722,47.52527917027138,50.70590573234365,8.543385851874683
-23.64561020865988,261.32245366260895,475.2185910319541,6.37777574565976,247.9360386056162,47.34368938471031,50.42298640655346,8.013175121420668
-24.380484991963183,260.34264756253833,473.308843526312,6.237696208193567,247.01207356497292,47.119980010727964,50.23626532041288,7.851359448127456
-24.435892027510487,260.89655876183224,472.94547998975554,7.097270246975628,247.19821233035879,47.436512399300504,50.87203522335874,8.326002058777435
-23.987995874137454,263.9676768822767,476.35122471297694,8.730023248857188,249.551934536221,48.36530104290523,52.352508205099,9.281497456965775
-23.345072556527686,269.07665888575985,483.22865098749674,10.686824861737737,253.7757183910026,49.68734246559893,54.34373148304127,10.428443546824447
-22.586364321007924,275.8503220099063,493.00396801299985,12.836055799002175,259.52739616345076,51.2874753012243,56.69826141381234,11.652239073437691
-21.583461130227043,284.6921462916377,506.13991920921274,15.359063047882128,267.0901609388102,53.26546700435721,59.55685433508239,13.017308213821437
-20.35930004159354,295.7191498878101,522.8569658610481,18.240726632288307,276.57032707905233,55.65221826695619,62.91301062551069,14.503594592819802
-19.32634312914098,307.3056103075187,540.8861648609153,20.906688659822773,286.64617009868454,58.09539413295088,66.20455993929193,15.826449201714807
-19.07554945327892,316.1690687723131,555.2429870045999,22.49707574055594,294.5346506836158,59.92058167528598,68.4845093178219,16.58469134706644
-19.889298634719562,319.3170493887113,560.940026724741,22.55487364949079,297.5739266152696,60.56354872713553,69.08570688448519,16.603807087818943
-21.417096262940007,316.3551486765263,556.6594020186373,21.511586657208426,295.2297676786535,60.017966245355986,68.21512062477713,16.154082681663358
-22.734064814567084,310.5679207598378,546.8325029052743,20.645836131388027,290.13463673383455,59.005833956283524,67.07416812066154,15.89718238355735
-22.67455164723622,308.3309162583532,541.120368272186,21.648782554887518,287.6926993566069,58.83798990273309,67.5248504219752,16.651844973004714
-20.3064893389198,317.02137898959154,551.3937862392916,25.965914263382558,294.3534666646184,60.998408904677746,71.42151240989323,19.06997668466159
-15.546837587012803,341.39621046173846,586.185281793631,33.892307924172634,314.53004451523293,66.39811399806591,79.58650774485562,23.203843344994517
-9.78492965863153,378.94543360615387,643.3016848202155,43.59920568250678,346.5609634546661,74.3960325156049,90.60274768587861,28.05194862615928
-5.992333772539647,416.66289926939834,704.1212996929556,50.85544159193089,379.73266475007654,82.15149503453192,100.20815931009069,31.47123264104681
-7.742339632860402,432.9549671129912,735.3656293480998,50.32890973713403,395.5686458033751,85.11982834089102,102.32319432358614,30.884401606733736
-17.250301765669263,406.34759273291894,701.6038641973544,38.38851748908136,375.0149503071821,78.97074773728778,91.89023626724617,24.695073720524743
-33.533783850779514,327.62309743292377,584.2668164462888,15.878790842145813,308.9173148343452,62.10402344728353,68.16223988332419,13.599040520625701
-52.108440360822414,208.01812145977377,396.139676310937,-11.198045355965546,205.57102729719995,37.18498395786159,36.21582287532365,0.768146300432234
-66.7955333770497,77.142774128947,180.6982084742427,-34.03794826752007,89.66673808811953,10.489232769701502,5.264749915719351,-9.481760855363964
-72.7595464933656,-29.600229376044926,-5.6555980478331485,-45.308868366639494,-8.0111690404851,-10.813743899835147,-15.597728863507337,-13.86999432665573
-68.92936870549434,-87.28567882019168,-119.15927779626816,-42.77293466616672,-64.6403093322208,-21.937020133472622,-21.780108565196397,-11.840385418342695
-58.26248483185561,-91.86125761471969,-147.17883895519768,-29.998514495303503,-74.9453069435281,-22.40689487107263,-15.043311180753577,-5.680539489992909
-45.74505588560076,-58.91898062573736,-109.29438180891741,-13.84424035489067,-50.98165268483259,-15.631936390383828,-1.8175369425896881,0.967436143045528
-35.55365594675531,-12.866590895708805,-42.30558615489306,-0.5698713028545938,-13.349142569198202,-6.653673442148083,10.667316131691198,5.167055100574679
-29.23328998261092,25.669605103003214,19.603485302354997,6.866948248366166,19.69392935371639,0.3360269975257381,17.83897514275866,6.005910475742801
-25.742375207242173,46.92001384464705,57.62275274730099,9.057492918263012,38.786921522257536,3.366189620615507,19.005986095664472,4.5746276715191545
-22.74445254485143,51.81464942137662,69.89065385498348,8.656248809733766,43.823097934827175,2.7176405554905987,16.440633252152093,3.0120487593293785
-17.932715614901333,47.85462514179194,65.95917013110491,8.729242414603451,40.63747405612181,0.22273580774903656,13.641958382036087,3.4167379285047113
-9.764187837671786,44.6785908354724,59.954282178592756,11.742789014051993,37.21150463034094,-1.6198159118293984,13.819324881561078,7.067123270353506
2.2047288429998675,50.40199965767813,64.73833939219068,18.942773564335262,40.50000298146526,-0.6175522319889637,18.76647176268782,13.950435516028852
17.10938414538709,68.45730107008642,86.87793660170472,29.832678305376355,53.71426228102601,4.136795918544873,28.09735660196101,22.626051687352216
32.88953286120675,95.81371219359906,123.48649842089698,42.141270612422964,74.73496198739666,11.752092272009472,39.253812896023305,30.680523627923982
47.02590813531678,124.32885904184171,163.5308385225549,52.787833279276555,97.10563807978511,19.99612158269913,48.69499740993631,35.847506124699606
57.66092936673836,145.2380212749203,194.0564622575624,59.50615411923023,113.6945313141208,26.568282465601893,53.81760309362756,37.25436356640266
64.38862770321566,154.06420968068505,207.66992055677835,62.03792236848106,120.80860622896803,30.34219790247574,54.382060190032945,35.94091363466368
68.26778162184394,152.9013619802569,206.53413866296904,62.16752642562605,120.14908317198679,31.817801145331085,52.569597496736336,34.281481390761144
71.28459234525137,149.42843336402424,201.37382838694657,62.88087209042066,117.98843129059226,32.744560111866015,51.9127827283347,34.77850154052069
75.69005360420613,154.01697867194198,207.31895883160794,67.30363583749767,122.74734061257642,35.35031081009824,55.91258343742072,38.995944027947935
83.21497939502795,175.7779986031238,238.13725058173117,77.52512808761192,141.79472299248349,41.41180596314587,66.69157940136395,46.96171405911123
93.9456950596629,217.2922297962801,298.64915966780717,93.07021668045351,177.24523783589765,51.121000327781104,83.5350875297593,56.89589709864228
105.2253375987656,269.14622398459426,376.58407875312554,109.52245280518913,221.48181180974817,62.03112513445767,101.67045913199203,65.24806164576455
111.69938429263564,308.4512633485114,439.55052233368275,118.79900301870659,255.70249230170674,69.00199624818211,112.58320331705595,67.44348808637223
107.34665801687818,305.71290418555714,443.8374880257907,112.17208034526703,255.24404381410437,65.96122910266448,106.96769045766487,59.61609260096515
88.839619912002,239.23161577410332,354.9400497430301,85.05095410803277,201.36964671803818,49.06486138926414,79.5353213600223,40.754478331141584
58.15518155306631,109.28014392534176,169.30230938884122,40.583994363031934,93.3364589530669,19.445491983989214,32.89044481412333,13.9273854250068
22.471952410398224,-57.71707421111254,-77.40196608211734,-10.650046676091927,-47.51617955005962,-16.42476213271154,-22.381285374370357,-14.490955441285076
-8.879232111725921,-219.13360272373404,-322.92976384479164,-55.122622972882326,-185.53654078493608,-49.30854142473903,-71.99220926363705,-37.43639632359224
-28.660258505545425,-335.1032988751671,-505.9338379490879,-82.46924062729457,-286.520800961201,-71.326377425027,-104.28506984056483,-50.19700755970961
-34.68138415300019,-385.56357339589033,-592.4558318202544,-89.68873450355004,-332.39853042084485,-79.24911371930804,-114.99307433739142,-52.16983825619072
-29.940070639194836,-376.10415076623093,-586.8479549211603,-81.27163843139226,-326.791287348263,-75.20362988583547,-107.94031573461768,-46.46738598711699
-20.263436928355237,-330.8170705587861,-523.0004066955403,-65.74887517389297,-289.50538690969313,-64.73599270606542,-91.82933580586332,-37.853888871912154
-11.177627752420078,-278.08971152719255,-443.6727280773233,-51.1537207625283,-244.67160001605293,-53.713477633353556,-75.49151373153992,-30.38903799077142
-5.800724681640927,-238.13559793433075,-381.0259870383962,-41.98542575213854,-209.9581499695307,-45.91286613454867,-64.36736737619208,-26.049693294060898
-4.487348045813653,-217.91903691057652,-347.65243329180504,-38.71912879350044,-191.8837580374731,-42.284648506079684,-59.58448752812181,-24.718254189457646
-5.751561105598687,-213.40211173109637,-338.9397343860903,-39.16906323343234,-187.43847687775371,-41.658078126434006,-59.16108846909877,-25.049476647299286
-7.535987813457954,-215.31212523830717,-341.44238056634373,-40.34477184248334,-188.8944567381942,-42.00505368905583,-59.96354006120249,-25.46822928861398
-8.197500252270816,-214.6579467945606,-341.37401333619465,-39.87933492340813,-188.5438529168926,-41.531224156023356,-59.33467630923401,-24.854522904224545
-7.034061905240251,-206.22195256992575,-330.2006841426419,-36.77778371098026,-181.7599005682937,-39.31506659077655,-56.00363579956214,-22.843554911119142
-4.352777249792575,-189.7170009444599,-306.7271384349155,-31.49968200424303,-168.07896987129894,-35.46887884101333,-50.26016547245917,-19.79173417120148
-1.1024500894122178,-168.73103005482906,-275.8449245904248,-25.422114816323766,-150.40223525871662,-30.84864728034818,-43.45835966545876,-16.455672251155786
1.7549370513069498,-148.06411481387332,-244.7369327243958,-19.93501305825651,-132.79533005524456,-26.457535765597978,-37.09743733607746,-13.523761384239323
3.755359903024995,-130.94320787712138,-218.60708187071438,-15.706846804652312,-118.09923132510706,-22.88550007007159,-32.00627835910804,-11.272628503646324
5.0114036922480585,-117.79990236364017,-198.51115607112376,-12.57114951542225,-106.79673269054022,-20.128657000335657,-28.122830474667033,-9.556546879616137
5.9166600769097295,-107.05842315877278,-182.2557151825623,-9.953577261058639,-97.59982757221485,-17.818316141310795,-24.870430999460492,-8.056879715117924
6.834853503352901,-96.74074986798537,-166.81761322342788,-7.325225837447406,-88.81500479855951,-15.554967035622916,-21.6545746059478,-6.512042832291699
8.025401652719287,-85.39718365645072,-149.95826207448968,-4.3153166358551385,-79.19481729971106,-13.052483943031746,-18.057425494591286,-4.752685399244783
9.703141627569332,-72.11312133664168,-130.35872652413704,-0.6238419018930914,-67.97848530026823,-10.108344004217026,-13.783043386536296,-2.6396612795127945
11.986109272982592,-56.477054157836946,-107.46259067265203,3.9110566113918437,-54.833327987168914,-6.620491641876511,-8.688353666369595,-0.0979905829579896
14.711057345179396,-39.05440699255679,-82.01329873918819,9.05374588302606,-40.20829675238981,-2.728733277338928,-2.997835647445852,2.743884523085369
17.36220816840526,-21.7430371562335,-56.58640319920127,14.067152904351596,-25.636712721858014,1.106390364760811,2.5888574852919857,5.500651907832678
19.299331097136744,-7.091148455557795,-34.745066737315305,18.034849945430906,-13.208659203058616,4.286502024557495,7.181558427978665,7.700607287541219
20.16179914695645,3.298779212690069,-18.812651836335625,20.438678363135704,-4.262764559357024,6.452146370829064,10.258127070809541,9.083323434130435
20.151567517350387,10.093774530005023,-7.923714780738602,21.56649712945405,1.7284299215100576,7.774025231270196,12.084018430795302,9.804553715624111
20.03146447994746,16.28400358629244,2.0809952225217185,22.510606505685256,7.211505049380128,8.960194730730786,13.717064037730099,10.433714878214921
20.882991240700267,26.00945422187801,16.91101332402255,24.818018179394976,15.56014517605438,11.003014880207317,16.640505814531252,11.77889534800913
23.691581656664187,42.77381910819962,41.26206743421455,29.894315841963337,29.590559710400928,14.773049756527739,22.166720366410413,14.581628651126563
