FZ,C3,CZ,C4,PZ,PO7,OZ,PO8
-0.16554834998226456,-7.069846283540547,1.4125209587959922,1.3368611732712206,-1.9817066610805252,-7.194398257603891,-4.17395934722685,-1.9432844786414452
-9.568140405510327,-107.0650730732249,-76.92117576489642,-0.45787935391649714,-50.414704014986356,-26.082885803126164,-22.55985562140407,-6.22337058765558
-16.916585267752787,-185.03244876337249,-138.57260901755814,-1.8735050641239475,-87.98261715599558,-40.92186882430485,-36.58186681447387,-9.499807513497899
-20.858959824060456,-227.64300806893797,-173.1327072721555,-2.481294130369276,-107.99125551336523,-49.23291852242327,-43.61033171046846,-11.125473983873455
-21.091039083553767,-234.076586643324,-179.2716810649496,-1.8447582429612763,-109.80492344096868,-50.85175948442455,-43.54011102220547,-10.996516310126957
-18.271536628983064,-213.4241155206577,-163.12258042509976,0.25176707912053997,-97.76526688671251,-47.56829770339204,-38.358811787431705,-9.525403977258843
-13.749064775087584,-178.74809905209565,-134.48863289203186,3.418937276985391,-78.54648983960695,-42.1402995831235,-31.054005429838053,-7.488491074894161
-9.32255988074927,-142.41422972864066,-103.91202190264495,6.397156978015075,-58.98115249094271,-37.39740927146612,-24.654061420727913,-5.831783141002094
-6.99746405286305,-114.9490439803717,-81.70598185817121,7.284970422921469,-45.26389001871588,-35.79202564175691,-21.75816398755315,-5.440766221483623
-8.538287656405801,-105.77197129500576,-77.4764698809395,4.366817405780706,-42.76403148670532,-39.1960343337769,-24.30730204761178,-6.861708726117349
-14.780941217699027,-122.47377534433885,-98.10638905610222,-2.8480232949683177,-55.135667942320374,-48.54746379410552,-33.1873609479298,-10.043508497567153
-25.009943405026714,-167.334872277469,-144.15589861820226,-13.048159486843993,-82.46938935754771,-63.27282848052281,-47.63955573912123,-14.25091761971891
-36.867194484013304,-233.32165352632953,-207.07695859364497,-23.46373009495381,-119.73319632924414,-80.87980230457752,-64.93165275472028,-18.267235525070166
-47.03932136378163,-303.4125405047154,-270.0963980093589,-31.020419171873034,-157.18206870595557,-97.24691531852127,-80.80933520621736,-20.85523066700715
-52.50828874090651,-355.36591334780496,-313.58457102646605,-33.68726281514767,-183.3441730554832,-107.79089645132184,-90.81308258086113,-21.281310420103363
-51.77792762163034,-370.4458041867879,-322.8123233242093,-31.293779650497633,-189.48815958239283,-109.13309002978515,-91.95743227786674,-19.641729997914275
-45.45940378264366,-341.828147862264,-294.2950024719509,-25.4185806888654,-173.3869709259669,-100.5062893263921,-83.95965234011183,-16.81006093355427
-35.921506119446015,-278.1631656005488,-237.43621057875993,-18.481575098504162,-140.39208579938446,-84.17907004105285,-69.37294136622617,-14.015879343472879
-26.186297416407058,-200.118550737888,-170.50248199894855,-12.578507358227847,-101.1521685556294,-64.61219282701146,-52.514105531840116,-12.260619816981
-18.61868371226986,-131.3652218567296,-112.79872434598278,-8.664281946746518,-67.0175530179294,-46.68445926938743,-37.67888357702591,-11.864462883796149
-14.045742971525971,-88.45985602781059,-76.83532248384947,-6.4327472881335614,-45.37738078294678,-33.815799803598686,-27.497575123614585,-12.368622858060888
-11.709738512885949,-74.73055486760417,-64.2578890510186,-4.838919848543315,-37.21197546431339,-26.88441866999068,-22.202812908479533,-12.828215746741852
-10.009285027859692,-81.0338212576687,-67.23128408901547,-2.8831671778797237,-37.90647718238425,-24.39247190708169,-20.074051405356432,-12.320842343185133
-7.55631720256854,-92.32225472120368,-73.94369817969036,-0.19237652612635037,-40.535640767864585,-23.626730465562147,-18.671218555217376,-10.38715784551684
-3.949142360747891,-95.86079421571114,-74.84772024828227,2.8645425678397882,-39.577363126757,-22.07305383291656,-16.10687134874899,-7.192544596603227
0.08329310382526428,-86.71492019628623,-66.50370294644287,5.453861424598464,-33.16833222866257,-18.408644117408464,-11.772241324130729,-3.404169803703135
3.1015651077266924,-68.57298333029597,-51.90996772601695,6.678163147315284,-23.26362839713143,-12.850155251170554,-6.408475920274575,0.05986475147872127
3.637909585293567,-50.737268852244206,-38.12886907429568,5.9027130682260704,-14.233961194623731,-6.984210001861636,-1.728581908239687,2.267949945758046
0.8620011956072261,-43.22004111462629,-32.59246323606015,2.9808195430464584,-10.727177432221898,-3.1894709225665543,0.24871639127916298,2.487754714364922
-4.94450385299166,-51.55236153739682,-39.188947990484046,-1.6122563128182108,-15.362791562592541,-3.639130107035763,-1.8884812526192154,0.41909458003376815
-12.262768617672762,-72.76665756583728,-55.28236424273994,-6.8291794998720015,-26.841477933566335,-9.053900876983242,-7.984884907042535,-3.603733143613925
-18.716306143153005,-94.53795952604031,-71.27441034571737,-11.392102151417408,-39.43836556868096,-17.811073061517916,-15.843930369327147,-8.60269295820626
-21.946077581422763,-99.24150934419227,-73.96275228810973,-14.33981122227714,-44.79635592149601,-26.170983866396035,-21.802501979375567,-13.253947143730597
-20.657732962875514,-72.39442762591105,-53.01798877679015,-15.464811070913587,-35.82126086145522,-29.853576018938547,-22.362742653269173,-16.400389020017773
-15.3032318976816,-11.612392245519246,-7.457222495970432,-15.331732210465928,-10.874426729632438,-26.254048069571535,-16.09268013294373,-17.50518607833817
-7.974920081329714,69.34679818453942,51.85492514244388,-14.850250625546744,24.26761751456131,-15.991194700045744,-4.643075579475096,-16.785346560897104
-1.5023266164638085,144.8045356655765,105.82176571054879,-14.690030388810463,58.23780274104869,-2.7746902638213227,7.8419894682929545,-14.964151944617424
1.8151094818598414,188.3058822778542,135.50958379130105,-14.915457575504455,79.08006757593361,8.414163329332613,16.689722931971396,-12.815856521882326
1.2038419174274964,185.1066254473602,131.09061001768947,-15.047473940648857,79.89606978835187,13.812831530331058,18.976250968046735,-10.786384328224415
-2.3541367222804186,139.357765865641,96.58409355994138,-14.485603600669151,62.125599977376794,12.647014045759374,14.866574478769921,-8.901900562537113
-6.754885187035711,72.05322233936178,47.786708764914536,-13.019492572718677,34.67394924947692,7.237140235571716,7.303671987121354,-6.981204566381423
-9.915305747268988,10.670696303252914,4.373999988504903,-11.105723681368106,9.309245284122923,1.4573857340470824,0.2603554930234287,-4.9701745225855
-10.797044018469805,-24.213468258510947,-19.734488419728535,-9.688248684817594,-5.255884854812615,-1.5318627307435633,-3.441360717029677,-3.135990991021796
-9.751979403552214,-28.449198469798024,-22.679979635198713,-9.584598761222576,-7.463660961640992,-0.9882025162513401,-3.5179372682706926,-1.9553211298620263
-8.038054542834823,-15.071355285498631,-14.347430145474595,-10.771499957237284,-3.030001099325428,1.2040142464350914,-2.0753045364111427,-1.7585575805937075
-6.871816795111486,-6.071566765084817,-9.829513581454007,-12.081642950349773,-1.140899988943549,1.8629860127557922,-2.1001062462261926,-2.3959597467357114
-6.659210636439661,-19.919813354618665,-20.61041931507653,-11.648397211276137,-9.02005235396263,-1.4843285257623333,-5.570058345230081,-3.2019675445643014
-6.874584281351595,-61.856838650009315,-48.55973251935925,-7.93661042230577,-28.021675008055375,-9.136744402464924,-12.328798957251188,-3.3233199876596675
-6.576981253441581,-122.06646783222082,-85.83112391683223,-0.7343381026387014,-53.31554602324344,-19.102984259460737,-20.309720670680328,-2.2062657600165037
-5.132422065340751,-181.96939011210318,-120.02697172369565,8.55540794361104,-76.95757637586448,-28.271871986267918,-26.819960795105324,0.0790082967852751
-2.6377706198358104,-224.26800849205995,-141.0384206185776,17.539541915907737,-92.21285869948454,-34.05944323569161,-30.003382975996512,2.8823329011435246
0.18568259165675283,-240.83378748892613,-145.54930388691906,23.998633643423478,-96.58130497925173,-35.55325156889718,-29.62672067472333,5.342356661014255
2.477045781585937,-234.64083886811517,-137.2118295398536,26.88853745146668,-92.12834353938678,-33.612804180675006,-26.87312570625926,6.8349813686304834
3.723353424117646,-215.95145554529805,-123.3575931600426,26.62904502410227,-83.51561118609484,-30.08287522881664,-23.470082255623637,7.23098949818474
3.942084147217323,-196.11121034281194,-110.87611225617916,24.62137348228824,-75.34084506390951,-26.753439163560696,-20.795969488295846,6.846405893068439
3.523524555443881,-182.7616049860018,-103.62946404508365,22.410550870226317,-70.35102424672155,-24.677202155266418,-19.444965766570867,6.180989856977267
2.9369449906936067,-178.2958503185166,-102.10709404745731,21.032238732526523,-69.08989803460187,-24.051680867514243,-19.29941973472411,5.65042719153767
2.5260851642844058,-180.94468307281204,-104.50905458447039,20.817665139343,-70.53303936231649,-24.475157437208658,-19.845952305295455,5.459108956560833
2.4599378871655726,-186.8233648742187,-108.11363121909771,21.55739639804909,-72.9692908714417,-25.28347853081497,-20.472987874587925,5.615917662708146
2.7607839439290722,-191.77095968392854,-110.36107856962407,22.76548597822956,-74.71671101329812,-25.819269367316256,-20.66929820797796,6.007396511804918
3.331620902183197,-192.6867153310716,-109.61278208521486,23.89059656716998,-74.62441928769653,-25.627798041694724,-20.155530057804594,6.464327332347283
3.9866540771557544,-188.3651265554952,-105.57548504080168,24.477647961853478,-72.36888831735124,-24.581611702881453,-18.95258981398237,6.818180785647682
4.515252213882137,-179.720640443709,-99.27389908241277,24.307406933447872,-68.483510518299,-22.897880879824687,-17.351434591627328,6.9573309872505815
4.759221699226802,-169.37924697154926,-92.6129975168779,23.473787487911054,-64.13177922168936,-21.04560647312314,-15.796095686862568,6.864106855941666
4.653830942860087,-160.8922023371769,-87.79841869085453,22.349130720245142,-60.768276221620916,-19.604587704340204,-14.751224217480402,6.6085371980162995
4.231429239277072,-157.79215019741423,-86.7675391270867,21.460300289445087,-59.77512684252869,-19.118563596542064,-14.587095740623765,6.3121392738938
3.637189936885341,-162.34003429627802,-90.45478724841597,21.334844619964656,-61.963694035804366,-19.89910751767578,-15.428763401989674,6.119003279307462
3.1649273009308594,-173.8172530956222,-97.78100888136986,22.320215093619478,-66.86175946373591,-21.74418437251365,-16.942369516477388,6.178595755430076
3.228151339856814,-187.0352718843169,-104.90197781045414,24.34343091359554,-72.11557111018512,-23.702888712921737,-18.19706490849362,6.599398213298752
4.180662599021768,-192.59999811537503,-105.754571074293,26.68270290823494,-73.70147003442308,-24.168693922046423,-17.846060385455736,7.352572694833849
6.043785498860204,-180.05653872007375,-94.42495291261325,27.978593351077002,-67.37779478128729,-21.47230432686867,-14.713450321529942,8.187367657080237
8.34809457374375,-143.09701144757673,-68.44707780695337,26.685080468430723,-50.90799683818159,-14.773245512205763,-8.52624180735435,8.666144810115867
10.274793630845489,-83.98458665999107,-31.021059251859217,21.862598217418267,-25.773133060252214,-4.722392857559335,-0.308323919329031,8.35849188603166
11.07009832486016,-14.122171846999152,9.552470879119243,13.867700228273536,2.8546168927981035,6.593999511980736,7.904861063011128,7.096736139249204
10.48210000065155,50.20338268643205,43.25473409877883,4.436448231122949,28.107010275391826,16.49456278181496,13.943389764578072,5.118886440541401
8.928149787537887,94.8246661802004,62.74928601961184,-3.994539342820092,44.36714984695048,22.883757630420515,16.489384349648162,2.9887220150990212
7.2808189581180836,113.57372075914266,66.35490258206487,-9.37057639411948,49.55793683498025,25.105247127477305,15.620599849725652,1.3394520263535576
6.423915515846725,109.95321776913724,58.14322166436841,-10.859222980499805,45.63366485700919,24.025567355821604,12.658335224442615,0.610245222754764
6.869954362584301,94.28286147831055,45.56952172246641,-8.982100745403818,37.297065786505065,21.416339839775787,9.504581690394314,0.9324004939013036
8.631362492995896,78.60784816675132,36.295599424767936,-5.094176801322988,29.901797613674074,19.101127308031746,7.888524761581609,2.1810407648395795
11.29394917779678,72.17406059027557,35.64071067222379,-0.7095392689341421,27.55577027299791,18.317305395591582,8.821196201060427,4.064239607391359
14.09985486809334,78.80394629197464,45.00014240473685,2.842696784989526,31.838665706292552,19.41062138897285,12.279496266807527,6.120783377465656
15.959993149489058,95.96358299334094,61.01072635737719,4.388102165602407,41.120874573633934,21.733783964993222,17.052964274570538,7.654456650910747
15.547316707480368,115.22058436115843,75.75963105890254,2.87064229191595,50.65657631888557,23.706935065640533,20.862243483972275,7.781973463313014
11.674614105621163,124.57123422467804,78.89981345844222,-2.356873885429275,53.91397430763187,23.209460870986288,20.98435853350299,5.727400272630417
3.914575588311535,112.96958486421667,61.8372393352731,-11.016374512657213,45.212196588084645,18.41618862702864,15.383298937099568,1.2651646748842422
-6.904212669491785,75.73778730617312,22.361214651713947,-21.631457552302926,22.67982877425932,8.80446970648281,3.862191476591147,-4.987350827439773
-18.751667562889676,17.92370376200389,-33.08820438738232,-31.886350900139828,-10.185380594376616,-4.275494401735206,-11.497873514361318,-11.690105267561874
-29.11371698158187,-46.92290325239152,-91.42585229204452,-39.54112393321888,-45.582491801853166,-17.95320811242438,-27.03616028707971,-17.3108946828505
-36.030957725853966,-102.48215837990833,-138.52378468215232,-43.387086363516026,-74.77006497825218,-29.040503546596092,-39.070067525735894,-20.77922138298164
-38.87715644588127,-136.90400465818334,-165.370586703683,-43.66821812467998,-91.91099297996121,-35.437298415150906,-45.465790415995436,-21.890707208751312
-38.45353903590528,-147.51325336349393,-171.368992871967,-41.751085209303284,-96.2691848206901,-36.94319029627158,-46.36085242622218,-21.256769791940354
-36.40860277920874,-140.54638489969022,-163.2045777658369,-39.316208023574795,-91.6935373372315,-35.06040633096999,-43.72069344233825,-19.884785370725933
-34.386907473452965,-126.60802027270437,-150.4533887251867,-37.60105528996841,-84.00266861405417,-32.01034677250066,-40.12024372333724,-18.677315021141506
-33.39390349124315,-114.97875383306457,-140.8117972589833,-37.08065358741595,-78.01185375548192,-29.622265009732736,-37.525571638632584,-18.12382491687449
-33.62315834190428,-110.037533381749,-137.47814269955197,-37.59459183382859,-75.81663792796174,-28.70185626359664,-36.68779119203909,-18.271490313071656
-34.66548391812715,-111.0870865346577,-139.37492967569727,-38.66085087620953,-76.84621534476251,-29.05854297996707,-37.259244420396854,-18.8768509012981
-35.86403155112759,-114.60016571631927,-143.1817710298937,-39.73910837666348,-79.09610165091513,-29.95349263941987,-38.330556156670994,-19.59172009121747
-36.63836085907385,-117.01098796250419,-145.6750602244438,-40.39049703773968,-80.59235208162016,-30.61870247385908,-39.01633612815175,-20.10609447518318
-36.71470503426281,-116.71959427121412,-145.39766834134727,-40.385306630595935,-80.44371651309562,-30.637005129752183,-38.875245279642726,-20.24234799268111
-36.23097612286556,-114.79750782977602,-143.25778639562043,-39.76767113139903,-79.21797365595418,-30.112349960992645,-38.08187144141672,-20.002575419073928
-35.66647426992959,-114.23102371033401,-141.8784108333034,-38.831744684126846,-78.53841911409226,-29.586059056819906,-37.29821395556916,-19.5534750172464
-35.58928566060451,-117.81165516933011,-143.80859176141254,-38.005386358325104,-79.96978223717501,-29.685951086431633,-37.2533698416876,-19.149519959451332
-36.32585499124987,-125.544969277099,-149.38418753717045,-37.70660160317024,-83.67351485168736,-30.642991453268078,-38.20928273700279,-19.032194800866204
-37.72178763268237,-133.24216619378788,-155.58257020267337,-38.21691572829829,-87.67690489697591,-31.96685332283934,-39.62902938868696,-19.34384861697141
-39.103643506062646,-133.67311139901835,-156.85687218131406,-39.536981159839094,-88.4056794305405,-32.52773892965598,-40.281787833036816,-20.055686311171748
-39.43538319461508,-120.03512423215818,-147.6738803922465,-41.203877529557985,-82.333695105914,-31.024564361151157,-38.73935150834333,-20.89624971815132
-37.605032105962835,-89.7356614741383,-125.30332541573365,-42.19290322349818,-67.81176171357535,-26.557581609106986,-33.98017109343153,-21.317590879917365
-32.78546607964393,-46.119399421941566,-91.26655039697259,-41.12113528482412,-46.001869527422805,-18.99320498524302,-25.802922110929345,-20.58924991577682
-24.800952829999932,2.898147582156927,-50.752865726555875,-36.82735775412256,-20.42918294228766,-8.995631554665028,-14.914734581667451,-18.068736648522833
-14.368196106974482,48.3616584881287,-10.497616427516775,-29.08446775994312,4.506666679401224,2.193018713220108,-2.729588713195685,-13.559738806252279
-3.0533400184145054,83.81764257381651,23.650354220644964,-18.990881495347143,25.185103594415825,13.066154330910653,9.005115093875705,-7.55176654449766
7.1241492626623755,106.95771259244606,48.292318928761155,-8.705969863864544,39.7438993931757,22.15841965128862,18.63237214087466,-1.1551071426462938
14.338529588686297,118.92909693644441,62.728562651857786,-0.5847590933932676,48.092666270366934,28.33801581835046,24.975828739799834,4.291772331408971
17.604133042475848,122.46701421156828,68.31411631481467,3.8393066100976654,51.3150164389314,31.100859227588714,27.638659990787392,7.763407354718447
17.12394527841623,120.42920264560884,67.63138585950952,4.451471693309008,51.032560246433064,30.78112058296281,27.123439541140378,8.951117100122183
14.147711556340656,115.3537664721589,63.77936930594898,2.410607935080016,48.988294243671106,28.4864518677762,24.655527352276895,8.311570379013926
10.38921651822898,109.49676491642795,59.64937513266123,-0.593043858339638,46.730194246921506,25.654718787688832,21.69468125975646,6.754319834219201
7.302665653064681,104.66586303007104,57.18295179071316,-3.188962626059528,45.289889432029824,23.422291968621337,19.348092892743434,5.174002429709342
5.5834402851787805,101.87203390279332,56.96218792680561,-4.82708499822301,44.99882917927974,22.205634394459647,18.023497381028857,4.0896888002253595
5.081513408556604,101.20606976411017,58.37949335565711,-5.784281149120151,45.5898002650424,21.75273948274285,17.49331554894582,3.534033832413767
5.064557302863314,101.95273374622688,60.12113298758208,-6.81342909950368,46.44432042439377,21.5280606137771,17.219746340379437,3.1698863786864466
4.653553213403415,102.59748514795065,60.53617594539517,-8.628161912174301,46.72701148920311,21.066784379638293,16.660707673568893,2.5390948783645912
3.2910261997946297,100.81278789943964,57.96444310069975,-11.366820519108915,45.45523264165223,20.101406413096942,15.455740578172408,1.362260073628525
1.1302588070874282,94.1549972397903,51.531510507075474,-14.219901204057246,41.87203049919123,18.58658283737899,13.606080269468256,-0.1971244841326611
-0.8266796079182116,81.85029662707136,42.447321666107264,-15.492453756278529,36.24968311204906,16.816388469946265,11.702787351354607,-1.4447440883045652
-1.0282858177152132,66.66547929064127,34.803214727873964,-13.265199618521716,30.569205615140042,15.572456695920469,10.995045122322717,-1.3767618355292153
1.8980639149164655,54.9702635204675,34.56854058158362,-6.4374163916284015,28.208037055869767,16.014426496159782,13.011013521827827,0.8195984729965738
8.32515630784069,54.041850918458394,46.65993652543154,4.44160180216844,32.37249236399925,19.1564078864523,18.75045705490859,5.2450839173804855
17.219523944547806,67.88079671208857,71.70137939770258,17.13885127455379,44.09804330679183,25.17242676743764,27.907244736499326,11.089113917194487
26.465579315417084,94.30699312213439,104.75942092250318,28.62478855447503,61.19899630268881,33.033579040868126,38.70375968726051,16.921589546073815
33.78661457500104,125.48706351499986,137.2009890882734,36.40934479691912,79.02546707714936,40.82156417272025,48.56242589625192,21.33017724422402
37.745994593608074,151.75772049396835,160.7278311727854,39.56493101147755,92.67136308646462,46.59878380786125,55.269929202659235,23.534572323937205
38.26981689717268,166.38537961975493,171.1716761842373,38.89259663808344,99.29361827696307,49.313051888388024,57.946599888188594,23.637418980983966
36.452813999234145,168.34073549944603,169.8379281861741,36.246904449539755,99.15719802765749,49.18478829123929,57.26785589888002,22.419564793608494
33.857225940103575,161.6468832543703,161.883060749694,33.5298468727533,94.92684138774041,47.388704294697455,54.88895185472373,20.86803052226303
31.77217765856997,152.25017692019637,153.1304692714248,31.952343099257654,89.89755636678498,45.318331305194974,52.520071910006656,19.740206544807947
30.81178646494261,144.79986128771196,147.44131470218454,31.83944204521012,86.4000079056675,43.938399059417954,51.224809773128214,19.362791342306604
30.92200604278047,141.18100410782472,145.86965374980102,32.84760774969198,85.19087387475587,43.54738657804226,51.22841035996552,19.664120528565128
31.621770886446598,140.9118266712613,147.34090564296713,34.303109516600756,85.76194341866281,43.91206312984235,52.128351461970176,20.320176251119022
32.284551017156886,142.32430229836618,149.84456164423028,35.490067194074484,87.00228399643622,44.54023496983022,53.23765768719209,20.916069336623703
32.383228762445995,143.61188878872392,151.4542880326314,35.87924924295123,87.79578967054647,44.92973694842936,53.89821960764241,21.0975301493425
31.688321238429218,143.5749368843962,151.07053150158814,35.30725384924731,87.47976941028139,44.773090799390985,53.74023876563778,20.70623875723442
30.37490025065223,142.10797783310792,148.85586012661597,34.04643818315209,86.13947421178766,44.10512413406025,52.8551310991951,19.85920831424366
28.965014768465988,140.15420023815446,146.09807527012623,32.70785574560195,84.5562922871085,43.30205176917395,51.77670632282707,18.92171586920656
28.09752972241106,138.88482640564064,144.37213823013496,32.01124202206525,83.69482843016891,42.864706922712024,51.21285850429742,18.368231095989024
28.21898886647601,138.55553494853902,144.44678368069708,32.51114479265762,83.98726633637348,43.082294849771884,51.64015165983375,18.57807945484533
29.318479588629767,138.0146858598294,145.69518084690128,34.32825779413328,84.92020892730687,43.79292456206738,52.980336873893336,19.625318045095145
30.784079749147555,135.3479350245605,146.3410011094082,36.90908405112833,85.19554743158714,44.3799840605296,54.50530491676529,21.11962255350772
31.430726739150927,129.0498895481274,144.16173062434447,38.92613316803843,83.2585598189426,43.95866157187435,54.97283986315852,22.18005544180111
29.765749838249377,118.66488520869741,137.10209596403783,38.528599087298396,77.80025510044504,41.62604153210925,52.94506383943181,21.64324145226304
24.517916285099876,104.54903488461972,123.71807449973413,34.04061465951348,68.08919611893039,36.72217544218524,47.269828672402525,18.529934023597914
15.283126784305077,87.40782213032217,103.74728091158596,24.85623675132765,54.26583456185952,29.11798257597063,37.65595551269453,12.604332595213494
2.947209936543352,68.40383111781343,78.83017833953036,11.985869030691065,37.65598622727923,19.476650952054733,25.10827884113155,4.698176292853207
-10.445921744447437,49.79186540802968,52.813014822723126,-2.1975138031127956,20.847029506815343,9.307367673531814,11.888604493302536,-3.4798930898172244
-22.427921356394016,35.12730088918485,30.89562061568704,-14.968222012708909,7.138138002205291,0.6236819900958702,0.8222249612981081,-10.03887828776834
-31.105674321361988,28.044439441170624,17.473934157570106,-24.430989556941704,-0.7449179216629005,-4.797468322048263,-5.858494979035924,-13.747108130550185
-35.88717855293529,29.65860022174613,13.548909980995008,-30.140238131182098,-2.2127435822107273,-6.278754005643791,-7.587524053957731,-14.525554601745291
-37.52404166178251,36.16876976749792,15.327304014761802,-32.79481922301528,0.2869417180951847,-4.7512188767668455,-5.828426870388189,-13.294541144213014
-37.46527855665865,38.915820085347775,15.387299443666626,-33.303176080167226,1.9051232493497556,-2.5014162433691522,-3.414376291230036,-11.294323534095652
-36.94978327801972,27.940013966106207,6.31042652613889,-31.96340513930418,-2.3906649820265686,-2.146057675855079,-3.1413374916999066,-9.34710084969731
-36.42403497311095,-2.52765411774787,-15.165214664845045,-28.38308418448906,-15.13121022410769,-5.341744214614638,-6.389450608834676,-7.540833025504505
-35.61988840359166,-50.148791327744455,-46.13572232939918,-22.151129656784086,-34.871904487692724,-11.986796346422643,-12.571561905068387,-5.480474813070053
-34.140497652662724,-105.05131535898352,-79.11060568192993,-13.660254118180436,-56.96967121293411,-20.40672573967362,-19.693967406961097,-2.8350504157806697
-32.04843474336096,-154.84760719290782,-106.22454647492435,-4.3611808409931845,-76.16689665057254,-28.383191259561137,-25.61017936976218,0.2684445694820395
-29.984122618528335,-190.88823159380024,-123.30498492732876,3.812613191134352,-89.28958158140216,-34.33225435809716,-29.140273761832866,3.281469515181719
-28.719068866597308,-211.58468291102508,-131.12741097318286,9.456156783679523,-96.2854489652066,-37.862619591307855,-30.381481016171186,5.622529574678269
-28.48669317723216,-220.7045313905697,-133.20317488291545,12.399154686570439,-99.01923639491157,-39.4176532067125,-30.133300803419882,7.0782268629352805
-28.623001283499526,-222.24124715667458,-131.97143482880767,13.581970771823254,-98.89176602412446,-39.39815162596803,-28.987719181273633,7.889149260585908
-27.845459296895232,-216.03728186790346,-126.43412381150645,14.19704419273179,-95.23137268130539,-37.552185375228035,-26.838632015862597,8.454179065589091
-25.032487115682134,-197.6997020598495,-113.10233684632101,14.749124735825568,-85.78350761812344,-33.17703890512554,-23.182105879805327,8.894825384305516
-19.98087218487208,-162.88912627132348,-89.4689601101176,14.743533543221847,-68.9317778493045,-25.98152703264444,-17.909386099626527,8.83789809822036
-13.614880982866163,-112.54708799715543,-57.21462439168231,13.215129875085406,-45.87385382066686,-16.8756372905773,-11.884371782955741,7.609282394162564
-7.505345405489816,-54.875881761292796,-22.589682967478147,9.660500966957722,-20.985166633145752,-7.970905268728038,-6.7748778488238575,4.717261694679166
-3.0342021440557985,-2.3835896838196398,6.393731147173986,4.6447373371217076,0.01630005286273173,-1.6710682703845514,-4.2058949309310485,0.28560785691576235
-0.7566830490296335,34.04317632284909,23.982700456151797,-0.3744334733153853,12.869294156545061,0.5707643848017808,-4.83263568557713,-4.869464390531245
-0.3278928185574572,50.075195659650646,29.20673182666922,-3.8647308280457406,16.668682522267577,-1.0103991026659314,-7.989635103231149,-9.576055425613049
-0.9347191552021956,48.90427402244574,25.476728940247384,-5.075255565655318,13.760491226015512,-4.738652203331169,-12.136250099982776,-12.83488810224716
-1.8434641421059934,38.24032620804959,18.007150369977115,-4.335030853205051,8.001750756732545,-8.511311160858769,-15.739313227500237,-14.204246422613677
-2.682442283264148,25.920727318455775,11.13223036745175,-2.6547288702248504,2.763936690709948,-10.865752583704344,-17.966041473341175,-13.838639185815934
-3.37488955685498,16.984629891220994,7.131425664858161,-1.0140997456634266,-0.11053550333194145,-11.451972529181868,-18.795298090548467,-12.242055789464802
-3.928064954522178,13.238022544506935,6.60902199266716,0.11919200653339719,-0.20063244777756475,-10.778848610653496,-18.64903416719537,-9.97088475189059
-4.324323100716505,14.338939549190208,9.33781809910835,0.7783799647410495,2.101111004286472,-9.600210963031735,-17.95511981910998,-7.4791197217939285
-4.577248370089617,18.92545497432338,14.637654890197076,1.1553027754626173,6.015058319532856,-8.423074719197816,-16.965419105701447,-5.1222688241943
-4.8366239288734505,25.15574972395771,21.256766413095416,1.2751509213523142,10.472094342463867,-7.385258695316666,-15.849355483589711,-3.2100217330065437
-5.408554808174318,30.887517554462203,27.25631317660877,0.9126285078418953,14.132891911139494,-6.451271990923233,-14.877258918819825,-2.0080741271908193
-6.653233343714282,33.81958888941791,30.230707493850456,-0.24832408406204973,15.542135531499952,-5.718050794067853,-14.510025005533569,-1.673390402375162
-8.797931017774701,31.71863457297089,27.88620369255308,-2.332721027751701,13.449935013305454,-5.597072784563243,-15.304135938333522,-2.167461888937674
-11.721858267592678,22.977806061659145,18.982059145492443,-5.021817986898723,7.3097121421956945,-6.685287754889564,-17.615631981710088,-3.2047969507187
-14.799108594468668,7.873583404909923,4.596854617200346,-7.497355634167577,-2.044484659536888,-9.284966342159597,-21.17885070234079,-4.28663193384714
-16.937977042281492,-9.74151022957131,-10.812351801186955,-8.719283271474332,-11.806501261240017,-12.804251305438704,-24.789059782613208,-4.847515396168623
-16.926353627552356,-21.709682514484513,-19.667727324009924,-7.995333542643854,-17.324114034948895,-15.504979849967159,-26.415069341723996,-4.485377859485296
-14.01052623065607,-17.473167183340497,-13.677176286888994,-5.532733784173804,-13.480607352291782,-14.988913101437312,-23.91544607611253,-3.17095948367821
-8.407137939593568,11.238763544303387,12.19310772306899,-2.5518561628556666,2.927797633900398,-9.35177381833867,-16.12647805212888,-1.306024052777427
-1.3938749099599517,65.2046994805595,56.305277577829564,-0.7686324141875913,31.043927400835692,1.6135427343252686,-3.7173032366631955,0.4332854243946797
5.157528819042711,135.42313017748916,109.84460574980784,-1.4897792631378726,65.49636461425371,15.95770070511662,10.787436507753258,1.4063155087935473
9.590228609302326,205.81130892997666,160.01913004449725,-4.8679659715932395,98.24541359004222,30.253149310974496,23.961701967658044,1.3118996024827208
11.167556487810113,259.8615656423849,195.44582886762186,-9.789166033670769,121.90701890152589,41.08664586228792,32.939828825240205,0.32178847356024076
10.287669581481847,287.6319781981519,210.7836598690619,-14.464785891277375,132.76212035725547,46.52226765256195,36.581308441217665,-1.0295424995475053
8.129750979701756,289.2496628896148,208.1770704011901,-17.356928013863897,131.8555727120483,46.73761336374408,35.724624076322954,-2.1313142822989968
6.000297858504211,273.42718014362913,195.14501757520486,-17.8777935535744,123.82241640494155,43.600431218331906,32.50103180232738,-2.5881233700313984
4.784579467450225,252.57695306173628,180.65670761933964,-16.49946518230568,114.43813784311871,39.60260384638258,29.2280292253442,-2.3573860925719363
4.748389656537987,237.64908059660434,171.73083130114276,-14.331698078744646,108.37150676054705,36.827594563963224,27.521696193874764,-1.694940436857045
5.643616147487551,234.91673083191034,171.76723208835966,-12.531351811339086,107.99613003533734,36.37731933331423,27.940035359451198,-0.9963277679077479
6.915511324341476,244.90146137382774,180.28685438493255,-11.873266589741396,113.14671198741294,38.250190719300605,30.058271576594944,-0.6404585574818231
7.887512468548433,262.5776776856002,193.29067868217075,-12.55608787361674,121.33739303249459,41.46324481971349,32.7427393997092,-0.8674513993395322
7.9505753525490706,278.55978780961357,204.12973751454143,-14.15333050275466,128.33132232572962,44.3299393216441,34.528555498890164,-1.6702543444242566
6.800125618942285,281.78354078492947,205.3571951783294,-15.688933721977355,129.3282179841831,44.95521758490145,34.118321451867864,-2.721847993177844
4.640505686430789,263.6904709988774,191.52805219807223,-15.932196042563344,120.76107168275476,41.92434874117244,30.912350548783337,-3.427590696988126
2.197594710111459,222.34341306071514,161.78494372226297,-13.925486503679078,101.98509545981466,34.91935789366981,25.301892726122414,-3.163598002135113
0.47219113875217444,164.00913516605547,120.62824896359295,-9.512786856526777,75.82069091955236,24.901404104191922,18.48408997701372,-1.6229109459648463
0.3497551347300603,100.81303345587408,76.16188117038136,-3.5119592313040036,47.44909668226289,13.709683975634935,11.84717085276057,0.9338783610253488
2.2814907793930717,45.509570690910444,36.694735795437175,2.641040138993772,22.198382726667944,3.2946179847929145,6.293248660892859,3.708840994497061
6.193412007539722,6.364419742452217,7.643075460528615,7.581315705336156,3.498696600194069,-4.968244995010291,1.9373957112110258,5.699664445186586
11.630747542909756,-14.919631957190084,-9.571176993080055,10.605276094898159,-7.841256854348646,-10.522461761329012,-1.6311044082745982,6.165337146989996
18.01583524383074,-21.44218764846816,-16.35810200574293,11.814518778311777,-12.825975235621062,-13.409810501167918,-4.74722388999814,4.9678746582029065
24.86458078901191,-17.40862428406486,-14.844220317665727,11.804061429927934,-12.802779428469,-13.891734019468085,-7.209659296473089,2.6129067142863196
31.87915791506667,-5.5313770720237185,-6.5898054213155435,11.213573477693409,-8.559910112892144,-12.267636162022685,-8.328183768914334,0.004246781005896941
38.94009840443523,12.775723988401092,7.091628306479451,10.512041426637948,-0.5659290314060302,-8.97272246493159,-7.42971682221746,-1.9114631122046701
46.055189843338894,35.29598105104065,23.982392126882385,10.112852694848941,10.140030160710596,-4.725791995993004,-4.41160389201722,-2.425477921413181
53.26967024908206,57.423674623591744,40.40832640647342,10.567115012554936,21.410263225378053,-0.45809803859040904,0.07012103868777105,-1.2092262840480732
60.50584513447305,72.84981372607882,52.05676135547778,12.499793575245675,30.40872576906129,3.0037390093717953,4.874363698712384,1.6384597373609293
67.36592505243479,76.28470749580747,55.749674965550916,16.22178236064083,34.77368151128814,5.280791604541043,8.889418967465986,5.599581262540652
73.03386855579193,66.42362398280255,51.05489726974783,21.298255316102804,33.77225606709223,6.5652201690645535,11.477852574711166,9.825188850095932
76.4049476807294,47.2143013152147,40.72085410476243,26.438314470196296,28.729298801289254,7.439986577554098,12.648146345821987,13.336120076776611
76.42561820395359,26.470380898196897,29.519788700900822,29.84364200085396,22.419724656938463,8.482798469694051,12.896950535269609,15.2921385943699
72.48127862234941,12.208115907437943,21.82912781876981,29.867773608530037,17.61037994095345,9.826123614600359,12.786780703854696,15.215195308176803
64.66719231120243,8.25468586154861,19.006037045103955,25.722087060273022,15.388780135428942,10.870192245383675,12.450633857573138,13.079658797110211
53.88643067649103,11.389870447778495,18.056124890648167,17.991339765344275,14.199467329344461,10.340993509718134,11.325545464586295,9.279526924779214
41.785887140800625,12.026689738965743,12.762996636456386,8.745267860724883,10.356075877426777,6.789087057367614,8.373774031833571,4.5386722372345
30.506168226610264,-1.2144789573849497,-2.8913029288779377,1.0620388789756816,0.03609312716877394,-0.6145928433987418,2.765398558427648,-0.207822858399789
22.19654578335602,-35.13253643507401,-30.82728553117355,-2.0338914552510925,-18.257536760168147,-11.395850047202334,-5.3740018577953785,-3.9943656507242364
18.356433182100353,-87.41432584424066,-66.94313711055572,1.1435943250475211,-42.287453922593954,-23.665788182108148,-14.682442756349941,-6.08469704147878
19.255582294225896,-146.8246782574271,-102.55106301621464,10.077406553630592,-66.71672808567239,-34.752727760375386,-23.014624570865205,-6.233109172153215
23.76146236458242,-198.22838473494912,-128.45907866000402,22.142356358115034,-85.51981013861003,-42.29581691132668,-28.407741559961256,-4.796768323141439
29.743761548634357,-229.6349853555626,-139.33114403258583,33.70019952457477,-94.79384772905932,-45.21955675281734,-29.991386936411033,-2.5919401768452652
34.914832912943794,-237.3381982991508,-135.86792008240292,41.653437955613654,-94.38776524160855,-44.073570740716264,-28.314788188688432,-0.5360854558272645
37.709867700495586,-226.5872781659928,-123.81610025918198,44.652618301870426,-87.56763389364075,-40.608273518899594,-24.9545473539125,0.7348937925646098
37.78540736861802,-208.06988321570816,-110.78484883234798,43.38471005458146,-79.16704904990502,-36.90612217895528,-21.71684088511916,1.0613369301074145
35.94254116922851,-192.76552134520315,-102.92612347383103,39.93486313236501,-73.44993919878198,-34.58678042657401,-19.929135215350183,0.6855595129791966
33.60666734404604,-187.90530950121445,-103.03938127140097,36.70943379247406,-72.72711710711039,-34.42009572412011,-20.11776048150085,0.013804920699928322
32.18395138017546,-195.15985797578077,-110.27278330569028,35.499891544295245,-76.94888257915122,-36.307443139389534,-22.01577214473728,-0.5972350526480533
32.55258420968341,-210.60890662601145,-120.72207698164218,36.97486335548494,-83.9103644653803,-39.393474272148154,-24.6912795438897,-0.920726937086044
34.76144004458184,-225.90068547095464,-128.50865487444733,40.55881007614918,-89.82460962148785,-42.20320061338393,-26.729890885514223,-0.8406745221920228
37.925891198280354,-230.731929215716,-127.54699384527285,44.593061499250965,-90.41001552170165,-42.93623990444092,-26.589941737870703,-0.3247949200275278
40.38495251226258,-216.74533323993631,-114.01897145465135,46.8110980844691,-82.55074396632371,-40.04682394855826,-23.18176009757139,0.5784572403970437
40.22922406024206,-181.63036684626772,-88.55292685212699,45.17336692182579,-65.93142619086021,-32.947176621207845,-16.437844550445522,1.758252366190897
36.13825420004422,-131.0096401187118,-56.505124208907326,38.84533820982919,-43.56600079369231,-22.407198596484893,-7.4722322967183334,3.102277928289989
28.157017811758315,-76.32164395100332,-25.595618433162382,28.800834527254814,-20.562699569992066,-10.308733936331276,1.8795478840100754,4.555841616360079
17.897932615403178,-29.40985495051992,-2.0360362076994036,17.564294330993736,-1.6503147565576164,1.167806522103623,9.910465331103309,6.104655899110085
7.896342327554146,2.9695401274956787,12.346213620459965,8.068795791963106,10.99797922312203,10.429375625809783,15.73409646164038,7.665324330617079
0.3686661923758034,21.129047524443713,19.906550698824745,2.2011710475988178,18.15837404346698,16.866465758219306,19.353577124272945,8.963263060775258
-3.939151243717779,29.64423947254394,23.94638411578241,-0.1154790659718351,21.892226665258647,20.55621750798877,21.095422223127887,9.522160911220546
-6.106413038382286,31.9625741161434,24.830043837292628,-0.7282352047113502,23.08971901412886,21.596420027513727,20.892378720478785,8.833964585512673
-8.345329560868885,26.637025682051465,18.561533134729757,-2.058128044753139,20.16730233894211,19.677539469577813,18.04168503195673,6.649647900104066
-12.66112410403014,8.217198686457843,-0.7614661448851492,-5.64385789082466,10.051768671320852,14.293885342349533,11.704957455330577,3.2174958532034057
-19.672123976106842,-27.77445390794398,-36.15390752032382,-11.314068500888276,-9.176620931870806,5.448276882020889,1.8121869873338856,-0.7085568952993417
-28.284088087093817,-79.57936332506557,-84.07733285737058,-17.43942734359755,-35.94701953581271,-5.740648715490377,-10.335739060821993,-4.14181610381583
-36.3622920069939,-137.76000089978015,-134.72388132829357,-22.01503281157936,-64.98551042152893,-17.096424222871477,-22.30119865765957,-6.290277700795358
-41.93343542600304,-188.90785457272884,-176.3335797553897,-23.83658954125853,-89.53942630669164,-26.19712115753222,-31.527611361075262,-6.902577154917001
-44.170832153122944,-222.1500835333459,-200.84378774213116,-23.054076580847347,-104.63504526571636,-31.46441641018155,-36.52019498467115,-6.332178582766845
-43.62460214952366,-234.21079303097451,-207.33029726483988,-20.85969181048973,-109.28425836294765,-32.8268864845341,-37.44198821349204,-5.286441373318427
-41.68423820908701,-229.93926556057392,-201.32207833923965,-18.648298350927956,-106.35176940269967,-31.5440164083628,-35.7845171486741,-4.423453176788576
-39.7288994065973,-218.44782318211247,-190.8910703344622,-17.269998270407672,-100.4288005034963,-29.36147281205843,-33.40524840456274,-4.0484597976189445
-38.517560071109976,-207.83818979184912,-182.3349367632945,-16.803124095267595,-95.29391186012622,-27.594827868111118,-31.599285806785723,-4.072664435464072
-38.087793996047125,-201.88144620401144,-177.99120899067668,-16.826117754537556,-92.51027342565312,-26.690985029502887,-30.730236383066792,-4.202527302541177
-38.0532208269632,-200.01388822581202,-176.80197688679607,-16.859489590292917,-91.63008140852233,-26.391228637232093,-30.47017887723841,-4.189974593340642
-38.01002143460648,-199.6125155644056,-176.45577399373406,-16.678706337754917,-91.37893365154349,-26.2169571351345,-30.32082018621194,-3.98777443201017
-37.823794705954306,-198.5913049074265,-175.4894626525616,-16.4031546494515,-90.87236893955475,-25.911494076547307,-30.05026144849512,-3.760413798353636
-37.69901638712274,-196.96109841502292,-174.34708559909825,-16.38719728428894,-90.26426085669844,-25.632364912694534,-29.858144788381956,-3.7778370738292844
-38.00998474740428,-196.86839679718915,-175.06590563762356,-16.94439342342035,-90.63350763169096,-25.850129449836167,-30.23222608487906,-4.233615921001126
-38.94223109671946,-201.05827622124755,-179.65082228684625,-17.986673540837266,-93.12714948402991,-26.98234431123915,-31.535616769746397,-5.04630371718173
-40.12692767433418,-210.18697529661745,-187.74426735418808,-18.80429314440796,-97.65630196994778,-28.890402762865016,-33.4901873643419,-5.757929159249752
-40.55670466503853,-220.38670913811367,-194.99858448592613,-18.255978946393547,-101.90790805816145,-30.54127984983054,-34.89940362280146,-5.660928160664735
-38.96926966736981,-223.15364227268321,-193.77215471397764,-15.401342681542904,-101.62840796104014,-30.196200735652468,-33.9595304219134,-4.172164459669095
-34.560992683487406,-208.6909275451174,-176.57312261410692,-10.221143628622356,-92.51318554187917,-26.222268239850717,-29.170334457268673,-1.2715357576705897
-27.591383895564626,-171.37815424172055,-140.58534586459825,-3.8999041249158677,-72.818808107605,-18.134774006998217,-20.358955330758373,2.2940978419516793
-19.444853190704144,-113.98919374438555,-90.3600370831051,1.6034511617094467,-45.007049199960186,-7.1786096742601275,-9.110878718963319,5.240063393145127
-12.058957127745092,-47.63264044428083,-36.62998135455566,4.48204434640148,-15.15865229210997,4.0311015210532055,1.7823973551634755,6.335856578360637
-7.048637263236675,12.868496754921722,8.295115127128078,3.955512220695659,9.655409097420218,12.676758134545164,9.599406260908715,5.04598742417617
-5.0380916524820405,55.394245796446626,35.848499375180765,0.6050454927116737,24.488217734139482,17.029772330288974,12.935772209459799,1.8587893925564267
-5.540435794869479,74.9502483188792,44.21224706744742,-3.945736282197466,28.304110077034423,17.10471410507239,12.199321861553907,-1.8809520392136954
-7.353811333872303,73.97878629836651,37.72230019617454,-7.7371732412361975,23.63237116617724,14.362650225363668,9.147273218958032,-4.542393190718097
-9.157729758351579,59.41779680134834,23.79214914436218,-9.180104371570486,14.740539207479143,10.783559352766595,5.87286001157476,-4.891857220352931
-9.985009001023323,39.281302861984,9.713178332028448,-7.542515715365602,5.770207731613148,7.977696098384813,3.9125194016746536,-2.5903093929916032
-9.45366207415767,20.965475371726946,0.9769067697067038,-3.2188638424360456,-0.13998133117792977,6.830402965555789,3.903936493770525,1.6544639386876905
-7.830276048333523,11.195287891994182,1.0108183105634505,2.188630099458359,-0.8402546873137372,7.66340153042694,5.739276396496632,6.289712420973842
-5.989449172267459,15.793336774963098,11.143991553877235,6.106159272123016,4.8985267224851174,10.50871043366565,8.859947731946322,9.405880917923954
-5.205656070098466,37.894442010538846,30.07933356771002,5.7393228674995065,16.935793286174587,15.137108553084545,12.43039896653964,9.404827132110919
-6.68782617095973,75.2803075208654,53.395991858566404,-0.7124677864896141,33.09987956514434,20.846693013383582,15.419557423792217,5.667840026625105
-10.946572209443188,119.10847022119593,74.2112489880037,-12.87532129315264,49.172429426830035,26.32285026274139,16.776030293712385,-1.045828832754
-17.31835935758592,155.9555952571612,85.47609942566368,-27.797002610491162,60.08035305336847,29.87263342514337,15.778056851902015,-8.726156480889841
-24.007542088499815,173.0453732811935,83.08995518279507,-40.80254663989788,61.990451400547904,30.059931718922567,12.420059012207282,-14.82567590687522
-28.75215919333015,164.28204324678754,68.17591759401292,-47.402053865515065,54.25463694134853,26.450452873986062,7.583457647231235,-17.307590216807345
-29.83089650158135,133.74986763472901,47.06074947037153,-45.35000373432902,40.04036801088484,20.026647223919518,2.8172936914913915,-15.538466780294824
-26.884388744705298,94.32009255693765,28.615655294945988,-35.74011244610519,25.077799158880545,12.94226235967917,-0.24412015462285175,-10.550623037937346
-21.10394141624724,61.513557531305366,20.014652150007606,-22.483345317022213,14.947298749631074,7.611786088152459,-0.602345057624266,-4.5063341962716486
-14.693294427570617,45.510095760016114,22.93720743033355,-10.412878695482362,12.199712764851261,5.520277229375988,1.5673851643294847,0.3655528122923498
-9.898752657336718,45.6155384780308,32.27267807382092,-3.0368383818494564,14.866015513358084,6.383735353084955,4.850148227606049,2.7911602398061612
-8.097948437081628,50.571895399114304,38.33870838888099,-1.1367769719713317,17.34360727018133,8.203571316672408,7.11766374717326,2.896230271684426
-9.359857282749827,45.01802205997408,31.84183995991232,-2.892008176608188,13.418233732776242,8.307683612866732,6.492235096243129,1.8846332638551608
-12.615492273718313,18.768742208501482,9.156397433718546,-5.319868522765709,-0.08847064562975543,4.8761013116691405,2.322695236542773,1.2024161903094597
-16.26680093915678,-26.35601580623862,-24.95854671817283,-6.093478569407822,-21.067384085949648,-1.9017957383799022,-4.338170263716514,1.7071886528370694
-18.87856937211335,-76.24012198006399,-58.87478312366902,-4.66957725513376,-42.62375814740631,-9.732750831011607,-11.060249045747412,3.3027500528474563
-19.637171400866336,-111.09401190800598,-79.25617410663178,-2.1911020862464703,-56.18844430326258,-15.290877072849812,-15.067089081877134,5.16869864181442
-18.460937077922388,-115.3831989975083,-77.2844786557104,-0.43881247968328607,-55.63988229411784,-15.89492863910156,-14.49291526374745,6.347919336342448
-15.841643629846233,-85.619078073013,-52.7738144363886,-0.631240760650601,-40.27751478389121,-10.889736009732518,-9.248319217785719,6.290637958113907
-12.56416135403051,-31.926999904270914,-14.12605450162418,-2.801126891096198,-15.132330724457555,-1.9995503200843054,-1.0621187828808742,5.064716837845291
-9.414007027953696,27.09013611566973,25.70876496853129,-5.967457395136736,11.441122536625842,7.50749633405681,7.314502162721865,3.2023310912250844
-6.940471155733677,73.08519554296987,55.0574207792405,-8.814361412259718,31.533071622045266,14.368038367058517,13.328389202418228,1.3620866030844019
-5.339613324184228,95.62704728156918,68.15816091404884,-10.40086936965025,40.858894921533484,16.760390402270218,15.654026232153713,0.02798090030082395
-4.504737653004415,95.17389856607113,66.48212084932493,-10.54891695675333,39.884057380790466,14.915195592081753,14.548407179604636,-0.6254763341062065
-4.210872646095445,80.57142483562508,56.54597864380822,-9.795333598578841,32.63724596591839,10.67819477116409,11.439192751913103,-0.6947612539773383
-4.304022848814622,63.24242773012259,45.90303166597132,-9.006369725101122,24.191807134800563,6.392615158269411,8.076701157784935,-0.4104225426057785
-4.7635511964422035,51.65238396540856,39.70980038229041,-8.896134674193659,18.335192226896744,3.7926380616838484,5.763697685912027,-0.0053541579723820265
-5.620585656611911,48.75434090446555,39.42115643822525,-9.717089476708713,16.503212044829056,3.4620011164395423,5.013581171747006,0.3347285706757791
-6.836134711000674,52.76873920463539,43.540827363891076,-11.258125928246637,18.059709774589283,4.961603796437282,5.64669461332522,0.4410212487172488
-8.249409408463297,59.7122971473378,49.264659614219816,-13.064394090481969,21.268659434110102,7.340488025374334,7.108117287405702,0.13867301093113152
-9.61341026545791,65.8124449884303,53.93933351499273,-14.66580783698391,24.279601706769213,9.664387965535195,8.799172026814595,-0.6783836711295287
-10.66169988249976,68.91590825084819,55.96942539949477,-15.678041202206707,25.837954208816,11.352332718944849,10.325316448431991,-1.8932938514758502
-11.165895778935013,68.89846539825481,55.21819523042238,-15.815748714694259,25.677177168518956,12.275790452461804,11.608893039472038,-3.0772813834937804
-10.9894274373743,67.26476363443912,52.866689026906236,-14.927794782857276,24.51177051790367,12.645216375279205,12.812925228812935,-3.608680526881509
-10.137047501873568,66.0839189575085,50.67146076814506,-13.071307947449396,23.56109254999785,12.755843910162767,14.094824142432769,-2.9850222975188783
-8.759088686799073,66.70880981957478,49.93309445327087,-10.535009622414883,23.808477037952976,12.738387744851615,15.353582818415788,-1.1389107139318093
-7.078950168311733,69.07312988857359,50.839889898458594,-7.751037635288518,25.468228009986294,12.480244338060716,16.18392443989892,1.4559618193945167
-5.2858230296725734,72.05703592519617,52.616122044856304,-5.152116850345008,28.00644896520194,11.766991497707663,16.098945997991944,3.9599438472632658
-3.4811329742334816,74.52431452840281,54.2261460326014,-3.074586345127061,30.603852515775646,10.519450315325129,14.855488285786265,5.520463095496739
-1.715803580251141,76.0901495742312,55.001829004516075,-1.72893643806319,32.640004977729106,8.938727267236848,12.642865462450539,5.622452396946478
-0.06260235563671071,77.10191216629825,54.848158287857906,-1.1826266165094528,33.91141470544418,7.473155550883331,10.033885622717559,4.287443703181172
1.3526572898948557,78.17072709674305,54.18062071105136,-1.3353185054557597,34.62253698551204,6.658016384469012,7.775745753565886,2.050133284378509
2.368025319823579,79.85574424074034,53.81575067138458,-1.9495403442408168,35.28772181068076,6.912829159686987,6.541758695642802,-0.2767389416940121
2.8013592497741464,82.58858104981908,54.721772152305036,-2.783845679658178,36.52727772372529,8.336253598293162,6.700190890366389,-1.9538225176558512
2.4541609257649872,86.47414879244933,57.46224829637565,-3.748575752982513,38.69072831709033,10.542877821390315,8.136446321243426,-2.619992735256476
1.1660010352118346,90.88952010905572,61.58671166328972,-4.925478450148567,41.475610377035935,12.66256246690074,10.227294484797124,-2.39452328621013
-1.032818326903955,94.38583391713776,65.5866797073444,-6.390838766482296,43.921199835162035,13.629838241338888,12.072077532025157,-1.7315829068018609
-3.744441488762071,95.34965036778243,67.71218371477833,-7.9775379102632495,44.952417759823085,12.716454396120499,12.931309114973585,-1.132963866240997
-6.171095915249869,93.11227306514004,67.14800814534246,-9.196378346784652,44.14500333045818,10.020808801417271,12.625684396894265,-0.8980040744822713
-7.334023313945609,88.64142028661054,64.65997575313519,-9.419082527512458,42.12855206962957,6.57607560319451,11.632129575611277,-1.033579438259504
-6.472394630118058,84.30807762375318,62.27771734510576,-8.22870894487618,40.3384380983889,3.966162869588757,10.82354829122979,-1.3294439934219913
-3.423615531540391,83.00518213967229,62.32440640640819,-5.744962638237038,40.331843342530966,3.6508971206421474,11.03118646553467,-1.5276514400442032
1.1920097250008233,87.12300096155742,66.33885856556682,-2.761541114072061,43.062865204197166,6.332996187998326,12.654207120204951,-1.5049675308071866
6.05591408130248,97.46578012893255,74.15319135415237,-0.5947992167455219,48.31697926647499,11.59977540437679,15.428596195115432,-1.394361724990175
9.504302392396696,112.03465320203532,83.26261047004287,-0.601426802438938,54.36552364394683,17.918364489771893,18.388253299589206,-1.5692333163114902
10.100867416248802,125.24263317048886,88.93432764729663,-3.4550741850810684,58.0586292910443,22.99940730356258,20.07921732617974,-2.4463970445066963
7.279061903190054,128.77862240676797,85.64029307410996,-8.498318737354754,55.697963334049504,24.51001175268194,19.081039274544604,-4.17148048640254
1.7624078026648957,114.76170238186374,69.6954852444355,-13.629874453332674,44.66772111011481,20.97713886855798,14.709847696108264,-6.3765372742175845
-4.552687099363264,80.02762058823156,41.78538524030901,-16.014403217537172,25.082984080482063,12.511901686765025,7.533900930295425,-8.218215872889967
-9.344129983849687,28.92114940977546,7.56576766407228,-13.418028304028025,0.340352793271672,0.9238415644251176,-0.6988240482950695,-8.753418804702726
-10.949487852130003,-27.602255101803813,-24.523010949138207,-5.49746101014276,-24.048861289519877,-10.95369126342311,-7.809991615432293,-7.475174312961716
-9.220047168293378,-76.48025991749236,-47.214099609460874,5.718375080302489,-42.84832997624483,-20.443812607909624,-12.24151513765943,-4.688899084731403
-5.631587724004885,-108.09872776287818,-57.75984040167889,16.51240966390897,-53.31440146766208,-26.076113113158403,-13.769725944702225,-1.4749384232460443
-2.53479648561252,-119.57059387491528,-58.51364511590799,23.036813153591854,-55.879086883012114,-27.91340347108687,-13.414737084404091,0.7752215624022423
-1.9318010167897421,-113.99136985963305,-54.40574901687609,22.95793951533912,-52.95489975472307,-27.021867614515294,-12.601145240211492,1.0010048935932652
-4.459795209601411,-96.76167765094873,-49.14750458634367,16.365601846993165,-46.8356071420648,-24.52820834839252,-12.153894154082971,-1.0608472688698725
-9.143511953841257,-72.00150207748699,-42.90707477318998,5.552300287877245,-38.281203533182016,-20.965575374831918,-11.839105948773133,-4.820076902075334
-14.009178441951834,-41.564177350533164,-33.036679801700025,-6.119694841440268,-26.753932438822037,-16.326377896364534,-10.749145110154997,-9.166055539774755
-17.143303877198708,-6.693745996610105,-17.05713861017159,-15.624541853863983,-11.895847300586004,-10.636255090965534,-8.183583469998213,-12.959016591048501
-17.563736373604222,29.856134767409802,4.5743925434030706,-21.28835699783251,5.144872993021229,-4.44489125292476,-4.3097360230611805,-15.412257303700668
-15.464427046528849,63.56448956864534,28.07111056426325,-23.06176296411413,21.72922047302452,1.2604628155072601,-0.09070682947050253,-16.228007110331852
-11.836152185494795,90.19674235421948,48.49810300209975,-22.122307577105342,35.11256950991646,5.682229623444454,3.427511547566102,-15.529577116508024
-7.839075067972054,108.40312234795822,62.70692441065459,-20.16843070967886,44.06701432667765,8.834923939548895,5.856971401129275,-13.730640540893242
-4.358612347061388,120.35018132496509,70.65499318286761,-18.76786487529769,49.35753701223955,11.550421258548367,7.600619169600643,-11.437136654887311
-1.9095901774867095,129.31382840235761,74.10883421509038,-18.90482334312753,52.58112903962434,14.721746787504644,9.252978400705851,-9.349894781581858
-0.7250037476203406,135.81990608629195,73.96875867279039,-20.689487412393433,54.267260628313124,18.3089960201685,10.789471741533545,-8.075375370620005
-0.7763830932722223,135.594820362025,68.69068310260339,-23.234662183756782,52.87807805902436,20.939837136016752,11.2872475080654,-7.848058970103224
-1.673724750302023,121.5709644695272,55.365582318912935,-24.85325864762473,45.71398511586496,20.56014346063402,9.494712980074235,-8.332788200592619
-2.63517382316986,89.02832140396109,32.68787361675803,-23.702082961100125,31.173950272983443,15.779750791648448,4.844495475987038,-8.714599290186001
-2.7227437389780462,40.24933871317534,3.3511739513007255,-18.700827920111312,10.654357252863727,6.977423118411453,-1.8867455816169023,-8.110202086336763
-1.2985640665912066,-14.856026555680096,-26.20094543759085,-10.239219301461423,-11.419749505301485,-3.6351293951929384,-8.80330317896345,-6.080563221000069
1.5866594622845998,-62.891506342304844,-48.69478373424702,-0.18639722800990066,-29.56303043353088,-13.056412070336835,-13.861109793279656,-2.9142904600579493
5.167640176218266,-93.31900299500988,-59.664991913507336,8.894269345274251,-39.912890829621425,-18.9638632467639,-15.9205448796573,0.5102510867959688
8.354469739862028,-103.0684144923508,-59.42354433236524,14.91260792544442,-41.918017696719325,-20.70165022159652,-15.210374085168164,3.1954908345085213
10.298474192095409,-96.84489878094224,-52.255467449097836,17.133740209595814,-38.1032670189153,-19.279256570578912,-12.987631449226967,4.526664944109433
10.7751330176421,-83.52082067425874,-43.6765362547541,16.29611132303311,-32.3130363928118,-16.549228087219277,-10.72417228459841,4.507010928265827
10.170611843486062,-71.34206791808403,-37.71459687235574,13.988740161087026,-27.723186760066522,-14.190531137828714,-9.39026464300346,3.630546004466591
9.149250496674815,-64.81792503173638,-35.74217800850264,11.76032586228902,-25.76962210294375,-13.084139054888748,-9.209573408870327,2.5386070818120166
8.276519928761765,-64.36216538452895,-36.97363195070454,10.505190252413085,-26.251158543698256,-13.261300450564251,-9.854295624131723,1.707047295833076
7.827331334448457,-67.78471446370705,-39.672543085052986,10.360138311272397,-28.074951115265876,-14.220019936380282,-10.795014033800838,1.3198118308052809
7.8063864485846794,-72.12318259248634,-42.147467651374455,10.963864927322247,-30.001292638148872,-15.310691607438224,-11.568014556194468,1.3160471334612631
8.060175180928795,-74.96955517524141,-43.29017289128464,11.790648824996426,-31.122206257937084,-16.026112060902864,-11.910374545454234,1.5064935917247173
8.377930175945053,-75.20009209923973,-42.81276110281138,12.391045537709871,-31.103606859288693,-16.161346226577464,-11.805192478967339,1.6812387664921324
8.570641819305301,-73.1385774741851,-41.21772073177551,12.527914362515098,-30.204459144816507,-15.83083467726033,-11.443561723090243,1.690886588343544
8.543351830714556,-70.0766988335279,-39.407188156442956,12.223087308682924,-29.027415837681442,-15.336219033637112,-11.091575320602256,1.496249824082187
8.330079297018084,-67.34868065415696,-38.08896379517458,11.693494399738013,-28.10734471798317,-14.95608211524658,-10.925186889918178,1.164810319160486
8.049380952386024,-65.60024338555941,-37.43406139686626,11.192318921387352,-27.63762766494242,-14.804079459171897,-10.956777729595347,0.8084059228857344
7.807857212932434,-64.78988200926804,-37.25615063764647,10.863648564831495,-27.53839634531082,-14.848146887203145,-11.104562818828917,0.5071479059154808
7.64102016936046,-64.72749925666022,-37.42791696032445,10.72344848442494,-27.718587884205302,-15.02676086113859,-11.310033278722154,0.2819018053345878
7.5403665573479035,-65.41046553215624,-38.00140538065061,10.74981055260061,-28.188326002605205,-15.313375360594195,-11.56755173252794,0.12569493844173796
7.512533547512259,-66.7477584223145,-38.9004382881096,10.946918777553826,-28.894644096076686,-15.668353569319484,-11.85043268429379,0.03974748257993543
7.581913746163972,-68.08179989421102,-39.617659016274864,11.293157056145104,-29.5210316861787,-15.968232696346309,-12.05026236624966,0.022792737699191462
7.728428170188316,-68.2237592334088,-39.37686449660874,11.64416314177439,-29.55722843064132,-16.031045857133606,-12.027456454552405,0.02968151343687697
7.844317355021924,-66.16489375325055,-37.69694853207668,11.738113229280495,-28.643081186590997,-15.739235798783833,-11.73322659954754,-0.038333686725946066
7.780316513672501,-61.91494083954836,-34.87021551569174,11.348928568772104,-26.8997615148797,-15.152185102312185,-11.28247954490979,-0.2811040851669424
7.4523211365049375,-56.83788056176887,-31.995318620594176,10.477329455091107,-24.998561727453737,-14.52059230637747,-10.919052672309395,-0.7226528592388186
6.918522535640728,-53.31230362990567,-30.600554570792255,9.433228057476379,-23.953042128137497,-14.207396137132422,-10.915923721899965,-1.2710938474019324
6.375872192609194,-53.86095352113288,-32.032597025568634,8.754500406625034,-24.729087366860334,-14.554089884009645,-11.463581498028573,-1.7397551121725814
6.093499518217119,-59.85701891352213,-36.66850319891038,8.994163726600407,-27.712672937683568,-15.698524734333573,-12.546133215573382,-1.9146755942926648
6.3109648617102305,-70.02512413082832,-43.093544526381486,10.422469439787223,-32.12680752848793,-17.365205984456246,-13.815705317288149,-1.6528418781887964
7.102494215769278,-79.5204069218117,-47.79669691045749,12.712028169908436,-35.74982181110794,-18.75451783008949,-14.571091888345437,-1.0001420629989988
8.233963695223963,-80.76640554620569,-46.09910349359491,14.771266244040893,-35.42233343936171,-18.718291214565262,-13.977270301359127,-0.28180610564463826
9.122152353185532,-66.5309753034751,-34.37146935578746,14.959014066012918,-28.44885729342219,-16.268859795622674,-11.505585794196454,-0.07041918750959925
9.025873955452935,-33.999487096396855,-12.421194762000193,11.767661341411893,-14.237524289568862,-11.179746532969228,-7.332116522833641,-0.9645247919170883
7.459342726150703,12.740448472180914,15.672736000729216,4.706762852699906,4.9489881859235805,-4.259245229346645,-2.358158522968643,-3.243058130683672
4.597863126757216,63.90122631318314,43.23883854656126,-5.169415795375672,24.870363903949805,2.9737942842915435,2.25583661752199,-6.601552753204679
1.352342860452359,108.63493827477724,64.416439894216,-15.552993803001122,41.44993860309863,9.072182138165761,5.771585464650074,-10.183631725093093
-1.0439239243580976,140.27456074227706,77.06300868371312,-23.950751587082838,52.80314997837813,13.392209100592458,8.275314085633214,-12.950987031101281
-1.7479043449449143,158.5956296399334,83.06570631344375,-28.911066259643622,59.70129670662863,16.248134079659938,10.455381122700983,-14.194750131942506
-0.8590529215630249,167.50935433668892,85.77810190495124,-30.598468871979335,64.09890615598832,18.36302774533202,12.870543367615172,-13.862673116005503
0.6109606098620826,170.08101438688922,86.57329624100957,-30.310389847375554,66.87161762818859,20.0433657568318,15.267455614727742,-12.477174837921508
1.3964798677684287,164.9842471716908,83.34135306766369,-29.290215333700193,66.6309199651858,20.760079310019616,16.541973186587803,-10.701678780763068
0.8416093590094736,147.4074106059802,72.25751064594326,-27.729498803406774,60.675616952790286,19.51252417939765,15.463489700050129,-8.873706192292516
-0.63957530460597,113.75397471999995,51.447559361188326,-24.711458522722996,47.390132152314074,15.705526983193394,11.651183268245145,-6.848064233428721
-1.8387690774931231,66.32879783265211,23.597420004801688,-19.111839696150625,28.193319046482124,9.838529282430516,6.052404894980561,-4.247720861459859
-1.5615247706455058,14.218264387096486,-4.58000624270469,-10.737372273075765,7.493847910500331,3.4582333745530103,0.5442593369685798,-0.9024368759706295
0.6035772866580349,-30.44920147676396,-25.66098112348684,-0.8334665766897232,-9.35634207205033,-1.5980736474570372,-3.064736007607219,2.8739742833315334
4.054910726734846,-58.321940330948316,-35.29043602557246,8.39677724158986,-18.703363868111616,-4.136554601140259,-3.953765045184179,6.370257400931596
7.576839139687861,-66.95867343202835,-34.00667673933833,14.900596343236662,-20.14475920706031,-4.116104252731579,-2.5695515594255767,8.850401590440475
10.042492003717317,-60.97713094577557,-26.241269170496704,17.76196476105274,-16.201219591134212,-2.4778148954820387,-0.1864326091369905,9.942927377841706
10.955373227907804,-48.69123720040657,-17.515878973500783,17.48346325627352,-10.589453226767535,-0.503124231785687,1.87532232526842,9.796280716071706
10.548111790775861,-37.740538296263324,-11.77105357648748,15.505299394051711,-6.330888871362077,0.8406391162960021,2.85985480406012,8.935968580878798
9.48639018787755,-32.25316644497461,-10.235489698943294,13.377220107009862,-4.739694010199664,1.2079240527696964,2.7263375451089806,7.959472219510106
8.451042930339083,-32.49384472308891,-11.925645253687668,12.108687940867767,-5.521039591175795,0.7880459898044828,1.9096357993132924,7.276379299668555
7.857287745249156,-36.24599407318406,-14.896250928470119,11.968601519216307,-7.506866580695469,0.022217358941767462,0.9633965814433727,7.016691095780252
7.792879279586802,-40.59810554562618,-17.34396490614998,12.662053892235148,-9.429700949164026,-0.6582332032963478,0.30384231986879945,7.0897557941468
8.103124447335537,-43.294673972269024,-18.22626982485815,13.650658668600384,-10.435114833770879,-0.9859939251966662,0.10389336015251292,7.301997564891554
8.524354585581596,-43.446561877594064,-17.456888008759528,14.439250253783678,-10.305502002341589,-0.9161092192907652,0.2944505731789502,7.462665809588875
8.815612707085906,-41.59329084986192,-15.742085089164322,14.763020626033141,-9.412402416916132,-0.600322468236564,0.6437116067025531,7.456424463844137
8.861271824564955,-39.12771893058954,-14.083346328719538,14.650212425815697,-8.411556431380221,-0.2761989647729684,0.8988575184156881,7.276970010756075
8.704147871290228,-37.35197084595137,-13.16502777728104,14.34268082392261,-7.822120029799613,-0.11773801356175588,0.9281165447710116,7.0088630195522805
8.48501851503516,-36.76122169063726,-13.03201013938018,14.113934316177701,-7.762889581255009,-0.14767340513562605,0.7685795249515929,6.761373486140305
8.331222144178026,-37.02734932100513,-13.27367015764568,14.104320343044842,-8.01800264361412,-0.27316581862044126,0.5493709518229289,6.597303667961758
8.283433851010653,-37.54239327237077,-13.473610975841135,14.28595277928308,-8.311848739394753,-0.39347208297240605,0.3721450199103457,6.509823293953909
8.309279373068186,-37.918053750262615,-13.474644371199899,14.552184848665906,-8.506034842270102,-0.46827950845529687,0.26019026537144885,6.4559611005548225
8.363878616141657,-38.04147038490616,-13.294140320811419,14.819174055423519,-8.58018538538126,-0.5000105365688796,0.19639553003838653,6.40216687891016
8.423314073832897,-37.868561946820556,-12.938865498698057,15.049440394594225,-8.525364342769608,-0.4881706673119353,0.17237926829982608,6.336995842666642
8.471326636859992,-37.36349052665621,-12.40193744037762,15.219996862822727,-8.33303740461568,-0.42804593515830336,0.18374683852371662,6.2547347499351265
8.484198014595176,-36.646979640028334,-11.790573346890444,15.31402818077342,-8.070354429931927,-0.34424766605840273,0.19853264147177718,6.146977424926469
8.449723122876604,-36.041224747310565,-11.322334354324129,15.354036319299286,-7.8840689134655175,-0.29251706964151225,0.16566285707748848,6.017096705977077
8.394485529623422,-35.82931919423929,-11.125890595574646,15.414599044248437,-7.877356519874583,-0.3095013003870305,0.06670591694781206,5.891622240016379
8.371498050299156,-35.979690995471536,-11.091278348606068,15.571163976792958,-8.00155402604817,-0.3707159470770001,-0.057313175593939655,5.802475331092392
8.411153342887655,-36.188309530558904,-10.982823367628365,15.831474780120267,-8.108878187883786,-0.4147055848603531,-0.1467263303818775,5.75507112378277
8.491380600272208,-36.19762545664261,-10.686899724937792,16.129359080099636,-8.107225529313787,-0.40639766176226666,-0.18478882608264166,5.721033922085075
8.562538089762343,-35.998257800407586,-10.287544754046051,16.38697808790875,-8.025823292792932,-0.3618321652998997,-0.20416181853503526,5.665802455485968
8.594809828496018,-35.69746725124293,-9.89823211637044,16.570540318254793,-7.926006375062616,-0.3105584753142278,-0.23595091511852137,5.578415220452776
8.592337318692458,-35.30190549031786,-9.505828630850612,16.68543519328845,-7.802569754371015,-0.25610595996826907,-0.2744062312409563,5.471334761958078
8.569100389087493,-34.764006946922265,-9.049468204126498,16.746272845115882,-7.624636750754367,-0.19203589389289522,-0.3038489907553861,5.36007819536722
8.533573493900821,-34.23341390828712,-8.60836102637366,16.78585482339052,-7.454342921452418,-0.1453440524402061,-0.34312085846598966,5.256409952022984
8.508558134702684,-34.10525605429235,-8.395721389222743,16.8920790718782,-7.45093100705227,-0.1716616531100213,-0.43482170761187716,5.1817000852922215
8.549137069222459,-34.67417346733841,-8.50833393540471,17.191608650240795,-7.707600884639237,-0.28845893460513394,-0.5832438593913899,5.168913028181318
8.709130023918219,-35.72720035012468,-8.729171389908576,17.745259114859355,-8.099247390216634,-0.4232235777830316,-0.722183537453625,5.230705969015807
8.971413888888625,-36.55093113242279,-8.65037951873896,18.43826353840299,-8.331853589620547,-0.4495432504452376,-0.7641110958529264,5.32080270517379
9.21816598249683,-36.39575129218682,-8.007843547357341,18.989386708392296,-8.15851836847979,-0.2859709073004684,-0.6822726571335909,5.340116003611979
9.290497328024223,-34.983528646988354,-6.887351316204072,19.106278209859074,-7.5548927129271695,0.03520862490868202,-0.538394305495025,5.2003679180286255
9.099888073526296,-32.70202394020362,-5.654930812835379,18.686807357057702,-6.7322161888802565,0.380050602827664,-0.4376815126181848,4.898656882704554
8.707104329605826,-30.51469729781179,-4.780266488965303,17.938926439278216,-6.057068314487149,0.5725351752697933,-0.47155017942890504,4.544230873891805
8.320826287959292,-29.74041771263823,-4.7240468157175775,17.359625753726483,-5.967821304520055,0.4553010686231741,-0.6936684995670084,4.320339939977054
8.226401917302296,-31.610570928814916,-5.797155896674715,17.570846070389976,-6.831318634992375,-0.04027229129602881,-1.1022677226155504,4.4042208808470935
8.666564121034849,-36.42968110024009,-7.83389657279206,19.020281312604215,-8.64842510397036,-0.7946132968486074,-1.5917125046722802,4.871014155913223
9.684114601741443,-42.6281191101617,-9.84259705874327,21.600230857819962,-10.732449557272407,-1.4292279111721908,-1.9154501582135053,5.6017412377040285
10.971779183137597,-46.545013101522336,-10.088663492010513,24.366747328972185,-11.699545261474304,-1.385604787492885,-1.7532880783308853,6.239901708786984
11.846894020856963,-43.5929298268172,-6.828577199970842,25.633645925494747,-9.979559692711245,-0.1948726340434768,-0.8954621261658465,6.268369244640585
11.468035303802264,-30.42486108851625,0.7252812351923082,23.58542814039533,-4.611717181985768,2.2067954173424296,0.5889420541987199,5.236544996578048
9.263752216969847,-6.745880270053035,11.985615655255096,17.196887200847232,4.234582794532243,5.365504119154206,2.368167318452887,3.0458930062752416
5.33926646924238,24.523912701885106,25.513778502749442,6.927215778714743,15.41811934806173,8.534774212642548,4.076167172304049,0.0986016653344213
0.5583097744842798,58.864633789695965,40.065410128251365,-5.316025030566646,27.53599510852096,11.11613145528133,5.58414493083063,-2.8476846505402644
-3.8301581034885874,92.31747256742467,55.21104112633291,-17.012951401661436,39.59551719594238,13.000923051637546,7.077923426057667,-5.082770179348383
-6.834345267831624,122.48054426581493,70.83270898812998,-26.17650149879817,51.051683516156956,14.536523451235011,8.83505966482746,-6.352341405546424
-8.217843669336519,147.54371003057412,85.73224461998045,-32.05813822443536,61.132238123589985,16.10916893780331,10.842724358501034,-6.96246543364634
-8.496202297594754,164.36896296153438,96.57783273239585,-34.96143771455676,68.08684241796466,17.661290895700404,12.580077276106882,-7.455594541348802
-8.416646074043598,167.83878639796524,98.5581733436594,-35.3903517842602,69.28764807976587,18.569766873556787,13.227111527979844,-8.060062047079851
-8.303251509671576,152.93788038582952,87.94486292257565,-33.29094761475724,62.535543844081324,18.050410495477628,12.234677768498981,-8.336305747508145
-7.775810828602772,118.60192524142265,65.02780462606836,-28.055536308298286,47.82651717173766,15.805156250399493,9.84391241131536,-7.34481718616421
-6.0667044374591645,70.39973824001963,35.16701158402522,-19.29150686133795,28.203480530882047,12.396569142787447,7.11562682687639,-4.274283816100826
-2.686825461274334,19.559378073533292,6.846326610170294,-7.688116541403413,8.835277534166732,9.039154738634828,5.38848851575233,0.9049020076492049
2.0727556138877694,-21.565865852569043,-12.249452961328327,4.781146276171761,-5.263681531443385,6.946568138644487,5.522939058123584,7.238770375924488
7.169799704924541,-44.9266127785717,-18.728273546528467,15.55613249847235,-11.487631640216915,6.685406795931019,7.43802742279673,13.192622732166772
11.333368013423344,-49.84987595254391,-14.516002569858065,22.643206903752898,-10.5309192688818,7.946860122643037,10.221553561994755,17.392049876439327
13.709584701059269,-42.16212948341705,-5.069771055900748,25.475180426791017,-5.524556425421935,9.833561329789699,12.696647510885297,19.236018635673748
14.21971190500696,-30.333678808065923,3.8223952510513284,24.97600800114586,-0.13537304611360929,11.416052341927308,14.049500858370452,19.046173360716004
13.458630373381077,-21.254803749786827,8.637826948355242,22.888456437039036,3.143719561385198,12.178385440499635,14.138293482447237,17.742760880402457
12.280600624211365,-17.949046934288248,8.87937025697074,20.868605213105642,3.6521493672729846,12.12150441951693,13.374351263300289,16.317008966024645
11.381327624988716,-19.79386109878979,6.185798921461842,19.88477940490349,2.1606536044714484,11.57712406713161,12.365958861217592,15.425827792885467
11.097825965651445,-24.208164013599582,2.863393414920128,20.127818447585028,0.0138497030967345,10.952718283276734,11.606552838601845,15.2718520442923
11.432206218125359,-28.422550350689132,0.753380147403747,21.269337592789295,-1.5982718311978772,10.56865643377507,11.34402344482997,15.71398755795469
12.170460814173119,-30.631801959132098,0.6760041334151532,22.78299953575469,-2.043282180863142,10.58980040187213,11.581162036179602,16.451488489448476
12.996292512254644,-30.484432422207462,2.3154447369601567,24.169651760187985,-1.3795208906641425,10.991596037215738,12.116879816575944,17.169553242750236
13.593022164082173,-28.953883147219678,4.496123984919939,25.082904378647935,-0.241390830543087,11.563761229825525,12.620781689304541,17.625351752594025
13.75132310549586,-27.58422032242386,5.863102856612323,25.386894829153576,0.5448937550967735,12.00220840177119,12.774835394111586,17.693039801323966
13.453534175770342,-27.41732863531696,5.70475263270104,25.147562078644395,0.47284767140495854,12.075750211455142,12.444373858800702,17.377077921572454
12.88412096005448,-28.318079857250815,4.383468649757079,24.575677092028396,-0.33562799040658486,11.760569236825809,11.76592034171426,16.800402279714124
12.363019641346845,-29.242043143142293,3.049272681022654,23.98458457519577,-1.2545605458360587,11.248630113249948,11.082993336544442,16.18661290924376
12.244257093737486,-29.202527069178945,2.881439658397897,23.788583604182747,-1.5908037295188053,10.847872991947476,10.780102974862803,15.840834407788654
12.80026217735288,-28.094805092045153,4.415755566276376,24.451373993850265,-0.9918666191353621,10.859287027519555,11.11461798575602,16.086543368490887
14.072407357835647,-26.772722337452343,7.272270161621227,26.25972608701943,0.3863613041620565,11.466111630640205,12.087769219673637,17.105196100323287
15.709431369013535,-26.495298801884882,10.213562109263227,28.958511795523254,1.9090999318090534,12.607175530777408,13.350160282248206,18.71022889527275
16.923264447169952,-28.204110398932492,11.455107526694336,31.511581724159605,2.616441088039224,13.857732414188629,14.19657369195645,20.210448675867397
16.71749923919376,-31.834541980063378,9.384449072945458,32.2858764505716,1.5872160869111733,14.455901921005951,13.774343293186906,20.541246095196104
14.382083970357419,-35.65220146995297,3.725114665618562,29.697304102469037,-1.4240220312244596,13.601829243339948,11.53723490425328,18.69569622483639
9.998462025540354,-35.93599301654487,-3.4396758125022537,23.005153476447813,-5.364902284719253,10.947407579616636,7.730182380067176,14.263941005829293
4.595757065731306,-27.727708896283826,-7.799766112462818,12.792739596169696,-7.8679447029867005,6.96532940385173,3.5297884117903635,7.766234591620379
-0.22674555177674327,-6.977657582298702,-4.615409594223372,0.8390099520088993,-6.197160386447371,2.8886122768159557,0.6138717831647563,0.5483966013637503
-3.0477504792732213,26.76101933056763,8.578202075827493,-10.56069117291257,1.2051048347122244,0.18804009922134,0.3301407726119291,-5.745973333691101
-3.3128939826436343,68.84059606485773,30.074327804480976,-19.458159589175413,13.543461530202439,-0.11317548326324205,2.965747812032005,-9.856631975697498
-1.5518679228652577,110.61729071819738,54.35271122308711,-24.85789225442232,27.756550903635603,2.1323603592993767,7.601159881062574,-11.37300431196336
0.9844116915158111,142.97948329787417,74.71523528438009,-26.82635450015011,39.96589454567491,6.263083275938605,12.649709258606556,-10.754919748843921
2.997366596758804,160.4564969041747,86.63373647630442,-26.194630804017784,47.435527649291,11.261349360594165,16.710956376272033,-8.961029105498751
3.6936721571322604,163.45484240957668,89.68730580662888,-24.128478447227096,49.790621079300465,16.23584988054483,19.166198850207127,-6.95587812346483
2.9547309123297016,157.26391457886,86.96822610982025,-21.764678770959122,48.76174372070098,20.629627095954934,20.187019379349035,-5.367289403788537
1.1779624645723124,148.65761297023502,82.68848095147759,-19.943997033455815,46.80900390935253,24.145010263269327,20.306554251242012,-4.400106454397854
-0.9861983526806687,142.4997347789169,79.87929653004065,-19.0320394016355,45.731156853658376,26.613680076841533,19.98794551747863,-3.951399201024363
-2.857970802686411,140.37072428595891,79.57506977967836,-18.8970041219118,46.13449934737786,27.981615227393686,19.481328330629662,-3.813541115950476
-3.9180205984423164,141.33176802052145,81.36316971608825,-19.109383233173816,47.74304482105015,28.33951441975283,18.902377813473933,-3.8597092066892915
-3.9811507730614513,143.4479266853595,84.24116199489485,-19.271977556656157,49.92443611292895,27.84304409992268,18.300597652414666,-4.125028055873569
-3.2737977451440425,144.86602897424982,87.08635200708454,-19.25715619084784,51.99027977985267,26.551863381451813,17.640045781431436,-4.739655956109007
-2.319119581502755,144.36416873722428,88.89636313291217,-19.206876545718846,53.353312159649164,24.40561331929818,16.81585336226607,-5.764030164432131
-1.6725682097991617,141.78002028330783,89.14285919804261,-19.366422465564064,53.75545271771073,21.450585201614345,15.79065662187159,-7.064121647422913
-1.6893603545326554,138.20612059589686,88.06140673531335,-19.92954193519336,53.45681013686873,18.120156927085237,14.730701213151455,-8.342717239156936
-2.4665741575066624,135.42644064921535,86.4307179770173,-20.97441961041546,53.08454239923143,15.239898945149257,13.959618345544564,-9.304982219602795
-3.928241988074259,134.64372369170704,84.87950855892109,-22.43472093430313,53.14072795342129,13.663959941868608,13.735265282329397,-9.815503847147516
-5.916091851028022,135.46769021238234,83.36171477483613,-24.062854982657417,53.58691069115903,13.803437031212114,14.056990640459652,-9.925980945916889
-8.21153451650893,136.1203244580262,81.31826401038498,-25.449470767365266,53.892937829249135,15.403940463027585,14.677461412834202,-9.784234755930546
-10.529846908551907,134.73637641091025,78.33267411378189,-26.16718025116519,53.483458303180555,17.705096827557842,15.283162045109624,-9.527755579547218
-12.543558952631559,130.7164703141857,74.6808320940223,-25.970308082360813,52.194569020883975,19.836399783775015,15.680167532486292,-9.237210067448185
-13.926301704143834,125.27511115626118,71.46535340953504,-24.894232215641708,50.4800920366364,21.210813315596067,15.884400539311354,-8.943501566365846
-14.392740102995036,121.11402271892084,70.42524346847479,-23.200711891715446,49.36975752229132,21.74445182694291,16.118738339561567,-8.651578508796993
-13.773933707348908,121.45060949717235,73.40921099764495,-21.286742117542083,50.16898345556035,21.8089615950171,16.711074022578664,-8.374460741160942
-12.18313926704477,128.37380442783848,81.23582623106526,-19.677931057105592,53.7426699184241,21.889288871597454,17.842148580552237,-8.18597566952491
-10.205312370556253,140.67145708075435,92.05544145415097,-19.04274691482459,59.43811731436625,22.063472200957563,19.18525881107353,-8.261550749194166
-8.900033092737482,152.27702853328557,100.3315285111196,-20.03907337400933,64.30873274513563,21.621526515293056,19.6893359465225,-8.840768826672985
-9.451048458796338,153.17417080786828,97.96703753029243,-22.942716179160417,63.60551031942883,19.187453723132844,17.82200007811679,-10.087307642718251
-12.561178219149154,133.54357102499398,77.92976165602491,-27.290651962533936,52.85994938258568,13.434527536040862,12.322395513122753,-11.922876505980753
-17.957741000937325,89.42576751006654,38.625291952159834,-31.880588396729916,30.59650675794555,4.026468665184813,3.076176197822847,-13.969442988003392
-24.378347390415165,26.343431190410904,-13.894748689843192,-35.24974027151374,-0.09496041511777058,-7.846172672986468,-8.490467811279943,-15.677641792902834
-30.11185364275538,-41.92840225148849,-67.76520816649314,-36.38835385751774,-32.389837959972645,-19.770512467606284,-19.858154284814336,-16.58686767892626
-33.7948444015252,-99.22971355521084,-110.45697219493152,-35.241342776140684,-58.68952300841246,-29.151188026812232,-28.514643866517535,-16.55930526754585
-34.99182057184977,-134.23795637063813,-134.3041400625817,-32.675330495486385,-74.02041857518081,-34.385258262080114,-33.07201388750057,-15.83589050730635
-34.24089661586189,-144.90137273773468,-139.25693636325335,-29.945099422201192,-77.91432284952472,-35.48223477895734,-33.75036201963725,-14.878151307400032
-32.60851775626683,-137.84098465063514,-131.5929038323931,-28.024340415559273,-73.85743199266179,-33.81555511119865,-32.00714814499826,-14.10708328124552
-31.09485036440568,-123.71675566042673,-119.88243342407891,-27.224112981632718,-66.95773204105795,-31.25651782000277,-29.642881227473488,-13.715117812080257
-30.251507290775297,-111.79875223130018,-110.9070802587585,-27.266524366151447,-61.43193158009146,-29.280701961173104,-27.977938390058917,-13.653425789400066
-30.140740512889092,-106.76531338555039,-107.63077728351173,-27.636835298427368,-59.2559727124356,-28.525868460120886,-27.510736147739237,-13.751825632327403
-30.514244170665165,-108.61642165728328,-109.52261597033475,-27.90331349135962,-60.25751655670933,-28.874194045984524,-28.055163923488927,-13.847781637308406
-31.02290074552207,-114.52807793042153,-114.13347122248705,-27.842268226576415,-63.0290285666379,-29.805094476261996,-29.086879451032384,-13.844946095630746
-31.366808980526,-120.97683173474775,-118.7129048039489,-27.422504979940676,-65.90923781127853,-30.740734261558675,-30.058001448290028,-13.714976800355426
-31.388746162905523,-125.2596994246967,-121.32512284222302,-26.758777327921017,-67.67737555058854,-31.274127248168803,-30.6048819911537,-13.488437908216412
-31.111347628450822,-126.3111471910605,-121.40270892839943,-26.05165769294698,-67.91790169040316,-31.284242515910524,-30.65091406992055,-13.240348782586231
-30.690534245040308,-124.8127982408551,-119.69343310314369,-25.480821341968028,-67.02854017389986,-30.930483660512195,-30.380998809168837,-13.04746198608708
-30.299230291466284,-122.51993430122725,-117.5988667930738,-25.092094997277215,-65.84957909917037,-30.5106389365911,-30.08063232053334,-12.92911739033665
-30.029242775839965,-121.09851793476123,-116.26922002056337,-24.785818876333362,-65.10748170425386,-30.253853019422213,-29.937727904256935,-12.828123606362444
-29.89026079954983,-121.24848566382552,-116.08604296360556,-24.437762731579262,-65.06061804834022,-30.202625477878914,-29.963372698269218,-12.66449594741637
-29.877944248389714,-122.70390167284819,-116.83265496530127,-24.034369361558756,-65.57142803841526,-30.270584265348834,-30.081798503364023,-12.417412321140494
-30.004849338651187,-124.85733794723271,-118.1755867816109,-23.676784568261223,-66.41109848858397,-30.387845122878616,-30.265903972738847,-12.154372443828
-30.243807885278482,-127.20973961817283,-119.84830562113807,-23.453849630779846,-67.41269839380281,-30.565340914281855,-30.559141970717466,-11.980113026594568
-30.458875054082917,-129.26738875161053,-121.42998441546257,-23.328786990266163,-68.36013064363895,-30.8236624982506,-30.973191981784222,-11.95705645132454
-30.435488856762607,-130.33804573262282,-122.20643494773053,-23.1541126100298,-68.8827808684551,-31.09851868377468,-31.400168618030463,-12.061878516778394
-30.020310542110593,-129.82864554844664,-121.52633176460292,-22.77767081970908,-68.6274726154069,-31.25040397034414,-31.65082445861966,-12.189632789370238
-29.263629316713654,-127.92667107069875,-119.42764888795232,-22.128779017233583,-67.6074080569256,-31.167954114086193,-31.579603318779714,-12.181035598105794
-28.45364429309474,-125.91055476884904,-116.91948044097025,-21.249177499665876,-66.36708904336437,-30.852159463891056,-31.181459998606336,-11.872731310301228
-28.021366660094394,-125.60591501777495,-115.6108834652778,-20.316972801183354,-65.7683199866475,-30.421090634612458,-30.615473858121387,-11.195288311059086
-28.357624013684802,-128.31640498885406,-116.93079237240784,-19.66457551692849,-66.54937745622648,-30.078433821466806,-30.19053851703842,-10.298004833353168
-29.57984323131042,-133.91350276896523,-121.32495946860062,-19.69035344677862,-68.90764410267737,-30.081541442337212,-30.310573946222238,-9.597451763986994
-31.299495528238907,-140.4033301734911,-127.58872135162642,-20.60013608131667,-72.187799572647,-30.648476701003485,-31.299727297791637,-9.642522254433185
-32.52336078000342,-143.92557113170335,-132.47508076866032,-22.111804968926883,-74.69118231565885,-31.740016513342134,-33.08931026140729,-10.810835678115687
-31.869715568914717,-139.3332070336864,-131.04540677639926,-23.3947941764618,-73.81314606211627,-32.81288023263569,-34.94760428300605,-13.003618426189922
-28.14561808409767,-121.75454015201184,-118.26664967560363,-23.393247321011437,-66.81410166215024,-32.78909970117004,-35.54060952044638,-15.544656949029765
-21.044104520809952,-89.02258624061955,-91.56998089579612,-21.373848985824036,-52.15789480032872,-30.404405609929235,-33.43710772792706,-17.374344007987098
-11.525395924124615,-43.75372383522504,-52.97644084085325,-17.336414091439735,-30.716933170899647,-24.80973443634278,-27.8232248160784,-17.456890338761486
-1.5680163898215453,6.6149328686813345,-9.142237925298652,-12.019721310120554,-5.917751520762391,-16.066963340979154,-18.984928058197077,-15.2105693917405
6.630915478314555,52.526526180824355,31.182404463824263,-6.539014290845801,17.53885321524875,-5.221526736720747,-8.248292109613535,-10.778075645732297
11.555842770664814,86.54462933229007,61.003861962308946,-1.9426213131969108,35.759774630546794,6.081478559796584,2.564924777881512,-5.04420341966138
12.860845646507821,106.57574150021566,77.90958828494938,1.0302990163908903,47.26246201133849,16.167223975856842,11.792019798018165,0.5899691137113301
11.227533103345147,115.8288289939418,84.0650038064661,1.9556064360787841,53.03116052896821,23.720385317371978,18.293858348276157,4.608668574744679
7.804417942109172,119.30864215059452,83.47455588270557,0.7117755496758399,54.99375344444006,27.82212113029793,21.41557246612185,5.871432923515441
3.679043014485285,119.20496793310923,78.5814663663192,-2.341289697269231,54.070104937081155,27.80646909489396,20.795639295529064,4.071421519080448
-0.2961013232137568,112.66840450223492,68.79842999443078,-6.081894124795888,49.34146478167054,23.28709441471746,16.38392945560543,-0.01893905684914194
-3.374356006744841,93.92492279722735,52.03759818212388,-8.624075040083909,39.055853987671846,14.509370434617995,8.75273839351147,-4.705124633044048
-4.804349201684294,59.38805762864755,27.879734844180128,-7.897511464988339,22.70042959928696,2.764513113093287,-0.6201033076811332,-7.9791084502637055
-3.990842030257489,11.985139429752913,-0.29965822046019364,-2.656546342492215,2.4637583730835084,-9.617899190972672,-9.531007161708876,-8.362912329260507
-0.8591327667535121,-38.646259967212785,-26.07270111183147,6.687422644901167,-17.156309107085768,-19.944477959603383,-15.802108804786707,-5.566811106369034
3.899055767451525,-80.46915878327874,-43.14865453256881,18.030237420186303,-31.446727860106794,-26.228487800933216,-18.22688471438315,-0.5890117200254923
8.977487849369433,-105.06415933396397,-48.77213841404708,28.46932335131383,-37.879715194060935,-28.02904623003691,-17.11088356917645,4.810545628614919
12.991929282810768,-111.46160314775717,-45.00671148817547,35.63491426853399,-37.23599705459021,-26.52714652625065,-14.03582353761018,8.963630539817972
15.092137010689997,-105.54834331135586,-37.15805121027062,38.67087372906581,-32.801852959440126,-23.784232903889514,-10.978227871417545,10.998287150368196
15.273503502770419,-95.8903073219275,-30.590604928494503,38.33177566208068,-28.31902435791126,-21.648293508503105,-9.327034668065092,11.043662246346802
14.22547087793632,-89.0274892924793,-28.119152513150016,36.26990251182953,-26.101608035303595,-20.964578460721913,-9.37222910611889,9.916844668119785
12.874988794365343,-87.0981906973511,-29.405290312893513,34.084339798803036,-26.380996899995907,-21.482415714770088,-10.47038012586271,8.576507456417412
11.949637911721245,-88.52043285470032,-32.17005843329465,32.7294489930529,-27.917982149856403,-22.355333952503265,-11.63888466008586,7.695611168759774
11.778161556568111,-90.4023052059132,-33.998759808821575,32.47644367618599,-29.15660014481246,-22.808751360873952,-12.147384954269482,7.526144893692457
12.31008457348193,-90.87266198548761,-33.69447996082044,33.19136023569599,-29.191783443634638,-22.592907946652847,-11.833018377980496,7.989724668098518
13.216824258453471,-90.30213444409029,-31.85227916706556,34.588636098621,-28.24612260823848,-22.082432648602115,-11.114061022866663,8.8288980304789
14.007489393749308,-91.13685718634365,-30.637823327326412,36.317278043559405,-27.598100052451613,-22.05173626401135,-10.767474428166253,9.721046281959257
14.195350683138901,-96.32024265510027,-32.67277734659245,37.94351082050977,-28.900860184740083,-23.19576879083918,-11.509424611687203,10.356145741272925
13.521845012762133,-106.70103002413646,-39.1908009137981,38.926899252145674,-32.99777102161236,-25.540104011710557,-13.478259537402147,10.500179165848188
12.127193831467594,-118.80000881913439,-48.412755315528756,38.634398115517165,-38.82928189179304,-28.051305770208117,-15.892533987663134,10.03442118094981
10.528316093983591,-124.89429098415324,-55.51739711469109,36.44059887267092,-43.32570975344099,-28.814460736955972,-17.206841428333988,8.961668440843637
9.391967164960816,-116.32397028419317,-54.77533714217335,31.97753735432859,-42.71411374649481,-25.872333389781353,-15.825475906083291,7.406907747918413
9.242449384946957,-88.50826193113791,-42.7613575147754,25.483875614763377,-34.61362350824487,-18.331240872127115,-11.008777039485729,5.63701234868313
10.264373407791744,-44.37664966192447,-20.515781808650683,18.002231904034733,-19.552918865502924,-7.042579326649265,-3.3970853452836547,4.058692869741505
12.257284806461339,6.41431094734359,6.876839237340962,11.131497910411433,-0.8376648473814559,5.627934301353356,5.203527583415732,3.1103001703438746
14.697497600366237,52.24800792406404,32.993807845006856,6.307547759376852,17.152829082591023,16.84333683127794,12.641746190524525,3.0268105766090567
16.84899734927572,85.1792245277541,53.14343957693517,3.9893852855863634,31.04931102042327,24.51462615702621,17.331098866559895,3.5968837823110356
17.91828586921919,103.64666465192681,65.71013952902481,3.32440263349309,39.54982635660999,27.967101078067824,18.722973021103478,4.120066815630968
17.291004408280596,110.62810110034586,71.1170913084254,2.6538979235952604,42.890238528917145,27.73572284105425,17.166984638156695,3.7072828355033476
14.852375690922534,109.01236472214292,69.67009747180107,0.6890139776818971,41.42935045531007,24.783782460947315,13.420301766836856,1.851890775962211
11.270491334362752,98.0480253536743,60.39877596285412,-2.3370958437758924,34.71816582722266,19.800094901442566,8.252919325979894,-1.0441766895770401
8.007830192387514,73.81898546209928,42.05347232425945,-4.370092867103316,21.938559178060387,13.075184746619437,2.400101253513477,-3.584970796884463
6.8753454350691445,33.478910643869135,15.452429740412983,-2.4794316910107495,3.3686779740115913,4.934546615783169,-3.263717704955403,-3.9295446154946445
9.204148452823045,-20.014349322224728,-14.91582127790633,5.356184919043081,-18.399854067231317,-3.7454675765476573,-7.666938940647541,-0.7705996141145988
15.025787912966843,-76.41387366961897,-41.684495991067195,18.651536985825537,-38.653750084754286,-11.450355286753537,-9.811232182193107,5.788591167441995
22.769615573132334,-121.44124893280362,-57.665094539072804,34.03559418252195,-52.29215280820081,-16.515527591786192,-9.25538502027515,13.998894395124674
29.77184703802846,-143.0156140523208,-59.31406558238325,46.46137099329446,-56.10130657823413,-17.880979783477045,-6.453159156228862,21.077520488325888
33.442823879381145,-136.7046862333259,-48.352332584313416,51.454667129390515,-50.147891144990616,-15.597782445881968,-2.6274533174285906,24.401450917431163
32.51821421501168,-107.23954520766651,-30.49600715792303,47.22285691886556,-37.452747318047045,-10.753420003848039,0.8219390793791899,22.684789510735946
27.699449750488792,-65.55721517992782,-12.213587820387191,35.48940130258289,-22.26112746244007,-4.90058199123783,3.0197280616370477,16.53958116630997
21.287781761986956,-23.53074547973378,2.342917931400215,20.620641605463877,-8.083777513057848,0.6074258723588711,3.9606407596215143,8.146722077662188
15.988591769297223,10.51876369604265,12.461757760170968,7.552734108028341,3.36359290827668,4.990635639150416,4.290084854919361,0.2375827652596175
13.55292725449524,33.54160541160486,19.807207667417277,-0.3534353242420456,11.983440329580581,8.028606091519134,4.725543013461586,-5.063348219113486
14.010536115910337,46.69815180916831,26.33290550036314,-2.4496382068858806,18.376063709296933,9.836792815202214,5.557895565007325,-6.9564446449749715
15.880591393427284,52.96987631186201,32.71722615248952,-0.49386981990266393,22.990532807904803,10.673357711186528,6.563513254974492,-5.962170592021366
17.165184382049652,55.16536869478163,38.199067815137916,2.715520552770084,25.892195638135014,10.882772318171902,7.326047262347949,-3.335022444986872
16.501144209549764,55.20809787069423,41.5784854382062,4.879036564842099,27.11045882853119,10.903320662004312,7.667504427714425,-0.32574678513485106
13.823251021297104,54.38558103034601,42.36524243790779,5.103084773450625,27.06684066741026,11.197493504197933,7.833471690936445,2.293719647881574
10.258024151606225,53.65184565419927,41.153362034641404,3.893729240432076,26.594048541640397,12.069730115174123,8.305773705149141,4.294150200247834
7.441651885944852,53.51012824418653,39.12687643474707,2.506417938957985,26.516474355733763,13.512317460418174,9.440497829899256,5.782068382819551
6.714622977254808,53.80842859338016,37.35467761806981,2.148832533767429,27.21036721562622,15.261613411223403,11.26069684570374,6.9630523309193135
8.577935477285996,53.97299717118315,36.51499264719565,3.414234123296209,28.546564043650598,17.06316153852931,13.549002492946569,8.008977996731545
12.550782226078368,53.62911432692889,37.05265473074068,6.0783118846974205,30.193663714268197,18.903555357907276,16.075557690806868,9.003504234410368
17.368390298759113,53.00926653236719,39.290267328895794,9.223098750081945,31.911032049247627,20.94395097211905,18.679946935075947,9.888982414591185
21.390150161384746,52.7152664247252,43.17001393272283,11.583708821593198,33.539860535484515,23.15765766587492,21.11371302774781,10.410863894958604
23.09253415841639,53.03552759613329,47.80277776455093,11.984920528063029,34.7537297302007,24.989458073576753,22.831917326733194,10.138407571516767
21.52398278959729,53.36557130404567,51.256233036734734,9.72835213349121,34.85253933247356,25.39505362142019,23.00367269928907,8.626719248055469
16.60437110457898,52.08584566655626,50.86821145867657,4.835936712766626,32.81711829280781,23.326765264303184,20.829859919531252,5.682531797685863
9.199340409956447,46.96773424850537,44.13552805282444,-1.866590973011571,27.67614000514175,18.37861861981065,16.014316102940338,1.6015614296051175
0.9764731588097476,36.16621534021346,30.092730365492542,-8.80896287171282,19.14976291046798,11.203030057615909,9.145312710230865,-2.761768485067839
-5.906871766575317,19.807680128763774,10.857590875615328,-13.905509716856427,8.434248409588724,3.4981608121989667,1.81317959106057,-6.156210300448781
-9.251152604581588,1.6325491573170947,-7.463179711096631,-15.02314259420418,-1.260594546456632,-2.3913816017367258,-3.6177522688168926,-7.29457134666547
-7.383596781364735,-10.61323050552562,-15.63550202087392,-10.682444954190974,-5.0432207544505765,-4.119819516791376,-4.610670506701584,-5.307845255501102
0.2239763143591522,-7.340702941000642,-4.536439002771103,-0.7915856619378928,2.028843900855748,-0.10502561224507598,0.6345202139077283,-0.14076560010103137
12.492839107975872,18.226418450225868,30.077629145209983,12.956849130453387,22.358738847123504,9.746213638999272,12.226675073127392,7.281002032145837
26.724875431760506,65.0062777529226,83.64406826766671,27.363380111064107,53.517171246976616,23.62904376356283,28.044079457423223,15.240429164001496
39.242928546324876,121.87372121918375,142.40868954937733,38.71972346956678,87.82309025204994,38.07521607024931,44.05776082349691,21.772167207909998
46.58576362665086,170.63612992552862,187.79866724199277,44.1578598416206,114.64500237659591,48.97131998437938,55.61948549191836,25.36617819847892
46.799411271814634,193.60762807825245,204.0859247296263,42.70802057760797,124.74387090754779,53.081198056492525,59.26425550967183,25.5055382007334
40.204655760259,182.09194388776075,185.59375475378116,35.52523761534961,114.55469577631665,49.38809326334578,54.16312477268732,22.758703186582885
29.22353536117645,140.91433291309943,139.46910042969006,25.203967811641203,88.00929680050429,39.51835390412416,42.42964317276827,18.38629486097143
17.328084819501388,86.13114955230502,82.32528810617154,14.608545830962148,54.739990030584714,26.952696055532268,28.080016371091677,13.705477234041725
7.632049606188779,37.12642615217149,32.54492341323429,5.845713589022569,25.58831247935454,15.431936880681443,15.214732661500438,9.57597716871668
1.800610562640072,7.670306645273788,2.441079718137779,-0.19417699399328314,7.892227315218272,7.431561641642279,6.406545552932834,6.250571728629237
-0.2627183117891116,0.8338306944418071,-5.731209442168607,-3.6856358273104872,3.010731829493227,3.479669522323342,2.075582118275683,3.5773401235410662
0.07188579613151319,9.921639301451203,1.5572551664861105,-5.366704186248403,7.061479068143079,2.52457560557618,0.984379869058581,1.338078991390642
1.0725079385989922,23.89360838662432,14.159118193813576,-6.036256935281025,13.954858225883019,2.941486989434515,1.3502422072789968,-0.5235131606508397
1.4583144141818807,33.53225204064741,23.700575637812737,-6.281558490856237,18.71281510040442,3.497399454394434,1.841441591986767,-1.8984378142070892
0.7574275276110376,34.99688155144115,26.600690052321763,-6.453100213980859,19.31660228666993,3.776069536800851,1.9735689906928564,-2.6666933376957296
-0.8167025807581956,29.678116869756032,23.84101793539373,-6.750071986536328,16.550391346305766,3.9971211115125715,1.899647693768201,-2.846878027710372
-2.7455519124612833,21.6087176155326,18.6494880368963,-7.285117088181483,12.54294519344713,4.5200899439623266,1.9314595865414284,-2.6276476590581233
-4.572947449336439,14.594781230075474,13.992749546928444,-8.103506819034276,9.185159256513476,5.405969887516886,2.1563236357931084,-2.292542616539182
-6.098694100654587,10.561910207243699,11.18554255872074,-9.197402647557428,7.253125434237152,6.257940107929601,2.3204959719785316,-2.124944671368897
-7.370602630426736,9.375668486598727,9.862393895995366,-10.52553627769232,6.4037582723643585,6.363288971427752,1.9560291923570867,-2.3501751134376994
-8.535349270600507,9.617276693387124,8.826744410139845,-12.00384941328073,5.744043628069067,5.038397715841796,0.645124671515666,-3.099672677319327
-9.654747904404607,9.674906334061108,7.0936078690254245,-13.459751602044374,4.539074738347216,2.0290603427341747,-1.6980797534328262,-4.361816088397235
-10.60300915307522,8.652061683515488,4.558313639584863,-14.609421427205044,2.6863401226846255,-2.2121592924066236,-4.658483971174132,-5.929532018980208
-11.113205048795864,6.732987312574024,1.99113824374605,-15.123492638198057,0.7428744757085883,-6.541812458616327,-7.378884258614331,-7.398836948183466
-10.944113358205286,4.878818401206569,0.44365942751174564,-14.767327444646549,-0.46417369216310067,-9.496514617242681,-8.867225919593967,-8.258987358261773
-10.056512554708005,4.112418576632261,0.5167586059904904,-13.526438483332727,-0.3649914550976623,-9.889439739665484,-8.425909804239991,-8.060117624334355
-8.68869034951536,4.909370612139879,2.003365587025921,-11.640095523347169,1.035609370947084,-7.355701384202251,-5.989084839528913,-6.599907765761667
-7.2976605170113125,7.053301590096884,4.085617569072961,-9.541415620951717,3.2079378015182285,-2.583908747541313,-2.201709294749385,-4.0595233693310435
-6.410414050046212,9.873776137619066,5.828281358372035,-7.749315344464948,5.38598765498184,2.869618522031258,1.7859688335245194,-1.0274971398224495
-6.451908054417332,12.533123535895053,6.572973680692371,-6.742679651765694,6.85175546698889,7.10516697994484,4.712740256849457,1.629318737523288
-7.599807410802293,14.19291760539276,6.067862213644252,-6.8240582855064815,7.096189423608822,8.553177437115675,5.64766770171186,3.041467142470904
-9.70627206288617,14.178817745710324,4.442622285399853,-8.00033857744578,5.908816419401814,6.568607191784568,4.338138559296446,2.6766338285631464
-12.327068490036192,12.261275160223317,2.1599736348700596,-9.943419395667606,3.4612155475872664,1.7212963024456454,1.3369836928227186,0.5965240418487463
-14.869587038690204,8.89656346791033,-0.08619927345425524,-12.08021210144538,0.33044806822215256,-4.37180199167761,-2.1746953748153297,-2.5091629889902465
-16.805684087025178,5.138442954221369,-1.6095009661334767,-13.790641461854268,-2.645197234192965,-9.651748466629314,-4.837545031728347,-5.55749687864465
-17.846427102573248,2.1737602643198226,-2.037127612027474,-14.627909500300323,-4.674303817689931,-12.416353485368337,-5.656417405098211,-7.489199534363003
-17.998567905384206,0.7922083663010495,-1.471636037642309,-14.470967137558107,-5.326044532843133,-11.94794586547484,-4.382493402681673,-7.686118295222943
-17.50030222860954,1.1475421497518543,-0.3850056572359149,-13.560040381228916,-4.673048933685049,-8.693531329580173,-1.5616108877302952,-6.201511202729788
-16.695361493044963,2.8665197280456067,0.6426650169025728,-12.405389004393156,-3.217007449401073,-3.9647381431110804,1.742300049348115,-3.7017829748814135
-15.906311240716038,5.290837696800149,1.126782024917981,-11.586411746091668,-1.6773550134020407,0.6448263013285224,4.385937956997243,-1.155494529362347
-15.335174218602472,7.684364853584889,0.7529563411452644,-11.496879647359988,-0.7361332335845069,3.847754761004366,5.551347689974734,0.5781455471137384
-15.00200327172547,9.443223775928343,-0.5721508834017773,-12.141488227059638,-0.7875446963840707,5.051586474329324,4.988109130880769,1.0757406133829703
-14.741137472393438,10.361928522702579,-2.6187039471666633,-13.099799445851797,-1.751844760854167,4.465597219087805,3.0489800945724346,0.4647576664471636
-14.277063648971957,10.802890652106631,-4.7879398464813026,-13.703792303984244,-3.067540627272421,2.9319357547103344,0.5272498331386561,-0.6928366932458755
-13.36875154915075,11.521362911574686,-6.291228392472068,-13.35434332330161,-3.9447119714161643,1.5446183074192095,-1.655087263281645,-1.672967368898925
-11.96103859738182,13.138842876664844,-6.538926172075882,-11.81788273852391,-3.7957534666054813,1.1837788085304313,-2.8022357303675802,-1.8930792668321132
-10.2609946583317,15.615519792254213,-5.49460941645227,-9.358795905133102,-2.59388791188377,2.1493803406875975,-2.694630448724338,-1.1284490168872519
-8.689316568124429,18.13859292493187,-3.7381333502620886,-6.653669919228805,-0.9227554186030652,4.06192548471233,-1.6192647435981067,0.42636843498101606
-7.7186121066597435,19.52789745814875,-2.1913920409360825,-4.529603215186886,0.32088596812803766,6.078208523131373,-0.17577837566724538,2.2530591505887014
-7.663503025514615,18.88500938159094,-1.670486261918876,-3.628742846854598,0.39615624818406464,7.310890515880513,1.0319533786803636,3.7146058279437306
-8.51406863653153,16.10544741088236,-2.4831504674397804,-4.130965041811674,-0.8914290682209065,7.242678641894675,1.6633309223430528,4.294070880303784
-9.900783786861327,12.024083518632708,-4.243579657169066,-5.66715237242462,-3.065709887755422,5.9385105694413935,1.7448374500543127,3.776685999923073
-11.233493108917058,8.146715986921311,-6.017850430102394,-7.492523557360002,-5.189711250274975,3.9621969930667587,1.5684336446901366,2.2977246509123006
-11.965125110757791,6.038431828426914,-6.8044204668849835,-8.84991947176143,-6.33500192576718,2.0503770672024055,1.447749431366047,0.24177362304463104
-11.838722354337492,6.571367484577913,-6.145126661681348,-9.314825686190316,-6.084928130600247,0.7298908090500681,1.4893184588634099,-1.9310030051215459
-10.966170927059993,9.386075652082853,-4.484752873388453,-8.906010052408385,-4.773413902714303,0.10733955661389306,1.5478040310234604,-3.81536784634032
-9.692808301002403,12.917787585388332,-2.9824636733266594,-7.909353835577319,-3.2823641436869995,-0.047018283551845494,1.4123381520706948,-5.089135118108578
-8.35159971341682,15.06635948584202,-2.8435865367078774,-6.5776586832298385,-2.505921708254725,-0.00672382109640046,1.081740764607906,-5.4845992374974575
-7.080137395336896,14.21824186626109,-4.584138651886715,-4.95424726828272,-2.817332392888278,0.17795524326356116,0.894471790669748,-4.79808643923999
-5.808753367981239,10.160410739245632,-7.649967881355117,-2.9554902482428593,-3.8409927352662656,0.7298622781659594,1.3858524631869262,-2.9829072963104366
-4.395445898545638,4.525464929041649,-10.526273362467448,-0.640392377383313,-4.590759293302022,1.9743879090173009,2.962246536054004,-0.2796197705483253
-2.7965626721537045,0.5530532812894522,-11.227016282530656,1.5457536912665482,-3.8428958170345417,4.0979271257732615,5.612138494328118,2.714358026550892
-1.1677520469834197,2.0029565168651065,-8.049427096149335,2.765394457915093,-0.6238923566860545,6.978090205084779,8.817191395980764,5.120777684652488
0.15554623426604697,11.213746646401988,-0.5329293514019651,2.114994409712421,5.220278238594029,10.121448982764944,11.671699636366284,6.03175594536533
0.799120105726193,26.840479817538853,9.61828110834585,-0.7993332888330047,12.477563498537007,12.684054770854269,13.122888929771308,4.885447278147063
0.5704304152270271,42.532768864382284,18.240646018924693,-5.305710238198111,18.37793448741274,13.586471692383485,12.255920386410363,1.8214134458757847
-0.33900947225413386,48.013467778110275,19.704419253691196,-9.50627817957194,19.184601049658127,11.778860209270624,8.586827148874955,-2.191414495971161
-1.306464734125668,33.085604387181675,9.288128084318414,-10.79708867924729,11.691245304048394,6.661186744120292,2.314392385477591,-5.615165349276801
-1.481903529031266,-6.734373435255688,-13.961077772832907,-7.015074847563805,-4.88145163231621,-1.4709856259467906,-5.566870722086504,-6.968107058168037
-0.19913291792794247,-65.86975656455195,-45.49410062476538,2.2788104294120224,-27.623575649485566,-11.198171811257366,-13.403660941087633,-5.550798789171409
2.609641721432658,-128.64716220011536,-76.05965789663414,15.116969512295102,-50.301023086215004,-20.19661791121526,-19.313533522382244,-1.8785706467349097
6.257398627370068,-174.6840712041218,-95.20038598179781,27.593737517005557,-65.58260460626425,-25.956674343007105,-21.810503191590872,2.473018362944578
9.55175895430269,-187.67163220148709,-95.93909399490911,35.43595058946027,-68.23121939912072,-26.75916875690087,-20.380744041432788,5.591670895496983
11.356289364637625,-163.06518303838402,-78.144659251955,35.93687450071677,-57.58258902976623,-22.438068523805185,-15.711828488746583,6.157635494934448
11.150613633140887,-110.32241843345557,-48.598025283713774,29.202231820135435,-37.86499701219661,-14.493133472654947,-9.415949543085498,4.065837778685855
9.251062164842681,-48.33565916648892,-17.677558408819998,18.002280711741584,-16.138280717232227,-5.457478952006808,-3.363463008880435,0.3969446233904653
6.5675550856744955,3.319807530573786,5.424852585257969,6.346407884688503,0.9622293180933217,2.150496394614539,1.0353356314402418,-3.2147368336204574
4.074056219386443,32.4832154895982,16.3400342027045,-2.368400615284504,9.884159667798965,6.756058409431533,3.2582813386527425,-5.421411083833875
2.332182028901211,37.894918875361114,16.332622357015854,-6.6337953125335245,10.962882489005123,8.129081563457305,3.6612540628702366,-5.741593154038075
1.3306464018115083,27.15731167896822,10.385286854097833,-6.994294579987066,7.308192690265826,7.169523290053164,3.1183926818493752,-4.623677974683932
0.6764481736371017,11.279145703778044,4.06401979101897,-5.249023991708991,2.725572115538485,5.28716978026345,2.540832490511727,-3.054696904995893
-0.03480065649772285,-0.8188705649279844,0.9691980090218135,-3.2999412772368153,-0.09074792372984386,3.7184011856225547,2.5026129840042066,-1.9935091059763195
-0.9152446440254369,-5.270909024139166,1.8289363885830754,-2.285444621824686,-0.3066057215212949,3.0741857509900146,3.1015406474981204,-1.933079690798343
-1.715423083488004,-3.0760978450666903,5.176889721753908,-2.3294500561724045,1.3954822069682884,3.2527382643724003,4.053118445901294,-2.766087911297056
-1.995770270434151,2.1747717502037704,8.807435831911155,-2.8414127856388682,3.736800925013508,3.6758594812676058,4.9216666567207294,-3.9483148942156636
-1.407620276659954,6.945993871184509,11.10437714178427,-3.056753553323577,5.713596913996271,3.6913626318745085,5.361916021305279,-4.824781008374368
0.08508993176419216,9.451352755659963,11.687254017285682,-2.4960363509680534,7.017671613218672,2.9448539075530435,5.266130095131145,-4.9481626258889015
2.1489915381736955,9.910740206818193,11.259898768650823,-1.1691274295419776,7.928686523237132,1.5545392611715962,4.763763815805893,-4.262401867669259
4.196482852697451,9.661632433906693,10.896416619987576,0.4842302509764091,8.861512498038806,0.016792585582476042,4.09016378931091,-3.101785976327026
5.61109024393658,9.885901181696449,11.225661652110013,1.831488006921727,9.895404415544299,-1.09182844298248,3.4134773028258985,-2.0268242659939117
5.993982790050146,10.771888028936262,12.009989536795478,2.346637535573406,10.601167683926514,-1.4351217595001722,2.743229640172971,-1.5678609311726561
5.336338324541444,11.559366658966578,12.36816959452001,1.8513208400546595,10.291209407594616,-1.0724438632645503,1.9912048589569447,-1.9791753898854068
4.034836126289753,11.28814035782094,11.4533063956681,0.592914867328513,8.523410487280033,-0.379215423328523,1.1306759616534863,-3.1141961812615286
2.722543693517989,9.604143229471918,9.079956488760766,-0.8800675709203184,5.496673366205575,0.18378186961575044,0.3074915522390151,-4.4921249270070875
1.9828146277279122,7.026362631591704,5.872197082234334,-1.9785484740606876,2.0517126519124558,0.2988865582838918,-0.20731742109490933,-5.533302432806877
2.0905733654915806,4.573613115432588,2.8996215664397798,-2.325930713553455,-0.7191171131061317,-0.09368663980559674,-0.19625123597905395,-5.843598517078114
2.9148468081726095,3.1310900892195073,1.115895352708517,-1.8782432944765035,-1.9899850808112856,-0.8191292005432242,0.3301980982039826,-5.396439183287329
4.017631364175419,3.0141469013970505,0.9457495576146193,-0.8811119106066334,-1.5514306358715706,-1.5905659915328112,1.0871802565583604,-4.519636806253992
4.873818714384563,3.9130987532588923,2.1622553281320673,0.27746597924532945,0.1456635822593041,-2.1633898744752313,1.6235701831490303,-3.702954680502627
5.093458580291752,5.126181032817498,4.020874725313618,1.2335325520011942,2.216545771025064,-2.443069729559707,1.5238236738467204,-3.334878430067606
4.5586756134654465,5.916946983147954,5.577552786596166,1.7707121433844348,3.7228774017408046,-2.4836541199023148,0.613059078944425,-3.506436523391336
3.4420144298656488,5.868246195586245,6.099583030150419,1.8678903106332514,4.063700065576401,-2.3782658207298675,-0.9203512141528383,-3.9774792815906457
2.111425731553042,5.093354110547253,5.39377096876885,1.6601953029503056,3.211993625252178,-2.1318760669080885,-2.553626135253855,-4.313002576796639
0.9564080480254438,4.157003681057866,3.8426904189066446,1.3328468054695526,1.6624823528680168,-1.6391186998698895,-3.631007872944844,-4.110658537129955
0.20615285442685446,3.7021283323558305,2.1032995480757894,1.0053442345893147,0.10466800926820607,-0.8075936209895223,-3.665393353717951,-3.1999269476732763
-0.1672149020747902,4.021855326422227,0.6916426247936109,0.6765465490772288,-0.9707496925185528,0.27460978324685675,-2.58038323599994,-1.717435423223519
-0.40090868088052767,4.899848550814828,-0.2276680310719578,0.26307976292324625,-1.4675864711660702,1.2912203736704155,-0.7422543428707395,-0.034601403699698705
-0.7789881739379563,5.822808947238237,-0.7346647668745,-0.30468702340726833,-1.5826296223438403,1.8417475467969826,1.2388614642152627,1.4093998203946287
-1.4637273388682046,6.347266484554569,-0.9136262915301221,-1.0063824221634763,-1.549265889987924,1.680995274160296,2.8038136598119068,2.2766343202886685
-2.426923958401272,6.310548488080851,-0.7395687317760754,-1.7310580815647993,-1.4587787782206,0.8719872075913684,3.6501683511877245,2.423827942002328
-3.5040719776284397,5.782968959590512,-0.16518800305920303,-2.345150808762957,-1.2692013564982179,-0.259194182577293,3.753565858838245,1.8975537805240907
-4.505674534772653,4.905878295949716,0.7253019386152051,-2.7718513469063963,-0.9317288578079108,-1.3242213783386854,3.2490469851839285,0.8662912561238039
-5.297420084880643,3.7941118459865524,1.6483271877905394,-3.0228346017730665,-0.5001190152393673,-2.08298275151048,2.2917143263549304,-0.4502985482915266
-5.80626990285202,2.5390746893576988,2.177263728335801,-3.160680598989604,-0.14856366262555235,-2.530953736086384,0.9931579225042632,-1.8146557988211833
-5.9711755295360085,1.2465296454484522,1.885526958188301,-3.2174576356712556,-0.1016908513011036,-2.826298379424448,-0.5455606671207741,-2.975135474684586
-5.692268984691314,0.06736761917500929,0.5384364990530822,-3.128697490638105,-0.5164522011031959,-3.1228303301450797,-2.1564312216725514,-3.6852832258198296
-4.832389214222856,-0.7823924062028033,-1.729167917594857,-2.7449415877635985,-1.376097232908552,-3.431367613733552,-3.571044657954995,-3.7733712591057014
-3.294660533745506,-1.052147062675884,-4.379860483639189,-1.9407847666393092,-2.4754423127156775,-3.6158852730054516,-4.497306826646305,-3.2414991478752766
-1.146199695984332,-0.5992379371095857,-6.693889899858554,-0.7653289363179507,-3.5455870262572735,-3.541946625694506,-4.789373613795167,-2.3207193572828833
1.2939975908488133,0.4011243519693509,-8.16430030055543,0.4784267775033289,-4.458657390233276,-3.2748964193449273,-4.59821654980129,-1.4132520309417484
3.490345777096781,1.373830092913179,-8.788233140886403,1.3148886862826226,-5.350475826512478,-3.1598741669235517,-4.365293211852864,-0.9228367170319722
4.870835772771919,1.561387549097871,-9.006427440601785,1.3234893487947217,-6.527149063849178,-3.6768898184359746,-4.612207652485964,-1.0592784146714647
5.073737029886263,0.4605919501448607,-9.328588699223781,0.38659424784922053,-8.192764507056461,-5.129108578955756,-5.630935035278101,-1.7354180891030626
4.126785471600735,-1.8403054681616926,-9.95098722236369,-1.1974102804314906,-10.1993333820668,-7.366877234301267,-7.269813742764132,-2.6228763053093838
2.46072323855853,-4.6912046248269075,-10.652315044393822,-2.8117652771904007,-12.014552009115585,-9.75084956331745,-8.95825910160381,-3.3292584861342496
0.753683903515426,-7.239917445488798,-10.989557375405008,-3.77973305980308,-12.937116378866,-11.407538293874207,-9.95841710331563,-3.5798627655178747
-0.31922915757609255,-8.846431159469645,-10.600529730093452,-3.6509597369364903,-12.427188064596606,-11.6436170659541,-9.69905807814248,-3.2922648808505106
-0.33400639712870805,-9.315111831993574,-9.429406930800363,-2.3838772677087015,-10.383482282005067,-10.291847265823641,-8.023836361777946,-2.5168348681494237
0.7220251955152897,-8.904034065307128,-7.808976164518428,-0.3518484120641022,-7.253709477112357,-7.806278648973574,-5.256494571082212,-1.3132259131683277
2.4415373450045306,-8.178459620796392,-6.377071054499765,1.8230628155075146,-3.9226842937782687,-5.058292942486886,-2.077795411011523,0.32781518361419915
4.1593583358894985,-7.7584336301164205,-5.802813171193364,3.5331496940332503,-1.3819217709622804,-2.931675214785255,0.72153044618676,2.4464800189746474
5.224469526994296,-8.02583152281482,-6.4015442360449635,4.418251726416977,-0.29708091345343446,-1.9176275219133125,2.504502227667881,4.973454233159028
5.2485553808219105,-8.951692153020957,-7.892538613878898,4.4481942386029365,-0.7075147943422728,-1.9240339770748076,2.9540799522283656,7.580825840028341
4.2082544094860035,-10.204902079932312,-9.549843637065822,3.8228831840793345,-2.0653160288319943,-2.4054581775933377,2.0829587022913967,9.651062708447796
2.3815917549232473,-11.485728716738128,-10.69583363092666,2.7857468712619147,-3.5972849975138823,-2.7289446182071666,0.13084848308624533,10.447834696221898
0.2045908579413724,-12.784819283005442,-11.155096914571455,1.502384792551233,-4.730877038940988,-2.5444266694587387,-2.5419124722310404,9.453541057371597
-1.8557178188237176,-14.31631486345603,-11.305532557980802,0.07854253946606843,-5.306488132870459,-1.9464515267560525,-5.500922293046589,6.700857469711403
-3.3888995911878075,-16.213326228976737,-11.741761922162153,-1.347491319379904,-5.515644940113927,-1.3743195675026858,-8.267856520211117,2.877323055822718
-4.119726063494296,-18.32509459431978,-12.8887345043898,-2.560868588738724,-5.713322648594905,-1.354373527296917,-10.412280922028273,-0.9044181080052287
-3.981940203361564,-20.31859491610088,-14.838876662131005,-3.32392453629144,-6.252065212869259,-2.231383074696043,-11.695432003697855,-3.561830946725997
-3.141598514871337,-21.939218816499874,-17.387984354943995,-3.4703496036431787,-7.355557055275682,-3.99321730541687,-12.155952083848101,-4.463501956580544
-1.9366277023450158,-23.15445575539839,-20.115177908066197,-2.9628055996320257,-9.007473361387454,-6.247284743811061,-12.049577155535152,-3.5955263841517917
-0.7653718742235474,-24.11328690547399,-22.49270005322315,-1.9020749388375606,-10.917773911762508,-8.370269982789535,-11.683714685130386,-1.4390885817975654
0.011457475625539573,-25.07621803598902,-24.11929372740546,-0.5215217407721455,-12.660142416942879,-9.780440523842563,-11.27619306397381,1.3051329936743923
0.13465982387177403,-26.401406046922354,-25.011272162721802,0.8306936891773241,-13.931203917896394,-10.191151999604646,-10.92114341140133,3.9759569488793876
-0.49288099513096617,-28.454206077282116,-25.665317004218107,1.7651259051494557,-14.715156557735625,-9.692581301645564,-10.633526791188281,6.102513340048701
-1.7394102796737378,-31.318920281121137,-26.704786388340803,1.995657545943304,-15.186738556545109,-8.626540049740102,-10.399500990415591,7.442152854670124
-3.2320963855113143,-34.48825391115101,-28.329513798873048,1.4828182447191192,-15.443680814605042,-7.373816498577009,-10.208061578861964,7.937964660961521
-4.474161253067998,-36.90285531264678,-30.05626628620533,0.4630042724771593,-15.345306938179506,-6.215350040343971,-10.084300766438847,7.6391855564162405
-5.076514787782456,-37.48944147790882,-31.023722642293404,-0.6787214004358378,-14.631569324356914,-5.324391708288198,-10.117210864483024,6.64251789839656
-4.9778733231456505,-35.89443052236677,-30.6533448120415,-1.6167259839583181,-13.2244914112251,-4.82051705570858,-10.43273649362222,5.10701391996651
-4.512925726135729,-32.9156063957296,-29.203542938831777,-2.247678518841672,-11.467413883336986,-4.800403567058892,-11.100133053074192,3.3330398939543375
