FZ,C3,CZ,C4,PZ,PO7,OZ,PO8
-23.350835011665342,-23.49270538113873,13.423787004467865,-31.10674348794735,-4.856780828250741,-15.479002056306685,-24.73023880744521,-20.966386297377756
-39.57738842686003,53.33700210955315,196.729556954195,-49.76719216709006,78.79513779794839,-12.633702640312393,-25.16086018553123,-35.74677886264542
-51.488505089296204,119.39317697585605,349.14230767698626,-62.760069887713534,149.49775388876833,-8.742221276795396,-23.180252040739347,-45.850552083006846
-56.94724358230083,167.69641925783466,452.4578832275579,-67.34842804038848,199.40890878478888,-3.3842101563534843,-17.86326313326639,-49.01641353351136
-57.14533444400947,194.7602139906877,503.2080792801048,-65.33477434194094,226.15173186090055,2.5531315547769116,-10.922370539757315,-46.61026649615046
-55.87817396135969,197.35172287552342,504.332025959506,-62.151833659929636,229.01656325959107,6.6971036580764665,-6.575668592102854,-42.80034318250888
-57.041988653800594,171.42698460545412,456.94368619646076,-63.43767435093426,206.1969267128023,6.179848426133046,-9.43460222794765,-41.93421436628419
-61.76974496142464,116.19365913929073,361.5489422648051,-70.95688620398084,156.99091509154096,-0.4091205967980229,-21.208755578706874,-45.619653400931014
-67.24861054530179,40.0615953020789,227.20211094256916,-80.7517422631291,87.12550353441453,-11.448475392870009,-38.53908595778589,-51.489159423131056
-68.29090572597575,-38.096743922281206,78.03944066318067,-85.18597234319357,11.318696504607864,-22.51870417520905,-53.977405691467105,-54.62188356440101
-60.7310214083009,-95.65335102207742,-51.66102015367629,-77.73973362627818,-50.91872348467764,-28.61258828458591,-59.909696268280044,-50.72285132724632
-44.33573424608411,-117.35971111665857,-132.49733230496588,-57.33112056798156,-84.37223988823692,-26.94614215152116,-52.93228625979664,-38.91261931420744
-23.26828200895229,-103.31820619443224,-154.67492142102816,-29.277728403758907,-85.8804123179941,-18.49100673146895,-35.77579713916285,-22.325988205275344
-3.8767628687816793,-68.22713172356522,-131.9057695788971,-2.390212110154398,-65.29782733849753,-7.2542021348497485,-15.591952324275553,-6.285438448994889
8.661749059829052,-32.521099852364436,-91.97611018649172,15.756669567737967,-39.13182637649696,2.1140991888868355,0.1249686040569069,4.615712552935166
12.71864702478455,-11.45933911280765,-60.87564582659945,22.360193403693362,-21.360821170216244,6.759435377799539,7.296578490198909,8.660472690712627
10.358331751117829,-8.914790179490911,-50.88814993561263,19.840847755962674,-17.303683705428867,6.6549151837918314,6.544029902788938,7.2682106749205655
5.586214998477022,-18.50203589990108,-58.70303758852016,13.552704714528018,-23.458182636809397,3.9204088744053407,1.7598011763497958,3.6084112367936765
2.122484797517921,-29.54561703539406,-72.00285091607563,8.699046785199334,-31.863039359507294,1.2562099722344398,-2.5508139864957213,0.7464991333804424
1.9798614413490423,-33.38687888639992,-78.63183808185975,8.275956124771342,-35.40133943840109,0.5714454475081575,-3.417642718238996,0.4142400616527586
5.162472122021652,-27.223722316472017,-73.48697376266333,12.544167726250715,-31.435930021074608,2.32247510827974,-0.29789283686183043,2.717604411313118
10.078002125108732,-15.08373544363625,-61.305968436549044,19.494267547401254,-23.04234071696641,5.489505484763683,5.067834606094947,6.473142859247602
14.288263589627793,-6.124875266756718,-54.82387229303254,25.799277535772625,-17.74776040270338,8.046891134990009,9.505850057912406,9.839447600278495
15.53765635670858,-10.111917376500397,-67.92470187284592,28.19538134368173,-23.614831087544825,7.929869588685866,9.903885554171373,11.136783792760511
12.903931042885365,-31.021130511933258,-105.47482456837156,25.104935274452547,-43.58800296542327,4.29906860697889,5.045748160601009,9.697760628830943
7.483802810413876,-62.20164223241434,-155.43066175683376,17.688447006735654,-71.18815354553638,-1.589436721337158,-3.2010955723201904,6.309415370896656
1.9777163083611797,-87.29295284190344,-190.122312302559,9.400878266297946,-91.3258799961078,-6.697677288784741,-10.44080003724922,2.8188045771554786
-0.7757167245227364,-87.9461276661021,-178.78717058271044,4.061092525173536,-87.25866411233227,-7.78522014760477,-12.094674092799494,1.0148644988214344
0.5956391014387947,-54.22868427616841,-105.02849254908877,3.660307635177444,-50.09404398391141,-3.325200973967579,-6.1375223016615585,1.519627739167735
5.349925808632006,9.106375155564583,22.081291979295628,7.432481390914534,15.334520278073608,5.558240607651252,5.6652722279622,3.4877946808775375
11.335201328025402,84.91842175703556,171.27883322002418,12.76224751907949,92.42970353682011,15.804563111934659,18.912955324864512,5.315684711098217
16.42839787222292,153.08200344978835,305.18452174019194,17.105057374949478,161.5457930094357,24.26349693515254,29.276854425712255,5.79111249906627
19.573078201322705,200.46962292386752,398.52357999990943,19.355858868287843,209.58728139035492,29.31977613074104,34.77719596514705,4.788746546239444
20.686044214784317,224.67410090498228,446.2400239084836,19.64758160329469,234.01248227309694,31.142528277824617,36.01720053186588,3.009781160017319
19.773493295001757,229.70170787871817,457.00019083152733,18.04757587920046,239.15457833979863,30.56926908368623,34.47782407056577,1.114834218160232
16.404945657017656,218.5289790338582,439.1861980624283,13.770784649110972,228.96475556240802,27.834061773600457,30.670429094684607,-0.8190699148367243
10.35446100297815,189.83671724466285,392.26854191966174,6.089191171848176,203.01493165112606,22.456912187630582,24.017554597256606,-2.898040520963863
2.9105406008508887,141.8994805389235,310.9356118038312,-3.715034818773505,159.2096720629699,14.423661918716174,14.564992232900032,-4.4565784877394234
-2.61881795346749,79.4185883268301,197.25842620784863,-11.433623879090517,100.13113791536408,5.410215081375918,4.680148354118698,-3.645134539424734
-2.1984701020558237,15.91870358231697,68.58184789966208,-11.545167504709507,36.37380835726496,-1.379515614754858,-1.2747246567373336,1.7319209993638318
6.457293202415085,-31.80498471078008,-47.39863519641284,-0.6248560436800732,-17.11461366525117,-2.9631968115270113,0.5276408859384795,12.594282140076507
22.073508179249817,-53.45610049113339,-127.4922695477802,19.985999875368773,-49.3523173917839,1.3792298594362844,10.575857832979466,27.489625568253636
40.22419355366528,-51.356623595389934,-165.99053264746374,44.50175303516697,-59.63484451931767,9.481406540994655,25.33807476219021,43.05146478691171
55.89338848792107,-37.535897627211625,-174.9754202174617,66.06443754656196,-56.45906387555739,17.754867546363897,39.51651041448661,55.852101844043254
66.43521960409389,-23.55064301400789,-171.26923857539123,80.84357765220065,-49.55022019452407,23.753828523456598,49.690384048365665,64.34953158971041
72.7604554769178,-10.932459094824893,-160.43879987313727,89.83598130576979,-41.25483114651835,27.881759105595844,56.53727870314216,69.44383571768384
77.84215613320696,9.871599247131504,-131.1785848589566,96.98778797310057,-24.424285257903417,32.840577708895566,63.78337081923595,73.16483964708284
83.70677882792845,50.81664153356109,-65.23917802872829,105.12810061278259,11.165648861698363,41.17596831676494,74.61178996791334,76.50635698224714
89.30805501264024,114.53431451213619,44.66149829678521,112.99248498494924,68.79179935892235,52.82558573525001,88.3817497208787,78.18611469712529
90.99526654391353,188.852861385893,183.15080291041687,115.75861131957194,139.10599513495794,64.61069316505535,100.33460765909834,75.42497701657004
85.22532712937118,252.00140966954027,316.17670806747117,108.69192229799849,203.38652777671328,72.09064029748575,104.60324578296367,66.22017342568509
71.43878300513381,284.8613714345679,408.26152110738076,91.0703760114425,243.54939092342815,72.40246742691293,98.28463640460026,51.37771959920242
52.96615620953347,281.7144890849225,441.21605322437364,67.43092802505356,251.98289010731392,66.04734784465414,83.6018537228381,34.73078903490768
35.36447963671582,252.47681403908777,422.06990189436203,45.27842102550288,234.7670718753292,56.46256820598161,66.68582873268339,21.311339082060872
23.441893715534423,215.73381939092567,376.1273152497232,30.98342503066081,206.7995736657339,47.86376037229195,53.97912372681434,14.702808585306286
19.0306381389184,188.13092634261866,331.38160839911427,26.737097241880242,182.9151409206381,42.99429557190076,48.84715983878033,15.321891328746153
20.80090166618718,177.2656174617932,305.2863489705285,30.37643572942339,171.13544274566692,42.2405880366811,50.55259598857585,20.627901983645437
25.78729975092405,181.3917107417888,300.97861217331155,37.61363018341908,171.4792456775427,44.308555486164536,55.76471519325215,26.86483035542492
31.209993223780778,193.77714238325976,311.8035659246679,44.64311302663069,179.10824168885043,47.478225217098455,60.977352269972904,31.016876578332454
35.425586560748364,207.29535698985737,328.050601220949,49.444746767526425,188.20698027837156,50.37793209387343,64.06320034618547,31.85294419005333
37.920186419006555,216.84226795557805,341.4192369361083,51.65759751124321,194.29269020330284,52.08669172282178,64.47444353392746,29.85854230883948
38.95487602494287,220.12315383305415,347.03768131243305,51.94653306486083,195.12910323170775,52.09084592450206,62.76843779109922,26.556833209952014
39.27017322781887,217.90431238744156,344.43488014653053,51.51827416329834,191.10786597378916,50.463671387352385,60.14401839973738,23.72983917674362
39.75639254116464,213.46930346944345,337.28395619759385,51.68422950584244,184.933484980628,48.02346723240554,58.012066388816,22.73190211955078
40.98110670381491,210.65812358896767,330.9248649119115,53.26425651234279,180.05479899517667,46.05373825166094,57.40830615134266,23.990144127654762
42.854307093078845,211.41551718349234,328.6888745181539,56.14916409465809,178.51710390471678,45.639560298217944,58.48595287749176,26.90712334319084
44.79775331772394,214.92972795103148,330.0730691211376,59.51093030616039,179.99434000932877,47.12744185756101,60.57254414870141,30.29932209608415
46.308852201658695,219.1306450798367,332.40389911905737,62.54427160639511,182.82663681740797,50.07983603904701,62.80169155988826,33.112443118387134
47.36098780156494,222.8469155471209,333.96028032832766,65.0090010349041,185.8049665362766,53.60759432001302,64.70752731773695,34.891054790016106
48.27988252816535,226.38135915944147,335.138344575857,67.08961116586495,188.80351292360055,56.753551177024534,66.26124139004138,35.73290934629706
49.35007571407297,230.3362939019774,336.9121548797287,68.91713176410335,191.9661916760916,58.80955380621353,67.54206689878984,35.97350775683514
50.651783709751655,234.51880154107275,339.0957885875342,70.42951681870416,194.8928853201719,59.62301423494138,68.61802035078726,36.01389587561293
52.22376881721212,238.22073070586717,340.6378438701867,71.67390009606557,196.94668402090113,59.78046246810323,69.76932932594994,36.35747088211859
54.18195152216149,241.09887607637444,341.103685924459,72.99685125471844,198.05640922807896,60.366295181477085,71.5739922931114,37.56161783827673
56.53686579515671,243.21688038160534,341.0008746208053,74.74075132694786,198.71787259239997,62.2472132830741,74.49101760476366,39.93306839529506
58.96004625550057,244.33459200105557,340.6117218907788,76.8122487119455,199.17656688357462,65.37211735874828,78.30454726878054,43.22104545652575
60.907616174849394,243.87159911907696,339.42407500042873,78.74343185786141,199.0863194129394,68.72572766855659,82.12141701089823,46.68047677398527
62.05765376802482,242.03521539648932,337.4367824948184,80.228944398065,198.31108751790399,71.02223850831245,85.02236116857591,49.49005291199921
62.55403699520049,240.6135155788596,336.5730994236644,81.44019622258438,197.76510102847212,71.52125964012887,86.67188066035375,51.112059772824665
62.72543143616811,241.81284380119175,339.55638774704715,82.64557082515974,198.79670461296828,70.27653608910649,87.22980956456324,51.295471579072945
62.5782509699041,245.79518417025244,346.5502580120151,83.55618058994713,201.37231338393903,67.74855625650515,86.75364814756827,49.89312422609727
61.657316897806155,249.47434697791388,353.0733882470317,83.23177245346321,203.05299531420607,64.30566596726453,84.87721428098862,46.869993085760385
59.472955069624575,248.18943238317155,351.9974834957781,80.7970568054013,200.2230866910431,60.10587889543643,81.1957325206092,42.578458530478706
56.12119289966902,239.14630720897327,338.53250361877747,76.38005266908931,190.82770704391072,55.378252958920704,75.99517670095555,37.99515593968171
52.62335563137901,224.10525347239064,314.515959126564,71.55561276414417,176.56890290021042,50.797626704446365,70.68784250039596,34.63371771695922
50.82518060355546,209.79463619555744,289.4139870941989,69.08979175754861,163.2358177704367,47.6702227923284,67.68323684014355,34.161704194441874
52.87360036534968,206.0130233681076,277.81476505282023,72.09961038453434,159.12356597916545,47.733750647072995,69.73571146663721,37.882415201399766
60.192988221934584,221.58705683721936,293.80313383104107,82.59708020598154,171.73216561385502,52.372439868065456,78.71423911029896,46.082388478927555
72.01398794589869,258.3468772484176,342.384169905972,99.48276066161043,202.85062844202093,61.255498074701784,93.79492176385169,57.22539346796517
84.16743632688137,305.06804284845583,410.2418002329064,116.90409548063725,243.47387607042967,71.0430997743886,109.82641720963171,67.3921972472204
89.42087721280666,336.00684988824736,462.146516877664,124.70501386648584,272.275396173385,75.37603799515044,117.46046537617983,70.7894399144217
80.11996530698237,318.3953227721482,449.94383653254675,112.06241490536276,261.4323237926654,67.00883084773128,106.24860837404206,61.81965151165034
52.251428366223756,227.9682274364125,334.26399950145355,73.16138796232654,189.43528454045185,41.50346732504934,69.91828286297245,38.0383470238684
8.544835140545722,64.5581598981747,108.52311835915053,11.624602523937455,54.52977165850518,0.4090357468823479,10.89490210006269,2.2567186846772893
-41.6632036927432,-142.6661811607013,-190.3466080084182,-59.538073805409354,-120.06510299185855,-48.31164358094388,-59.14239623652504,-37.83180532292784
-86.18205899901498,-345.4356170354327,-493.75785569826604,-123.10062720500723,-293.9748325211555,-93.30497115128001,-123.68268125498915,-72.68508763770828
-115.35421272450559,-497.39787355648485,-731.0960564835374,-165.21279197969415,-427.1323056437234,-124.7799581189327,-168.58034813829082,-95.03862115901708
-125.99557502825436,-574.0334487425446,-860.4730430582006,-181.07658198336077,-497.0659208796671,-138.58697175946486,-187.94462581036436,-102.79090090555395
-121.77867100822358,-580.3258031568898,-883.2186015559557,-175.64725861282815,-506.30238675980144,-137.1975432459422,-185.49033180226996,-99.1126832534121
-110.28339510761278,-543.2055854516332,-835.631871071419,-159.56772305407665,-476.76864041915263,-127.39480055690305,-171.10693918637682,-90.04380715818378
-98.92368596088528,-495.3482141628755,-766.0064639370036,-143.40272211656858,-436.2896417446814,-116.4852390019292,-155.32913715729683,-81.32384895652993
-92.17742344050967,-460.86237173328533,-712.3546247332076,-133.63642670705016,-406.08810985848476,-109.37099284301826,-145.12841846294126,-76.31145895515625
-91.0814562398344,-449.55065603041504,-691.99649343743,-131.87085281150306,-395.3394036961154,-107.67747615090887,-142.72510020420717,-75.6807510687005
-94.26608110317366,-459.12871287579895,-703.549949127852,-136.2498159085827,-402.68461271696117,-110.5033754315493,-146.73380022944082,-78.28513812562912
-99.27221953797425,-480.55284965878315,-734.5792599582616,-143.32465820260097,-420.7024913236188,-115.63687390939633,-153.94159070586682,-82.19852878153841
-103.52209547709704,-502.70047015237907,-768.8000544119136,-149.43915655345248,-439.97628555805767,-120.52209973405994,-160.70221621829077,-85.45504116798256
-105.02576127758199,-515.8134373436734,-791.3720329217148,-151.73579537452247,-452.0728213453834,-122.97646168915742,-163.96736635963182,-86.56748973793862
-102.95496675415063,-514.3147306150677,-793.1522775955492,-148.97906855573245,-451.9539869373469,-121.82249802324313,-162.1744390559547,-84.94107510919274
-97.91336686514705,-498.6205872884776,-773.6006413378616,-141.9598355709191,-439.5917979406763,-117.31489059214734,-155.79160395687126,-81.06201187411831
-91.73270350030622,-475.01378165582196,-740.9447090229833,-133.22788483108792,-419.995078194801,-111.13247753175129,-147.20985710827972,-76.33762530249754
-86.92874565251728,-453.6567116022885,-709.4855035749496,-126.33090230159553,-401.6257734709027,-105.93037118720524,-140.05242358537387,-72.69046933749298
-86.02016982454901,-445.67844403494183,-695.4247763945367,-124.85519162960996,-393.9678273940406,-104.59054342607524,-138.16698175989,-72.05132495546346
-90.62474364402378,-459.53935343868324,-711.7996915283684,-131.1588000033554,-404.48929903780015,-109.15405963456871,-144.26169189757633,-75.66971701688838
-100.19645609476923,-496.10617826868923,-761.6906631427977,-144.59063465304456,-434.52868841341274,-119.39343119540659,-158.03318516112034,-83.13119981403565
-110.88661127469457,-543.4712886244198,-830.5924595354054,-159.84419154664326,-474.8285446789615,-131.5216063099619,-174.397100790245,-91.46247894628499
-115.72015119782414,-575.6493178043887,-883.3447742506256,-167.1198853359168,-504.0566952902541,-138.2168904476225,-183.4569436745116,-95.25602348624697
-106.98075201233212,-559.6713444755155,-872.5231090164139,-155.40604580916715,-494.2521964404206,-130.95025412675795,-173.6244749312543,-88.50788737810609
-80.1667257269507,-470.69983330821503,-759.1041635142914,-118.05427598611408,-423.28999170782225,-104.15095193025175,-137.27834999452216,-67.67164183206782
-37.29061383826157,-307.67342459006545,-535.830097580956,-57.542172560389,-288.40989431561917,-59.0216952973499,-75.94719140913827,-34.206060248536325
12.83183486363061,-99.1094436706429,-238.22022247838527,13.941920542178423,-112.00259830678947,-4.390083295709898,-1.4545152157751935,5.1950313100254
57.961183539027026,106.4298297621274,66.20278960298229,79.1166671348033,65.49264033763703,46.482225023809576,68.3837928012352,41.18746803784657
87.7878395961219,261.0506282804241,306.3200773588217,123.1221497795425,202.67502289986868,81.66203151126436,117.46395567626227,65.86268303220865
98.27318477876841,337.90091224172807,437.6937466169656,139.74072967192225,274.78414335931996,95.67609205449257,138.21170855872435,76.04026231107609
92.69023435878006,340.04895748284616,457.94337307370927,133.05165850651676,282.1260328704003,91.19170240343198,133.84053213105966,74.03020596673454
79.21792797474956,294.46049052109294,400.7042090480466,114.23430939572478,245.86840082968916,76.66978782900647,115.37848460783991,65.78919913299569
66.90714887618707,236.873557213155,315.28341782222907,96.01514095813559,195.67253699091884,61.847960660158975,95.89940947629955,57.894433433871534
62.23269192830518,197.18537735718198,245.83029921831996,87.84499509750509,157.30020397054855,53.76673322534609,85.35595324470248,55.025119078334406
67.32708316533102,191.44040962642555,219.55019155951075,93.34148275000763,145.66687324306872,54.95924714196248,87.92968532703547,58.73955428119867
79.71531963610558,220.19889232297635,244.00128304827666,109.74345508217645,163.35366775808458,63.660838918816474,101.70450497202198,67.33661860672356
93.09620007903418,270.1735273195637,308.38837575207253,128.76368665164625,201.76513348714744,75.03726529786545,119.69774006776579,76.40305279663724
99.19494387546496,317.93267946813563,386.3992966943816,138.95193782232369,243.5963458128699,82.80695284348182,131.94338734228143,80.07358390860435
90.77197815866744,336.9343083986259,442.89570752041016,129.8082332112618,267.71004155519086,81.23950050673963,128.84561756816828,73.14277196236226
65.00105595717604,307.92448750731864,446.43325199728235,96.6322718329618,257.0159358037927,67.37714332051124,105.27181687112777,53.52732144895676
25.47865942483929,228.69228833753948,383.8387450672097,43.646008092017674,206.67615787132388,42.63272737031219,63.536624565296066,23.810910061312196
-18.6673647623964,117.05919091596834,268.3595193752983,-16.908003910091452,127.71172909139612,12.65762941716378,13.207590780458238,-9.318774561447643
-56.533542765108024,3.8793430357331102,134.86567413026418,-69.82562563378248,42.789866804782086,-14.873242603623783,-32.76667828053516,-37.7917281013047
-80.17821487311035,-80.97520103666577,23.453643928633646,-103.6185274073182,-24.239886967155265,-33.596995787036306,-63.77101485778495,-55.67564416978933
-87.73263511185465,-121.85232367968331,-39.35591903272231,-115.11053339914889,-59.23084243147998,-41.107570997358486,-75.92635080297755,-61.53350638340978
-83.26345165913487,-122.27689813453665,-50.809115872709974,-109.52808353688107,-62.766069736790534,-39.4400265491168,-72.78129015953003,-58.363220094039214
-73.80898905783464,-99.55615429268897,-28.348567155116463,-96.5214229304666,-46.95070530054572,-33.298663764074035,-62.26805693410626,-51.404723899753215
-65.65823007056798,-73.65367110116577,3.524386014513542,-84.95289842478027,-27.05547613445674,-27.35025907963317,-52.188627290821124,-45.3609544030955
-62.02154412770849,-57.81755016962463,26.251007771302515,-79.51531691847093,-13.897639690399503,-24.279790197668415,-47.01263653945787,-42.65224374072197
-62.87631763180567,-55.57977778918632,32.79156553031177,-80.38093016362461,-10.983251078635814,-24.432459611596542,-47.29403578462603,-43.29421229826607
-66.25584473142608,-63.31940278661151,25.62696513083178,-84.92607963834567,-16.131303767372444,-26.633194711168564,-51.02759913151242,-45.84855533238307
-69.77486738745449,-74.59679997413687,11.819234622816406,-89.84678330270339,-24.67574529819755,-29.259661784546292,-55.45030760045632,-48.54752036253559
-71.71706703580938,-83.55009839791248,-1.1201130794204905,-92.69448801120983,-32.044552956225765,-31.016108912867907,-58.37009337444505,-50.10006719717246
-71.60589217147658,-87.01219192935677,-8.072287507512732,-92.70642260492305,-35.44518469250058,-31.377444111647918,-58.920523928258426,-50.12790487330069
-70.25037603909075,-85.56571064523202,-8.305861646220855,-90.91549428287296,-34.8834450377295,-30.736288435531254,-57.76888018510599,-49.21563306857341
-69.15414824321378,-82.88751826344534,-5.582021979062078,-89.36923100845276,-32.94258666070332,-30.107806396804104,-56.583991347512914,-48.47606087798207
-69.45746871525228,-83.00098399274582,-5.19535964614305,-89.66969398306213,-32.808653388261185,-30.389784649897866,-56.82625878022559,-48.75584886782694
-71.08253219669487,-87.02006500816752,-9.509249882453314,-91.76198660576074,-35.63514570920831,-31.635433879467907,-58.611191237500066,-49.99538137445519
-72.76982569092092,-92.14134076767337,-15.849757454511847,-93.95354624667607,-39.50707653613919,-32.96015401126685,-60.590954831198516,-51.26472925364805
-73.01064050541272,-93.96268531412001,-18.9160715130393,-94.19732241064712,-41.08656583348919,-33.217716002234674,-61.014022022131805,-51.46824858693658
-71.15907855048152,-90.17354188014704,-15.536989434571854,-91.6360363500736,-38.509256565827116,-31.907095187452953,-59.106990773547366,-50.16446181044157
-67.9759758103985,-82.60926132127645,-7.55292518826277,-87.34124152412173,-33.06280477180769,-29.630046168871274,-55.75327762390335,-47.94267282111742
-65.40549018991832,-76.50418216111613,-0.9283450278258468,-83.96722558688609,-28.61540438526951,-27.879053869186784,-53.166544531072354,-46.230104805781444
-65.79310034244013,-77.99665431610296,-2.628919321736408,-84.64851504943951,-29.682593613231997,-28.381949210299222,-53.915899441152355,-46.70905335240642
-70.71957895490213,-91.15279664293345,-17.33300846337235,-91.42541177714874,-39.26492738882718,-32.24165051502073,-59.64778431686776,-50.47702854538306
-79.62237653040101,-114.86364186166061,-44.307976370707,-103.42921693298187,-56.692879683406744,-38.993681351645876,-69.6711787147064,-57.06137535833844
-88.82270344540095,-140.37919501710508,-74.60660919494667,-115.62754672035425,-75.8166721744082,-45.936530810981964,-79.94390064794233,-63.73099214141158
-92.00863013983586,-151.91247802505168,-91.06653822734847,-119.52505944113331,-85.24504617177966,-48.466328625585206,-83.57100057724342,-65.87396037913571
-82.73555914751492,-132.60646665447064,-74.4373374581401,-106.57378347328282,-72.5445643165677,-41.91087924780138,-73.54738777111723,-58.84183321639625
-58.01644594947838,-74.35095333686645,-14.8098848221006,-73.01997739282913,-31.557369679516118,-24.255665952916644,-46.803869174258935,-40.55187111968035
-20.774315995873202,14.749609550801592,78.85928951352781,-23.13299620960484,31.785819630230716,1.960470528399752,-6.974784315621787,-13.198879569530149
20.806885061294846,111.87830374405351,179.89625439954548,31.85152767979405,100.4183601044598,30.21593920111808,36.498954855168115,17.32161194509619
57.04929934004964,190.93167103853193,257.80629048185415,79.01565545060012,154.85088296298147,53.12754253921268,72.9634783143711,44.19550636269244
81.42898672885549,237.04316762719944,296.67008908165843,110.09417694493241,184.4459243797551,66.27928209984135,96.05160920284028,62.96035635097456
93.07403043187433,253.91223837884016,304.52766480115935,124.65496697148761,193.10743518380661,70.16434424223938,106.30374510139322,73.07192434837654
95.49639009174028,257.8818871879756,305.1692488614812,127.98674825307447,194.42159075857515,68.80414946503612,108.95960315783559,76.74257155139277
92.64795622323594,262.18210234047035,316.2625252170028,125.37982618215153,198.81906047400997,65.97038471594156,108.47674221375189,76.0533696303751
85.36846321498766,262.6623972309353,329.03742574752755,117.20293972146918,201.85056953336505,61.77559878809574,103.91083131758539,70.67418296838876
70.93484050343274,236.290400531133,305.756632626999,98.56757299339019,182.9179529616867,52.22609481945906,88.81490923035997,58.03756898974941
45.95359662373445,154.95735395746885,199.76322822414846,63.801031478840926,116.86228459816905,32.166810120878196,55.96525301223417,35.8347178415306
10.24260935283122,5.955513537989281,-13.27834614526298,12.253700868759799,-8.492715041336487,-0.45799811055771616,3.570231511908279,4.846730533095351
-31.32322998440323,-194.61957131418535,-313.0930062387056,-48.952020639299484,-180.37046262955573,-42.022277357650644,-61.48299621990896,-30.112035050351068
-70.38030653498892,-404.6004006499202,-636.3242401542861,-107.2207754547221,-362.6753980230695,-84.04043794515165,-125.60911209434894,-61.885739539956425
-98.89235173927622,-572.9781233303387,-901.5341574079526,-150.14432807007728,-510.4231323943035,-116.76130262572082,-174.35778664243676,-84.12005950192227
-112.55414759770477,-661.0994666492978,-1043.093902932464,-170.66679664098248,-588.3717223079216,-133.2014882604735,-198.3301882339135,-93.7492453771043
-111.67892385680442,-656.0016964153403,-1035.399891889295,-168.66183850873938,-583.5888360355958,-131.3304215033673,-195.80320800635576,-91.3817348822262
-99.49545673552875,-570.4008944520895,-896.6375764393379,-148.70765318538957,-506.57093335443625,-113.65832887730559,-171.30037548049074,-79.76948830108176
-79.61749280140494,-432.5471999829928,-674.3355227920016,-116.48590762419997,-382.88604341186624,-85.21607310832958,-132.05464846180345,-61.842731523392544
-54.666066047833574,-273.8657888174656,-423.90168111951766,-76.61158122458501,-241.8386618938127,-51.554237273728056,-85.09635978599201,-39.776411733037754
-26.65149549366218,-120.68498842936776,-191.40809831455798,-32.83753980712583,-108.01520109789041,-17.70067281631208,-36.32528593046206,-15.396216115657634
1.8697020964636735,8.585335119332658,-5.732678261632612,10.621079411727704,2.2331837705915154,12.089120783982723,9.044984852681665,8.949452815905914
27.320466475229544,103.13559206861945,121.23142101036127,48.57346355117656,80.66580104165006,34.467852093244225,46.14774789273751,30.16269547623177
45.968791406784014,159.0693069730802,190.57595401767045,76.02537371393245,125.74485139427851,47.43208700275027,71.11991135248017,45.21862690334651
55.570019401753015,179.36407532807434,212.27368795655747,90.29176357497218,141.4419481820704,50.90794949073018,82.44823103941661,52.50619110748529
56.5434676712764,173.4485973812205,201.99768021097793,92.41192379608073,136.16220706577894,46.97403481034352,81.88667688805195,52.696883924307244
51.757667822154374,154.72829511689432,177.58336874084662,86.66676906005168,120.73980294070962,39.29158841549645,73.96385815447263,48.450096578655874
45.0484805243039,135.94982367356488,154.22494914412536,78.422661633776,105.16313955259987,31.820250719270632,64.11461486582623,43.09892128700353
39.519711899924005,124.74418920404533,140.12936132721543,71.78109262066567,95.43745320428252,27.458966202454057,56.55899036307928,39.18919856844269
36.67646095645108,122.26528105139822,135.68890967306353,68.48701242077209,92.65021592791476,27.33075246310515,53.20057704880804,37.75190452315561
36.58853905682393,125.4549800088197,136.8501617812655,68.3245113910137,94.69701619265234,30.912328803462668,53.87200079778087,38.50366764016706
38.494325334701784,130.49569272371195,139.61071022609624,70.1018334175934,98.86483857686135,36.63250108703753,57.22446076203402,40.49551263319918
41.272045579684686,134.69101014524415,141.9781156175756,72.36245647599257,103.15867579377453,42.50368234521779,61.471205114284096,42.674118181218695
43.757295016399624,136.42400668513253,143.03255052162353,73.7835436450279,106.14713678015463,46.70391704873379,64.87894261738187,44.225757403364646
45.13904770577867,134.84615254775585,141.8040463882274,73.62797673792895,106.73339966690536,48.18368071099532,66.2982403038391,44.81562455787403
45.343693328477606,130.290519506248,137.8591401546213,72.17143330704198,104.69116055960814,47.092853246782006,65.6469061003723,44.67895318387508
45.00823305193395,124.50461443889104,132.3641447751458,70.56745930978067,101.12623208075914,44.598075155776655,63.81810736107506,44.37245205416386
44.924673135152084,119.58667528011198,127.43778494812848,69.99007451986641,97.7434294407292,42.01664727677763,61.82991726264669,44.24127946755427
45.42280763138441,116.31897197747911,124.06938806089563,70.72690430271031,95.36435677563864,39.875208931457465,59.888112687023295,44.0449115093103
46.26674467188864,113.76850476981117,121.17251228072509,72.0656385091172,93.3435753734167,37.690998686740095,57.2824223989698,43.14082824428315
47.07285670741216,110.70420803531728,117.11127274143544,73.00525452890993,90.58505362015357,34.63698628032104,53.22750269017162,41.08154322588957
47.703456137183906,107.16765059852898,111.84130043914718,72.99507800358921,86.91964520133394,30.436491359363508,47.78670574632797,38.04870832974671
48.22742166699917,104.36891210375033,106.9905593185296,72.04618263576573,83.22065766782117,25.707692650444184,42.00579184159017,34.7438867358123
48.63891357517589,103.20672704390634,103.90116002544441,70.39439513302929,80.29417563169453,21.594505064792912,37.269912915408,31.924629663208623
48.787264153091876,103.33102440779612,102.22805215642299,68.3073257900137,78.06010558111302,19.12422114765751,34.57680387915268,30.038067262732753
48.60088299728042,103.72907714006976,100.73597934384894,66.18199533583127,75.9449375854832,18.748616662110603,34.212494668418486,29.142402922247733
48.251770104957366,103.75668825598682,98.90725683854926,64.53551789109595,73.70006753920705,20.178347105255984,35.738570988537056,28.972111472231955
48.01039526041703,103.19964876720225,97.08993379137326,63.668235342917015,71.43548856642091,22.458470377024863,38.09019105897476,29.028903684711732
47.99605125702023,101.6436196992231,95.2818743848583,63.385959966961764,69.00235403131921,24.32601923602494,39.908334198520166,28.79491538008372
48.15592734642316,98.56791746966829,92.7563098271731,63.241368425917486,65.92555715641748,24.836916236844964,40.242886870289034,28.109177922704088
48.42163369505176,94.40509512749563,89.44933116181826,63.07479204528937,62.24778553788948,23.910186110604887,39.22616863285773,27.412240174335817
48.67699027266915,90.96689166643367,87.08472732431417,63.11598418310139,59.05196806256801,22.26592817285525,37.971656713286755,27.459002955616207
48.440311843117065,89.93486291461923,87.71171170700109,63.36127825476592,57.46178633592289,20.656817693387406,37.509623591251405,28.543723042997314
46.693609274242874,90.52511072902728,90.5282472029098,62.894143277963906,56.821973364767594,19.001704023457755,37.59548020388547,29.87128370308793
42.31974630934496,88.92301527223563,90.55145253558379,60.06296724397296,54.13902865415872,16.237676207172616,36.537697957067564,29.746402160690337
34.994525817190514,80.59452074568942,81.27847728470844,53.600582692097646,45.83826461222116,11.115487438366419,32.33901155087986,26.60424964137883
25.84176728363942,63.800790734238525,59.552403796080974,43.82854661684098,30.613796849570505,3.364738751808965,24.312325687262707,20.199728168919336
17.337061270456225,41.744735571761346,28.9992343496648,33.06850393158967,11.247583809775803,-5.579084719890152,14.055725029395505,12.16872287173764
12.562584937225106,22.290769321681093,0.14985810048242726,25.094152251531735,-5.583564421568015,-12.70665601254468,5.284312719437193,5.638197074360637
14.19414166644843,15.679958427304998,-12.393188419639152,23.90540866079957,-11.209999539480373,-14.407676240318224,2.6185001711628257,4.0398640663316705
23.366875070951224,30.48325731164633,4.597452133540555,31.971236959297546,1.6656221553759547,-8.097945407858326,9.540998615001042,9.477919587989495
38.46570898006486,67.77870458700103,54.72674263666964,48.13005783087996,34.134020766629284,5.88442241453454,25.893910771192385,21.152116697293344
54.37671578971997,115.4051073044929,123.11947079124884,66.10583345586971,76.21282923017402,22.99291507034334,46.00567499943622,34.63423079814887
63.2414960523755,146.9237792505957,173.41099891639624,75.28663187551945,105.72978784606639,35.002803142711315,59.16375459187239,42.85536222567185
57.2755816698271,129.50606023271015,157.39060392346408,64.64980663240993,94.61312280560489,32.93708220844387,53.421275766318935,38.939995268948074
32.6873914090962,39.47664985339384,36.883278429932616,28.459815423462587,21.847504267129413,11.391600015101528,21.508214982980444,19.711575565689653
-7.582003162784754,-122.62416205432599,-192.95909348636138,-29.58697540105882,-113.49650501956077,-28.111738614761467,-34.446089425097576,-12.161845769207439
-54.32779343373985,-327.5564999395754,-494.13659670120325,-96.78108922145302,-287.76235578229415,-76.98364281184071,-102.60719652294387,-48.89687223210562
-95.90669735076963,-527.9527799211035,-798.3974884651434,-156.6987653228166,-460.953338865283,-123.07637083913892,-166.2578222646529,-81.0141670293969
-123.38381093515702,-678.8854906459077,-1036.465875083898,-196.5291424323559,-593.9348246931581,-156.0115321776629,-211.20846982382162,-101.56886361530323
-134.07854516942393,-756.8204417285336,-1167.5599303717386,-212.2404069077477,-664.9568147358291,-171.35709839545947,-231.60062426335074,-108.8220588558077
-131.64106401160814,-766.5072809035302,-1192.8160861930035,-208.84389494270394,-676.3881587513279,-171.4726321555324,-231.0142362713034,-106.02404500224554
-123.0442177474515,-733.3900218981731,-1147.0038109599684,-196.21858912356586,-649.0681093908152,-163.000652337402,-218.8708159909675,-98.82373859660171
-114.70937995559613,-688.1790297497046,-1076.6517347830754,-183.6140421767109,-609.4530771441216,-152.98301434536103,-204.96800793232052,-92.17924316361393
-110.10405771882783,-653.7339828331139,-1019.3805728024204,-176.1816040196359,-578.1177507304338,-146.02872779315072,-195.57729660724652,-88.59575180603765
-109.66125973977213,-640.3607726060887,-994.648156798469,-174.79147635101916,-565.1173084357962,-143.7029840399561,-192.6958254665731,-88.24684987925237
-112.16982151998572,-648.3266098053715,-1005.5483362095961,-177.94538835655956,-571.5759432099976,-145.55554833140147,-195.5530477828573,-90.18572271117995
-116.20375385993664,-672.2803944139645,-1044.428573544409,-183.73254106947138,-593.1422621958022,-150.3880448187273,-202.38269230933506,-93.4513915229146
-120.76610616896572,-703.7330256105835,-1096.531021379235,-190.65277002219787,-622.0065326183941,-156.8245276767449,-211.2053788145038,-97.43087135953759
-125.16396465313629,-731.6344111375722,-1141.587637152419,-197.38139493105328,-647.5087601014154,-163.1814842744834,-219.67917676970913,-101.56766506917728
-128.47452235160935,-743.0304462737842,-1156.3943739191466,-202.06735900050225,-657.1204822435969,-167.1312898078845,-224.69363240089237,-104.81617313688137
-128.95921139663625,-724.9431403422284,-1119.785269011245,-201.703162911329,-638.7586332636168,-165.61009213776583,-222.2568643645322,-105.22812541233333
-123.86770281940248,-667.2678777400837,-1018.6033642180911,-192.12397942951196,-583.9374987253229,-155.25447205912587,-208.02226881210674,-100.04541290321687
-110.14043141086479,-566.1869894796588,-852.5667827354436,-169.2140851189765,-490.848263117716,-133.51255181704573,-178.69819724608087,-86.60121897129484
-86.09527569525622,-427.5334940762148,-636.8214698216455,-131.3108516171467,-366.6407785023044,-100.22939136774623,-134.14892079467975,-63.89987297448193
-53.297540973095366,-268.68124176220516,-401.3445961588478,-81.63299624054649,-227.97187653900593,-58.93977107319859,-79.16605265498603,-34.0612843204976
-17.220072613557953,-116.71356183810852,-186.04739989047465,-28.841073423509187,-98.56060062894775,-16.80795635183993,-23.413461837690285,-2.4976805742777657
14.292263540175302,-1.3681754385120468,-30.825300485770374,15.503150155741915,-3.0320883545829136,17.39417851232066,21.341608742646958,23.786507429573977
34.434724671297396,56.20101283899703,38.32884487413835,41.96758999782853,42.02690517618699,36.80071881502584,46.06132581764499,39.240079679797006
41.023230971080736,54.60358780762361,22.96726926415729,48.276323376316626,36.7178176677326,39.890722935620374,49.12051213273994,42.60212845478706
38.01579471969189,17.01640627641882,-41.59836511743427,41.20671020485868,1.4823645047564593,31.86470809690502,38.052303206753045,37.784275483827585
33.670292726029345,-15.458254894218925,-94.58259015613022,33.6064299892864,-28.307504575737923,22.713136742275427,26.67048911702345,31.984326038924603
36.089744950487855,-1.2844181537030244,-73.35594995436726,37.71102653275917,-16.706560165292537,22.539079148799377,28.4728874781023,31.88855734578272
48.7595308697828,81.21813150744222,57.121756362718344,58.56593228409755,55.691610251360785,36.54814037465209,49.80265690920213,40.15555341309819
68.83892645896412,222.32961890861046,285.2911344133814,91.56308559387831,181.41964279921294,62.58531719213528,86.77445496990298,54.30052536154018
89.1716968398114,385.426583670332,556.6806337740147,125.49735201993865,329.15777784602165,92.62905332999452,127.76339023836513,68.54897475015615
102.56292370588295,525.2107807479024,799.4090564141752,149.0198328157696,458.85357195618843,117.22794250520118,159.80801366564378,77.33358673976578
105.58766294609106,609.1571957554376,957.3889882252623,156.45167752632523,540.4175772652217,130.19089379325123,175.04013622341256,78.22488066660001
99.7975301693767,630.3621022362918,1012.9625707470545,149.74995696156526,565.7276795674388,130.96083532686447,173.61492608070688,72.69905007952771
90.04818349747498,605.9835955327602,988.0385019689684,136.12632701377362,548.3255960103804,123.75496140764417,162.07735261989873,64.6656492833681
81.43941883081918,564.4248433171904,926.2622454214192,123.4637181488805,512.8548796523708,114.54173236116137,148.8941618382368,58.022602182975255
76.9063954623482,530.3133967922807,869.1718801236262,116.56826960013233,481.8004000780182,107.9555766389168,140.19537824699592,54.83951532142332
76.62433511562563,515.628595318484,840.0711989431499,116.0779125891851,467.03701497114287,105.78506785808494,137.9345479159041,55.01173662992685
78.94902861454415,519.5310526232408,841.3711851815087,119.7310987587811,468.95410345464717,107.28834969049629,140.62723257558412,57.091296463633235
81.7950582601973,533.717365291983,861.7899068320071,124.41594181987193,480.7901661075258,110.47229546660799,145.29364781201622,59.398471743686024
83.59231731635832,548.5220656936203,886.0588064873237,127.68106257002839,494.03138831991714,113.3363490256299,149.1766395305466,60.74909360259648
83.66631923544932,557.0707718357921,902.2010269279917,128.39574259015893,502.28993116851245,114.6298112493464,150.68838799632897,60.70402375192752
82.24753966893381,557.1529255829114,905.2376106836507,126.81534457020135,503.17645341882377,114.13203479836704,149.69546223442455,59.52622716295167
80.20707846635872,551.078441957363,897.5857767859615,124.20221010408261,498.3559857195532,112.52039284372837,147.2684599493012,57.9388967255903
78.52863765972418,543.6303592210581,886.3110117757417,122.03876210851874,491.8894420307656,110.85980310113831,144.93494114954444,56.70364442587367
77.73708910910055,538.9533109361771,878.348381095059,121.16280276005729,487.5392951310994,109.9373883381839,143.7468041463045,56.19172786657304
77.68518230712503,538.3091262406712,876.5608387270463,121.41614666923827,486.6786046223625,109.87166692935519,143.77333170847263,56.24796689352237
77.85665976017376,540.2349446135795,879.3120654222082,122.05712597369869,488.2250130494855,110.25859854047931,144.37237035345123,56.449434018212386
77.85954842546079,542.559135762532,883.2656170582319,122.48364182124571,490.2948318970213,110.64193843395448,144.89327916063317,56.49223951113513
77.63399844223323,544.1468090860286,886.3345245034103,122.56986826373172,491.7969827215633,110.83287005616315,145.11043084759774,56.34171312254436
77.27729357298792,544.9828807112135,888.2577290803686,122.44266537270111,492.6452546880995,110.85825902647889,145.0992069750029,56.085318372401076
76.81935407448836,545.2611558167175,889.3338052969102,122.15612001352052,493.01246446031973,110.75775813760461,144.91935571791907,55.755426721462484
76.24109114237572,544.977342154525,889.5810271934806,121.69659374657456,492.90971959413173,110.53734230902144,144.56371867978316,55.34446306156324
75.62770132005816,544.3344711919408,889.1865323035819,121.1895040903407,492.4781389571273,110.2731350355221,144.1351595787806,54.92156955333537
75.1601127988916,543.9428502634248,888.9286250769156,120.89012188173503,492.1933334075855,110.11999927822744,143.866269172338,54.6219549577915
74.91240852377116,544.1977668418714,889.424376414022,120.89910146773624,492.3911030155393,110.14369123386646,143.866073334952,54.491285636494936
74.74033856184222,544.6504010556188,890.1417839537582,121.00188461808995,492.7222494700468,110.20331051821469,143.94249382756306,54.40766428219729
74.44908885129094,544.4639263506391,889.8965103894371,120.91014405312905,492.4900792043197,110.09546141991828,143.81105614897237,54.219012813388815
74.0417454232716,543.6245117233067,888.6545543125628,120.6308003634657,491.6832185528229,109.82505135473654,143.47853622312843,53.93437153500669
73.71615305649328,543.3763151994165,888.3999054843074,120.47602594976934,491.4132768146698,109.66239949673243,143.30487725240644,53.714432359396895
73.59957791098111,545.1151585815488,891.5770501413239,120.67530154749953,492.99829257599123,109.88275839589103,143.61952031260185,53.662262811431575
73.56047978438318,548.8305054633652,898.4603518419951,121.06964283683814,496.53397842142044,110.46888266105151,144.3271451149665,53.67987425907766
73.34056439080436,552.7661372779262,906.1793196012499,121.26282134122505,500.44850627325803,111.09493230387471,144.95101465501,53.571819204455814
72.83760782528707,554.5883446625259,910.3694943997881,121.02261029461852,502.4592466819076,111.37075597773537,145.02896988068434,53.258367185986685
72.1943110441202,552.8494902772654,907.8599787201581,120.44882408027411,500.97733838848086,111.06898426543258,144.41254157857804,52.836731753643306
71.62939679653124,547.7119047558455,898.4943790095472,119.79467331555632,495.9735442010374,110.19081912299889,143.264584320463,52.4528907099725
71.27733800376069,541.1058080284502,885.7991128946865,119.28983790230801,489.2780255817384,108.99368113538574,141.9849263152396,52.19332392484098
71.22612733068584,536.7426403318643,876.8955250568026,119.21131597824416,484.5827949396981,108.0742330375018,141.26021712536385,52.1315962328807
71.59119885934976,539.3543820679689,880.8104150759843,119.95206934805343,486.62025790054383,108.30845375572929,141.99635273268552,52.3893687271445
72.36958407923642,552.1090526405958,903.7264140209252,121.70976090321936,498.648217818564,110.37705792017888,144.76612307941124,53.009894976162165
73.15315711605754,572.786013159698,942.1399953559012,123.92632035115444,518.7768067014773,113.99717663143068,148.937410651313,53.713447942962055
73.08667585104888,591.5346141574599,978.5834513276212,125.10139114150672,537.705152389672,117.44550392654365,152.24718808296282,53.84359555519207
71.26441884822985,593.0254254820761,984.9799430751486,123.36045330334369,540.5689756959457,117.90856601579708,151.43739268873625,52.66125116880528
67.25069167454464,562.8413358411226,934.0431463070114,117.38879792335311,513.0001564470103,112.5962856469019,143.70306017462815,49.7511249461104
61.21974976133966,494.6119488208177,812.9842101821268,106.95690064483527,448.26556548712773,99.98398197483488,128.01258139225826,45.16072746276006
53.61382920396746,393.71669713878873,631.5288680991115,92.72713122448032,351.34299806786754,80.52248759362216,105.5345216600025,39.19238222908316
44.77106716243938,275.7769728148948,419.7143422144452,75.80296252397204,237.7596288329398,56.59792088794412,79.1805760541503,32.16872028255328
35.049440309667496,161.4170508686932,217.21940886387355,57.69335112877403,128.2360371268166,31.96171058774094,52.844879372885636,24.530192031515746
25.442561978480178,70.41303247304154,60.440355121098925,40.78076086175845,42.25555528470049,10.952603491476962,30.81592456528795,17.233952770837636
18.003762574898683,17.401837778145033,-26.819455210163788,28.538698057958477,-6.712416142292977,-2.3904488791439165,17.238922305177276,11.960452665472928
15.206767131328885,8.867433683222117,-37.65386879913319,24.462403176857073,-13.893123145951174,-5.482240915282637,15.023607721836141,10.545973699210094
18.059835561372093,39.85876920687553,15.926410758185705,29.505647293379962,14.866703014265923,1.3565517824467146,23.89974237238237,13.581470287613302
24.064852207689544,90.8719953637318,101.52792099310464,39.4562761002872,61.57332076622055,13.769065394181963,38.52256776512891,19.00901821663036
26.893862043387,128.85190242564116,168.95081222923542,44.730308894295156,97.49434211542727,23.761988329019825,48.5865181332876,22.037658645515247
18.87838803323898,116.50313893703465,162.6218565671155,34.03684231228771,90.79687743251752,22.409288180885294,42.31330583116127,17.07352107575693
-4.690627100541809,28.616953502325952,43.742157845247505,0.5080805376489065,19.773074702082212,4.040831509181484,12.269517315645148,0.8450779064854942
-42.17407586915737,-133.06615396692885,-188.22906704262468,-53.501394116499654,-114.85223129922846,-30.4235962245156,-39.8661086144774,-25.259868920507717
-85.55434730225491,-336.7199451474331,-489.3486905230532,-116.39027944586698,-286.9446484165394,-73.27350963483399,-102.95149211515711,-55.33524681577421
-124.02680804378866,-532.888565363693,-787.3030201723469,-172.46031868924172,-454.89672210678293,-113.37232469764477,-161.1403083132539,-81.65379814504371
-149.0773549308086,-676.3562370469753,-1012.6903838416137,-209.2341755784349,-579.8020315839627,-141.24228764211378,-201.1164654301915,-98.31332242806492
-158.05251984978037,-745.152912066397,-1128.2316066130347,-222.66539830572597,-641.7855234234806,-152.99238871131138,-217.65078054548934,-103.68952157613681
-154.38619719058516,-746.5489142593015,-1140.1405885788547,-217.56131464743973,-645.7407325632613,-151.07886347026354,-214.58614740432083,-100.44890789633111
-144.8554285660244,-708.3748371888104,-1087.4624951890858,-203.6851924859524,-614.5957219894791,-141.93952554156607,-201.34664268179793,-93.4782308046134
-135.91315506436894,-662.6858494137773,-1018.4202422352108,-190.4471482909389,-575.6548341124754,-132.32433798758683,-187.6417582690223,-87.25579310857857
-131.2307648411078,-631.8399702546471,-968.6559717580255,-183.28041800636785,-548.5132006742361,-126.51000702845552,-179.52294181582755,-84.18397617657963
-131.2971307511592,-623.2261699892005,-951.7158929889895,-182.98706099797988,-540.1275857962703,-125.51568566131311,-178.34903514039217,-84.42132417745312
-134.4854491176949,-632.1777534539566,-962.2630129262119,-187.2518807560497,-546.9807230210664,-127.97451109646529,-182.09638668160198,-86.71797458846721
-138.4817987252311,-648.473896212966,-985.5437537469938,-192.7269796900685,-560.5407333115155,-131.58957572896446,-187.45034499953243,-89.43757518702098
-141.37357150970539,-662.2361552351231,-1006.4743026360927,-196.63893536195027,-572.343573683565,-134.34164336546954,-191.514396206844,-91.29386740831782
-142.2442276639258,-667.5654384232961,-1015.4415269844684,-197.66809129610246,-577.1727196209649,-135.17671622586474,-192.78624222486775,-91.73247550133753
-141.2857099054165,-663.8117082393586,-1010.5868182461118,-196.11097191622582,-574.235195512172,-134.1717242048362,-191.39986827719463,-90.97602244860833
-139.42581522879084,-654.5435837444385,-996.7117330623964,-193.32671239345777,-566.4102429621585,-132.20123629930822,-188.64209406218632,-89.72049137722381
-137.65855769388506,-644.7294537413072,-981.3494537030899,-190.742026101259,-557.9402986955072,-130.2721061384289,-185.9778680410929,-88.6248865727662
-136.53662976170224,-637.8177317169125,-970.21051058922,-189.0892266467654,-551.9008440197197,-128.95164856974938,-184.2195215469776,-87.95496889143978
-136.17785165499672,-634.6975016306327,-965.0504145606806,-188.41601433098873,-549.1544726437355,-128.28889697461113,-183.4293115905127,-87.65197875559284
-136.6123407345005,-634.8265864625688,-964.9367031114326,-188.64560833338734,-549.1942576486099,-128.1719136864675,-183.45146065696645,-87.67425487731384
-137.93350304618355,-637.681953554838,-968.5921774760325,-189.8980988894137,-551.4355240013846,-128.6291810579479,-184.3344599016242,-88.16791547346384
-139.99564965106413,-642.6651343704655,-974.8274422171852,-192.13300671093523,-555.3067090601712,-129.69818508492853,-186.10810226578275,-89.23937727347989
-142.02711563779073,-647.8202126544734,-980.9931181077627,-194.5652311629613,-559.2597773499477,-131.0404060218613,-188.21866705742477,-90.59289616757513
-142.74456065059866,-649.4911510582381,-982.3071027156215,-195.6734514892269,-560.4129188049802,-131.82183774729592,-189.39901507850834,-91.48049545735043
-141.08918687994964,-644.1714075575813,-974.1719228612503,-194.034468416225,-555.9709166012004,-131.11233539096756,-188.30989685140156,-91.09200999321365
-137.09465863476038,-631.3640339369988,-956.1056022643414,-189.39753360154856,-545.5464078629271,-128.53258583350893,-184.50139013749597,-89.09759584024115
-132.27752193645256,-615.1322210159415,-933.8823265278843,-183.24907212110352,-532.4375670918872,-124.68909125466631,-179.00191163069093,-85.99340690131828
-129.2892177979875,-603.1534463129067,-917.9792590280751,-178.56994137289075,-522.8147793084802,-121.16876051183442,-174.22905451665076,-83.12060744738734
-130.88443312795025,-603.7026642566461,-919.1104532241654,-178.8342003103449,-523.2105656805763,-120.08937554778446,-173.2605657972572,-82.33574406702792
-138.36380671529832,-621.3915113295778,-942.492662306337,-186.29706917470025,-537.1176261859615,-123.19034588910891,-178.47165106530676,-85.23634953040396
-149.88811065263417,-652.4486656936801,-982.0405000803929,-199.84027698475637,-561.3465530720601,-130.51974273834864,-189.64052577871723,-91.96566541905578
-159.60154806313918,-681.4544493824714,-1016.5424271974415,-213.4385069732041,-583.514946946702,-139.2467417802396,-202.3176715451307,-100.13545796539907
-158.75570574108207,-682.9782815974967,-1011.8556040526472,-216.90677476414592,-583.2767673593862,-143.63688097197158,-207.9700368278001,-104.84690317439981
-139.2081231699328,-630.5272330671103,-932.4067185732499,-199.77975589488813,-539.2851413215416,-136.96803125802228,-196.95738106839835,-100.4409238241833
-97.9388669226396,-510.4091921902163,-759.4397078095884,-156.96035141863578,-440.20977574760417,-114.91505027004175,-163.50813929482135,-83.42710833853354
-39.92242627861417,-332.8647358788396,-506.27521340560224,-92.84403936585649,-293.8486491565321,-78.56475196881583,-109.90706113335608,-54.91526462030142
22.841718198815578,-132.30671829997124,-219.4572464042675,-20.87401654933039,-127.70112635228344,-34.98859834612391,-46.928340840170236,-20.846709167589633
76.11530900428227,45.59072686772551,37.975667521699584,41.87562908905934,21.10062094474211,5.3868330625796474,10.355955067571504,10.409770091656338
109.52951614863558,163.72673891631538,213.41072358421496,82.24717391951516,121.77617629652572,33.35490752216973,49.28123358418922,31.825258556903304
120.5989523123203,209.20996777848822,286.87104383344325,96.35757693067814,162.90046834899755,44.89748019615718,64.98668493165286,40.658554066940454
114.55615440076188,196.05910910639815,276.02039508591326,89.86771516017915,155.13636890727253,42.35886750695926,61.512380863996476,38.9717021406008
100.57733444536974,154.4472626870737,222.22661920951262,73.59450775832595,122.87727719513698,32.42608371253726,48.42270657363343,31.740969165903017
87.03907914701755,114.24462011256973,167.70282460193042,57.68898822734062,90.82991398098133,22.443293772053153,35.513623439597225,24.053502945961007
78.49626811747339,92.92435163882372,137.92078683736696,47.83887677883009,73.80733798421379,17.27858968449601,28.818748976737137,19.091646668947245
75.35193433469357,93.01368730155913,137.35806744045516,44.80453177953405,74.2830311493275,18.104567401639425,29.51575749058322,17.626513613154373
75.34569549064703,107.02253509645215,156.2282139101628,46.19701035154484,86.27248009313817,23.020851106008177,35.16483633072989,18.63047660368147
75.42543885673251,124.31821385525848,180.21816757677823,48.672583478598646,101.01474584927993,28.63589789590338,41.79836492415438,20.279969081382394
73.18664752581097,136.18094023733778,197.46872344816347,49.55192303070952,111.22347911037932,31.79604106052394,45.86542751822981,20.93567144232989
67.73870453630865,138.50716046099424,202.0698996227219,47.75944073971836,113.39494846329244,30.962287269984206,45.67983609252244,19.924839644441064
59.93530657438209,132.6179932873545,195.20594447061924,44.04085456550411,108.57276609226933,26.80576206490402,42.02900159063332,17.833730410786302
51.81245196574325,123.88621583023556,183.76056829743916,40.25857263359327,101.31380757723537,21.689993879970093,37.51624332832459,16.014536082856875
45.414195217656015,118.24183723124953,175.9945486757345,38.015409011002106,96.78797000636101,18.24323723820118,34.82334781588023,15.512693307458509
41.72447211830541,118.50991725569789,176.42092582333282,37.571093534451876,97.56205979094473,17.904111607083696,35.02820272133793,16.216565297728238
40.410352959933064,123.30028700181234,183.71268536473283,37.92453242976719,102.45698592488417,20.379695656054732,37.20997799160378,16.954070595581157
40.37179635804071,129.04848422775137,193.10923719155676,37.866236832967815,108.21814698315863,24.189332033990357,39.46994240812867,16.437359790891094
40.45211837281357,132.88882422158375,200.50565100525688,36.91368432913433,112.14983164574285,27.638470903965814,40.309040353218705,14.220063922834838
39.79056867860998,133.7566079122203,204.3244221536474,35.360574138066,113.34160941964268,29.500994466366205,39.286958183422385,10.942213240871318
37.90722498036036,131.6574436732129,204.57578783350286,33.74334583782078,112.14632091326871,29.274403624806904,36.87305346635868,7.8763584832243785
34.845659609080016,127.04320255248734,201.77755350684063,32.50640708135903,109.45438047895813,27.274758606493037,34.0920452813062,6.288226010540856
31.311587188881116,121.26307418527719,197.51070050147274,32.05920226314242,106.76517334975833,24.6228311752139,32.26174125109021,6.968270313822778
28.409083867466293,116.80962504249064,195.0284299823113,32.72508282399293,106.20725999512905,22.83367698225834,32.53106679382122,9.920683416985387
26.907473250093943,115.93291527436807,197.5540642956138,34.2984092478934,109.35114557539883,22.93212951440497,35.073957665956314,14.18597295821275
26.61829000067652,118.50185897710898,205.0466246610104,35.715571901899025,115.45826874673777,24.64119969992773,38.52948725921703,18.0229838244055
26.53341842096413,121.56626217555149,213.01701936534053,35.512098159229346,121.19819711909227,26.409932757335937,40.48329178410382,19.636449157755084
25.661858252062252,121.56846249736047,215.3901586124092,32.91381415074222,122.71633211922385,26.44044877698418,38.94975321444185,18.165253351405376
23.80489430939249,117.30082980421692,209.15416086671942,28.59951595316202,118.47728861060655,24.007674335173327,33.80508764013856,14.268955975232915
21.62474255076917,111.00600447542875,196.8217660614765,24.414333747776947,110.52455570042491,20.119234228261757,27.09190393319642,9.86480368913619
20.083234799096594,107.10285083113548,185.30468894177213,22.30526550542257,103.47398783465361,17.099741655034745,22.049543795155703,7.181853344986111
19.78139238217914,110.01999499051196,182.9220069666802,23.30085393967299,102.40786261804101,17.38172931441677,21.55196319658719,7.689412257589426
20.54021452289625,122.25680049604283,196.15973382508662,26.987225489154046,110.76391270132129,22.094966496010173,26.66949038184636,11.36289840659785
21.237243409717237,142.43534118653045,225.887268226641,31.41111227275922,128.22266137619596,30.044501094393667,35.75554040406267,16.50434133887913
19.991443660368653,163.4970343967835,263.20829418621446,33.4544504481149,148.8092054915656,37.64921685569345,44.47427291326633,20.26702545069526
14.999616750435194,173.11839466786645,288.30540536384353,30.07879829323776,160.99862050215623,40.255737942267274,47.298351934793196,19.95688391665223
5.997160925024655,158.56912907184966,276.6654144777507,20.431761213401337,151.86293069181332,34.582524422600144,40.400486958066395,14.739964877736318
-4.522341318602847,114.81149220088409,212.29679171615462,7.640236788091925,114.48214213397335,21.05791634387429,24.54518697832035,6.769578657972845
-11.585404881477823,50.4982655809017,100.31618478542839,-1.476008691505281,54.10789688750387,4.39450219023187,5.836872569646732,0.6959233205345914
-9.953375269443237,-13.615058463377762,-30.909254672413592,0.5594447801829315,-12.015030996817218,-8.388017102248947,-6.819006819506861,1.4368062822653878
2.8284219463163414,-54.35881650543837,-141.67622532077667,17.57498609796468,-62.33153752432018,-11.555000086276744,-6.397174305727992,11.388172629353917
24.552511942909288,-58.332637102847855,-200.55859271927645,46.97512437240432,-81.88843296395852,-3.7021452055460164,8.28797549580855,28.83766734268928
49.04547561971032,-28.79593812718512,-199.6373391746212,80.52179805554893,-69.68012361218766,11.627085500271418,31.895162934481622,48.662446001013386
69.14977105037961,17.06774754587336,-156.11096290099917,108.37111345068794,-37.94815197575992,28.057035359947815,55.55838479663414,64.92380806120968
80.17555052082025,58.37738881699371,-100.23110184158018,123.89444666203224,-4.342953320076136,39.80852828251645,71.60454671250574,73.76538362922021
81.73988765394311,81.34452427253866,-58.33870658351759,126.35626735260149,17.5789595469796,44.31713296102514,77.03333610607808,74.90225475230604
77.08537997237443,84.04548595490488,-41.85426999695749,120.09623518988303,23.598104359445635,42.66354638530363,73.88547083934465,71.01636506768203
70.69777439415599,73.6264727563501,-47.206630127195915,111.28024520970521,17.705931681916553,38.02866328790876,66.89948391124047,65.78291326808744
65.98458721932192,59.773569692501425,-63.27709745251093,104.66160970759749,7.2019904273795925,33.58146411530358,60.52045148615698,61.97649734105526
64.28392165045811,49.5826012198898,-79.20227485137401,102.15969177570159,-1.7487411639706127,31.155719754636838,57.15664169195779,60.671229881196886
65.19931955239448,45.98188438381294,-88.27150897947537,103.28949053050896,-5.937649878045031,31.0769226794418,57.087837329073416,61.51697923362558
67.45081234831449,48.45516716363393,-88.49062398776401,106.32234888028331,-4.986450332740799,32.64240824448394,59.222814224834856,63.43821478011753
69.60942630933329,54.251870809843844,-81.91321583485343,109.28981874727982,-0.6422570773202405,34.70110413823036,61.91301916255764,65.24729125141802
70.63248883768524,59.77427973010516,-73.16707167792555,110.72121026412809,4.2391409215171025,36.17929811124999,63.66562383720109,66.09439617852135
70.25400536750453,62.43265471145452,-66.72767878619116,110.20361954687226,7.263910262554728,36.54969841973409,63.79605321208098,65.78187402366233
69.04101396195523,62.13532538756129,-64.12639858650353,108.49500925397702,7.933725223505203,36.041948699864825,62.718266691559485,64.7912146011571
67.93058056695948,60.91860453319073,-63.59500163227278,106.90248422564107,7.5974915400630945,35.3570965038661,61.50519101178519,63.893151738096265
67.51559378936753,60.720437551909384,-62.762936873037226,106.27706548138916,7.744570899888302,35.04552470151882,60.95793460047843,63.57237267049916
67.68422197636612,61.422294304706966,-61.64045363785406,106.48036611660667,8.325385241303222,35.09639170597789,61.00647737583709,63.74631137731076
67.90537556275147,61.190760675367805,-62.579358918198984,106.76432380498036,7.905535611258811,35.108239679985076,60.984069968772616,63.994148208513494
67.79354190563183,58.67255692129223,-67.25136054744318,106.56894957710243,5.457260202852023,34.80358156802493,60.40658930289394,63.99718778937746
67.36889775596345,54.66025195997968,-73.99487287756429,105.90710340754083,1.8210592054353163,34.32635049812004,59.42434987466879,63.73904153532113
66.88307855657615,51.689415281065685,-78.27093341077563,105.13171696513714,-0.6049242644589963,34.08278848631972,58.61194175583648,63.37900629169307
66.57851798721295,52.33721652329485,-75.55144245443205,104.59675251471653,0.5683008659069466,34.40201555891592,58.5121819297916,63.088624172511686
66.66202114070406,57.82626942092728,-64.08084191028587,104.61775766960291,6.319709108800117,35.360977169118094,59.40729004095843,63.053372931349536
67.31556290876865,67.31929684550748,-46.271656350860034,105.48698142910645,15.522730997658199,36.761604870937035,61.24082753860589,63.48046421633549
68.46208437151572,77.34080568033136,-29.152016795340124,107.13190581631808,24.60935243603692,38.062789963992024,63.382490046001465,64.387955896022
69.44247737121808,81.71507748716107,-23.499870232705742,108.62686428209751,27.85116010329416,38.34096567952001,64.40847681154759,65.31011084597087
69.10533488902009,73.63744901869877,-39.75964426822738,108.28306121895531,19.45402305696099,36.6221431291939,62.513497716330136,65.32734733122184
66.47587685488712,50.32100843763216,-80.40067867067607,104.5898304220694,-2.2829219404676997,32.64391384790812,56.720885921143726,63.56395990673446
61.47107664736228,17.445035678108,-133.0365241780268,97.27392773266519,-31.170677310609122,27.470270649755367,48.03651575111048,59.75187118929507
54.93234118700445,-10.978180810151786,-171.2184881741539,87.42266222663221,-53.52036471400046,23.1982190194271,39.33624158396166,54.305834356918815
47.86656294633758,-19.054720820222155,-165.89218581126536,76.46645465336202,-54.272918213522715,21.661524991786987,33.70438050282934,47.820993411639236
40.57512206157201,1.5988988096409416,-102.16589804240104,64.95041848342673,-25.84958860648238,22.989596579734194,32.33662272839607,40.485533392584564
32.48858187284246,45.91679794708416,9.540111254460633,52.262393033907586,26.16721522838637,25.186599296504877,33.635840206739445,31.99042295212474
22.90744288154174,97.42368792593415,136.43794126265655,37.63591687156263,84.88171156522799,25.22822215721828,34.287518572774154,22.06127448169343
12.055908024933398,137.33902732604304,239.72254609215548,21.611909844258292,130.83268650396076,21.051177534460905,31.610127920830834,11.174713647100686
1.52376880196615,154.81829889896764,294.35848249616953,6.643057868102216,152.18548523124727,13.084167701825677,25.477741465291707,0.8061220195677502
-6.425579374686327,151.5669489925875,299.8227061475445,-3.91952210876718,149.8373084248611,4.202671174450123,18.37510699198237,-7.134718073312458
-10.295843725511912,138.2586447096453,275.78728094337094,-7.916158732219291,134.57988837951734,-1.9171243029437337,13.560168063495935,-11.366923311538699
-10.459022594947504,126.25561793768134,247.3957913894287,-5.97582747226513,119.15781722051929,-2.917459723148032,12.790717746574408,-12.005411386657405
-9.022812849769327,121.01578156471518,231.12146616244303,-1.3159604264312192,111.15841541075346,1.0455962044920537,15.31922248459878,-10.424675145512692
-8.558022239785386,121.06331833112944,229.4875413619373,2.1279395559426204,110.85760986594612,7.6252731718071,18.672387837748197,-8.355868557503674
-10.621301731488522,121.47897249778899,234.91096716354772,1.874116779825981,113.74265079996144,13.652608576692755,20.336174084421746,-6.9242228958229575
-14.953365172525592,118.3263916678455,237.44597182907583,-1.9352397371176824,114.72186820126134,16.661195390999108,19.15219964143498,-6.206282733563253
-19.576942709292272,111.54294890731649,231.62622386138878,-6.69081639715128,111.54947284349957,15.961179106329558,15.901236461077769,-5.357117734612196
-21.610573201968208,105.71703914556116,220.37340550946948,-8.483812674392706,106.53949797237284,12.97432625786838,13.083177987810501,-3.100939407264983
-18.676251841565342,108.39460051787285,214.7421352915579,-4.053576237906603,105.95961611298088,10.570145055550205,13.801950151199277,1.473712083021602
-10.69602905516414,125.35685601312053,228.02555002786363,6.758389856383075,116.37218932169935,11.324597286277186,19.6783828374857,7.85289455088446
-1.2586648973649215,154.1834497211959,265.28900863336145,19.117598898074263,138.76902778240358,15.368553821240866,28.56557323874265,13.25586950253779
2.7498853996729324,180.54328729774204,314.50704357269336,23.645829914621874,164.2031305755661,19.28566848469743,33.85219267764333,12.921459852094996
-6.087062226980776,181.97664214998636,347.4614116307216,10.174325969092003,175.3828387692491,17.30320990343082,26.805337059672322,2.033048091354581
-31.617700489110206,139.24957568300684,333.0604095199891,-26.594443401425824,155.15082878944972,4.523273753606458,1.3415212024268697,-21.438838836936235
-71.16913932301583,48.90884067752543,256.0456419183066,-82.93121702489545,97.20906437402215,-19.74029084220802,-41.60910567792113,-54.75025931207796
-115.91599131329706,-71.6783944231304,128.58561478386153,-146.5065545186105,11.79153824326037,-50.82922487872321,-93.27662035171794,-90.82645663048412
-154.72002715958186,-191.15552530788068,-13.816645510770106,-201.69257639320944,-78.13191110783002,-80.7488670546705,-140.74654106851665,-121.21532863896893
-179.2971987836701,-279.2902003805858,-130.15823519024258,-236.79811303139198,-148.18228338811323,-102.1381994418167,-173.12109381435357,-139.9306231193992
-187.68101021928697,-321.16437789071125,-194.31902106643025,-248.984634427404,-184.40282734730422,-111.73050357008695,-186.41887413792142,-145.92032569403247
-184.0994662288659,-321.9765882612719,-205.42683269734295,-244.16359890296994,-188.39447784822866,-111.2681554616005,-184.3813251244601,-142.7937468721721
-175.7335938886472,-300.509640532715,-182.999945848774,-232.4692563659341,-173.3483756720913,-105.63022580555553,-175.1411266761472,-136.23450643034016
-168.685607821223,-276.79568009056885,-152.18632830975764,-222.55940424478916,-154.73766758807614,-99.73380438557176,-166.3255096220232,-130.9123794340932
-165.5730252116071,-262.3893066732073,-130.05102464655732,-218.1766558370855,-142.31032420834796,-96.26965866889422,-161.72878322082104,-128.7192708658038
-165.64964173357953,-258.23377602885955,-120.7655225470337,-218.28838481579214,-137.7547810045883,-95.33661424872837,-161.03080600636443,-128.95851451460643
-166.63693468287724,-259.01776637727687,-119.5952328587911,-219.67564731168977,-137.59590200683527,-95.58069990747315,-161.79857162504217,-129.81006082880245
-166.78704572590937,-259.40787598442506,-120.16688435866159,-219.86828730732492,-137.84020948899234,-95.7168374984593,-161.96337613376693,-129.925347874342
-166.11455949829488,-258.2845553799797,-119.92435874411561,-218.89999603839146,-137.29918188009052,-95.54393216619992,-161.3895543236762,-129.35488918311324
-166.39012484417057,-259.5357993342257,-121.8711665605586,-219.30034873304575,-138.43486234688825,-96.09875675192411,-162.00250455331252,-129.51599986638897
-169.8887737616606,-269.3596504668707,-132.46265357895203,-224.3192313274801,-145.65513196373763,-98.90171110718788,-166.44142970062128,-132.2024857341547
-177.30471354161767,-290.7561475148759,-155.9192248083858,-234.96540447795775,-161.40360447681135,-104.50361409629926,-175.6337221369148,-137.9572368221499
-185.92598956181666,-317.6416926672045,-187.0597363917499,-247.39964956945903,-181.6485458071549,-111.05732208561753,-186.50011978953071,-144.65931876766393
-189.5616082987962,-333.05200286571267,-207.84691081189075,-252.80538622711438,-194.12674451617056,-114.07383399707682,-191.63575612824675,-147.48165396939282
-180.998824186875,-315.0517197523011,-192.92794197249677,-240.87394627256273,-182.38755360670154,-108.12815926811166,-182.12685263462768,-140.80887870898306
-156.0271989982256,-248.93457635022827,-123.74604337047339,-205.5714971129093,-134.9438176061279,-89.93985018690562,-152.53198985713166,-121.35431093337728
-116.59904875700626,-138.51536103582993,-2.960092814753566,-149.72723745181196,-54.15274051415756,-60.95106528561282,-105.03548318024713,-90.59859496214614
-70.86841748070489,-8.210019234375762,141.64543233229975,-85.17025869943589,41.76860702452787,-27.494601238818692,-49.76284198274021,-54.83009760109428
-29.747282661898396,106.95435335572427,268.4110765527088,-27.820209384682318,126.14987850675725,1.8842853142262108,-0.5668196836561423,-22.53140071976449
-1.9072370657369444,178.0584027558425,342.31040407348445,9.563738672795722,176.78007686069796,20.46760122429984,31.389578303915673,-0.5849805482330878
9.82628738214968,195.636741046701,352.047889591236,22.741249745937836,186.45071858809993,26.347090823064644,42.44514765895086,8.49446860035596
8.729336215202776,171.8010362634911,313.25496400974635,16.5614400988428,164.80024067591037,22.665700505957577,36.977701217318526,6.867331935048768
1.3883912574231285,130.9119787831986,256.83702699561223,1.0572230042277995,131.06009602930814,15.281307768120566,23.893200289033267,-0.546053498911413
-5.996057281535492,95.90970075054015,211.37365861377177,-13.954012531054726,103.22361109235781,9.593502768860876,11.766770970900685,-8.678384347122794
-9.981562007697502,79.00513013431336,191.1581281018481,-22.554591809851154,90.62792341840957,8.44076284661997,5.586442300293158,-14.108440952720501
-10.160435205347168,80.59901766102969,195.2959107768683,-23.475266225639427,93.16682464283954,11.799270848781891,6.210189710896542,-15.551890392863912
-8.09683594647565,93.85477098199748,214.31408190923176,-18.834309629043542,105.07974250116114,17.695046151546716,11.60966853135253,-13.518128667646192
-6.043883171174714,109.91672559162319,237.05074374517895,-12.357363829067701,119.16197470995041,23.384957871149375,18.449732671504727,-9.701310775185982
-5.938685424848114,121.15360667202336,254.086313387425,-7.774092793193719,129.2121039188625,26.384673546160545,23.395365608377862,-6.233280634810857
-8.645081987183044,122.9631128653254,259.0557845160205,-7.424226615802705,131.28472598784367,25.35816570773414,24.26372178892441,-4.7612972179530875
-13.527767822540902,115.03519862221502,250.04715594632762,-11.316640703713526,124.70292711987202,20.7048873238537,20.90875068964421,-5.64844817780503
-18.684778263721622,101.44361126992716,230.59407890529906,-17.226272921302225,112.3800221565227,14.403600462750168,15.250228511529993,-7.840743282550469
-21.88840572735037,88.72073588441492,208.46919494086808,-21.96650901361286,99.57591568152303,8.998194243554032,10.180890361146936,-9.580726943709056
-21.696820498584913,82.83099608208144,192.5275289399414,-23.063950791355516,91.59163651854392,6.334360160551258,8.015960399811613,-9.480276775722482
-18.060522578071158,87.05963001160784,189.85154424828343,-19.811525350519695,91.97137363718807,6.88357163969198,9.517613274752264,-7.24387724019105
-12.255523401656827,101.46428781681087,204.17424340978965,-13.391831126886311,101.81475686162231,9.882736762103287,13.842376848687925,-3.756025680053591
-6.458105785465849,122.60535508968057,234.02624804539488,-6.475630657719351,119.19901166603385,13.806732902659437,18.930659530971905,-0.7270160250242328
-3.1528296543068777,142.78315979112813,269.7437848546819,-2.5361947011463415,138.07191386383812,16.72552833589928,21.938661626187915,-0.09433657738997833
-4.194733310730404,150.52370798015784,292.39665507881733,-4.568991823168882,148.16408817560406,16.70513841682596,20.01810954273805,-3.1414197782034767
-9.521454110690259,134.7723269958906,279.34400686571047,-13.141560458920605,138.30131899911467,12.637107206536045,11.830191220738996,-9.434629800533385
-16.2543753339642,92.06010499673405,216.49828706428443,-24.81607560095074,102.88406565827773,5.287968172110772,-0.7997732919163215,-16.212875454862008
-19.282170999066995,31.709949973532535,110.0025157874939,-32.6147881790902,47.427753945749934,-2.3452803652561847,-12.591237938543177,-19.05545897469729
-13.617470936581768,-26.124324854722033,-12.240084206524774,-29.14425816590573,-11.754596544149305,-6.119867524220981,-16.86981573712231,-13.942923904265985
2.649353488633268,-59.94881232561201,-112.51276384456891,-10.86276707843166,-54.88024744669062,-2.9334322282601035,-9.172306450747163,0.34330187696370873
26.760028571630563,-58.38498787027639,-162.18894160640852,19.308893143833966,-68.89089578727851,7.351519452193581,9.892179540995857,21.082200027060978
52.309833626738246,-26.11676537388849,-155.75106933369986,52.99430358465081,-54.007224926837914,21.61135181724086,34.57658962100567,42.65838495600976
72.4019035009646,19.505386828165552,-111.33046805099917,80.54974059170631,-22.543286725121778,35.08992805926167,56.936046195137294,59.2781767082796
83.00475457556648,58.685316096583385,-58.33695828175641,95.83998117500259,8.85498885064643,43.91729737615446,70.92643669099371,67.71733941901633
84.46640570686499,79.31413721728077,-21.080460426268257,98.66183679765092,28.13452130286746,46.885792973221385,75.05879211107701,68.45900213041271
80.44512353598883,80.8363596417047,-8.805409165766175,93.58729009156879,32.34293643777373,45.446965416851455,72.12009086035762,64.70147024349923
75.28093181095271,70.79043002345601,-16.53054748472841,86.48048239184563,25.98549561457691,42.223964230918405,66.6047201065846,60.13840491615977
71.70865839730693,58.13430326516686,-32.943736654035256,81.2837714360265,15.999562442371095,39.31394730259993,61.952363618650715,57.07262027312395
70.202144001108,48.501584291020805,-48.1798632328924,78.93473902374461,7.54991999754562,37.5134101685761,59.355327897039984,55.8878397792852
69.83875403797876,43.401733448517525,-57.27885495724335,78.37147829936015,2.6999493922521856,36.62711981890915,58.32839603133762,55.76467930494021
69.64877507989607,41.871496799239864,-59.92674008688008,78.27526369821372,1.167303043965769,36.22209280030903,57.99611366097326,55.796364941612
69.5149259246985,42.35913113750688,-58.76228675522565,78.29970213637588,1.5827637473775884,36.17368645505898,58.045450032085945,55.75133690753356
70.28671577617365,44.00897927146225,-57.16596682675648,79.33403940146252,2.6447728576214695,36.797491020998386,58.98459074663295,56.210483058710764
73.15851665930668,47.33041740624652,-56.667783647696005,82.83669525445433,4.132292275504802,38.62377965074926,61.76505049321779,58.11070757964338
78.50735473954572,53.74182859014391,-55.353890978851275,89.41854108181025,7.17287418263059,41.85597053871889,66.84235368276684,61.84224672189428
84.7052852245646,63.52389173755742,-49.26547235241465,97.26320005158168,12.995620480324275,45.67497468230006,72.9868103868847,66.29810839672453
87.84635464928635,73.44910648703572,-36.37114715957609,101.60515231970147,20.81111901094093,47.92677215966174,76.74397877242937,68.60886089425944
83.17115299262532,76.91565175734371,-19.329992489006877,96.38729620672682,27.084811940626214,45.836783205534964,73.56249011389441,65.17966393330953
67.85638027838496,68.10076509495718,-3.3784487822874025,77.79409346998672,27.89425485981594,37.74305325885155,60.54770454314469,53.79049988149266
43.48226351526081,47.799014918718605,9.773700442592405,47.518329436643945,23.138402329018067,24.796522470739543,39.178160150367376,35.48256104730742
16.200009964336783,25.900406944939125,26.459520269458842,13.140750279116544,18.87159202857772,11.16306787925699,15.711626218578768,14.72978019441446
-6.046794717240095,17.02002601290616,58.49391506250328,-15.31201323461562,24.706465431018998,2.089348014147505,-1.6962997754786284,-2.600500991648883
-17.78629681290702,30.855730766292375,113.36789939778245,-30.807451040277133,46.893896145636106,0.76558442377174,-7.734188759593772,-12.412022331178314
-19.019131705295628,63.543867696382634,183.51401301217743,-33.19604457971373,81.54600351672362,6.0318236858742065,-3.4361139151480176,-14.621146736455685
-14.819368954600527,96.8579599027594,243.5704114978341,-28.746332930062735,113.48417355931376,12.698195931630083,4.211190587366909,-12.87998548666648
-11.65182524008194,107.49467494524518,260.5451476588853,-25.43215034126434,123.10561687092662,14.60660283043299,6.712237515208964,-11.8555469169057
-12.879994502652917,81.5003105690961,212.73181055507817,-27.171025717069796,98.00526400804732,8.594393249370917,-0.2179678730326745,-13.898518688367622
-16.598092690303364,24.327051463825068,105.45382834428776,-31.11049780061956,41.8806905303748,-3.3019014617625473,-13.591216166599262,-17.44479638434723
-17.25631071409271,-40.79249058330003,-27.875432480936297,-29.884492033824085,-25.749099685115805,-14.965646632825763,-24.944156635985838,-18.261989248403772
-9.79887054991891,-85.56390145769996,-141.4540155834255,-17.11968863747784,-79.43019768416168,-19.909658718269164,-25.76779331328217,-12.582729558570719
6.666957502122736,-92.24265132601163,-200.16843592942453,7.786601582725736,-101.12006104903446,-15.096782769248264,-12.846174914019219,0.1334001481726957
28.10406314462021,-62.32932287138849,-195.90357668862674,38.83843756491257,-88.72883884458251,-2.464755469753067,9.940519367475126,16.6595227395493
47.93312441702468,-13.664859924252587,-147.95936727763493,66.83679037300888,-55.16038122693367,12.562694438880456,34.17997219883199,31.86748203359474
60.72549359344625,31.026559414964154,-89.0564574380898,84.44570968370934,-19.492766685929187,24.319280079226985,51.80126698888105,41.573394468435446
64.7509015259135,56.17088066006364,-47.065488396300736,89.5915005158008,3.4307204450915716,29.71676973422432,59.00927923200535,44.47928116358644
62.04951333955424,58.88265904363845,-33.6258061425232,85.4153484393425,8.751602187212526,29.090325751703702,57.13663100977797,42.19865612963881
56.53278671466416,46.42808064351265,-44.26260431827446,77.53034164684277,0.6157049436544821,25.061571028349956,50.627333835858195,37.77102238852945
51.734941055678725,29.503062873476484,-66.26549759971685,70.86605217201618,-12.877000103832307,20.64103957658413,44.10658579007266,33.92378535104766
49.544847693748,16.53603150951875,-87.11870075614787,67.951137040504,-24.524834047024424,17.85936618814643,40.43920457132098,32.10249675452914
50.135057651984866,11.417146228701732,-99.09825482035673,68.90155117708271,-30.36808496934821,17.375792749977926,40.3282447965361,32.42619661433975
52.52476413926863,13.791581150797775,-100.26042708415137,72.27599054069825,-29.90901417870496,18.735761438953116,42.85460644650092,34.12749381943414
55.26122978773691,20.327603681524394,-93.6558816250887,76.04372909280268,-25.383708292547404,20.84677837468116,46.27052735569567,36.08077557424005
57.07865692976854,26.503422571009345,-85.3285857038791,78.47570087589905,-20.43859492009865,22.528501706945068,48.83542253602505,37.311996683952735
57.45167434043688,28.880035286277188,-81.02210284466771,78.88072220075648,-18.21134278566415,23.072594804895115,49.611107256755986,37.424977124208866
56.767176862191164,26.874970389930112,-82.96431488994115,77.82885852907263,-19.634037039444912,22.55666986410416,48.85258401955684,36.729043899689856
55.9233154121637,22.617971975653415,-89.13970474549077,76.59136530062902,-23.25993371575304,21.650757338452912,47.640991980833526,35.922563202243204
55.63439479402259,18.910792238032286,-95.67647733623949,76.16898294832957,-26.79733599401455,21.045581838798412,46.9973255980461,35.55292263555084
56.02462790349265,17.175598703142434,-99.97847898623084,76.7197129970303,-28.88097917122466,21.00022507091229,47.23544645934136,35.70573555416446
56.7852723126036,17.148437227967243,-101.74889573910698,77.7823873621117,-29.512995652111307,21.357964272565905,48.04317204739343,36.13238256167401
57.57872130422453,17.992700455311976,-101.7828406938495,78.85924642216911,-29.260387851722474,21.859110756504023,48.98910881962676,36.56700868449042
58.21486260150791,19.086713181646935,-100.85133448203531,79.67966179018103,-28.60473408027088,22.325593294117812,49.805389844762374,36.86510295178902
58.55073296070338,19.706928453473576,-100.09399885322898,80.0594566201739,-28.184489273888694,22.590661897587225,50.27734653756522,36.9270046231027
58.46031816261685,18.69237470623545,-101.58912844838014,79.84367560594872,-29.09761852960573,22.45162133968393,50.16976687878996,36.67332783303373
58.04769939280262,15.27571984227924,-107.17261246926583,79.19370180486631,-32.21053416328597,21.866501222167923,49.503820490537166,36.20264391113982
57.80497367605919,10.434138227474936,-116.0978172291957,78.80978363362071,-36.90997382325061,21.186860153410056,48.85567896573924,35.90050984876023
58.34858393398018,6.922739107005403,-124.32493084214909,79.56388974269942,-40.873284444573756,21.040375329792994,49.121200020791356,36.224257739233714
59.858170526037306,7.389072413168924,-126.93446254084077,81.70283433008535,-41.550153293806225,21.84215053443455,50.77150634298744,37.27062048617134
61.76661422165216,12.155337583311946,-121.82395248585806,84.39878088223988,-38.167888561133246,23.373736195104275,53.29068618887607,38.555241952963485
63.044345945725325,18.64372449699426,-111.58270360415172,86.15284490623998,-32.532744399976814,24.833482394834203,55.370890578912196,39.262249766923794
62.8383139586194,22.670387898941094,-102.51067216426357,85.72600453080896,-28.22146131031456,25.289820166666356,55.690790486335146,38.76281315473988
60.977285979121255,20.336243798838673,-102.10423551448578,82.8901064537603,-29.067056043382877,24.163491662909852,53.65609333724154,37.00853648527013
58.144255452958234,9.691649245052574,-116.1218359831994,78.68347412620301,-37.60308915987192,21.533411270080368,49.771291152131994,34.63557400691846
55.81571140827414,-7.571867641504789,-144.9498048934291,75.2948316439156,-53.28269620435187,18.32235900161925,45.73590626751805,32.85918526472734
55.935977753067505,-24.670636634929046,-179.7703946196393,75.54480962559713,-70.73338966873844,16.3076987421396,44.227285576498616,33.155021138566376
60.06499533674095,-30.46226982971576,-201.86389131488622,81.62460660631127,-79.83278062376293,17.610025275435472,47.95186130401985,36.56352087890903
68.04757758236481,-14.202604720513168,-188.9076788278627,93.18323821693548,-69.51005702245996,23.47273243716379,57.832812662545024,42.69563995068196
77.02501135460156,27.08496220850994,-127.46524851781265,105.94023187123585,-34.469380808592405,32.89232168046102,71.27317430533775,49.0890306706011
81.92929075786363,83.67525241603215,-24.305039490578242,112.45141687705974,19.404561983942063,42.24952569039665,82.14389862528148,51.759423037614624
77.77940410827853,135.50095580104937,92.4815494598919,105.48101447218419,75.63484254780236,46.69502202462049,83.3495593315697,47.109310322501926
62.63280567069248,161.8366179769656,185.53607999157737,82.31941781889918,114.65513118087823,42.768790115512495,70.85628860119974,34.214275366354805
39.228783570543754,152.64602046034628,227.0211356562568,47.190865928751535,124.02408081289306,30.62518748802542,46.59314838866871,15.926230599150708
14.015922352236467,114.13907637422817,212.42748684089716,9.828557054919466,104.82755381309975,14.28155177382717,18.04651707987394,-2.1701944007736405
-6.022563588124325,64.77186918468898,160.74769615485144,-19.204776165897396,70.13669990122045,-0.4396415118398515,-5.5003276373716155,-14.50071236397129
-16.801077913133664,24.463913500288868,101.6442089834675,-33.62601837677353,36.81542622423149,-9.024238084091325,-17.80124136314527,-18.29494399243413
-18.68180193803353,4.382434445264795,58.94513948353511,-33.82976699560198,16.44635354071947,-10.432356096077966,-18.48067941639004,-14.692033938740268
-15.343288688238339,3.6947125533821854,41.267892922936674,-25.354043593111655,11.216615750248184,-7.0055862618276805,-12.211712235328466,-7.565771623502347
-11.055593045934641,13.95957185718066,43.81169571893136,-14.928354196118791,16.25915125011022,-2.4579734288751496,-5.1953659825935965,-1.0367761481773876
-8.391898369382009,26.249099957643427,56.56035881271961,-7.019757864307557,25.027702548732826,0.4176599700521675,-1.6290955644896945,2.590820473983119
-7.704708678721878,35.393011954706395,71.05391009670319,-2.839167815353718,33.05383893107403,0.8030325552491455,-2.3578139192337924,3.3119325025596025
-8.12851412036902,39.740890402099524,82.06470837867893,-1.556135533897343,38.307954983051225,-0.6154754668396415,-5.860904122085759,2.4785639245236757
-8.884349954297823,38.93100905046982,86.25375031306108,-2.0522670657867974,39.79745108621979,-2.781261333277411,-10.107664448217145,1.4650365178596425
-9.890674079791959,32.62095639091789,81.31867343233488,-3.8371908853714336,36.698114433602555,-5.062509669770896,-13.803900275563537,0.8591716995337656
-11.515369939042795,20.869572862060974,66.58131608305631,-6.886566420674173,28.646529023309327,-7.323215874142803,-16.573273944824795,0.4441062369204238
-13.847702506226462,5.212468522810263,43.926480989549184,-10.87387505279039,16.517162765146416,-9.47008419880632,-18.401531590196484,-0.2522344276341685
-15.977163731825398,-10.35031146959899,18.53730226846212,-14.363154271717388,3.1832965532183786,-10.868577747049462,-18.832363472806914,-1.223771876586036
-15.821107109242151,-18.97784253080527,-0.5263587803236884,-14.6036494473314,-6.003349137820458,-10.067770781831765,-16.46876915417462,-1.5551281743252248
-11.059243680955905,-12.546505994354522,-1.3575482855010315,-8.677919378267113,-4.065061508405206,-5.3171898790203915,-9.509813492994644,0.16740301161700943
-1.218347953263856,13.446945749711846,25.479859360886177,3.833557022162855,13.99305787697004,3.9342986783383247,2.293090206939247,4.442833895559871
10.186532151905965,52.93530143706944,77.54804469632397,18.030649145035603,45.41198198313268,15.2275765188402,15.158073645658886,9.18889213760863
15.379797968588695,85.51280731734423,133.19015076795142,23.297516616448213,75.766885292845,22.486619078596508,20.471098072558462,9.301175561140337
5.201142532735833,81.62427792820982,154.91703222882012,7.153646465365858,81.93825614381988,17.9155250272241,7.557757846635078,-1.4728010895397232
-25.708987268229777,17.22570518124098,106.53447171240909,-37.679518516991244,43.138762047321585,-3.887024983456342,-30.412419504662775,-26.829300248043314
-74.32272678881039,-109.3266841884409,-23.703713809630397,-106.92972438575829,-45.23869693890906,-41.77573304573818,-90.59282114149313,-64.48461712587564
-128.41421824254175,-269.21687370996943,-208.622182377908,-183.55825828496387,-163.87466659895998,-86.66325836836295,-158.75079357501906,-105.44897609779282
-170.739677027379,-411.1705121689087,-387.95083815393264,-243.4631227969472,-274.34759617819896,-124.33840608778866,-213.71876766312954,-137.0066012149912
-186.45253086545927,-483.3617967798119,-494.27389267736754,-265.7711669294472,-335.6545930933762,-141.47208544647646,-236.36863409576392,-148.17314439973612
-169.93387921411332,-458.1484462242853,-486.0053614308705,-242.44216728276416,-324.05391559961015,-131.76567282159328,-218.52850911347196,-134.79333023480382
-127.37456172232952,-345.93371133876417,-368.7831851033154,-182.01843697326981,-245.1234005571888,-98.93294664553824,-166.96615943962138,-101.5011208947023
-73.753068782472,-190.1556460043307,-192.66663401970078,-105.51138470632748,-131.0096550183718,-54.89815665081897,-100.1952982856312,-59.48253604827773
-25.926921768446867,-46.17008686252209,-26.68090880139358,-36.73633164654927,-24.410893623152027,-14.233517642622383,-39.86475982081403,-21.317949237296578
4.436660675200867,44.08752767673984,74.48323851824249,7.692269065852883,41.527367914483726,12.142056996844387,-1.4275023256259955,4.27694218392696
14.555756468158506,67.99543503692553,92.97258332184607,23.672809737627123,56.35246094942974,20.788118265983684,11.097939546432668,15.140632549790276
9.494302101568321,41.44512376472979,48.4918858689478,18.22960141856384,32.27143851859503,15.513182690248096,4.136544397195064,14.798301717979273
-2.210354711021789,-5.630975446421285,-19.987342668771564,3.3460019146940945,-7.0591892453374925,3.8976060133781587,-11.089004704875041,9.167294017106054
-13.242970743306394,-46.928640815167434,-77.94240432314886,-10.724221154958515,-40.708212378927776,-6.9906577795017,-24.915444731429634,3.1483599501614896
-19.99634420688384,-70.18554589760137,-109.85559205899919,-19.029249156369012,-59.07271424912561,-13.318882458617772,-32.762604010660574,-1.035365644397444
-22.281097784352827,-76.63797630866091,-118.71170454999397,-21.515746203746108,-63.616003761110186,-14.77327081705312,-34.838998840531396,-3.4444557114537258
-21.50791337931195,-73.58970505723433,-115.53850877784801,-20.404883424253946,-60.812418338734574,-13.152063064544498,-33.60890181990309,-5.0137324295573755
-19.023798246113333,-67.15049669431635,-108.94343996146986,-17.764584000955125,-56.03962033501489,-10.641874334230295,-31.3569412405102,-6.390261459622996
-15.49485702911249,-59.51613142012563,-101.19757120719905,-14.583278988120695,-51.14100655088846,-8.727640354350797,-29.173050958657903,-7.597761192006172
-11.263843786448627,-50.6836995915298,-90.90067646722272,-11.253265371026218,-45.72110798884707,-7.986237490032155,-27.315416851408518,-8.382895132519941
-7.144661585146379,-42.04930552711639,-78.50204399227212,-8.689178575956506,-40.16249329452267,-8.58961173618509,-26.247506064992205,-8.829013334811917
-4.995833625483675,-39.15993953818778,-70.75720923165679,-9.150819361131575,-38.169555460900334,-11.08155138150544,-27.53368519865281,-9.80660159900653
-7.37473685297685,-51.254444692137156,-80.86998247753809,-15.80433569358778,-46.87885954253916,-16.702744119152438,-33.722019736338105,-12.799090505384111
-15.87420704605994,-86.00229708025724,-121.88339274174578,-30.467281111337275,-73.03440897693154,-26.55375670639145,-46.57526534033464,-18.80161349683727
-28.716853698824224,-140.56334412839783,-194.13744206547315,-50.31869327687293,-115.77390514369701,-39.67210717846861,-64.10697461106913,-26.651419787960226
-39.34416648268684,-194.4015911035339,-273.66412966747623,-65.9749585318125,-160.18778378043302,-51.35333910442844,-78.46069566627001,-31.99923842791792
-37.87270878523841,-211.32778888865002,-312.26994817262926,-63.54644402107514,-177.9110098094121,-53.598129606801734,-77.18902757529366,-28.267567945216886
-15.719361183002743,-154.21053352492245,-255.70275071313634,-31.115174925843526,-138.17499666488808,-38.50054727053177,-48.76997070686606,-9.83418176955362
28.716645599103586,-6.941127756854606,-74.20657577448122,33.31360914256044,-25.586893953632735,-3.193579023199912,9.964812994192416,24.051822134117057
86.81621209269704,208.96045182257194,211.48900710631065,117.30376160732834,145.4165659350569,46.66696440313923,88.99879806876245,67.09533908879447
141.54106395471055,435.02630729498185,526.6220440138053,196.5779485293198,329.589670373803,97.52647709954189,166.64553955387746,107.3124230735788
174.0682298835766,596.6602751448543,767.7297293340414,244.413218637591,466.53371032590064,133.0034616878772,217.66786918776475,131.69526898446574
172.12182863226295,635.0727042197431,846.4705599021424,243.40873127658386,506.38219802960464,141.02150008307925,224.25021184905845,131.91733607123635
135.66313574359154,534.1307984125426,729.9297179355697,193.4971858392853,432.53666871313425,119.25423151029676,184.12724337651514,108.06497419480282
76.91244144263905,327.97527639986953,456.22359445874616,111.93709396989915,269.48753879339154,76.00608007659073,111.54946603443932,68.42542425768231
14.742752661106925,85.44630689908871,117.1984796569991,25.365627056276512,71.64788644808142,26.186804249517632,30.656386716309992,25.55324559873322
-33.522479102366304,-120.2846360192233,-182.40867601261644,-41.78361083433254,-100.73554462839108,-15.332279529006161,-35.1131510174202,-9.17511229961375
-58.70255229856057,-241.17180794954209,-368.07608874759813,-76.55699813691581,-206.07610725551496,-39.51406123857682,-72.100980750953,-29.700407506451793
-61.77687083899067,-268.8899173448316,-420.03713491027474,-80.28836478583402,-234.63183667636918,-45.47617301884134,-79.8496862594159,-36.32357655452791
-51.12660873695279,-229.91264789891255,-370.3198889187505,-64.69944153939373,-205.85613542014866,-38.88836314942265,-68.20131951967684,-33.77233037950772
-37.30794319695125,-167.19328101914132,-278.8679125002802,-44.584929805679664,-154.2357790311379,-28.087703683621413,-50.79626607232732,-27.95669630893268
-28.389685051044673,-120.02808155610583,-204.5445650051945,-31.354486601221986,-112.82524855724135,-20.287869279102928,-38.89379927182062,-23.337833055929732
-27.67695018027133,-111.1239943640117,-184.70176967590092,-29.930827099494447,-102.05661959779391,-19.412751046877418,-38.04073168311359,-21.85739577774606
-33.79105850185239,-142.8491489419302,-227.4500893910238,-38.85073273483667,-125.82317941852247,-25.632466825274946,-47.68752206672436,-23.14099818894753
-42.106046124071995,-199.64291809834967,-313.0991048886863,-52.088927502574336,-172.6378087375978,-35.90923170850555,-62.49522522908578,-25.220739668872056
-46.77673802891395,-253.7876623324873,-400.99502542510754,-61.58708973447428,-219.73696783363903,-45.1301050835118,-74.43375597650353,-25.41433326175471
-43.077031405170544,-274.2971464596988,-441.7609719472986,-60.28932513054906,-240.14063765983062,-47.890831116236065,-75.59793957977679,-21.44346243299243
-29.600630382261397,-238.651296878729,-395.2720411790749,-45.265946493608205,-212.70752766985024,-40.7845203134091,-61.506598781316164,-12.692144493753792
-9.32789777965478,-143.7035688928329,-249.39619726702125,-19.57831883343278,-132.20940977953012,-24.27666409977003,-33.61594287740857,-0.9605873822940133
11.367928650694195,-9.498091088014368,-29.446399200576916,8.594937274149569,-13.846442709049358,-2.9199826876626567,0.6672908241532536,10.015841102173454
25.62021145770195,127.94035841628529,209.55102442244095,29.656952882507305,111.80638365031041,16.57250287795295,31.068123370108534,16.302156018833745
29.39038869067979,232.2863900943532,406.0208435729424,37.25638993335438,211.92544504728596,28.492996080265854,49.20725205441111,15.821928623547857
23.287949372089106,282.75327067808183,518.5358458099445,31.20573035332506,265.7656541364176,30.743396876270754,52.36414669300212,9.454403994499756
11.841984125968409,281.31175332042517,541.337613815359,16.957930089248563,272.25440236343155,25.390190531387766,44.087464624574075,0.46094296797360335
0.7850782593411636,247.896755253198,500.8989856988965,2.146877275025046,247.12690275595858,16.998668782109494,31.50850384651594,-7.370400419998364
-5.872433505662004,207.7281279614628,437.65518391129893,-7.468864687533648,212.45089587551857,9.973386539402396,21.285582132676193,-11.639865530276499
-7.247828346153266,179.12721454910866,385.3912132728827,-10.188070768081127,185.61146744515548,6.60650882811327,16.740905665605272,-12.143697571369312
-4.992219040198774,168.2833275108226,359.7761072721775,-7.829206354966285,173.77896320257355,6.773994548934893,17.52857264818907,-10.307320595668457
-1.6211336806103416,171.48496224050695,359.07100855919657,-3.6016839949433477,174.98701476358275,8.927914769084508,21.21652974284467,-7.956729950165124
0.8953983601574663,180.69590713595267,371.9222404317208,-0.19222502399621957,182.66611340805284,11.32722270875487,25.157892707721967,-6.380703206444107
1.6520617722244917,188.285751781359,385.45484925329896,1.0179166974487375,189.93733961420165,12.762703978999136,27.559251295741067,-6.0751634788460205
0.6922235764039149,189.5715125817814,390.4754818548756,-0.1028959448435605,192.1790504797883,12.758396252942767,27.757425572594,-6.9117740321636285
-1.2829398374862322,183.76234306975442,383.92890678055426,-2.7394544559109235,188.1457573188517,11.53883401349928,26.148868285078958,-8.366537787227664
-3.2715203923946516,173.59780085549477,368.9569645724098,-5.561940720216797,179.8536674394267,9.842329909685061,23.883685051310458,-9.750694096934483
-4.4640559835197795,163.41951964970522,352.22516674953994,-7.406606352556008,171.02022659668108,8.502085458580531,22.21321453224687,-10.532733649547191
-4.685189961839309,156.3681455111784,339.4482429726528,-7.939635348121148,164.60772079534476,7.94116002340884,21.73329404247461,-10.63425827243988
-4.402073443704806,152.68754678184334,332.11807302473477,-7.734957610264354,161.16338437468804,7.97532824766328,22.121326512077275,-10.420313606738295
-4.238413449397007,150.49168087976017,327.9306655676518,-7.6340614292584785,159.24998789204207,8.11380121443925,22.624773927417984,-10.338129131521347
-4.4531805339690544,147.99367864109422,323.9799935722632,-8.010900936258272,157.29094564925495,8.044159556159668,22.795911400998705,-10.54518857834344
-4.8802080627615245,144.84225206527776,319.2308177728356,-8.657991167472675,154.84353962709193,7.809036763338692,22.73180802043368,-10.888723940408436
-5.286773392554836,141.5364823530748,314.1681034558769,-9.269066599210174,152.2575704799256,7.573592694360212,22.698317487054,-11.18958465156072
-5.660353596956633,138.19537067326794,309.0180329274215,-9.841140354083569,149.6477071693382,7.353047093204583,22.715942313992702,-11.452856585947739
-6.119693247769738,134.37128742560319,303.16522222629465,-10.554117958018583,146.6430672859782,7.034879754879109,22.601603459029732,-11.78373011886437
-6.674548171452435,129.84956376550343,296.16842516170385,-11.428607382805845,143.0130943045472,6.586950851670359,22.28331250014807,-12.193426669038475
-7.210010852251648,125.02333106390414,288.4728297035507,-12.296442820309464,139.03568700737043,6.1126926808378075,21.881330334641813,-12.587381716326147
-7.683636947628718,120.27155169920972,280.6746222368316,-13.081831174820783,135.03453391312993,5.686708508135219,21.47689249187028,-12.922637242630863
-8.185344225284384,115.42537904164993,272.655165390605,-13.899260406207604,130.91213493342465,5.2557042112792045,20.999379355012966,-13.261582844045707
-8.718825445321768,110.37122425105719,264.28844132228437,-14.751976535199676,126.60517279952306,4.798080361087346,20.489371552730734,-13.611884952109934
-9.022416437742002,106.0589255780133,256.98396693142286,-15.27027645939279,122.94496334066831,4.5215645105247315,20.369015392325405,-13.793218642561218
-8.77926323522642,104.2089878118812,253.5162143859138,-14.997286205063254,121.47531770443263,4.744246478804001,21.190785202303886,-13.59250757597448
-8.06869624940548,105.44285869971992,255.29503537077863,-14.033211767385195,122.86817207710055,5.4888316916880004,22.95783925084244,-13.090859635865426
-7.526941090212585,107.71684636327895,259.60506373707574,-13.284440125218387,125.45725419254829,6.241416075504942,24.745444787094765,-12.763167939182253
-7.945297964751538,107.01562364090164,260.07673356258744,-13.907136660338628,125.66208011608417,6.2176665011660335,25.15542954340192,-13.16093000116685
-9.63586265347249,100.04407405671283,250.64711364556257,-16.391990425724085,120.28066787320637,4.95070465423757,23.30693351679643,-14.446175026923903
-12.110175859762768,86.78056919788624,230.03333428678147,-20.07220722047075,108.89584081862111,2.7039457341900426,19.582131298811948,-16.190996096047176
-14.25181203466919,71.1963484184893,203.7176708564042,-23.341445169244576,94.79543190444733,0.4387876548315498,15.669022209431628,-17.55842109811631
-14.763090981594416,60.10591643475614,182.7442394238163,-24.289947389083725,84.15444053137995,-0.5456589715915142,14.002651953005518,-17.665805445640864
-12.700716997303081,60.71868989705222,179.9169303896152,-21.49202025146016,83.86492736940033,0.875170033530502,16.80466021782701,-15.966042987625697
-8.128725402976668,76.93812074820919,203.5633777172696,-14.971523761921896,98.08777288203666,4.991242948988496,24.74788756238396,-12.664025124601853
-2.758154286859168,104.87620397252161,249.66526265337887,-7.15194493299932,123.99287320816448,10.54594688983514,35.543444667343444,-9.09008181480973
0.021640749189630507,130.14468689650667,296.3252995563896,-2.9344335680573663,148.96537440129563,14.493312839529956,43.46574456481182,-7.624939654591012
-3.659547025198513,130.7199974376157,306.87534759474056,-7.991948944993553,152.74255977449286,12.892204305391234,40.98338116129718,-10.766899623238706
-15.9556834697304,86.6048593150664,244.5998577054662,-25.570766758554885,115.8714209293817,2.9425872270042914,22.46064176247339,-19.56272880211277
-35.435710788300355,-7.999114019558006,93.42980721585513,-53.694407205869354,31.01799222744281,-14.923069117754942,-11.977585284278883,-32.403253706159326
-57.070998431344194,-137.9690062235157,-128.03347918260206,-85.01913518125254,-89.96520406100737,-36.44832071505135,-55.13441987342753,-45.26299711152999
-74.48570328423011,-271.77075312063585,-370.0751676133942,-110.02905507592985,-218.91486776078665,-55.23103001470637,-95.41269930014096,-53.570395249537796
-83.23985418677904,-375.84128618587,-573.3166384564887,-121.87805981525021,-323.762692995451,-65.89135416018587,-122.28059308624127,-54.681884390481585
-83.06349615745705,-430.5688315557595,-696.2833421952337,-119.8548968975464,-383.5458989992868,-66.81891445034724,-131.32900625161486,-49.37453669947842
-77.5909977972028,-438.1555253541094,-732.7256102185856,-109.24057358248449,-397.0534799490048,-60.76458191301723,-125.84927445356576,-41.340192645480855
-71.84365938570863,-417.9839210649075,-708.9526604027251,-97.74315039524359,-380.26938082819163,-52.95306555066707,-114.1257810226158,-34.992695013778274
-69.24348650327809,-393.4897601586038,-664.7254404356672,-91.00209186224193,-355.22206580808734,-48.04223352274694,-104.44395215015655,-33.04062654496598
-70.13537495509979,-379.69755404762964,-631.3481428734955,-90.1038660175086,-338.08661330039024,-47.91014431488335,-101.08427207863664,-35.360753948941976
-72.51541770756822,-378.71316548101623,-620.1296032734393,-92.32544149073642,-333.59046996492714,-51.43943981939895,-103.43246346301288,-39.670790629115835
-74.03639707737219,-383.7732401168781,-624.9609213243414,-93.95195501024793,-337.2490396924503,-55.960664204440185,-107.93381677368644,-43.23835080189528
-73.74199387693571,-386.9699837596037,-633.1945975182474,-92.97190592279487,-341.78607763067436,-59.10643529595575,-111.01693525752567,-44.41142696982696
-72.61653991029998,-385.3145996247332,-636.3874616749024,-90.21178122612866,-342.99935432976866,-60.044705071180836,-111.24251199626042,-43.2631162257228
-72.98203000714754,-382.7052926090188,-635.8407592056222,-88.7743130237873,-342.44041718555746,-59.76884679619971,-109.94646282499993,-41.34662846360776
-77.14925160714402,-387.6940459143299,-641.6086322226475,-92.23318832069636,-346.3554319513862,-60.49198787770014,-110.31865442563254,-40.79637875712064
-85.6971627145326,-407.64311854550664,-665.2392883033729,-102.08129457091698,-361.172798973152,-64.22742861310468,-115.11860346146155,-42.97006502678964
-95.98443914783898,-441.0496692987823,-708.4321798344971,-115.33799461109437,-386.9495115369871,-70.94190268530957,-123.82709007038346,-47.05791092847015
-101.9571135269753,-472.3575461862185,-753.6892167847109,-123.9370187131175,-412.39662195173565,-77.33076705826711,-130.96842675868277,-49.539644032989756
-96.13342464325275,-474.56250773567547,-765.2394668340231,-117.29064789071668,-416.1331397821587,-77.46612706512695,-127.41849422771716,-45.313372258828544
-73.32455869593768,-421.1043556317742,-703.9527341947244,-87.52724605671595,-375.8846293497318,-65.58158586074403,-104.83982656535302,-30.321914075219684
-34.03925005845352,-301.42176612972423,-549.7489853851745,-34.524849362191596,-281.4167824525357,-39.57369420969589,-60.88043906763372,-4.2055051264435095
14.823208738572111,-130.1533896626155,-317.4105383170515,32.74473381608468,-142.96581344243535,-2.890013904444171,-1.6365432728537836,28.866392943866437
62.81821247078271,57.01552740097203,-54.25904046828627,99.90665244165345,11.089328459506623,36.66642302707994,60.586919322084924,61.94572368893612
100.72752471509746,219.05189522485128,180.0859409325142,153.7909877203674,146.52436275903548,70.58002996455245,112.96472597190481,88.59453649894883
124.22379994648,327.0836093897217,339.5286041687772,187.72843659938582,237.96151275021413,93.34638705337107,147.60375941340067,105.5467162971226
134.15867622177186,373.00826474714603,407.1902304335963,202.2530006684159,276.99369873207894,103.91271512915975,163.33248309972745,113.04951668263219
133.66664555407374,365.19384366715786,393.00129038185446,201.32367114665055,269.77276216407904,104.22296138922916,163.18780059845466,112.94436305790725
124.59824203602052,316.55688631170335,318.15199835846283,187.46455056141568,227.66026444851192,96.40834434085937,150.1457361459176,106.24457025088277
106.1556764586192,235.068535786116,199.69221186389046,159.81930817889352,158.9083640462844,81.0244240953088,124.7241987775789,92.25333957514081
76.69717732367164,123.43065063357379,46.17714340437852,116.52918100067912,67.2782417494019,57.64268873043265,86.22749494860011,69.89530543775693
37.06285153560647,-13.59568504005361,-135.1380037577706,59.21532238633669,-42.90153500771811,27.029544231151682,36.22027872294895,40.05559084133542
-7.428643929818833,-161.8959030897681,-328.3718252609182,-4.356188472551061,-160.94982857816072,-7.158807094333792,-19.01661184651161,6.8851870322093935
-48.097957183153696,-297.8685803057926,-506.3263638285362,-61.89575772822232,-269.1036253228374,-38.78665897561597,-69.41716859158689,-23.15453684427939
-76.57508698643309,-396.58552600219497,-638.4027776373408,-101.71962611236397,-348.2311687334098,-61.68533215436953,-105.15445350324026,-44.02539561870998
-88.65531782885512,-443.04270509680987,-704.1073480751254,-118.10579587395699,-386.3533589219189,-72.52439067759958,-121.1658250412271,-52.87040992230528
-85.94216472823584,-439.1286333771801,-703.0378026180123,-113.54468868799258,-384.3051411845451,-72.21784408420443,-119.26829477725082,-51.078309856170655
-74.49086310585949,-402.1120189048407,-654.9603566196917,-96.79056909971358,-355.0142955989788,-65.08285925950672,-106.70341878914368,-43.15750492776422
-61.63029827932724,-356.3337393842859,-590.7489714625226,-78.36411656911952,-317.395310628651,-56.54477008189018,-92.36935285964869,-34.3642902334969
-52.977228834029034,-323.6522931120687,-540.5702029602807,-66.3380443330936,-289.0443454144345,-50.949728881922525,-83.1969659716894,-28.596102783914734
-50.92319034264803,-317.1393973579274,-525.1375575552681,-64.20993451881525,-281.2510839536303,-50.4759273148558,-82.31492423757456,-27.44351173197187
-54.54510769393631,-338.49433350284545,-550.8783693211458,-70.77879392444152,-296.6691537476258,-54.989770191560936,-88.91268786306038,-30.26430175940698
-60.294254471875504,-377.4314323751966,-606.9347183031774,-81.0863214373624,-328.2187307616245,-62.220899290719096,-98.87183174492975,-34.721032562208805
-63.200450329378455,-412.94914192148184,-664.4834455438606,-88.0428479622644,-359.28780841452107,-68.15425510496752,-105.83264166203074,-37.57248023082209
-58.725044645640054,-418.7309321803985,-682.7100812145801,-84.9693391412238,-367.47951018617135,-68.13326263437605,-103.14604168721088,-35.86327098177455
-44.972330626623126,-373.58287632422815,-624.101907736361,-68.7222763936407,-333.17621451862726,-58.84784999933115,-86.76027429920067,-28.37043292304911
-24.134320949087567,-272.960494450545,-473.9572372214835,-41.85866862994806,-249.92078451703404,-40.34534945626585,-57.7787291927469,-16.55240155723761
-1.9535887762345363,-134.2809420144505,-252.4332583933446,-12.085733797923174,-130.23822042310078,-16.630155499481535,-22.803097116620886,-4.163614770278964
14.89562634928447,8.877452275989613,-9.525184280223264,11.258925950280018,-2.013758467522306,5.899774337329918,8.737644944400596,4.526080002178993
22.114896359001108,121.5864642081055,196.2594922869086,21.841540090556574,103.61061799809764,21.458420388594575,29.010801024835263,6.937780294341042
19.784417076659985,183.12357945392762,323.901410964245,19.295400711913075,166.13351916541612,27.54478354132491,35.36434671174876,3.453069079984567
11.883409657060476,194.40751476978562,365.75292572244393,8.771346715143833,183.44939361324433,25.70853323579053,30.965917658752566,-3.0274113915199226
3.7882099789661963,173.82701318910247,345.285828533849,-2.4083303286316506,169.63079029592586,20.124262775567924,22.34482230337728,-8.867966496941278
-0.5268878916242637,145.39806254828255,300.3934894434538,-8.652030588607724,145.34020249599683,15.11049518065907,15.675033678433751,-11.595504884257089
0.11077553921642702,127.27554883109056,264.08483404208783,-8.157635804572047,127.55581618793387,13.229918281947066,14.191144356313577,-10.745309433842609
4.53315849925516,126.68366946668378,253.4232060472387,-2.3934679835522137,124.25435706370696,14.87722842013059,17.90641705355921,-7.399423790286973
10.661655942095736,141.61236450432554,269.463539738169,5.828457333183477,135.02596752505113,19.030548325088358,24.964234766385623,-3.1162166096687347
16.67250460497623,165.3670013946493,303.38641788065854,13.97688286981908,154.65745617459334,24.21093004364812,33.1187193670315,0.8608144620326332
21.394559401255446,190.28255493197506,342.79968396539607,20.390072191324823,176.44476310601274,29.04019031183213,40.47699323232996,3.8082299920446223
24.27415454339255,209.82172261337703,375.94575339883426,24.263967033836945,194.26911810964683,32.47304761747349,45.71013918163174,5.442968976629173
25.353759350592195,220.03542962908335,394.7084441870765,25.647886068567058,204.09515101837056,34.00200343712164,48.24725974425386,5.892767715921642
25.279216905113724,220.7047890406525,396.97582909326945,25.45828949585006,205.16668051376806,33.84518097842091,48.491662597447174,5.694515700689026
25.12383088945407,215.4384244887766,387.3686809688063,25.206220455796736,200.2908537923889,32.90834934765246,47.75068375602571,5.638394846573266
26.046355230305434,210.4330848640837,375.66404959198775,26.473530397886602,194.87878595198927,32.482838665271196,47.82208049637922,6.482955769351597
29.00320956168548,212.64925954058515,373.82250728801324,30.487640106790984,195.31388807532028,33.87036474538371,50.50853842548296,8.742353686083296
34.53104791065544,227.94634905768322,392.61416443145885,37.861503460121604,207.1731447899222,38.020981572614836,57.15201142987923,12.585507573547446
42.352357778544736,258.6044609915284,437.32817751794687,48.150748788505815,232.93330632379246,45.029920704591994,67.91719585815525,17.6583285565749
50.80193300124084,299.9244879410285,502.11517667405735,59.16111553279059,268.9182271070675,53.48296749146759,80.79675400087635,22.788613685835273
56.675961920120784,337.9147950934722,565.7289789904388,66.76455996595779,303.124535207738,60.16990682285066,91.13448546430517,25.95802392023456
56.22192170965969,351.70928676890765,594.3057522278693,66.18924552139873,317.0622260025638,60.89975962334031,92.78675077439681,25.005271197460104
47.15484456848596,322.1982639513727,554.28833965686,54.65620721687713,293.1097461698781,52.493505692651794,81.04379832796968,18.935198377954602
30.472397478898348,243.1699063230175,430.77208030564645,33.72816105213699,224.4616934358949,34.915803126953435,55.768046558103705,8.960380822562616
10.620010093352565,127.71066733414597,240.00479895636,9.431297325666245,121.38154623277933,12.02026623016859,22.502664940915615,-1.663901548354708
-6.384247744229094,4.5710942385618285,26.319826586343886,-10.341579966192947,8.744120812579537,-9.861530271934164,-9.55864754913951,-9.122870719623418
-15.754582812661408,-94.26088843458507,-156.52965127963836,-19.59395332644025,-84.60625724885,-24.773804879826795,-31.678474847298098,-10.918056435799887
-15.868937663764246,-147.40973758549887,-268.9305750250702,-16.68982254322062,-138.48030053349427,-29.682951889589166,-39.22647173314476,-6.866484029303023
-8.209903111593558,-151.10892392781665,-299.7285734940794,-4.049053079054854,-148.37565708625144,-25.20583528183162,-32.74037509049896,1.3834893647508624
4.25962903891911,-116.23895485734218,-263.99993839348855,14.24043934857946,-123.4941146114111,-14.369053395478023,-16.245686170769208,11.758833114963307
18.6919191767115,-59.601647379026346,-188.99142618780851,34.607411042771,-78.8858012824116,-0.6760817485595907,5.308463342161358,22.795853902651313
32.56207820233922,2.9517433527630157,-100.46642597888848,54.08269168965489,-28.507656487892987,12.932134227582674,27.30293496993061,33.38797171153042
42.65572487958534,57.342452280174825,-18.474787419993152,68.60174878272403,16.364169544331148,23.73779927355788,44.87861809162738,41.61294180818034
44.44207702268405,88.76858412330381,38.9884645819293,71.90989358761223,44.90922841690843,28.53485875286901,52.15921737684341,44.06497647090044
33.31518491176771,82.15977773327964,53.506325908076064,57.26878718856657,46.0003740836003,23.97642531833475,43.309869386742754,36.878679988652756
7.452447487831962,28.438857484275164,11.479177526759875,21.635650344359206,12.099153015514311,8.317410776734675,15.64817399708602,18.161646767943562
-29.74970307650366,-67.39795134594497,-85.76413111164848,-30.644099634604625,-54.54756176945912,-16.67492035339292,-27.339721103795547,-9.879456514373164
-69.85600809937684,-183.78781748444203,-216.41142279660315,-87.86357203382566,-139.1626439084393,-45.397601901819534,-75.82870732084115,-40.920392985760884
-102.66053290908333,-289.7537256800847,-344.2235934053359,-135.47670860322805,-218.9282421502304,-70.40480291614236,-117.26243062445428,-67.00738143543231
-120.78628243121203,-358.56027970584097,-434.3471717777756,-162.66241782386604,-272.9948484775085,-85.72300002975543,-141.91100665750582,-82.16662786539902
-122.86050723136351,-379.6201696763484,-469.2168417013852,-166.98483799489418,-291.90509060877093,-89.46671886427718,-147.05132768461215,-84.95885454260113
-113.46541137089868,-361.3341554606928,-454.35280642037833,-154.5173550373939,-280.49032560714073,-84.18763277845576,-137.33668524489033,-78.55917961308415
-100.1916260615516,-323.7411652343288,-410.9844807875885,-135.8193997350496,-252.84662199295127,-74.94673383193653,-121.47794439869945,-68.60705072521229
-89.7875049529471,-286.52162563491754,-361.639699037848,-120.55372713802751,-223.3788483268486,-66.5308380540146,-107.59642228477026,-60.34873450327454
-85.46512225122783,-259.9741070195491,-318.79549629422775,-113.66297389573995,-199.90906989277175,-61.47257622337558,-99.9125714612475,-56.615850578497096
-86.19613465044394,-243.01472882855748,-282.58452763162705,-114.2883505483688,-182.2112084195003,-59.5940836695415,-97.92175634340617,-57.221626017064324
-87.61172773197244,-226.8283752465345,-245.80194210228217,-116.87304816186106,-164.8876079719346,-58.69367527993714,-97.49333995440288,-59.45235977822755
-83.80083117491523,-200.23286795427023,-200.19708696800254,-113.45841395568766,-141.2474848490595,-55.65061279819834,-92.7968502381741,-59.16385164680909
-69.55552805863239,-154.0841128380197,-139.910263782802,-96.61382864091182,-105.94980447478709,-47.56559170549578,-78.44412466107477,-52.2636509930298
-42.614740535251634,-84.31978630445408,-62.29667678925645,-62.51395435523181,-56.39745167835164,-32.84650033785122,-51.5994327806255,-36.37650245542799
-5.082677961726692,6.138229103849938,31.583006747804642,-13.120791140418074,6.303934889201076,-12.009883445885992,-13.526389693783065,-12.129361320303895
36.870730134022295,107.1722915737799,135.8638989201084,43.81931411983528,76.77711741284992,12.246706845675421,30.278771185555577,16.695413426544008
75.21114868429927,203.85893045307924,239.52352942097804,97.43033647476429,146.03804845197928,35.96216745260204,71.8371961661212,44.46412120779392
103.23392300599424,281.44810076006496,328.8169606847665,137.9979677319629,204.09514958994117,55.520136916420924,103.79477909997655,65.95817875652314
118.17248077858196,331.19199879032425,392.72841844337125,160.81302653542832,243.9148315344689,69.13231519280215,122.4432375043324,78.48698575565783
121.8741221294455,353.93144169974727,428.5169925726783,167.57196478960535,264.6305925949048,77.30961659303871,129.01669395557832,82.73562348301266
119.25079449109593,358.8732075892969,443.0183152266425,164.64378035796153,271.5988729597233,81.98134012074095,128.45232120169646,81.91474760283508
115.52418024682774,357.98213738576675,448.13644656317535,159.36710994793205,272.92001456735954,84.86667609560828,126.36285818006354,79.78763131914809
113.9759752982246,359.85250268932987,454.04975503782936,156.70710698444364,274.9848481313729,86.34373601306747,126.20818846342604,78.82094779985434
115.3860177301065,367.32235866363953,465.66580356292206,158.09200902686345,280.4288806199767,85.70378567073466,128.42634303984755,79.49270813376823
118.97665701304054,379.5467275543565,484.15067180820284,162.43597510626293,289.377234693627,82.4718552967712,131.63674212177187,80.84996905590339
123.67727532666635,395.25351424033477,509.97951451176783,167.86420452848867,301.640114731832,77.51065589283822,134.4494892433272,81.57285635379348
128.71009691598005,413.67901125711234,543.1438018762157,172.74416627026608,317.1441346219048,72.86757230169056,136.35037189801344,80.74992727163543
133.4687677849644,433.1130346560966,580.5874043503627,175.84896763798582,334.56186475699644,70.52493299212303,137.40459002457055,78.13271488616387
137.29976270558612,449.8426918305529,614.9340992034553,176.334621313121,350.45258016550343,71.15845193194346,137.63313151928838,74.09238868101295
139.5867807763313,459.4790427450464,637.3456411667532,173.96057014743548,360.57350415463907,73.86026922744011,136.8461676668712,69.47278817236659
140.01607294703115,459.7775139040311,642.8763322227404,169.3336991281149,362.5565270227702,76.90084180938292,134.9561688975968,65.33477438113331
138.78008654595953,452.78225651349226,634.4957482755166,163.8834193380973,357.97041013572755,78.9314959403979,132.40416190062592,62.633218900607176
136.7054669365746,445.2583932809844,623.7158758106591,159.67507030279245,352.7405427643646,79.96173992399073,130.50044273918988,62.04633397086428
135.29634762803474,447.4344732924621,627.8818891193633,159.19497674673374,355.9253595402169,81.63247519103025,131.52442950433942,64.06396095041273
136.36381760262842,469.51913697272494,663.8767400123173,164.73444326963192,376.51831170434366,86.44868038572609,138.09998252248897,69.0370103700318
140.89193683015867,515.2734625085347,737.731577266965,176.88048363145964,417.80356909065307,95.97742019830541,151.41006433719994,76.75708389705704
147.50380311858927,574.5468152657335,833.1913789911689,192.56571890255623,470.93387200642394,108.79372928367047,168.85413042773132,85.64839005830052
151.75460239201715,620.44735839998,907.6814866714523,204.3431202470639,512.5423391378193,119.65964533416887,183.01432925235997,92.36038594318843
147.3951019054707,616.7382274153516,904.0739787461201,202.4523792822092,511.1622085243436,121.11619678846533,183.68636467067606,92.58484220928098
129.43396670181633,534.8291631892914,777.3314889998046,179.3875538986384,441.94575773248675,107.15301716637363,162.74071969921906,83.04274341117068
