FZ,C3,CZ,C4,PZ,PO7,OZ,PO8
4.894319269677689,95.92928587750227,67.78275211370918,-2.2068636135856283,47.941425483690345,23.671664374207676,20.33514146158385,4.971043851140354
3.4296276598477204,65.37771863370207,46.81321422151521,-1.2022790305689008,33.54485581635865,17.549389215355177,14.767038451329256,4.468151200758661
2.336158697585753,41.097465742419914,30.238065131716578,-0.32580631557525597,22.111451058926036,12.673392308986939,10.334926412987835,4.082045995491301
1.8128153802332603,26.63406357010015,20.52903003571357,0.3368869620827822,15.311579704462508,9.740673245503169,7.672213835738344,3.872024270955274
1.8288428597914257,21.702491336782124,17.467382353396427,0.7751654943723699,13.003587658953947,8.686259379445065,6.716480967750512,3.825070366455286
2.1898315238342305,23.031742515395592,18.75260728813769,1.0546370053746974,13.639599830656248,8.857475772830561,6.872239157702122,3.879219988473745
2.657526072093079,26.36111117739671,21.40735220979553,1.275543353801833,15.212358748703602,9.411644522559028,7.372823709310382,3.9594175456337
3.040693827393164,28.243290201258365,23.031707742272587,1.5149486004221064,16.104275130533896,9.669486974919133,7.597677180194343,4.001652976452736
3.2323887752013283,26.85498803729252,22.364708267882094,1.801264900377798,15.464976754225907,9.274087527345742,7.216440155892851,3.9658357686549777
3.2180535666935937,21.951990634859374,19.26022765232662,2.138412389871364,13.186464182119568,8.187182737951272,6.193406406608284,3.8483510860326464
3.0718675149673,14.533238595864415,14.455599797216594,2.541243661474943,9.741288196055732,6.626148902478054,4.738776838556203,3.6905171779161914
2.928502032001973,6.487546005867907,9.300416676308087,3.031512384542961,6.0101561471057865,4.983921745700424,3.2326240646312137,3.565376164415172
2.920894497270575,0.06978850752941324,5.347041125496869,3.5940596899202544,3.030851774581487,3.7042035395967536,2.0947690127008967,3.537892496885955
3.111439277530009,-2.9270754068914906,3.753908100574643,4.1465866525623465,1.6155447397013638,3.1050565391439195,1.6075259913914235,3.6211181285372955
3.4605034551082183,-2.0646680565753543,4.703767291522294,4.568026042007866,1.9527326491127204,3.215384830300532,1.7647464336650298,3.759472878909216
3.845452735042615,1.2344640891766978,7.134626709405203,4.771629730143648,3.3932762458224577,3.7093954021376523,2.226636378819113,3.8495968866279595
4.105658814516965,3.866546852127965,8.934739313689041,4.769886553242731,4.539655942755043,3.9763069994820537,2.405047961800121,3.7850535994706487
4.093326318771603,1.9845596982909677,7.603334802065334,4.695148656839177,3.660529736693021,3.319029869849177,1.664661569584379,3.5080349035214438
3.7398664519304123,-7.333021106004234,1.3485180743751064,4.773280765366986,-0.5726912565124774,1.2688059912973717,-0.37663849160164087,3.058575146965637
3.141259572501718,-23.948249360964407,-9.544741660884592,5.2504847317463055,-8.127142845052758,-2.035400689588153,-3.503264443264894,2.603710661029646
2.6109844472783843,-42.96380442562806,-21.673873602860507,6.265594608340746,-16.824922130628536,-5.573444559628302,-6.682266182360551,2.4107626492668897
2.6179135185324705,-54.925032088613946,-28.773805915026294,7.697991571080643,-22.407894276828102,-7.543288603875637,-8.213613731323854,2.7400672325270063
3.589916141708991,-48.93130560841498,-23.87889814184697,9.09705030421195,-19.92091945397289,-5.985791350447741,-6.361594840648704,3.6927124141894088
5.687273682384092,-17.870201828556105,-2.7636502868971977,9.816588942513235,-6.062013887110888,0.2654942762712401,-0.23460077559290216,5.114796902537319
8.710864813525635,37.02052002428899,33.25791948735492,9.36045073213326,18.7657839748507,10.854886960565443,9.617092599222984,6.656648757001299
12.225907386425662,105.46147993805299,77.21800265375505,7.751233197438347,50.135875522670126,23.937571860395945,21.35839507880949,7.986170552326716
15.803612980266085,172.44237329157878,119.59149195078618,5.631426139044045,81.49593053954776,37.05942581427931,32.78290304818638,9.020834575252255
19.15935039462732,225.24140039057087,152.8455073967511,3.9244605412347995,107.22190047496048,48.336150413077945,42.40084303624546,9.98282452221358
22.026156187719568,258.59851897466234,174.3699674475441,3.1880389287551347,124.78955425341935,57.07758495004207,49.89637223715615,11.172845465331624
23.843433618685005,274.47754817969155,185.67305048939951,3.082047891045579,134.5392888048355,63.35879219570223,55.56345368430894,12.571393941933678
23.583773995023787,276.837829621502,188.56840395645187,2.398740786896966,137.35000780304694,66.88947166169824,59.16030299265769,13.564345381092469
20.034787525083892,265.8667392664337,181.64375672912593,-0.23736259656104564,132.30911352025015,66.21408628311288,59.20759147103063,13.074761229686445
12.51606975551811,236.6989839830238,160.262670047901,-5.400806839928581,116.57893676374489,59.13130503493536,53.512950187706785,10.119611640586228
1.5875489853315516,183.96533115161643,120.47384500214861,-12.299633456510362,87.84184485124935,44.25302005647468,40.72810656529151,4.474008229314969
-10.813150918780586,108.57345504335893,63.843782717726555,-19.05084205247201,47.44648989841036,22.603060299944282,21.827677876640013,-3.0078073819765967
-22.02523944829587,21.129986728785955,-0.7292297131374151,-23.649148746655108,1.6309053596482979,-2.0270201401358334,0.33817823727222207,-10.666053491884183
-29.786211024852086,-61.06446986434531,-59.95884988127241,-25.00453827422182,-40.418035365204354,-24.40863585378515,-18.991371892100467,-16.764540779869186
-33.17347069077449,-121.73131261516984,-102.14200252322489,-23.411995992270967,-70.58655303832367,-40.150193010911785,-32.297997561592766,-20.246552328484483
-32.84643859527801,-153.06501758554185,-122.38546147105694,-20.234982022043734,-85.41650586040343,-47.54542684411262,-38.219304517842104,-21.098205989164235
-30.520126553300074,-158.38760457421813,-124.01061619260797,-17.09213469732364,-87.12619307726517,-47.96400972305287,-38.1331467211507,-20.173891054665106
-28.046334925147036,-148.89725114869617,-115.71137486036884,-15.08556550416342,-81.7144243171615,-44.72280288275557,-35.055381250335216,-18.66296103822106
-26.635955545798414,-137.13008303769467,-106.63739566765491,-14.477935706103077,-75.5826349138652,-41.261160162472045,-31.995899904179545,-17.535625360015416
-26.568890059745826,-131.25408245771305,-102.40373488781272,-14.86645286113073,-72.73233424516572,-39.68516058011047,-30.721153020628428,-17.23247475283719
-27.391396580275316,-132.96392868844495,-103.84657325421848,-15.601701317853465,-73.83565119462278,-40.30973451215245,-31.425633127985993,-17.662131457401454
-28.357452756940553,-139.06334115978842,-108.38111400729862,-16.149674111425522,-77.13382742601299,-42.14775760397808,-33.20512467935784,-18.408906087927125
-28.853266501967127,-144.92672942962335,-112.56627337346708,-16.25340601497747,-80.21927853980885,-43.85873084559011,-34.88037900188548,-19.00749872021469
-28.662865093149264,-147.78429980254623,-114.42437161425744,-15.921987887369903,-81.67689132109034,-44.62929711878812,-35.73161759997256,-19.1755994550602
-28.03067190380285,-148.46229125910244,-114.60113910132061,-15.32956110521457,-81.92288588759055,-44.63001825727308,-35.870183702739176,-18.93458567439904
-27.511004041252324,-150.8953183693171,-115.93168115624538,-14.682512350326107,-82.92885518578336,-44.877459892303094,-36.119054853760744,-18.577075858177075
-27.639981739837136,-159.40133368833153,-121.45373461670292,-14.105479158416086,-86.85645383038892,-46.528380194685,-37.427268531410704,-18.489170120359002
-28.564178294228793,-174.81514906887196,-131.69507188055076,-13.609909556713436,-94.16235943667652,-49.91214293043156,-40.07759883149643,-18.907581761582563
-29.83163517143896,-191.7589779346549,-142.85491194426157,-13.168912401005578,-102.28243449198379,-53.85829577960575,-43.15350500551371,-19.735633560340776
-30.48910871958512,-199.35043389768163,-147.42310584223634,-12.820819670491176,-105.98320467476216,-55.837945582788535,-44.67767624477511,-20.512239261302415
-29.452768564736235,-185.8192448150312,-137.43724282431916,-12.670360891439458,-99.5761924541413,-53.005673286258194,-42.45518185669645,-20.547046868564983
-25.965347073744567,-144.83451902529578,-108.76514941278089,-12.744115888657758,-79.92980871986138,-43.6496606555038,-35.19330912203277,-19.166377010578746
-19.92822724352549,-79.86136385398936,-63.911182563947165,-12.820891091915502,-48.53823196466144,-28.24708870916341,-23.27293620409347,-15.988030693242004
-11.983826883174045,-3.7895161157142168,-11.599421482713137,-12.425564120540804,-11.364617350442721,-9.507650797799394,-8.745977824647804,-11.136867631955381
-3.3383174567257328,66.17870142371106,36.729943915235765,-11.060552472639648,23.530631423366565,8.649548942172913,5.427378317920142,-5.310783438622399
4.596215213272993,115.64871988693734,71.6114044451116,-8.547282206615643,49.29171083668202,22.651502216447724,16.4935394655517,0.3683538759956478
10.615036978322648,138.4427933811051,88.99888546463774,-5.234242721455086,62.77311566689794,30.569847932842908,22.838976554193124,4.70883648886526
14.066854423525953,137.91329085166686,91.00914555439162,-1.8965677108937578,65.16525087452312,32.60219064010676,24.3962651189463,6.8937463611853556
15.036448275822778,124.3175630162028,84.18134253156775,0.6329164405749691,60.84071408916185,30.686720011096995,22.494106925386887,6.821455709667148
14.282152263419077,110.16414287176475,76.50921485200462,1.8517472826838215,55.30346454621399,27.579980287057502,19.30288019734704,5.1489987347296
12.882634750757974,105.40687549307833,74.35698492519376,1.724509226329799,53.06056162854155,25.766016471375952,17.0119142204694,2.9680039974389683
11.682869665462864,113.51587333216446,79.82940150956908,0.5160291302279383,55.83267887194711,26.459430356786616,16.882312320938993,1.2573400015347918
10.823779976285525,129.31024435420701,89.2376344564628,-1.4607210035975033,61.49861138338745,28.989916479160645,18.508079995955637,0.4264613563729144
9.692154426096634,139.92942400606188,93.75522007529611,-3.9172396164469863,64.45374158582132,30.939155645218438,19.783342043967142,0.23006653819150857
7.39305997460312,129.85212254065786,82.96504884576201,-6.451470470997185,57.856795394641146,29.21328748295678,17.85309668176785,0.08598634345643992
3.462758610656644,88.6201485271855,50.27434510655249,-8.429811612019718,37.16023338813414,21.688976275494987,10.702337145108556,-0.45055230939246776
-1.6672753314304707,17.377176776449637,-2.653606425225682,-9.123333707334826,3.105013446556076,8.556680983331821,-1.5171878905347413,-1.3882883643295045
-6.783297454407104,-69.98977798467376,-65.40554873451644,-8.073938598579968,-37.786842126390084,-7.493682409262344,-16.290445927962352,-2.3460935289974536
-10.505649672120738,-152.50322453584064,-123.0771976559243,-5.41405455511534,-75.85763187244628,-22.449019383911146,-29.868362264871198,-2.8538108946439293
-12.005590463569453,-211.73348817806402,-163.11090679478517,-1.8632849182348246,-102.7685654678222,-32.870122474121224,-39.079831379695534,-2.665053045208173
-11.386968041755553,-239.989670776126,-180.83293836338012,1.6265191145336415,-115.23281582364056,-37.42196909776064,-42.76930412366303,-1.8807284793369436
-9.550854400833565,-242.47510323650852,-180.60753762805297,4.326689673248937,-115.92047333374371,-37.20402591598156,-42.07875652442193,-0.8512546046838547
-7.6967277778564736,-232.59831382519488,-172.28040209448073,5.960300684484748,-111.20416450804153,-34.81517957267386,-39.54112671286881,0.02100052901671052
-6.787932573555475,-223.75408013842164,-165.38802738029887,6.574896759361898,-107.31701916468276,-32.831837865334215,-37.64069463119159,0.43078159505978264
-7.225292839275145,-222.54485950822465,-164.55906599141738,6.24287149323744,-107.22614664607632,-32.59817520820905,-37.6691041978006,0.22035722471619565
-8.761375744464058,-226.72920097277228,-168.20920301436456,4.918029368272086,-109.71543247270307,-33.85148745189063,-39.339396810790284,-0.6091065171594949
-10.572173581510802,-227.8715043100113,-170.36938652350705,2.6069000485584186,-110.64517953761406,-35.124119188781535,-41.107486478709646,-1.8601358353647295
-11.45630280495323,-216.32512699968458,-164.045676109436,-0.31850751675485417,-105.30421867349934,-34.53466757019313,-40.8917731397705,-3.10430834957303
-10.206010810016952,-185.93217363875348,-144.46578434773653,-3.0123757583040525,-90.6653344608748,-30.607016815565448,-36.91277624618558,-3.749934830990147
-6.1198903034346825,-136.81769634174148,-111.19131500300941,-4.441098060749737,-66.77790802064563,-22.89729065582066,-28.447873761803763,-3.2592037434064873
0.5576775642879447,-75.65116710683027,-68.57209646362422,-3.9141308844737064,-36.942894142715986,-12.265345134743537,-16.267979566297797,-1.4250556541160746
8.567103765309332,-13.463250631730062,-24.39165147480152,-1.4893480582429464,-6.646732356778173,-0.6592419283639733,-2.5213169193515013,1.4678854312301157
16.068913474888976,38.17556267511042,12.880576318970649,2.040246699655957,18.3687531745654,9.56929007003571,9.982982153711918,4.720299582701222
21.404005446633622,71.17594768050213,37.174108300131074,5.569073669090962,34.14716505615338,16.55981393662869,18.82316722086568,7.501799059627674
23.768056776702444,83.55894978631413,46.91323358458814,8.21542334604982,39.81829614346859,19.632522445762707,22.85950792603287,9.179086445873239
23.42388289251969,79.5823356969497,45.14587800145233,9.628131514798186,37.58955148299985,19.420844335603512,22.538816815468316,9.51556594248824
21.370457433990943,67.27646305923572,37.62817618016214,9.936445045810448,31.438267250441587,17.388104945822363,19.48528827774893,8.677239026375679
18.739511018779993,54.602349632552375,29.898815834341818,9.498116769665273,25.190276813085596,15.038561099681136,15.659351331419964,7.110116213622197
16.33061863663442,46.310509993240785,25.020682027664762,8.69708973313147,21.049983039955123,13.316782164216832,12.589875030155712,5.397011783891885
14.514989655225213,43.13680318647609,23.19548480595801,7.896052989110259,19.337278549870156,12.504415212461346,11.044211035912236,4.136249848821365
13.411316538348624,43.279472175277874,23.063963129843096,7.449009080421588,19.298254111804987,12.503335033828382,11.116641931808562,3.8051404638659654
13.063389333779662,44.546137268679736,23.35103733658927,7.64006485780931,20.122220745562423,13.124910556243947,12.44738332174505,4.584076978131097
13.452404334868149,45.54223532597821,23.619935204184685,8.544774266672444,21.377936979467965,14.13008545214119,14.35851772502594,6.215242733041225
14.399033747523337,45.61129647020288,23.99908491967255,9.93270060234006,22.813400572191703,15.11044477087317,15.954711229970293,8.028815495063077
15.514405612829052,44.381269331696615,24.612242716985413,11.31114662574057,24.03531811605033,15.478493124332397,16.344416097116074,9.190957091128727
16.283838765130614,41.64557660478276,25.318260844154462,12.09840913873398,24.478185930419308,14.685051407982629,14.977078857122144,9.06381171444287
16.24186732772521,37.46599556251414,25.729721653458363,11.840295860214177,23.599533976490594,12.516489884972621,11.890766003964,7.472346754485593
15.148487074058746,32.07184279541847,25.244223175545123,10.388386561695002,21.036700888853844,9.242922951121109,7.68512645378335,4.73684865987218
13.097811993448817,25.613825363165855,23.1295677867621,7.983826467861184,16.673279348299875,5.533705881548971,3.2518698907075776,1.4895151349868732
10.511720895127098,18.210743480174944,18.889493287567667,5.1991620118632005,10.755085237871256,2.222910628959102,-0.5460183381510673,-1.591437287857677
7.988023455806142,10.339247728338119,12.792240661912453,2.7257311300818805,4.043109134150531,0.03288740628023642,-3.104001273669727,-3.9974662109831987
6.036697995219354,3.0075656209267487,6.037072159506132,1.0880326021707514,-2.2538352773414556,-0.6875811312843985,-4.205373653540932,-5.492997685567064
4.837361200512856,-2.720457745271578,0.23105258866473075,0.4484426715917773,-6.9233929133939185,-0.14008118109349493,-4.065834228271731,-6.106325588089541
4.179253900380876,-6.473657892374673,-3.472409884890869,0.6244678473622555,-9.322553162859139,0.9591877291203066,-3.2418113720943675,-6.04082145291866
3.628923946627598,-8.785181728090919,-4.87251587963051,1.2799850264826582,-9.62973280694651,1.6932804959353638,-2.3723524762050423,-5.5613836730899955
2.7959867083061005,-10.537620582421228,-4.5658521639624245,2.1212799417741843,-8.616950288463247,1.3902602199561902,-1.8786554222675744,-4.917061733714248
1.506775598891885,-12.292001401355641,-3.4850640415905283,2.9619408083391967,-7.222721842193032,-0.09382823603807727,-1.8375191407338483,-4.324324931404946
-0.19137458797577014,-14.200131884181744,-2.580450578426678,3.6730746133727163,-6.271521737266007,-2.429014065501367,-2.106663325452338,-3.9731536187598575
-2.1164656116356078,-16.37998367534573,-2.6574169409438824,4.134655783606735,-6.362898723985561,-5.082795293133243,-2.535230815625988,-3.9960964014082774
-4.01494118352136,-19.048238348158925,-4.112129568151309,4.257783593102057,-7.727953199916244,-7.534926104486723,-3.0283772578586685,-4.39243978277559
-5.579887900444711,-22.113196095761015,-6.5909529163102665,4.041146172682712,-10.02422301303982,-9.303286267908872,-3.43163043718788,-4.971281320518422
-6.486653028688505,-24.757665234798772,-8.982018989863251,3.5901181067357375,-12.328450152595257,-9.902789920054087,-3.4261237867702095,-5.386658158730755
-6.490192814665568,-25.684648966499843,-10.002655386784278,3.076093947776494,-13.537650408193896,-8.937899776731488,-2.6254776871638734,-5.27545007410774
-5.555274655107658,-23.999402389225395,-9.074273436915142,2.6588700728234778,-13.01306117210123,-6.370601420292573,-0.8597832248550223,-4.439910713568287
-3.954029941468163,-20.068483169867136,-6.87279350106219,2.3955302349197423,-11.05013408368106,-2.799175619432518,1.547211022965917,-2.9920853404051964
-2.27574002299195,-15.813448529380024,-5.242312166967818,2.166700377613186,-8.90467863238159,0.4822790273499405,3.7073927347759836,-1.3856743293903473
-1.3031415037795673,-14.368795761009059,-6.606334890116463,1.692963177567559,-8.406337340018698,1.7850078717260405,4.396360051226278,-0.2810146145327686
-1.7230111880613324,-19.12803259130518,-13.055360315610551,0.7139903018734948,-11.278173466383006,-0.3251587345386543,2.5633766913764493,-0.24257983573260397
-3.7215821555388984,-32.03538115980439,-25.10699523941336,-0.7183305664721494,-18.209890012777684,-6.216290066186111,-2.00620674398013,-1.377039759400493
-6.6660049681785845,-51.357471034517644,-40.35374111505233,-2.0499936882624428,-27.87310571145403,-14.5793700752546,-8.164158964668225,-3.125013986342787
-9.150748274768898,-70.21123710783962,-52.87901048197853,-2.375072420792447,-36.471318574948036,-22.460084008442387,-13.406606746995076,-4.401926140749219
-9.53811014219302,-77.66493642900167,-54.568574088188,-0.9379156977545697,-38.56527385762028,-26.18419424920128,-14.667289300082496,-4.091869775961632
-6.782593684000956,-63.0587284083718,-38.492744248019925,2.313924233661156,-29.305435763717377,-22.93380567277951,-9.690308356988709,-1.6443421948564905
-1.0574424969346297,-21.74263804800118,-2.8341273023975644,6.543160730670366,-7.096269398961345,-12.212906039382014,1.7148885966183163,2.5902305950353885
6.245692760868266,41.262479857274926,47.128378606774454,10.40243785447223,24.94638705168816,3.6743180415045704,17.327768430567538,7.511127014430826
13.18952034051972,112.38304560926427,100.60546193927871,12.778080175109483,59.87420472096124,20.524302463195106,33.39508362138906,11.821663569008551
18.23235298733426,175.11383427731877,145.81281876349638,13.412781387617994,89.7972293898786,34.08592591067692,46.28207886223253,14.644792528272312
20.847622781282915,216.84945911582975,174.75650203142706,12.976716924607395,109.10607297608098,41.831939119633724,53.92931265748689,15.827039305771287
21.457890018521706,232.85955185498784,185.4237605089493,12.529286870130372,116.11916853938133,43.66619198848365,56.27534490081722,15.7794535926415
20.81055747160928,225.47680318649967,180.38801091648108,12.749212805493173,112.38477438342191,41.27711387134886,54.52067413154028,15.02393276919981
19.314572831993843,200.05260962836525,163.43302794923463,13.47972135559927,100.55066457152994,36.71890734810534,49.90548384782646,13.799413255606828
16.83921951181662,161.31039444614302,137.0611028683613,13.893139768630588,82.62159780092708,31.224464404159676,42.94437022382832,11.997543626158501
13.063450130169802,112.69745519517727,102.61910304459217,13.114389765556828,59.8115718293191,24.935505028064785,33.59529611861331,9.419064385555611
8.010376351438726,58.23786515438506,62.28210307189648,10.829955040592086,33.64297439181981,17.47914034515521,22.043545802950252,6.103310680724695
2.2858073071856237,4.113443408440135,20.52363915312751,7.476209700371418,6.863979520348498,8.755056701623216,9.326112789666897,2.466159193470181
-3.170173967495755,-42.2945878651893,-16.678821824585977,3.951464431396241,-16.946247159339435,-0.6891962528990402,-2.7635230919777913,-0.8344796183372375
-7.5900112451479425,-75.59031452701969,-44.51789928413953,1.130093202239242,-34.927229983342045,-9.85975667350475,-12.421840716668108,-3.1780904264373855
-10.719150808389319,-95.19547562040917,-61.77473884853997,-0.4702051900270786,-46.376929281827536,-17.788219150287976,-18.655424554181817,-4.205624303282972
-12.734897576047265,-105.18026021760681,-70.89017078921334,-0.725176041497321,-52.785789090254774,-23.82627525447805,-21.569773832862058,-3.8776262609210614
-13.865633762630651,-110.65970810311876,-75.39255269648017,0.21399909662898783,-56.24033969653103,-27.563960483658796,-21.95853601209588,-2.4084461442729443
-14.093162438491857,-113.18960583831779,-76.56959802403671,1.9574794925259227,-57.341821299717296,-28.575032698163817,-20.577840508025183,-0.19675412830810418
-13.233786504478044,-108.80389760294965,-72.07805197731423,3.7771606242371845,-54.3443150387431,-26.38379539941352,-17.71572923688159,2.187720844638705
-11.329074751436012,-90.64192124728042,-57.80982195675905,4.576029096391254,-44.39183591111929,-20.83258761907775,-13.374527683038675,4.027655804259146
-8.965754660143455,-54.62145981077402,-31.764911664522018,3.173439169433915,-26.087571292965645,-12.597305189403958,-7.831975049342726,4.603933551470381
-7.176656886045021,-4.090082296260436,2.9985139503415708,-1.1104821643754361,-1.4908492759642622,-3.3613614728725465,-2.021182004762492,3.4739158388396354
-6.924426325822583,50.09254404332093,38.683780537628955,-7.922791844066493,24.04444061504239,4.648516348976988,2.665189306555199,0.7348537950106714
-8.526111880672072,94.41046416379572,66.33310779957763,-15.826515005303419,44.250150988108544,9.589381564704393,5.054613211132705,-2.929183064297489
-11.441853192348269,119.41711222697754,80.33679507603782,-22.873472565162157,55.036531142156726,10.841158137408424,4.866196184306573,-6.50366906429868
-14.586019707313834,124.02745065761381,80.94258998171632,-27.5068057419318,56.312960497983006,9.216066945635198,2.870109380796459,-9.088553136193516
-16.9416511821263,114.85021895857835,73.3000681498433,-29.247423736810518,51.4693260492956,6.399182912148293,0.40711642159477984,-10.280373935577467
-18.05696346758107,101.48112215669595,63.991610420598974,-28.75319895889581,45.06930534163533,3.9970921762121816,-1.3852693594560601,-10.27228004877237
-18.123485180197026,91.21442782590503,57.54932658212731,-27.268849712653477,40.41508263765653,2.8103565485768565,-2.099696147956325,-9.637351783671592
-17.66992643757651,86.41919408740196,55.03087448907095,-25.882979539650975,38.4437931989454,2.7176117346986834,-2.040841819612849,-8.965321777457387
-17.168405497953536,85.37570211841326,54.91061445872042,-25.073213207443594,38.22664726812153,3.07897087071819,-1.8057602293990718,-8.592130486018627
-16.833588130123008,85.00006055558663,55.02541101226482,-24.734906745655554,38.27405768072405,3.263134847079181,-1.8407526310402456,-8.551770888055499
-16.66806933449009,83.37026792725146,54.17829061192682,-24.532059958694095,37.68294328474962,2.9811448758160304,-2.228617434544644,-8.702685206708713
-16.61671682757368,80.93521247659464,52.78702012410404,-24.26656459360059,36.65476822756,2.3675245555595104,-2.7088581112317134,-8.890948944877582
-16.68593083588488,80.20754369857893,52.55778919248102,-24.05860543999923,36.33056124281224,1.8746198523691124,-2.841870466614852,-9.051105948574866
-16.978371435548837,84.01489917800811,55.26848421030529,-24.28238759778399,37.987620418701106,2.0041797802814987,-2.2863262550685226,-9.224611930556057
-17.639727030288952,92.77391239346608,60.986225256112455,-25.283329288769064,41.809182989394344,2.9110406724462603,-1.1417596881460501,-9.50806406476645
-18.70594651646189,102.24716743103843,66.71787833898105,-26.971845170931367,45.89370040869147,4.076640308145815,-0.15249334904495254,-9.943482599020998
-19.887558876017124,103.85233547715437,66.83541499791741,-28.51335137506786,46.43350264940913,4.357913234847057,-0.5045200718717376,-10.39332538664605
-20.448436496523055,88.44063849117846,55.72693907955598,-28.409140173796676,39.43947677160965,2.528324300739477,-3.1841817916124855,-10.494956136492743
-19.37676830058344,51.84612588995476,31.354343430151236,-25.10435705560525,23.198011641451533,-1.9685685979361482,-8.261253683964648,-9.777456301576475
-15.875169496161813,-1.3957689758635563,-2.694378708469289,-17.88052767698033,-0.16366855304409664,-8.562134626210911,-14.618277110611793,-7.909019246539222
-9.91385531094866,-59.023971411680286,-38.31521438468363,-7.482662004669742,-25.22014550425348,-15.72125200474322,-20.37311873962355,-4.914852333228413
-2.4586873486781826,-106.53838845593484,-66.68136264001578,3.9965972315087472,-45.716666631733915,-21.63079129607279,-23.75161529288853,-1.1978383824268468
4.843347614970539,-133.9663305078561,-82.38960222977366,13.997688746710503,-57.474397314847565,-24.93995753579445,-23.868694275686867,2.6654786102136647
10.381074321397252,-139.88795307368642,-85.45307690609326,20.650056238988977,-59.998511199103596,-25.168697910612973,-20.983123341578697,6.208935785596486
13.2837720383722,-130.6598191704521,-80.19765750250882,23.52555875086929,-56.00561961818707,-22.659888044387095,-16.181379433233452,9.238895954801515
13.706321577935906,-115.97065988034403,-72.2121110717364,23.58170232756675,-49.48451762326967,-18.277298477258835,-10.805355078991663,11.776420225605142
12.569491985046948,-103.929719693532,-65.55645897995625,22.4168730337398,-43.704359027074936,-13.129233525739233,-6.0075258580888855,13.860201471654975
10.980629276118083,-98.44138802552332,-61.7536170380292,21.367204966247215,-40.26280314076138,-8.415528654676068,-2.5882693100504337,15.397248786906664
9.72032048292015,-99.40763981762854,-60.462457769515694,20.98048241476072,-39.26206071391577,-5.270854334505843,-0.9938432219173909,16.192108762376552
9.049224949164781,-104.43376803160551,-60.66765614365826,21.05337551983226,-39.973849003547606,-4.4714181296084,-1.2983659755250978,16.117722040095526
8.816886142814784,-110.54881482372575,-61.45294922119794,21.033947958613116,-41.416953397315325,-6.095710389497065,-3.1625126684542093,15.266449749288762
8.690590303739294,-115.40457934454865,-62.28125328187603,20.45750420075514,-42.74570502107699,-9.409861653699025,-5.90237503931354,13.950301470516084
8.360598474827436,-118.02387754262654,-63.093598020343784,19.205834931425933,-43.55440909323584,-13.143801002827017,-8.723107411443744,12.562358808775453
7.6895156556780275,-118.96729934160946,-64.25794784261136,17.552828059721687,-44.012562352736076,-16.02458832391312,-10.98408639819171,11.419280757341854
6.7996522773388515,-119.62708757765743,-66.17434616646027,16.034821578981134,-44.628140766974234,-17.25268589643044,-12.322498626948967,10.684494604084302
6.043567078334314,-120.92743750383796,-68.67027481815852,15.19834285792769,-45.7147330457849,-16.706882442039227,-12.626495330886668,10.374000404967418
5.814673481297998,-122.43342712183593,-70.75284683967307,15.321640551352509,-47.00330810584193,-14.883506856346655,-11.997793007023688,10.389679910412228
6.275290726243269,-122.68530866710965,-71.10701613120337,16.25734613126298,-47.77623943607435,-12.674681170667041,-10.782539099004088,10.551872292060226
7.185995085311848,-120.48587680204896,-69.02228399118472,17.501091231723773,-47.41875426260898,-11.05283493748695,-9.575180825816537,10.647913344160333
7.974112546323604,-116.05614146623778,-65.01591657862393,18.44645651603356,-45.92647750211249,-10.722541562749859,-9.066798247969649,10.505643851996563
8.010055060043603,-111.27621566938448,-60.7599088935316,18.67000523792926,-44.04063671534,-11.880599522350426,-9.775637005392516,10.060350974738288
6.931265715610825,-109.08156409359441,-58.50748126802999,18.111119482483854,-43.03396499553341,-14.23156635013354,-11.84229110078315,9.378844864855294
4.861589946076517,-112.38964198329344,-60.31908827192544,17.114179582589244,-44.267119318576356,-17.221943959422635,-14.998832528815145,8.64281962063913
2.4521471399849757,-122.61296112246583,-67.08533978755291,16.344071054247635,-48.493518581764334,-20.246760537804793,-18.634262682899564,8.110794399515923
0.7137421856979039,-137.85664352876321,-77.38109234282169,16.548050061776163,-54.967614341887696,-22.62842848588602,-21.841869009166704,8.044861916831598
0.6357242859319534,-151.75894820696368,-86.80770503223796,18.152850942249742,-60.859520970312495,-23.47685548192658,-23.499966910995152,8.57134238553276
2.6837963490808048,-154.57455529848113,-88.88399781902821,20.84375168028481,-61.760440360980446,-21.767442751820393,-22.55731594293976,9.51086563508231
6.423786255250839,-137.1600724482193,-77.82247710188582,23.436894001846426,-53.562066427792246,-16.814106027008485,-18.544886659700126,10.311715886867702
10.559540522825507,-96.23479504800693,-51.962099220909764,24.286371859391704,-34.89144034236834,-8.887786429774303,-12.03288931113948,10.216546439408281
13.470892651660451,-37.6328881849213,-15.63614442323538,22.117683496176664,-8.546117654910466,0.527465592439782,-4.638311752189295,8.637693923863013
13.998368826318194,25.017943204016174,22.07219997004329,16.8117500224025,19.216301513905467,9.161148891271367,1.5633917534408441,5.5292917234597425
12.017640813401202,75.95191554818986,51.264795467804106,9.613432455558932,41.33598890993081,14.904197030689291,4.945529887184657,1.5000459096621357
8.45614457890787,104.18772425760011,65.6499047187806,2.584113708831219,53.08043136435513,16.73683598531463,5.030245068379156,-2.4360767675192703
4.754266798495111,107.85641599028824,64.9569176989307,-2.389571464209078,53.887850768426674,15.10067262265255,2.578175749370435,-5.3352127035134105
2.1190282956853794,93.83302274070445,54.226920500549,-4.438395726975204,47.05176590381683,11.551442402975939,-0.9287636623092057,-6.74058192505579
1.0246031880250626,73.55743803658301,40.861213716795184,-3.93756735992672,37.75407263568579,7.9847734122351754,-4.01814048997984,-6.803040765868177
1.210015957173458,57.92186925685768,31.43373815994288,-2.078388441179437,30.798774311048206,5.9196944277634165,-5.709959514349988,-6.073065368156404
2.0639019572539237,53.75056202975394,29.771277075158704,-0.1496363996679705,29.141845517553428,6.126553116320122,-5.593328838858096,-5.145643258034416
3.0523011095423436,62.46384137962697,36.39965821820465,1.0166274750283983,33.381533106941546,8.534851606021485,-3.7140945175010587,-4.401015291702542
3.9116284933555594,80.11040123923378,48.63858360991409,1.2188745200864999,41.7692098728209,12.229755767569943,-0.5604269074468153,-3.9592553372162764
4.591942039107354,98.25015994390958,61.05626528305781,0.7665606345446689,50.52366880272847,15.541395936938658,2.852443786212545,-3.781638620219318
5.126045168227581,106.1773262753285,66.78332505446582,0.2590500795383941,54.748442811643045,16.442803366663004,5.085295221726747,-3.771725120414328
5.567415900091123,94.84702045286238,60.03053059693647,0.3574699710699832,50.18292034769235,13.352470975944112,4.780358013833007,-3.797616723984574
5.985894464828615,61.265928964359055,38.9557359083717,1.5448833168635359,35.235880399767936,6.027311345169915,1.38937338149255,-3.672704254130241
6.432413572378937,10.706353481202362,7.058723116350285,3.9033936044603617,12.071111376098433,-4.052994911599786,-4.375372504316665,-3.1757138786800354
6.8510612398238635,-45.25934383507132,-28.212173468404714,7.027829693642726,-14.202766686050387,-14.215123732122397,-10.77367145277494,-2.1394701426214193
7.028973993193631,-94.26069781458544,-59.112922165791026,10.18979485205077,-37.96923088509782,-21.840968385189957,-15.890707822581302,-0.5568026054688291
6.697069494410942,-128.84895899536014,-81.2255354919301,12.718624168750289,-55.66917214587872,-25.589378163623444,-18.5661268126586,1.3833106464539846
5.779829224861647,-148.6594540406537,-94.58489624678452,14.379388744234738,-66.78929450373192,-25.795869322988338,-18.76020799227192,3.3722992423130473
4.618340180044096,-157.66742578913227,-101.61245580491929,15.461581516788527,-72.68101201223196,-23.811559028744973,-17.135200082182447,5.119167565911619
3.9236145132389297,-158.87041312474258,-103.63453891007424,16.448885030391597,-74.28415518875043,-20.81785256939867,-14.254675898155659,6.435257662069071
4.377806748138237,-150.76978994061722,-98.93909742518989,17.46172564604804,-70.71112755529991,-17.033204196477353,-10.106516294640498,7.200702200415823
6.106496688824177,-128.5860881464247,-84.08551489858287,17.90758960082555,-59.932270656778314,-11.881134005680662,-4.348507414242779,7.270646575711497
8.426119998424495,-89.26182846887583,-57.46391054412203,16.688688544250894,-41.0280197965256,-4.895809080520433,2.9782388333563037,6.453279434782398
10.12197939366523,-36.184809741835004,-22.191047809511023,12.909430730913254,-16.13321371036228,3.431484315369645,10.938647688967174,4.628116651769105
10.124464004710676,20.25516646045296,14.09488185435891,6.6122508640805355,9.596262613244006,11.564548309289274,17.891720558569098,1.9273281048431476
8.142893345176377,66.98297948563341,42.61140214431973,-0.9984071277412546,30.149936072961484,17.662569534325844,22.29215817164807,-1.182943791731072
4.837158133692279,94.5831749791501,57.74180954608992,-8.040951304422574,41.54926612337762,20.593244882320423,23.534678714147393,-4.0272588733744294
1.4291103555291715,101.52961727417079,59.47750426195968,-12.858607589363924,43.579333906914144,20.5050894224522,22.247737452164753,-6.004501864078623
-0.9711108112042338,93.84173336834532,52.62728468543933,-14.775057915984021,39.37416073617587,18.61565230310528,19.86337315784943,-6.857942237669696
-1.8879723790986749,80.93189612902428,43.6739536626143,-14.267034988001608,33.35638695296627,16.447503894354945,17.806104349344576,-6.759548709929062
-1.5664279168154756,70.71218632406082,37.5249586229681,-12.528209497767856,29.006007735049266,15.076288289162253,16.857764620128332,-6.16453138980396
-0.66225473213248,66.83480515569532,35.98631164795115,-10.77981462187349,27.73048401298944,14.822998784271356,17.029661055679288,-5.549122805865158
0.17937578441882535,68.82095226529819,38.20082590023302,-9.763034157744455,29.074848425789053,15.410452132552162,17.851264460649016,-5.205084564239994
0.5883995616260138,73.86676777319902,42.03529933026089,-9.618105412421793,31.63300238020048,16.30950331170404,18.752286010421443,-5.188292580550253
0.5088709836911435,78.77810724551786,45.36240098920103,-10.06009397889026,33.93784043682208,17.028290477707994,19.312961622383874,-5.390961004985384
0.10778996165528087,81.34523433264401,46.878627954754116,-10.644819923790019,35.050896291640605,17.28805567134633,19.37347689163378,-5.646545532114079
-0.34685161589672003,81.1132867974922,46.51066985804761,-10.993485251764739,34.866574623070804,17.11307808373967,19.062182735698585,-5.8106791562552935
-0.6134873288501441,79.4055953512565,45.328778428005016,-10.942294188374559,34.07803058427317,16.80243271616466,18.723985573420062,-5.815255933090633
-0.5981633099750083,78.37204247574691,44.824165547347114,-10.592869286449982,33.70618318745444,16.734854866722763,18.711541707854792,-5.696882004617519
-0.40732734451058905,79.42647544331174,45.84311542521033,-10.224413606674137,34.37278344343219,17.08832844326318,19.12964630788834,-5.576498599600708
-0.27000574093563123,82.15920744321231,47.94007753529703,-10.091664157518473,35.824736501873645,17.685238264514034,19.7324430933991,-5.579273726161204
-0.36584226555366056,84.62405258329068,49.70190603413951,-10.23851816631437,37.10740669133249,18.106105662015352,20.082333884858713,-5.7389957962021025
-0.6900757357593591,84.78134703813193,49.789511811475194,-10.469519550275596,37.256497920528275,17.989591551140595,19.857278276302583,-5.961894520008595
-1.0575623346218135,81.97789916184756,47.89171840979508,-10.496742741664493,35.98002912079968,17.2935970365233,19.081252578765756,-6.082933128675909
-1.2240919893174433,77.53619029946022,45.02014536237389,-10.141974336564944,33.91741170103623,16.365014841423765,18.15224794385109,-5.973145887222949
-1.0256829209160419,74.34267224275264,43.15935848981821,-9.461084099393577,32.44293966851992,15.823248080426444,17.69720975720225,-5.627106639711213
-0.4718904118164164,75.72393707092576,44.49462547007852,-8.74870789989891,33.142582760070454,16.313890526161693,18.315276527583695,-5.191123637601179
0.20902686627467465,83.73840288863836,50.2719846732758,-8.444123981262608,37.00467457824098,18.152166569281018,20.22771442050298,-4.928844989819876
0.5889160061598202,97.14200463690187,59.454013851172576,-8.94272031101019,43.44368430237996,20.928190807650584,22.91548927839533,-5.121582230153449
0.18765428277614316,110.10446284814284,67.93469860192164,-10.318412719261593,49.68372679342374,23.320650643004676,24.997757427676376,-5.901145336406107
-1.2297705829305412,113.28587232062249,69.40895353233407,-12.064574183289606,51.27676253682765,23.431777340627203,24.639685668712907,-7.0651908042678855
-3.3472484587498115,97.86952983292746,58.20865331345949,-13.0745581237485,44.029399946264576,19.692363330866716,20.48139791220726,-8.001022365754704
-5.237903441689461,60.84278908886293,32.81777423877655,-12.024116650176618,26.513767488875963,11.910143160797107,12.61551312859875,-7.843512283915661
-5.706571154224598,8.16181677065772,-2.236204108358271,-8.049686973655065,1.5693133233052017,1.7616898835484962,2.929133179462188,-5.863392449118986
-3.908114736179444,-46.81188603991599,-37.73616510349241,-1.341117235183481,-24.428628477096773,-7.736773981838933,-5.572657517611734,-1.9021690277153758
0.12396055356854883,-89.28169523447241,-63.94154763640839,6.757735587278111,-44.38237219693129,-13.611530710295137,-10.196814876698145,3.4109141398412874
5.393782249804481,-110.0476498817869,-75.20228994380705,14.264717720949557,-53.81145576022004,-14.408790303199016,-9.941991357475205,8.825861286540581
10.389648548683416,-109.39167140195136,-72.27958526767783,19.4226133098176,-52.754527236702,-10.888439302553905,-5.98804619473542,12.970238139442586
13.801764758763715,-95.62454662491676,-61.12302594250324,21.419781732794082,-45.18242677771519,-5.514490032446571,-0.9836136782889255,14.93108880465088
15.07664694720285,-79.61827045199958,-49.165855710079335,20.582957253153097,-36.48038633835071,-1.0742516498510664,2.4211982399639465,14.622186109298703
14.499432262653961,-69.0836410513843,-41.635556830946115,18.00829401830314,-30.69767238113273,0.7162614773450839,2.8910910467433477,12.758784841210119
12.829665969236606,-65.94226163185448,-39.92374724166054,14.934620804306274,-29.129275900777838,-0.16661684511258298,0.8355581731629437,10.475530315764884
10.795569864331446,-67.50134277926072,-42.310065676311375,12.246864075405695,-30.6480940207757,-2.4219547180653547,-2.149470764835197,8.799216694621226
8.770705243917641,-69.66573298391022,-45.89382295407142,10.311574039583325,-33.09945763448023,-4.393256769895692,-4.346186904900915,8.233502799153472
6.755603046199094,-69.88979874809151,-48.42868411163893,9.097100972385133,-34.77457262104058,-5.024130701426138,-4.843842738329513,8.629785482152826
4.579883065287505,-68.5852221664962,-49.3971974384791,8.418262451825122,-35.325237892566385,-4.347602326126266,-3.9093309326561205,9.375488540920285
2.171401620882711,-68.71399794060166,-50.09591880231484,8.169480017871033,-35.84068886035641,-3.3491801862146606,-2.6992598371018106,9.79048987942178
-0.23565434332693225,-73.70155883582788,-52.57138998013842,8.44499318340743,-37.98991645511735,-3.2936159090453807,-2.4819804996818133,9.521708364925054
-2.061944381933558,-84.3187389255985,-57.62716748493303,9.45297921911571,-42.4803400979856,-4.82912460634168,-3.759343566962081,8.711140126353177
-2.5948939043392913,-96.2132454643568,-63.02237021248506,11.209237748761943,-47.698594204786076,-7.368994900186003,-5.801751909936461,7.829259749759271
-1.4120660764464317,-100.2837028920451,-63.48096236718137,13.186460792246928,-49.694956958180775,-9.211625722160642,-6.962083430848523,7.280752893793314
1.2158813874472563,-86.75708517551698,-53.214797112771,14.240136253738434,-44.00423863576805,-8.452527799288164,-5.664672573539936,7.060294416849143
4.257817512442015,-51.073184235030666,-29.701526727046033,13.020158436097589,-28.417180156720303,-4.1718630317895755,-1.4610226976482323,6.7139979453421805
6.332911820349805,2.2276422646875322,3.8640951242538337,8.718402223874012,-4.867892452885604,2.8850159938906086,4.565919156192659,5.643191500408152
6.404703945740545,60.55391690098821,39.383640203420065,1.6826465667846626,20.988703243385455,10.610095113286054,10.341793726186879,3.536325917610805
4.333739281755403,108.9892201499107,67.65683469446502,-6.5565565352953,42.40164397222197,16.632736969930555,13.933516310547207,0.6258413288113008
0.9363516583663322,137.30598644905677,82.83480941142003,-13.930030493782596,54.75631902538828,19.515045454974207,14.544477144528098,-2.401672000342544
-2.481399876342815,144.1069912989111,84.8080346021075,-18.781915976291202,57.46764732485793,19.32403925019361,12.779138737394781,-4.771819127025176
-4.810668384299152,135.97796861058816,78.30868022673519,-20.568182972894082,53.56441176575457,17.320491042692375,10.10267822246834,-6.019178124126993
-5.626168729414896,122.83383587145163,69.71641260467445,-19.923622745242763,47.54049964562725,15.090249594609059,7.941091515092617,-6.171586933490367
-5.222341512261286,112.7916585361667,63.843031386868354,-18.140862559025802,43.02637920188225,13.737521652119908,7.025350134052161,-5.643565717274858
-4.272911698866235,109.47026228241263,62.4823177451667,-16.45570688555951,41.59722776617646,13.578073195841386,7.297427665211502,-4.956928388861631
-3.409377186691177,112.314978943299,64.8924084708424,-15.568906173986978,42.95460939741531,14.324102827420157,8.24343611851546,-4.48954883942377
-2.978603074900847,118.53527392808492,69.1399572571493,-15.57544138507224,45.81303899386736,15.449499703257743,9.291569719161544,-4.3790390806023005
-3.029367413192972,124.994817606542,73.2516832372221,-16.175164597811058,48.74473643333753,16.46738798112065,10.0375917032126,-4.568501361834483
-3.4149754915266164,129.40340344486074,75.8781349699096,-16.93982151675223,50.711896776577674,17.070778051240737,10.30755953200399,-4.905373910516358
-3.903979972180214,130.92339643230747,76.62250438973477,-17.50945108734883,51.34546408452221,17.195267336178958,10.154574230863894,-5.228057109387145
-4.2779648637649155,130.22347602653508,76.03830135604137,-17.705756122875197,50.970442246148615,17.00611531946169,9.80417346873064,-5.427768351903238
-4.42126489844561,128.83214968212846,75.16697925359487,-17.565378692200504,50.29991803641304,16.772976836000026,9.517734756530016,-5.484133901607335
-4.3630782254152845,128.06203157845533,74.81661428752614,-17.27400493392507,49.93261017899205,16.68760796063241,9.432469365452008,-5.456447504823278
-4.226664631607193,128.32166966677465,75.15558480845203,-17.025016025818083,50.042838470806586,16.77534052103161,9.514882409128395,-5.425866313822681
-4.1201561274800165,129.36904564134446,75.95812515487592,-16.904297267256545,50.51149039215228,16.97652270230065,9.672953248786282,-5.430466059894648
-4.0724526255773155,131.06769435178785,77.13393482861768,-16.89403992431228,51.276612376904176,17.284612877477283,9.893061845542448,-5.452397567842894
-4.070070142764061,133.65651195391166,78.86006300789232,-16.96809746900555,52.444095056625436,17.760292655331316,10.23383751890432,-5.466451364910146
-4.131190963016169,137.1817454992784,81.14919943600826,-17.15301148341264,54.01657393544195,18.397138464322218,10.684276288245092,-5.492389092060609
-4.3106579321836875,140.82007282000995,83.41731323722105,-17.47745552461441,55.595237421882324,19.007975768883934,11.067486302209657,-5.589783443042509
-4.621247844507461,143.02011389989715,84.65281886080083,-17.87425433980649,56.472273358584495,19.29179275287002,11.127049058467165,-5.799422580960329
-4.967036075258337,142.49689191683794,84.1153522039142,-18.16162361573598,56.09971404370788,19.044646697788114,10.72862426260228,-6.091429470433111
-5.176007318259933,139.25306989436717,81.95477814666869,-18.14345346618857,54.53765050854516,18.33647055048359,9.996198182041327,-6.365832659798122
-5.109113378577234,134.9101848611784,79.31993729272148,-17.746752783665865,52.56705807751583,17.535026705079545,9.292283253605119,-6.496786304820558
-4.7532217796011915,132.30823030996953,78.02363035589153,-17.0976237459573,51.47687930194869,17.19550599295681,9.09003992728948,-6.388967121460043
-4.247209559327536,134.575894681846,79.93892720476929,-16.511044593981193,52.63305552409382,17.861712311150317,9.793241704315347,-6.035894323740791
-3.8589093248532635,143.61511117389475,86.06295611359803,-16.410126841927447,56.80168125453409,19.769064019144196,11.491956715082075,-5.577409985254924
-3.9213285451034516,158.10613390477482,95.29590999273623,-17.158733564290188,63.27445048302952,22.489768054290263,13.690147930987573,-5.315311733860598
-4.6864882753749555,172.10705795219104,103.65807222873904,-18.794414935802145,69.2927992682056,24.75016206149282,15.216123489704072,-5.617950677014897
-6.0917147817510555,175.99859639534728,105.0793067296746,-20.76829505337136,70.5574197240246,24.73469767222004,14.57752319942316,-6.701860076794047
-7.573334296624093,160.5186432836521,94.12913704181084,-21.928317015105577,63.11234735461198,20.935552191221454,10.752591593555989,-8.40118643015426
-8.146346802865471,122.2012847742034,69.42362891269396,-20.92149331959565,45.7732146026277,13.136154906938774,3.9860019267773033,-10.104740395239537
-6.840572330683811,66.75453388672689,35.41810753117253,-16.902977394762736,21.506701035463365,2.858271968394334,-4.007167765171283,-10.963751072442479
-3.302832822308676,7.651253303849751,1.0131402752223473,-10.146588413744036,-3.412345577382975,-7.145353016413866,-10.70747254280231,-10.292868737006456
1.8184770937436812,-39.78966477390019,-24.521474332827328,-2.1285829040210884,-22.224380992373995,-14.151866244217286,-14.014433057307405,-7.94296527468353
7.0104584004978765,-65.49252696955747,-35.93243178848135,5.039692206656204,-30.882524726366626,-16.757737553510452,-13.303330312638328,-4.426805847047232
10.545398849222236,-68.70449567274268,-34.052496145106296,9.5390274577207,-29.722179109031504,-15.431992013594424,-9.671493088615179,-0.7230423392515031
11.303783502716188,-56.89484784005411,-24.479799673409897,10.610180080645183,-22.703448864579983,-12.045558421022896,-5.25003434909192,2.131756174790843
9.30904818841075,-40.70657341813387,-14.021883676308436,8.759028841246524,-14.909208443346632,-8.747443331878708,-2.0519838210498884,3.450284809350139
5.684432207495114,-28.48759311856596,-7.321984955740826,5.36352358797118,-9.988084318310547,-6.926228057320457,-1.0718270762094395,3.1224455795008397
2.091595696883678,-23.509769345788612,-5.510602975742865,1.992714578186114,-8.964336682793197,-6.8196546794515065,-2.0850181888955333,1.6081721953920742
-0.010941813312569632,-24.53103539141385,-6.995974544945652,-0.17039966664393927,-10.66182236113453,-7.8043838326898225,-4.074664759659867,-0.25572219128149315
0.07520220138053356,-28.152960457942285,-9.19734940813808,-0.5990474311656507,-12.975418991005421,-8.977265432307858,-5.875607186404106,-1.5549054859875826
2.0984296259251534,-31.085516889996196,-10.025789977440287,0.5787070230615534,-14.081760161550154,-9.623840370437746,-6.673677672793985,-1.6282770762314334
5.022300895682999,-31.481239262903607,-8.687798938365288,2.7348370495359293,-13.160795495129532,-9.429158508487328,-6.240313209067216,-0.33485102433943875
7.449514229572705,-29.380483075478505,-5.866433481363338,4.991060990834531,-10.593831568171137,-8.48690328108257,-4.927344857015822,1.8677024642282938
8.18108255878579,-26.361933315296692,-3.276355792978004,6.539380141881399,-7.654886389049257,-7.173450225511474,-3.4467197503436373,4.1133742767526105
6.724835996402234,-24.426414364420047,-2.6172529434829244,6.941773125089094,-5.7577393407160455,-5.921481440264002,-2.4867060210885987,5.523581350200833
3.5179992869598156,-24.611684180074796,-4.418725341959461,6.259513845075815,-5.606488264225788,-4.984982730294355,-2.3406109996411457,5.601774175066728
-0.27513967114193916,-26.321764126142387,-7.6234582045740025,4.945493983685681,-6.813429477673573,-4.341681680597958,-2.783019323921612,4.41607110691215
-3.2880181223807727,-27.938303052720272,-10.311452651130022,3.602060092000304,-8.269896810643582,-3.7859422941844443,-3.2717567397910012,2.508661375987014
-4.5054014149126544,-28.137220576355123,-10.997910780604869,2.7747643855112702,-8.93711247499758,-3.0932252121027397,-3.3024050066330948,0.6358813068580766
-3.586942303383117,-26.716003448329324,-9.469683403085051,2.847245810224115,-8.411090607763184,-2.1039349098950053,-2.663545224569253,-0.5137251453129841
-0.9027535516055253,-24.378454358352094,-6.665797473434747,3.9705223973035673,-6.940980387831389,-0.7308335693356567,-1.498578134104198,-0.5415959593157466
2.628193802241528,-22.027897939672684,-3.9905204166290873,5.9728164508954436,-5.126320775090522,0.9787329324801117,-0.25134497331047123,0.5250049483642054
5.815843694066366,-20.371564276714775,-2.695021416973731,8.320816548245709,-3.655751097709778,2.6981123410653622,0.4442337981255651,2.2222813852850805
7.568140102928186,-19.90302570316794,-3.5056148013061135,10.249036266865819,-3.136792455463707,3.7829790390853986,-0.016126772729248805,3.8128711897334684
7.283759596362511,-20.752711689309866,-6.3175443503034705,11.050571493679254,-3.8464990376933925,3.5390290621846736,-1.858457607454149,4.597823217985203
5.096056283685811,-22.29121585541113,-10.011998904448083,10.364347300933431,-5.4473364877598724,1.7038464109196443,-4.641950090066089,4.234874088065405
1.8006775639060062,-23.10009582408086,-12.802656006818749,8.28630597442867,-7.0186415397470645,-1.2428496643995959,-7.330540956979697,2.881494820684374
-1.5223102686101444,-21.814337829873335,-13.247998447572376,5.277444386088002,-7.611235186708946,-4.262752249083176,-8.812792841219048,1.081412238724162
-3.978815422428492,-18.347280582235296,-11.318139497867813,1.9720024688381907,-6.989691848409419,-6.358374360561015,-8.570362750974203,-0.5258113441979018
-5.173698402373128,-14.35215489120743,-8.596565785357443,-1.0101973213845215,-5.916794925951607,-7.160809034849311,-7.0176328936192975,-1.4992471388189033
-5.2534826564397115,-12.336580272551316,-7.320108971923976,-3.210094457470005,-5.670330014604105,-7.09402585064091,-5.254632961793478,-1.746336713639633
-4.724291249478035,-14.020713061843736,-8.904725702088056,-4.419180273752441,-7.124366662237562,-7.020724793079211,-4.3864639963033865,-1.4748738772854642
-4.1590200208391375,-19.047220591894437,-12.918324936326197,-4.6800331751860105,-10.022285773610125,-7.601730007515158,-4.823674869668399,-0.9977744360871459
-3.9169212818544437,-24.696777343229883,-17.007654737188336,-4.1958461319857685,-12.84239163915827,-8.75071557212031,-5.958688668972228,-0.5173220668972252
-4.0069707316475425,-26.676099733075077,-17.75465534743179,-3.22808360494156,-13.309600361889272,-9.537147620608874,-6.420346100319289,-0.03380030885931457
-4.195314491626631,-20.944276392003733,-12.288385377713995,-2.0761926147155405,-9.461843813206004,-8.707493548310126,-4.860728672318893,0.5510679795766682
-4.318086104315071,-6.422619238667054,-0.35372433340047355,-1.119436548018019,-1.0572067799745066,-5.651954492387147,-0.9518120954398873,1.2148826960358972
-4.57510017927122,12.408281864509865,14.014241298236442,-0.7780254998922997,9.265014229038076,-1.2595544958018379,3.9639593785448644,1.6744993076603345
-5.534364469589869,25.039345628331088,22.6136134444049,-1.2966830935238962,16.015824723574966,2.012903460540841,7.103394678536118,1.4816661222818661
-7.775465678101006,18.258850829101497,15.931390836560745,-2.4650297596830155,12.721238704176638,1.143459694719077,5.453525467767902,0.3214017310969023
-11.403566493093823,-17.387009511193778,-12.077200612577355,-3.5442119661866927,-4.886708399684018,-5.823367792357753,-2.5953048604396503,-1.7045970653755322
-15.806164285248748,-81.42798656998798,-59.89871975672999,-3.5692218831744102,-36.07145276419267,-18.488844292484465,-16.154100713251733,-4.039276250937144
-19.86807863872592,-161.7431370023246,-117.8590488438567,-1.8989528040220582,-74.57095168149093,-34.00995557955513,-32.00767041957545,-5.930056142372394
-22.531192012143705,-239.0517275041021,-171.88652849352883,1.3454532896355473,-111.00464245897085,-48.336515256456764,-46.03091266455728,-6.8237164055442205
-23.340131196453992,-295.45575070516645,-209.7474870566173,5.272007124179712,-137.01596088673523,-58.07788187004528,-55.0591813674987,-6.641646799990106
-22.62780239733263,-322.1809256529687,-226.22441182754017,8.670165707288021,-148.8179271364031,-61.93203836536049,-58.16258632637922,-5.770833016080809
-21.247740283020182,-322.19295990962974,-224.39785844204448,10.638357218368107,-148.1978119649018,-60.9277959933063,-56.68178384876998,-4.801395152698339
-20.067398277971055,-306.74851009451123,-212.73510396615202,10.987235441480115,-140.69076678580007,-57.5022194957586,-53.17074801328035,-4.201327900048134
-19.568409594156517,-288.70788700524065,-200.24225363721192,10.194410307753442,-132.36100889606297,-54.118046718844205,-50.01187846897786,-4.132078506916946
-19.76343120661407,-276.8667283493492,-192.6761725202852,9.013980467905531,-127.19734362392653,-52.25557403010286,-48.50564377008361,-4.476456680294334
-20.373234718881875,-273.9146407603198,-191.4346516739525,8.056479287205592,-126.27185253708954,-52.17565376322541,-48.74669019446871,-4.9932891367253145
-21.056765882227186,-277.7185252606273,-194.6863707134119,7.590930875222317,-128.43575066005343,-53.28147631839902,-50.04874728075608,-5.462210443931742
-21.55138918838386,-283.96659597950276,-199.28819832359335,7.5849208309973974,-131.5971422326169,-54.66356565312463,-51.49454676501594,-5.751689327186343
-21.728478994002074,-288.56479902677495,-202.42550411345752,7.839180367766771,-133.84124491147546,-55.54799587038193,-52.35872166905549,-5.831196505560602
-21.618806631037483,-289.2573810718389,-202.67993793599047,8.105544008082674,-134.16903697381065,-55.579152587429036,-52.35777517770745,-5.763401247474194
-21.400284183564136,-286.343306364458,-200.45029505441218,8.18380121889552,-132.802411126363,-54.91772183797736,-51.713257549824256,-5.674194467792036
-21.30572761499725,-282.2031560388575,-197.5283578002008,8.011035392063754,-130.92590775801239,-54.10148937546183,-50.982437873654035,-5.688140925982146
-21.477380961001153,-279.6513496768095,-195.88533061257945,7.6932545128735015,-129.88693377192334,-53.69585645213188,-50.701385277695884,-5.856800109174734
-21.875723088587264,-280.028223214146,-196.3630494939876,7.422019426944275,-130.29908195322673,-53.9340762770218,-51.05103119203311,-6.134600870699578
-22.317986217975726,-282.3766016965094,-198.19301285199882,7.320079119427824,-131.6743555016714,-54.59326283618847,-51.774723499886484,-6.420585849812473
-22.602133164441547,-284.24769519244234,-199.63329467747852,7.348672413594399,-132.81750166686786,-55.16974709125895,-52.376670634612104,-6.622977377646831
-22.61008637437734,-283.3821961450536,-199.13026483048358,7.357646249635881,-132.61766694601764,-55.18999310048229,-52.42104918924324,-6.694285528696523
-22.345707982626212,-279.07063244730233,-196.20442689920606,7.217411094494526,-130.69233157277827,-54.45786615672329,-51.748910126927036,-6.635145690570954
-21.94600740027298,-272.6513701634345,-191.7700598436159,6.907299410822326,-127.64956216161359,-53.176185394901786,-50.57756251332785,-6.501212438935465
-21.68546174150822,-267.26998001609303,-188.00476450746027,6.512694422737301,-125.0158290037224,-51.96095101159738,-49.50889305943994,-6.417113922747113
-21.90913775397108,-266.89680658152787,-187.70758776363314,6.183788226474953,-124.78589388847871,-51.690611681833374,-49.37982797382313,-6.550510174168464
-22.83164903060644,-274.3092816803569,-192.87822284177807,6.099738661251041,-128.42435979331992,-53.083270656027764,-50.846250648963384,-7.011896692733652
-24.276997375081216,-288.38117206719,-202.77192755074228,6.402181794496162,-135.49323018872195,-56.07458170292252,-53.78679428778314,-7.726902138411978
-25.566261905741957,-302.3428900220286,-212.65587169472659,7.060516333223982,-142.74110096537103,-59.37089983723887,-56.90503536248138,-8.387155057391421
-25.71338802863706,-305.0535073581798,-214.71126484255825,7.744646912359673,-144.6696983693025,-60.62624461413675,-57.94932299786383,-8.547889423585708
-23.87624378979986,-285.6882048702719,-201.31877613183102,7.8610741221522105,-135.79847487378282,-57.35605054312113,-54.61730034824602,-7.836965135456308
-19.81881872803976,-239.62213684514157,-169.15076947233067,6.812525645594652,-113.58235425671542,-48.18401875905669,-45.725050287641686,-6.167049508077794
-14.125272723839332,-171.94098471210222,-121.62979567189959,4.334813708866059,-80.265437101571,-33.738068630553926,-31.994704540109794,-3.8482399382566608
-8.04885730312558,-96.18407848394956,-68.1531418426207,0.6631441435267278,-42.46032561373265,-16.67378041120308,-16.00522489709509,-1.5485826577609612
-3.059566386922709,-28.802673461083888,-20.393083301843923,-3.5981007186951355,-8.56643562496816,-0.7728164626065868,-1.2987606540094607,-0.10027922739130543
-0.28579327902739865,17.62014033274524,12.351528418099843,-7.792606272038687,14.616664064243407,10.460128743705203,8.93783062448467,-0.19920682569954778
-0.08921449423899605,38.75361421704719,26.3711226135449,-11.470084282239043,24.331629106418102,15.050743267096388,13.008085296396217,-2.1019365863392054
-1.948490447389275,38.58236651567944,23.98530941565285,-14.41095706903135,22.281173488017803,13.13281024211934,11.185727609905138,-5.456403328675232
-4.681905858604815,25.980940326459887,11.577144018870237,-16.45657067304985,13.186898217422701,6.698989223188789,5.428119700482716,-9.367723297888439
-6.897622775455175,10.40197240325792,-3.2726167565037754,-17.356348773114785,2.578230096462998,-1.256535442312548,-1.4483554720861536,-12.700261048072807
-7.4912598234866286,-1.0812005989979092,-14.173898276496722,-16.82107978878556,-5.072781377878428,-7.814090566241147,-6.7661039463410235,-14.498121243601815
-6.009825144925693,-4.818225356516029,-17.333133377370256,-14.764541867812135,-7.364752584018885,-11.049016507132635,-8.825440847147753,-14.332797976739515
-2.748559251586871,-0.3863766095303266,-12.065554462061566,-11.51781348679074,-4.163208226543355,-10.513537249534503,-7.335440027114453,-12.412371049127113
1.4448483738510307,10.142648149812276,-0.5127961236691687,-7.811202575544064,2.8344546538707363,-7.1402946422696045,-3.307018999161914,-9.416416975046973
5.5353999313415105,23.20985554193691,13.370899550462237,-4.522950964058612,10.962228308676021,-2.6556817300601883,1.5124192313177613,-6.177961050244196
8.629294219431545,34.838017329522124,25.21126536310188,-2.371470761678308,17.546363335796467,1.1783006459012781,5.364847643957092,-3.398125124112959
10.141026724054747,41.43587514970244,31.419521947691887,-1.7074177803284367,20.589031915554006,3.1360161562962894,7.039527851061778,-1.4985682413345953
9.85544997488979,40.368601828773436,29.989092965951237,-2.417450544735944,19.097505773794044,2.7797643591442998,6.149485167862516,-0.5775684143298916
8.020600632627506,30.88656453489107,21.210204277926092,-3.891914459294774,13.3750549691336,0.5288979083409883,3.2468134768988133,-0.3852691566579048
5.474200214277334,15.726691026171316,8.519116273762283,-5.098059082133544,5.512017557185527,-2.2978962584418734,-0.12627180188586085,-0.3181015682369274
3.6058601459368034,2.37434808113671,-1.1802406948364794,-4.872524948980208,-0.314470772109286,-3.5679469086256215,-1.599244951878564,0.4652567481439523
3.95280144352892,2.009583149127734,1.0494314116053545,-2.4296122988921027,1.415718442419676,-0.8363655088988875,1.3889887309277043,2.7344154300476604
7.497758401953509,25.160261672541147,22.5964986313199,2.1568010489351717,15.40287073740046,7.654144800434919,10.49172511237599,6.78123467092576
14.056657067635669,75.75223132655988,65.05741887845716,7.843512755476725,42.80673392110362,21.89124988339986,25.400129330419897,12.162535036995257
22.196107326947832,147.29481402593936,122.04850991250025,13.038595143841526,79.71748209900095,39.65100208634642,43.55446484734067,17.802552532803723
29.818120448584853,224.27256378509082,180.99926490272182,16.35389535547306,118.15182835979678,57.163388066546986,60.99299308298482,22.4480381798469
35.11033108583701,288.61137565117957,228.39994857412273,17.24877159196175,149.34656177831567,70.66105069237545,73.99664170964711,25.22966092873202
37.31412583053491,327.6813463465805,255.6496029038956,16.187366854118668,167.56360943811754,77.97477565685769,80.63751005850168,26.00709933207999
36.89058311108725,339.2249770741394,262.1949417335698,14.255671261744673,172.2368651410178,79.27847481989784,81.37404746894457,25.320115236894193
35.06812638367821,330.6609483826162,254.42700918917646,12.532998724863472,167.37898709640842,76.63447675777826,78.44573106027006,24.025048836434888
33.13455365650151,313.8979557171008,241.5205576238899,11.627947114209563,158.9344024707686,72.74773463890295,74.56597176002037,22.87413251178943
31.91527403689087,299.35983047565037,231.05870789887464,11.59748637618596,151.90638920199297,69.74746429913503,71.7492688014432,22.271896269362184
31.64242897466033,292.5736851856969,226.76337149744927,12.155767463750996,148.81501372168864,68.6092175823086,70.82950809522009,22.267487845747127
32.1134424730539,294.1108412033963,228.68232060069838,12.924171989251274,149.77449101023197,69.2616618634858,71.64053308530725,22.681436686846137
32.92135974738831,301.3752146419392,234.61357959597697,13.568916417718135,153.4133368850672,71.01109054970266,73.46032295429956,23.24062688615163
33.634909450638965,310.4594466142485,241.49875405871788,13.851051411065175,157.7846889855125,72.93888478497453,75.39091685620822,23.673647056540023
33.9296200193333,317.48020619697917,246.4259347530092,13.66917120929622,161.00755378941471,74.19066911730455,76.62098421230682,23.782519108517462
33.68335982316944,319.67194916490996,247.45393856483238,13.097720663115552,161.78480217257712,74.22099453212499,76.64503923045069,23.49970288962606
33.00211278963204,316.29001598014975,244.25966624358117,12.366847037037449,159.82393164181022,72.98569456404894,75.43237738378063,22.91020863399075
32.15504981365282,308.8974480032522,238.29110922319836,11.77766805711606,155.96210786922367,70.98493806769537,73.46083546478017,22.227061689830265
31.469049692151717,300.8191434131575,232.2927153696142,11.610480025272931,151.89601210124826,69.11358486057668,71.58817049278163,21.73666552651418
31.24790992985181,296.10763293987293,229.4524329561098,12.054288682208242,149.66783125267048,68.37920977242204,70.81355505755371,21.724702646684186
31.703140550034444,298.35523126398647,232.3842896978489,13.112990144310825,151.04460401588818,69.54401714541665,71.94754764046043,22.36129670367433
32.82939107924613,309.17654019906433,241.84915746952626,14.467981767171318,156.71195304311456,72.68882476816859,75.15508086719936,23.53837943783586
34.24115466690278,326.27482569677346,255.2994864145494,15.410424911117165,165.29663990520447,76.78263198361851,79.46316095607129,24.73803168708798
35.132524601535856,342.1252862052783,266.16470272094676,15.021977668951072,172.78362821282693,79.56988275647107,82.59073554225604,25.0791614854922
34.526475553103154,345.17998414717016,265.2478710940007,12.630964879626251,173.25598110901905,78.15248475905436,81.51845393358735,23.626150908835285
31.76991831679573,324.4801063553975,244.6062983217239,8.299067760324773,161.3089581814428,70.2800820134851,73.81683830897899,19.854816247174394
26.980816518113308,275.86567420672645,202.2372634633095,2.973433220662786,135.15190707130634,55.74941596567162,59.11135938000541,14.010756287794084
21.11523959050004,205.9115653443087,144.58338336135904,-1.8760882017135752,98.46123041510786,36.996002230765235,39.742807749411696,7.115988293043143
15.558593262883978,130.4564170890838,84.75213737266422,-4.957822318486736,59.49236673833833,18.3199009216943,20.044922920962755,0.5840304547465237
11.473680413570182,67.92223588925158,36.99778480271137,-5.777131379076182,27.63370306222614,4.03683485496234,4.508520335476477,-4.356995411822651
9.305602879832373,31.101308378497254,10.494242908782601,-4.805183380658924,9.274195393100687,-3.4272235225964813,-4.169734786824511,-7.1256175511833035
8.72900100759618,22.126171024648706,5.905378405381846,-3.1282268417910934,5.321321270539335,-4.412663366464688,-6.066316757470881,-7.909201470914161
9.013501169711498,33.20534850638522,16.417170082122738,-1.8349671280533144,11.6253169748173,-1.4377700956122674,-3.563255493092443,-7.4309431893281435
9.50889979654045,51.98959258888078,32.0920513775238,-1.5269812385255672,21.729068574648227,2.379199519655731,0.15374531641719752,-6.536596530660688
9.91989372646079,67.83569954594715,44.64195482082244,-2.1907783490492023,30.08309332558406,4.874084327211198,2.6742092545136074,-5.834745598192629
10.258601862635201,75.48908002480547,50.10598639134692,-3.3925662412988182,33.97672469738222,5.53485427719495,3.1944129965350156,-5.537657497970671
10.62217584799291,75.16649952537594,48.811901646522834,-4.582577794803073,33.63112538900728,5.192018219701094,2.3852344679303803,-5.509411237049269
11.01850054152461,70.3762276687384,43.674432959545264,-5.329066510475677,31.070081201870124,5.158345180929748,1.6399077841168257,-5.439588025489533
11.337412453341527,65.37247358193058,38.21582693684508,-5.436007290245574,28.71328009299351,6.413490918034837,2.2110849713576033,-5.048312491120229
11.41194696559541,63.26543965927189,35.054909197616894,-4.9716018259773636,28.27095493088031,9.174943318467946,4.596440628618353,-4.246076233874568
11.081826690445673,64.9861298694987,35.06268531249249,-4.219532074255159,30.134582810332805,12.894529854181156,8.337571451048367,-3.189490298945965
10.235370461715512,69.21287433304084,37.31767325489517,-3.5550697890296736,33.36629714757615,16.575187280379176,12.269679369437835,-2.2090796130594557
8.849425173904134,73.36715511433725,39.91891381516886,-3.2933708906010075,36.31516454623173,19.255443603381703,15.116212223431596,-1.6478289321839823
7.0252267241469335,75.24392070839178,41.2508679200053,-3.5919065345733436,37.577411397777205,20.451833080787498,16.13565189697183,-1.7004658695069914
4.990944694264263,74.22966214608093,40.872910150687844,-4.44279295626635,36.72178016344362,20.33213706798001,15.45326148757724,-2.334522768249619
3.060632698069775,71.30349169368137,39.470253083591075,-5.708632175883216,34.346477408825855,19.528496056859876,13.893994371900689,-3.3132021329227737
1.5703115022247438,68.06431470479886,38.112433346703945,-7.145138774976078,31.568279367063322,18.73652843531834,12.465744985653119,-4.289280001376593
0.8016338462226945,65.75981099214195,37.56068129632931,-8.42896283862451,29.422536931554102,18.368649678147218,11.838052415772419,-4.937030194260234
0.8783335837785704,64.94469217109842,38.05683677477306,-9.254149303463072,28.5194359411787,18.42550485979404,12.078732183647661,-5.099457086845946
1.652510628208527,65.55274329322422,39.41330905754635,-9.486889157731818,28.932258065484564,18.56448512586827,12.698769131053654,-4.898655851860201
2.6751563915405487,66.94213418021606,41.09032207858995,-9.255148122654646,30.185316240734416,18.28034865535002,12.930561765778734,-4.716226267829528
3.351873590125244,67.99503262539443,42.314245908373614,-8.859945698631442,31.40027395046186,17.157974218974587,12.140634354102275,-4.991727926066353
3.253102425237618,67.66037641398118,42.46704125161167,-8.553336211602332,31.723971784392038,15.144021087627264,10.22721591819173,-5.928829841214808
2.386529128362977,65.80583608044408,41.604014750327075,-8.363742334563522,30.87568670011106,12.683629478185141,7.775074886315538,-7.312566167714697
1.230161818411784,63.56590728139959,40.562075542431806,-8.10068043365995,29.371324341209075,10.563096264035838,5.805319628374467,-8.583606982041212
0.4995843478611842,62.60507587346368,40.37646338584982,-7.49451137583123,28.165121568368164,9.506017717588328,5.231523544641727,-9.117067365123395
0.809837456476592,63.789228071465686,41.44985285721945,-6.3285504325949455,27.98403919621669,9.810434024220763,6.389774001991323,-8.505686315310419
2.4169789016231142,66.4428516871529,43.24056959021632,-4.49501067219082,28.915487799921006,11.298531784817486,8.95986377934241,-6.686710239273217
5.111618593604024,68.83692190277898,44.73473836728362,-2.026224744425497,30.520467875524155,13.558997729650967,12.259292585733935,-3.9096559691544654
8.250759734891407,69.43884169614539,45.23792390013208,0.847227139993035,32.24938090391283,16.208277591274168,15.613786186594519,-0.6419649137802532
10.926350119885013,67.99147907957604,44.885087656920966,3.662217320815354,33.79733279803772,18.955395076482766,18.552270425516,2.5231513762962674
12.275151368079525,65.91798192212582,44.70092384451357,5.80438099149763,35.27524758068411,21.522643086625187,20.82155863550572,4.969641324087427
11.835266094807977,66.00242744843116,46.31627296494751,6.701801756538835,37.226452475485985,23.607088089583208,22.34297672001903,6.194724630311543
9.736736263905787,71.20800945733374,51.245275831014,6.016903507994617,40.36210901984147,24.922297763075704,23.13399687322602,5.945517052084882
6.56256292416592,82.48270956677885,59.54253533193096,3.7414979097383725,44.80746558463838,25.171892649030813,23.116133698331808,4.293237974836578
2.9585078976870567,96.27029546229677,68.28702351334469,0.215284531599949,49.0707619784397,23.87316790063257,21.845509973932497,1.618271465657292
-0.7101821737037188,103.65963112949854,71.20815329651556,-3.8675862446703757,49.59007926641755,20.22275523038038,18.424521595424004,-1.4710862404215939
-4.392935182869772,93.0200645156152,60.662214881328545,-7.491382733835884,41.752681700171216,13.318221499384117,11.858388546631444,-4.259616518751552
-8.092363523792335,55.81052662161617,31.61579559095481,-9.510916140147039,22.323785439864604,2.7889754362468264,1.7868583108259708,-6.083383449780966
-11.577971454554223,-7.552429531985831,-14.591388593686752,-9.051580231683836,-8.065972104107866,-10.550055832045413,-10.880123487425061,-6.515724889958479
-14.352455932863675,-85.80496131011603,-69.3992017125186,-5.959219819719824,-44.16586270260629,-24.586513367585994,-23.963363057145283,-5.524475693021229
-15.915387004582277,-160.8382531669514,-120.17131382398993,-1.0039289723243168,-77.9283356848433,-36.599054305613116,-34.80823878317212,-3.5113828402758243
-16.111520179519037,-215.7015265214212,-155.78661785168129,4.365894976825735,-102.04949977457572,-44.429921045553776,-41.46486046531358,-1.1772652168474638
-15.279366095979789,-242.0041721216492,-171.44341396736687,8.644180337172438,-113.16690122574694,-47.43686737521575,-43.54078426753637,0.7534972083357826
-14.077544990042629,-242.50283637486083,-169.94451382466883,10.925605597900637,-112.8635816909979,-46.635851364921045,-42.21017104388779,1.8236074275091512
-13.12367369604474,-227.87901973285605,-159.07757829108078,11.220266418550056,-106.10224707122795,-43.99474998253379,-39.433585207864105,1.9949268251362975
-12.715423495136575,-210.38438300723124,-147.15547060504358,10.265842541670054,-98.35154457941147,-41.396643733153994,-36.95034587070951,1.58056721904024
-12.80340415422571,-198.45867443272607,-139.53336031244106,9.01381320260934,-93.24911017753904,-39.92174042694253,-35.657388719869125,1.0147063003356995
-13.159185408376374,-194.83220693021727,-137.62361624963663,8.152208794136445,-91.8654041362548,-39.74041256208688,-35.591551919129245,0.6199328502015233
-13.554255625193717,-197.77693741069118,-139.96033719320891,7.922601820192284,-93.33982784138512,-40.436937905547765,-36.28528746176115,0.5080993492551888
-13.836130088328929,-203.55403100148087,-143.90865909223876,8.218387994941782,-95.98420799416787,-41.406665608016226,-37.14579475668094,0.6262700856969795
-13.93188910742078,-208.50470813058277,-147.03329781311183,8.777665556183628,-98.18736256605844,-42.12950226381625,-37.697264718156696,0.8568910864983219
-13.850685199612137,-210.3682660563105,-147.9319131805575,9.326937186680597,-98.97737621875254,-42.32541996319481,-37.71372223820046,1.0872162165349653
-13.68410944005422,-208.8595011252529,-146.57041685934377,9.665670741519948,-98.26745115864611,-42.01912938710279,-37.26610798054008,1.2372876516793017
-13.55632565763534,-205.36294081977172,-144.0044891956312,9.72600529240702,-96.70719499545244,-41.4715093057107,-36.63657078294597,1.276390035457269
-13.534788160446622,-201.7780851414602,-141.53585214295086,9.587130803618575,-95.15097418088558,-40.97742918236263,-36.10980950206387,1.2322306573201363
-13.587378803655541,-199.25248758008854,-139.8613244257168,9.4046733178391,-94.0904351019709,-40.671263155199526,-35.7923417201764,1.1687434026367247
-13.63872062635986,-197.8024030326476,-138.8971702400486,9.293288207949756,-93.50788696253154,-40.50958424465419,-35.61764717480742,1.134166859858908
-13.663603578890172,-197.00155648601475,-138.32279018004823,9.269660239622455,-93.2099690111169,-40.423841473634376,-35.506557157786595,1.1269071304308973
-13.70817019728092,-196.81258345924192,-138.14006437177017,9.306339727440728,-93.19708213348491,-40.4479688182255,-35.482651793976416,1.1186605134013006
-13.817907464520518,-197.5703269620159,-138.59581704445486,9.416753537638211,-93.62602061697659,-40.66475655048504,-35.608769985031444,1.1091380108066906
-13.964911048773795,-199.2064968448934,-139.61793058533775,9.653800834091715,-94.44130617413867,-41.04037741048605,-35.83586321320897,1.1448617319434953
-14.061574041156293,-200.71778766596933,-140.49094278683614,10.015039582225112,-95.1522006567398,-41.35235777924339,-35.96017745819849,1.273596777296877
-14.037835278950515,-200.56638211937636,-140.18652977965706,10.37093826999964,-95.05092942079894,-41.30595397910974,-35.75019499507751,1.481100133865629
-13.892161811592135,-197.66972716571775,-138.03945024042153,10.51540137553918,-93.68039725432926,-40.73267998413964,-35.11670630892166,1.6772495367497129
-13.680994912923868,-192.1783619947317,-134.22249606320275,10.305995737220353,-91.17271519660923,-39.7165819127233,-34.1869782454568,1.7448564439272014
-13.495372369001588,-185.69785803598322,-129.8512850451677,9.778038528552045,-88.31762224832084,-38.6087992200707,-33.27831648147292,1.6081050189479087
-13.461886895777122,-181.07169351463997,-126.83602011463351,9.163389637537627,-86.43292565265338,-37.96531476447343,-32.8299356787525,1.2804367925874915
-13.721501282902205,-181.61574381909406,-127.37359516272225,8.828435036178938,-86.9912934578154,-38.37835721572064,-33.26879587469919,0.8867511185811001
-14.324589860457356,-189.40388161042165,-132.7712460019007,9.151112760148427,-90.8255815751602,-40.13000918349874,-34.73567727482258,0.6564580617860867
-15.087453095465948,-202.86380682171787,-141.81053670314265,10.319058243728525,-97.05477527078287,-42.75468440123316,-36.747632168830016,0.8529192735529262
-15.55805820399815,-215.2663302216717,-149.79331254263545,12.07694823516976,-102.47660653987607,-44.84217145834271,-38.08992645664999,1.6139436260176543
-15.18634331730345,-216.06336859474683,-149.58802578238937,13.58746837743966,-102.29818274314843,-44.41941797396027,-37.206298556747726,2.763405946373024
-13.6147618389508,-195.41934444667768,-134.7937921036675,13.624122608477384,-92.2847141849701,-39.88124015349325,-33.00283453857176,3.74092558359657
-10.882997049971117,-149.72658707024394,-103.40723492088932,11.137492970890195,-71.23573606522635,-30.969087526082923,-25.589577206559863,3.7710808867185084
-7.402426127068468,-84.63592659036864,-59.6561716234767,5.923840542435696,-42.19161758599944,-19.148828498873257,-16.432193767305538,2.2402615973050093
-3.733093187374668,-13.39110574117804,-12.652219972455063,-1.045018584319562,-11.44069751993341,-7.0708218603263076,-7.746261741507773,-0.9167537262111282
-0.32626612531255667,48.8362091637304,27.511424613575766,-7.914458967962365,14.228175515918501,2.627600546793737,-1.4616234861366828,-5.060625320033686
2.6073809939617685,91.41768343548388,54.02491462638366,-12.756230975258369,30.476034681321185,8.496810264930152,1.639557904840616,-9.043613095703602
5.05112655994335,111.94851344243017,65.65971419468478,-14.448848160947877,36.91959501648666,10.761613976259575,2.125012508906968,-11.67994325945249
7.033148380704144,115.47527543229744,66.11984266645744,-13.13620890468334,36.51832316062699,10.900626160574795,1.3979860679314298,-12.256027652611433
8.512667421541513,110.48668829767139,61.33520604773767,-10.043868598469272,33.52000356430436,10.666784373232678,0.8544682148350335,-10.828594777616596
9.383828673320787,104.55174459822095,56.58797312350152,-6.827153023869964,31.372184439738703,11.173636042006589,1.2366099480259618,-8.18480587768585
9.561720406106167,101.86546046916462,54.87808021513616,-4.858462895167522,31.650162345259837,12.495457643666985,2.4655788571260144,-5.514183419525021
9.057884470631318,103.0513050311322,56.709965564909126,-4.7908357234538395,34.120536589713005,13.839220742101089,3.884787118617064,-3.9526946654295436
8.004229452650518,106.28913908177837,60.75121205270034,-6.4838566863062415,37.452423458126496,14.088384023992448,4.686126944198007,-4.170507830824603
6.65126295821351,108.89669691360477,64.90218009137695,-9.192271746864218,40.11214814409285,12.469115728995167,4.34211551492268,-6.136473147329681
5.349367481844919,108.95511080560625,67.52385116480104,-11.900601634381866,41.18726457829943,9.085178203646286,2.9201267340076016,-9.145134186167727
4.463165300844028,106.48644934817096,68.37112041523822,-13.726632573637575,40.8669809916604,5.041623444850771,1.1278873478639782,-12.117889954818871
4.19432372600399,103.43895110990687,68.59605990418689,-14.282676935602979,40.255265957931776,1.983823497458717,-0.017120176964500994,-14.071037706484695
4.41036734645884,102.25858838337383,69.68091988191709,-13.821421710516692,40.518830742720915,1.2171917634524716,0.22696651680520638,-14.535488763498032
4.646118818393419,104.00278980284715,72.08951540722934,-13.053877005332623,41.9453702808255,2.928150915223711,1.854809276036467,-13.715001608215953
4.336104452979426,107.503393604029,74.76945622287283,-12.732173297935145,43.67055766818103,6.037230058529336,4.101209915417341,-12.312687233706578
3.1356819576243047,110.23175983932362,75.9083312638738,-13.260630189022972,44.30854115275054,8.801353157765574,5.901406465703662,-11.145217917816586
1.10767760348666,110.0989291201865,74.28464252990163,-14.558821404248782,42.97955153524972,9.780077260669707,6.500372881155188,-10.761723404977376
-1.3272407331544753,106.88819573417962,70.23108848139292,-16.19559451437611,40.00335030161354,8.594492726713062,5.842746378808411,-11.23963594349478
-3.5977509593856003,102.63840335159664,65.75026922482508,-17.651689665227167,36.917206587778004,6.109542835027669,4.5918788937369035,-12.212582803282027
-5.2112019127775016,101.01338034406042,63.862945763140594,-18.567311629889904,35.9161189569705,4.0074146070002135,3.8324539359180068,-13.08677609814798
-5.938818731681251,105.73504399523249,67.30630707783236,-18.902229851563767,38.889438351810625,3.9543328213458215,4.562290691339736,-13.34396635484115
-5.939469525659896,118.10925175596955,76.69600668421783,-18.953932101677125,46.19543262881151,6.684878921204774,7.0984805461587674,-12.79255377047528
-5.762868668859628,134.4436442064084,88.82101793529809,-19.172383863307196,55.59686819658509,11.409382374301801,10.642910464533374,-11.632443092369806
-6.145727428148556,145.29612306984902,96.44923576967017,-19.800332118527407,62.19209913993497,15.925293582031228,13.350053052868493,-10.287357672682408
-7.62289955069098,138.34738177570878,90.739120947061,-20.548157356400157,60.0132647089613,17.536649664518354,13.067297903766166,-9.108697613660166
-10.161085551164268,104.47107529517893,65.68594303045475,-20.589710798132096,44.93388468786909,14.403804738989095,8.469593399893785,-8.154716958578167
-13.085250304881333,43.75665464554574,22.157435919298806,-18.985570686575926,17.332390742316026,6.586295833203131,-0.06881625334007506,-7.198289070653295
-15.40023464819244,-32.60921670746294,-31.259117330652685,-15.306649731319444,-17.289294124400808,-3.863783276668338,-10.461976020712909,-5.945598538701757
-16.331178682839806,-106.45335502306705,-81.59254931492315,-10.033319257997833,-50.42027833901831,-13.856184019790886,-19.841598583077637,-4.295998029894211
-15.74314061034869,-160.71035727072882,-117.30375815981563,-4.428604902775594,-74.33437921245354,-20.727820192677054,-25.906329749637038,-2.4554439246129034
-14.177746790489785,-186.84429043444848,-133.2378647041891,0.061784564692576226,-85.4009510202246,-23.38411198464281,-27.90401313742137,-0.8311993061061931
-12.502658644242649,-187.42931979076468,-131.9695147557898,2.5116556712095917,-85.08125146080717,-22.516031681277184,-26.716960548369666,0.20937073078626997
-11.424538939381652,-172.96125539184655,-121.19413978539075,2.8903076975762643,-78.30926764691299,-19.898398524820593,-24.116536787913553,0.5450841234555257
-11.184226917273994,-155.57214029295898,-109.25066103817274,1.920448524135229,-70.57049744607835,-17.32740654840844,-21.757519225254764,0.3384284876657038
-11.584441539146288,-143.6856826578756,-101.58843744202747,0.5793700094409465,-65.53068419810843,-15.863974540662321,-20.530999685761337,-0.09717850128466837
-12.241939833526637,-140.0864057496231,-99.71103358796093,-0.3936187267719591,-64.27329210441525,-15.686575183277672,-20.50592357737535,-0.4811732774930477
-12.83260957883254,-143.10455185939392,-102.18940147797107,-0.7107503125296817,-65.9245840389982,-16.387386494517905,-21.249714721267615,-0.6720979211868486
-13.190474586270636,-149.0277395285034,-106.37044165227324,-0.4609426512796494,-68.7690128618641,-17.36248299417323,-22.190699044849733,-0.6622547684201185
-13.290678556887267,-154.19724036303433,-109.77868465033494,0.081431281189383,-71.17523507801907,-18.09137852826569,-22.858302179251183,-0.5190229355641753
-13.207546907478312,-156.33240883832775,-110.97223212478944,0.6170184361814821,-72.16406323682718,-18.296616878058412,-23.017453155162382,-0.3364008954617511
-13.074508841186516,-155.09410353470298,-109.87298462951462,0.925694757031324,-71.6386692349911,-18.00482758624929,-22.71711813172246,-0.20486402049832814
-13.018733401181859,-151.77926961206393,-107.48429788673427,0.9364921079539176,-70.22338065338108,-17.4741195538576,-22.21133791292847,-0.17869620176663936
-13.084200912173843,-148.22100924997378,-105.0765693888451,0.7415538403192263,-68.74802827563323,-16.994831942767053,-21.765594135776784,-0.24752968688685428
-13.214989394469683,-145.6056433277551,-103.38467418197789,0.5185369996051495,-67.71698854869254,-16.701438638622417,-21.49172069923638,-0.3455811179558688
-13.33232275335789,-144.12366286113246,-102.44763998622548,0.40132501723339664,-67.18226432610398,-16.556116065358765,-21.356843700989018,-0.40439722869789757
-13.431247767811625,-143.57985336593458,-102.1006946880652,0.40758676448405473,-67.051628799682,-16.495274704237985,-21.33038095893161,-0.4034235892264931
-13.587082652268293,-144.07251828754048,-102.43815023312374,0.48170676934977985,-67.39658815117097,-16.551975254828072,-21.47457710525384,-0.3701009132716897
-13.859102815280826,-145.84907579049076,-103.6535524051822,0.5863729601770807,-68.35508900217037,-16.804347356431414,-21.85570924630461,-0.33802846924342017
-14.197190960925699,-148.51049252417712,-105.45777794996408,0.7299277788843388,-69.7404799962048,-17.21576910154771,-22.378034391632053,-0.3170191170906241
-14.45300064797041,-150.591941122469,-106.8205172858713,0.9090197074900861,-70.85198066534441,-17.564325579002613,-22.74689441006574,-0.3047633315503061
-14.482176068446517,-150.18618694749304,-106.44485572510777,1.0575991924334383,-70.78400686780957,-17.555519796437462,-22.63067323649132,-0.3107325963503978
-14.243433455095904,-146.20380389888732,-103.63094853958974,1.0816189633633795,-69.02385952559419,-17.018439417077587,-21.891328920062488,-0.3493159791495922
-13.836229427521705,-139.34453638149392,-98.89790459092958,0.9458717666252677,-65.90383217469585,-16.035058003485492,-20.718565789648522,-0.4080812437141456
-13.491212904476637,-132.25892391727558,-94.06739337690651,0.7163663251059655,-62.677357041577714,-14.959075490039927,-19.619600070760132,-0.4393383153624367
-13.524077587539548,-128.89302124905575,-91.83186630014538,0.5228807187558004,-61.217427966209605,-14.353246940765212,-19.287928565921774,-0.39864127892228157
-14.20965522998387,-132.99366435307817,-94.75003581132204,0.4956678922066671,-63.310343022013434,-14.817403166722976,-20.33053316972597,-0.2940522239199204
-15.55782003566827,-145.73331337917375,-103.59885178294859,0.7242862567889332,-69.51655712283188,-16.644560669182688,-22.837153722884903,-0.19517492716080315
-17.107620051855186,-163.20006908932615,-115.62455539649751,1.2107518825876182,-77.96820292533336,-19.397760472202528,-25.961395126611563,-0.20037571987060454
-17.95241125549888,-175.64426653529807,-124.06177370134975,1.7786687075796672,-84.02323490485679,-21.735329706139037,-27.890350875355082,-0.40668024402013164
-17.1058232291329,-170.28943472345574,-120.16639729094945,1.9973779448715354,-81.63163182460144,-21.810504010728135,-26.487642795388588,-0.9083451502213427
-14.057116120437223,-137.39434356765545,-97.4511774403391,1.25651888197006,-66.23408657065652,-18.198988990263143,-20.434697680012416,-1.795454540863003
-9.171414132293247,-76.44587712162406,-55.879867218887114,-0.9548132022912259,-37.68397967125167,-10.833834091773417,-10.21185063528005,-3.1107661639271025
-3.6471357878731814,1.6379896207403433,-3.2005604272746337,-4.701605484414767,-1.240458140647958,-1.2855252364822192,1.7933055659757942,-4.773370513153387
0.9846568405337486,78.37115471113259,47.880237229389806,-9.436810984101443,34.32009878428298,7.905803872960181,12.267727658024945,-6.533161518327486
3.5446509558874584,135.86625120815899,85.33858841099256,-14.172719397410276,60.60185029734311,14.500988983859113,18.544947630552382,-8.02004360729492
3.6879460464688067,164.66386437774884,103.07274681631223,-17.923315316923354,73.27601410257068,17.646798391334865,19.84151790853653,-8.894487222735304
1.938425970799797,166.78911928932098,102.79447405402831,-20.161740036363064,73.46174829651507,18.086941973871994,17.425332689406464,-9.029199503452809
-0.6791617208845988,152.79024539108428,91.86783700144547,-21.012502819873013,66.2475850854524,17.421363022355756,13.68936822443196,-8.601689221614425
-3.134052290359003,135.33189831954573,78.94668129954394,-21.06571845081992,57.620716590691195,17.007772978451353,10.812030257362347,-8.00485533186966
-4.7375253265828325,123.53123975786735,70.2309583821551,-20.95871900708624,51.814323104802256,17.28954522987897,9.854204267241217,-7.60331056285284
-5.255376490131968,120.7183085582966,68.03471654363193,-21.023601518131215,50.32259055148966,17.901797383558662,10.686493425107594,-7.498020488357237
-4.855888804395057,125.42538633053566,71.43100160411845,-21.214743337890884,52.43615515455906,18.2734656431633,12.513003242263068,-7.47815309135314
-3.974830595139291,133.72571108852395,77.72619366969943,-21.290369814768212,56.359694214072384,18.16752783543347,14.489071498761538,-7.197792035160592
-3.1220663807002884,141.38552456800787,83.84397133644144,-21.054720887174778,60.176267127674805,17.82356391049299,16.104766718496613,-6.439149320105423
-2.6640427765503474,145.38438455985434,87.40268472094745,-20.49727481178271,62.48344700542055,17.746998662157296,17.289841658690246,-5.272509774162021
-2.679070595682828,144.76373961207858,87.43452510981365,-19.797157040881427,62.74055686520911,18.366755302000847,18.306162260284847,-4.023024486262929
-2.9732524769643,140.5665907997565,84.49929082456957,-19.235377143898038,61.26080149588961,19.739477744293968,19.482522092522405,-3.094434108339387
-3.2303063615657117,134.81659308382214,80.08892749428965,-19.05437043493549,58.821705883560135,21.409149946769467,20.894596325779528,-2.770345249380639
-3.1713302729662254,129.21426579802875,75.74168835343329,-19.31459265767254,56.152253397553494,22.50941292909365,22.18688812661065,-3.0994040408399486
-2.635528904007205,124.53370737714644,72.49511351735394,-19.841766102238658,53.67854091783173,22.120026215115363,22.696065840156837,-3.9121009816777725
-1.605556430669792,120.96606751460716,70.84699506980775,-20.338086148774707,51.6143414214726,19.719756745255516,21.819912602416423,-4.943898678057255
-0.2373461847172263,118.66176750842467,70.84006626086858,-20.59547656507154,50.107849487752496,15.46964860136066,19.38245433778842,-5.973739020643091
1.1285904982268242,117.70536340590438,71.9741910780369,-20.6221553203491,49.19361567840469,10.169620766673681,15.77650684425861,-6.87249063521529
2.0653373156692494,117.70557784824489,73.20696995977725,-20.547835225299107,48.6837601005829,4.973578083914878,11.861917574500707,-7.529168263212039
2.281030773973157,117.80418622144043,73.45239406100642,-20.392109123099644,48.30044439217314,1.0701257608434607,8.725499738466278,-7.743880968603924
1.8212665060153779,117.35887676769511,72.39396088904496,-19.937442788269657,48.027922761015034,-0.566485854431526,7.371760155970832,-7.2306150515144045
1.0716121535307364,116.59704331729161,70.85140012765127,-18.860191019157714,48.28109343065428,0.6021848304507949,8.36432220956578,-5.784180006062237
0.5325711143514638,116.49056287398759,70.23885210132401,-17.027071269743082,49.61473178837227,4.465714869272612,11.522245928543349,-3.5017942421294412
0.5288950449266213,118.0270982425414,71.5709215891383,-14.717406463020476,52.22769936006628,10.188014823881957,15.885481250012171,-0.8720757476601367
1.044922195949854,121.67315509301989,74.89478357954216,-12.609168726251093,55.76520439063923,16.417780620172948,20.070972082755386,1.3645312397121316
1.7478609304664734,127.31453870824508,79.43570326242585,-11.5428647701944,59.54241380958092,21.736972081897704,22.847117220905965,2.5096347150175498
2.1434747522085247,134.1330025468076,83.93846565095812,-12.166658797138053,62.79944716121342,25.08750227490508,23.561003154564986,2.19254906229245
1.8067783052234454,140.05802214019235,86.73429734338883,-14.558213731903113,64.65454632445837,25.95944109300887,22.203655468765778,0.5325047144017063
0.6577035696679908,141.52245084286218,85.85023316661011,-17.939749424124457,63.99744589461584,24.379370372557073,19.242601788865237,-1.847684606993496
-0.8104695866404471,134.68502399991274,79.8263362066555,-20.68161830106693,59.864412633850264,20.890112953645307,15.495877324517929,-3.9506781222360132
-1.5395864019105663,118.07198434229798,69.14039505700879,-20.772919364590717,52.34868166297722,16.57588228845819,12.113477833317658,-4.682207491690719
-0.2933100718738517,94.79975779031031,57.06375069759961,-16.69469036927755,43.311709332668634,12.950109722166218,10.452092760137317,-3.245675187636121
3.688106337870508,72.20272183556351,48.750316589955055,-8.285347144722644,36.01698758167227,11.519126214960014,11.64678996772567,0.483774495899819
10.139532843747805,58.45647594173977,48.66619865072583,2.9478379221576403,33.593777092197904,13.122360518961054,16.010194557852497,5.815237824642921
17.72018908822303,58.1723517260779,57.9353774235441,14.355379080810126,37.251750027605986,17.44148036022268,22.6750564893425,11.464194871704287
24.56038730930856,69.87794810363053,73.45862449894202,23.28233590431462,45.48655677800779,23.0595629391449,29.828607892049423,16.07303547705981
29.11372991498029,87.04781368791166,89.49865691038198,28.19352642190182,54.86870118810867,28.115487282576883,35.49917120538332,18.76956331695606
30.819391649688942,101.90975328752751,100.72596382790348,29.175756331963395,61.90934563871573,31.192291183285093,38.45506157211156,19.467624737105695
30.209690726048457,109.44188864327862,104.75424874894169,27.60818827934941,64.77410519104322,31.90850066836137,38.6750188538901,18.768545992812154
28.46513375521355,109.10707838461113,102.67159648481376,25.29774614870012,63.80686060096464,30.886996174745466,37.137218149315466,17.56275900585364
26.75486658016553,103.75844937037132,97.60081694974448,23.63487500299457,60.76302063243418,29.211547476618108,35.14029132507399,16.591168140147428
25.766614822541815,97.16052305543218,92.63625936709776,23.188920675444827,57.54352909692206,27.80124260370112,33.64596380494606,16.199949132247657
25.613128018922165,92.05273258252193,89.55915619237616,23.79627614205972,55.33872934335933,27.0860540976068,33.008990590107096,16.35228475321326
26.019685976760023,89.56077655941289,88.71491267223213,24.911210201701493,54.48168549261244,27.04531583773597,33.09497158523918,16.796273134396905
26.58133639624852,89.47723881554458,89.50065969454103,25.960004690015804,54.69855306557727,27.410340980591638,33.54060328098808,17.247048647562647
26.956150424350454,90.71591322271962,90.86698620700524,26.573482914549906,55.386386306469085,27.841441906758575,33.95832692705532,17.506704830009713
26.975295038087484,91.81833707323024,91.7397620191551,26.681961697360293,55.86228982374432,28.049795552768177,34.06497172905817,17.515983566813087
26.67745749614103,91.64778900408382,91.47208083539051,26.476976266177665,55.66295435190939,27.902467435573186,33.77473486573254,17.347491101565463
26.252320347242904,90.00279463343098,90.15675213012489,26.257283467483067,54.78390561144323,27.477034612373874,33.22254171887732,17.143976203522566
25.90549286451708,87.59860389650117,88.46829470246485,26.23915965362385,53.620476920806894,26.990662439918754,32.65767426274125,17.026302759907754
25.730233627700777,85.35010119426946,87.07736071896333,26.454464469686457,52.60627935428201,26.628841514224177,32.25880490155157,17.028208503622512
25.68337102044411,83.63872498608357,86.1667472590225,26.796565407448554,51.88323644506795,26.421649290245455,32.027788445979375,17.10290711247797
25.668982968149127,82.25971259525446,85.49240573488,27.145238731572327,51.31389588330033,26.278661787331185,31.852980088264292,17.184371043575812
25.631569250837472,80.93961729899311,84.81614019971852,27.446132661784233,50.751492381305376,26.120523247536475,31.651957539633816,17.23933502711492
25.570823055081163,79.69407765949482,84.1517505626343,27.697541143108708,50.207648950612764,25.948263453274805,31.43031508678969,17.26895981707709
25.49466472788208,78.62922033438748,83.58670077612359,27.905785057059923,49.743440439828824,25.79037279956459,31.216853621234883,17.28105867154863
25.391680265306096,77.58253818570842,83.0165056190831,28.07966037109721,49.29108110013039,25.62707384001056,30.990443469220573,17.277911675207232
25.255143168565994,76.18002474332346,82.19822742694124,28.252061340065517,48.681587966932355,25.403327711258513,30.701825377111557,17.268109332450482
25.108214988680437,74.25756401227665,81.04344669786482,28.46892956633063,47.84215518976119,25.104537216480615,30.3470135098354,17.271160993788712
24.981130845776388,72.06392129315508,79.72906401907744,28.738934036528494,46.8842131118382,24.779609306512246,29.977428298465636,17.29690360827439
24.86926176296559,69.96703856835313,78.47426459602848,29.010029640200827,45.963174564401314,24.476575385733124,29.63039642049337,17.325963023462286
24.738679400977496,68.07864817397311,77.31298621776943,29.219502139610235,45.11622566682516,24.18639102753916,29.285438113606542,17.325558077684708
24.583184341769307,66.30724216543989,76.18981482551776,29.370034852525986,44.30816199682011,23.881336322071714,28.91825214386899,17.290362500556736
24.4578030849361,64.70769070604376,75.21700095262001,29.541808467393142,43.59958500804275,23.594342124634565,28.57807340244746,17.26006309576032
24.431853211131465,63.530021690095076,74.65018503722847,29.821276564861773,43.1467819792378,23.412491883634743,28.362682408104643,17.28766187675049
24.50406873152552,62.77243158830406,74.5010745686867,30.22236702954473,42.959225570621975,23.364144888724002,28.29259190945532,17.38941832938675
24.575478210011216,61.80016805735306,74.24983783251233,30.675914748038785,42.70547282527237,23.330265427531813,28.229655605890123,17.526796203023945
24.513907610213472,59.65627373010038,73.10426880265078,31.0776604913514,41.87149011771814,23.103191245386153,27.952774930507374,17.631538007793434
24.247475746062392,55.909562787272655,70.6532525959019,31.333627621998577,40.18858647757094,22.552519436556317,27.330779949821718,17.642230079026287
23.811243752109867,51.22659684431129,67.31549932199314,31.384507361082008,37.93631186301336,21.742823403103046,26.43499438959811,17.527490696131736
23.339355170215715,47.122470222242754,64.21066544518438,31.24702719375412,35.85782611835255,20.914077885435294,25.517116711712955,17.305402663027735
23.036275479459373,45.14393726674728,62.62520032448987,31.078434857457722,34.79421005079455,20.374816974554744,24.908430953056605,17.069392972061998
23.122156112463188,46.073887433257575,63.425080089655395,31.182443601543046,35.28698059632957,20.386149679143315,24.902978752318955,16.989521933947962
23.71032383377904,49.39435120226083,66.52086800461221,31.866035461600884,37.23977239460224,21.03297344433799,25.60528480909461,17.239692616419376
24.635094923643177,52.966898780184096,70.3973380531476,33.179836721036445,39.64330956359021,22.060759321273395,26.732706485008276,17.855088584136574
25.3607558603619,53.210351471518564,72.06334179986027,34.71377059050261,40.56892921326601,22.777145745251552,27.505217085210926,18.607535655257667
25.115885817822353,46.37666132911384,68.00552682793081,35.61975768051282,37.791887889427585,22.210359552007166,26.834023664991516,19.006409594004932
23.24562551759761,30.914096927405335,56.16233358937436,34.88590343868807,30.060251909154,19.580229473725193,23.847023297167198,18.456759433396066
19.581918639364883,9.57280982895936,37.8301986354302,31.731159311350766,18.31348723928664,14.834659445393463,18.467160105121273,16.501465766215517
14.586330550129222,-10.69953948410536,17.915434488198432,25.94467266568972,5.815992453728392,8.842557923450526,11.615125153946353,13.028660226720453
9.173012416030435,-21.82584600460144,2.842087735461227,18.047864402627496,-3.252637370599475,3.0287967771877855,4.832227982465983,8.35874722780605
4.340581845531601,-19.071641232602698,-2.8193850535705747,9.231948572423754,-6.045322874965919,-1.3423057359564028,-0.45038793396725674,3.1903702497425637
0.851730439057043,-3.902160853323795,1.2214151845027021,1.0813407142945213,-2.64080356096269,-3.7400954292886035,-3.498628493760455,-1.5673522664389032
-0.8837941274507559,16.971376211914645,11.213729107050733,-4.862418101380631,4.186944242418734,-4.403641130526703,-4.345165289797981,-5.033529097345082
-0.7717148248463859,35.84870501273106,22.065989516815137,-7.606747350646989,10.896200249967219,-3.878996909322245,-3.4030091031291296,-6.625979812842211
0.97076008983669,48.51266365443117,30.39783835005907,-7.153269296833177,15.358243409282512,-2.5191555081165395,-1.0732076568128783,-6.313982255892218
3.681447536151585,55.52705332582172,35.556653001306906,-4.689767449861992,17.60917085946683,-0.4426979188742096,2.2229280523864765,-4.757522681462393
6.130360089253337,59.4777046894487,37.97416060470131,-2.3217645653530683,18.658810267096502,1.9958160177110766,5.6203587680231095,-3.1992399531049087
6.703591718389701,60.694644045423175,36.63043010949068,-2.294616548970996,18.51756494816197,3.7233732374073805,7.522725296008656,-3.041208505431125
4.0146147509110985,55.350258046646076,28.242914952636234,-5.982601896817428,15.30407255501913,3.0695384811463087,5.982133303325807,-5.232255640400921
-2.327666060739744,37.80834863220346,9.2520488913888,-13.178141846816818,6.351722176291486,-1.3854502219660387,-0.28547656985140185,-9.778743713318946
-11.309389603699277,5.451036078031598,-20.876569649664848,-22.133033680898166,-9.519209827250501,-9.784658659967528,-10.91422752134332,-15.686396054042094
-20.816836682290223,-37.89098123487705,-57.77874300893952,-30.378136278780048,-30.408753672062474,-20.578242567062603,-23.706993516326094,-21.403457727070943
-28.550054756763327,-82.6940119327388,-93.45087792602388,-35.87150337293207,-51.74379515755414,-31.101199588509964,-35.5086934676897,-25.529751397945812
-33.02984877569715,-118.30645205343329,-119.98623729850588,-37.83779888134383,-68.48208205729512,-38.82793646804596,-43.65140453403181,-27.401904765113287
-34.12905308398047,-138.2477309139966,-133.35426715845873,-36.88477517665424,-77.62768117784879,-42.529124778969525,-47.106447164567186,-27.26031095047404
-32.88503555171253,-142.83484535602045,-134.8511598867983,-34.44717607539515,-79.4387065088558,-42.65360015061032,-46.700789300207106,-25.969917745044505
-30.807026187199835,-137.81784962200558,-129.5790123765598,-31.987392096367106,-76.73025450979448,-40.80648223166505,-44.39045666252913,-24.52008073890044
-29.14976900433767,-130.5033932613548,-123.32282254872713,-30.42603208746594,-73.00977531484479,-38.77438658702592,-42.15706558598244,-23.605453928694168
-28.52835498550266,-126.18545123413327,-119.95652635579317,-30.004807355943704,-70.7911052928531,-37.73601759457344,-41.201812459541344,-23.46428258996701
-28.934563481654354,-126.75715428719592,-120.61314948482682,-30.46345542397644,-70.95382194860673,-38.009493099106834,-41.74758010495325,-23.950493060609258
-29.9704796391977,-131.3657058816411,-124.3457741643956,-31.297055103788477,-73.05944079398151,-39.24799563980147,-43.3032090232672,-24.705724251158202
-31.100876824637204,-137.82690164242138,-129.2709737246361,-31.963088825749033,-76.01965673932679,-40.792801944696585,-45.073013498225755,-25.326781924076315
-31.851170345276287,-143.865040385512,-133.53643006894475,-32.03992606824777,-78.6956037246,-41.996031846771324,-46.324862484476824,-25.504198500765394
-31.956653546955966,-148.03778241670676,-136.03666043949823,-31.355559390702822,-80.36904131507086,-42.48188138046574,-46.682211679194474,-25.13397467366161
-31.446562893052985,-150.31930082027202,-136.84549349499852,-30.051862261066777,-81.05184980060619,-42.31479080736998,-46.29282559436312,-24.37359250034385
-30.62120384401644,-151.96716287562026,-137.08321271306835,-28.544989568615204,-81.42780052063186,-41.96854164061284,-45.76208043110204,-23.598803481971967
-29.926722435470694,-154.4762906177077,-138.1008261110708,-27.397946324280653,-82.32497915559857,-42.04692720617076,-45.818749385147406,-23.257435459944528
-29.79171316246796,-158.26255356408154,-140.47037585775277,-27.144801353279423,-84.03695224603604,-42.897145055421504,-46.87797662907252,-23.668422215404956
-30.47415086088505,-162.17164579763747,-143.54937168918198,-28.0689320493636,-86.03032211563999,-44.36062556826007,-48.75447391864098,-24.829456448159654
-31.908577407187913,-164.19751846121233,-145.86146783688278,-29.938832223960528,-87.23847324753552,-45.784934485283685,-50.65099526224686,-26.290581355681162
-33.559721701727376,-162.6110910619636,-145.76477054465127,-31.81757462738411,-86.59081888358008,-46.21837331125691,-51.36341581043981,-27.164111935845295
-34.397111037756055,-156.4258701785889,-141.78307077760334,-32.17653787315209,-83.30388400299545,-44.65857120545054,-49.60667055301291,-26.35024981686774
-33.15607460809341,-145.06512586636592,-132.62382166155257,-29.458293064211052,-76.87467042015736,-40.334189210819325,-44.43984107201486,-22.984467224304115
-28.902967868598378,-128.08599804776173,-117.43057910650197,-22.91502276491518,-67.11782898357313,-33.050613292463275,-35.75029237448695,-16.944897713653372
-21.650329641167374,-105.71113004591417,-96.54248162435103,-13.24005176978225,-54.48735061862937,-23.50667957735918,-24.595777823318517,-9.12174483412081
-12.620149613564353,-79.89997981354212,-72.28657728295116,-2.5174836599376604,-40.47081940674639,-13.341610891508347,-13.108215476249862,-1.2088340029897948
-3.901842302335183,-54.86504890108404,-48.94837442500574,6.598731654622879,-27.56552669826268,-4.722716958951724,-3.8322688698395226,4.953524082567393
2.384489309028393,-36.084926127190705,-31.46058139434282,12.059958101318454,-18.535887951928107,0.4478359078368499,1.2697762066676501,8.155709674837183
4.987288994312325,-27.91206295232468,-23.248353545406808,13.285159221570016,-15.17850299488761,1.3418529928106553,1.6454807397056128,8.287663454621788
4.001394608339521,-31.09827749507896,-24.439966695938296,11.239288785771652,-17.303348787280793,-1.421256474165545,-1.6530470875888095,6.25561150824572
0.6967892104541429,-41.98001982253142,-31.661740232211915,7.761535142558211,-22.66759824601275,-6.078372771865214,-6.526920957120032,3.4424020800053663
-3.145983535417322,-54.120050433289364,-39.70255455970433,4.618219057223769,-28.032871506814725,-10.54867568302242,-10.817853168138168,1.059653616006418
-5.999968146860179,-61.51124324500773,-44.09566514777727,2.820855469896697,-30.74799258283591,-13.317003144093283,-13.174718174782246,-0.26333448206849
-7.1097159920269295,-61.457453045535175,-43.157110539169636,2.453919861499001,-29.950391792746053,-13.935968380203912,-13.409621849058267,-0.5297426140659445
-6.63801006032217,-55.7178718230311,-38.58484792395459,2.9055164811004826,-26.85824148395448,-13.022806836404584,-12.339830081400308,-0.17475082241645745
-5.482434654365279,-49.67880833375767,-34.62612062636152,3.267213081944062,-24.21032835599917,-11.90655315352519,-11.353843908845766,0.20439165482880955
-4.830308763027878,-49.987702650244564,-36.20406614414405,2.7571377037231235,-25.12625862427368,-12.090804881236812,-11.865031757870689,0.09185605970324304
-5.534276156184716,-61.15202643300235,-46.35551176586833,1.1044963795972005,-31.569652353972863,-14.572240747031127,-14.653191035411723,-0.7361743431668524
-7.514296229880801,-81.988033956375,-63.6310798917896,-1.2126459606281816,-42.7392650752013,-19.10906184995811,-19.178575655503774,-2.0574312781961175
-9.536129473045712,-103.77147899368981,-80.8666487602173,-3.0499676717392115,-54.22214145433278,-23.806625772144795,-23.26185776407869,-3.2028578082248793
-9.652160357720108,-112.26902078519568,-86.9401186205684,-3.07788271778966,-58.966935381542456,-25.522272085862014,-23.637063154683428,-3.298249295526183
-6.231673745046343,-94.15963841671034,-71.79249805980055,-0.4843599957681741,-50.36632434001301,-21.24126897126747,-17.468257907408297,-1.6968987993144147
0.9305428045763818,-45.204965912570245,-32.609750065887276,4.482414669224446,-26.212835272033626,-9.872304208351705,-4.1759805552091835,1.6158196158760134
10.106202342922778,24.670562605797063,22.503256099807768,10.473375978549212,8.795737486826958,6.582879236126281,13.539275154300432,5.902743822269453
18.13064446502066,93.30092438867526,76.21511946894844,15.565028756787797,43.90952299022204,23.343547152999196,30.303859890422164,9.949679892711181
21.74394076353222,135.23005768683944,108.92318481827641,18.094313401871194,66.59777505578424,34.691220561986995,40.22128327923094,12.605852939193301
19.109623553568195,133.367939295688,107.63665087482322,17.37432243132195,68.19901085665734,36.4680147953693,39.52662641351449,13.292601023008395
10.71227790289882,87.11727791440772,72.08753218049807,13.934555462641313,47.95850300698884,27.940994474738247,28.338838755061296,12.196411874305905
-0.8388905580150154,12.581286118641017,14.794671973320638,9.187167285345522,13.292797300065546,12.072336879899849,10.569552349567918,10.053711182736315
-11.979715270458732,-65.10849047128767,-44.859310242309135,4.72158972731604,-23.78769321274941,-5.898595443057996,-7.93714602826777,7.684917904824228
-19.702812375714014,-123.07865494881807,-89.29106520872553,1.615217382459012,-52.11411198176871,-20.778423848280674,-22.011732165956087,5.581884660755712
-22.64701284248793,-149.77158551943347,-109.66230393140204,0.1139583276176528,-65.83466930941185,-29.463105538153236,-29.162030483059063,3.7952873071417046
-21.301645874952776,-147.63127151690136,-107.93005494441577,-0.20679025296919457,-65.85695552701534,-31.76445612968428,-30.05995485644871,2.1425996514207517
-17.390547824930973,-129.0182459472394,-93.68892280538708,0.006941847752687219,-57.9722044405318,-29.801293998943798,-27.502616676800322,0.5247173533349475
-12.912677565677438,-108.53204348546268,-78.2451470034833,0.2868519616962177,-49.150653401374825,-26.50373243324947,-24.647186990557813,-0.9207124830728286
-9.37056774283385,-96.28996840824296,-69.41369095575324,0.4697896489995864,-44.22988220392166,-24.147078401754836,-23.55916419303258,-1.939371866719371
-7.450268186451515,-95.22385066679462,-69.39505299223617,0.5861171473034273,-44.54539980174388,-23.613069993681236,-24.702924778078,-2.4196298279476527
-7.09171770968947,-102.45070785060038,-75.8112153851889,0.6969924173907047,-48.59322610935439,-24.50127875527212,-27.315526477109593,-2.5442465974823323
-7.74727589059181,-112.57712032991886,-84.30799672878688,0.8181704821642095,-53.6971235482902,-25.740702175017827,-30.159020533214854,-2.6964575923549967
-8.680623270785373,-120.69591495051809,-90.99569321539985,0.9260345785448787,-57.537633632476094,-26.2592700151495,-32.16769919770873,-3.1986392168213547
-9.24563725020424,-124.09403776686668,-93.86867376192843,0.9799038188866737,-58.985647281484425,-25.453517950865354,-32.79333823402512,-4.087730090672719
-9.091938553883008,-122.71971868377132,-93.11413997636163,0.9403126747230526,-58.22983516530192,-23.385461998917982,-32.07238674643289,-5.079426585265538
-8.224074927578156,-118.6349509708598,-90.48142841013177,0.8038419580489533,-56.36605272561799,-20.70303013779678,-30.487997235351564,-5.724895079263908
-6.897188199678909,-114.66287756859835,-88.03869904524704,0.6395718108145573,-54.66747288671426,-18.32840649883246,-28.704108503398743,-5.655341471433332
-5.441638894078151,-112.8243454483165,-86.96640375134527,0.5681413091002433,-53.90045168563952,-17.056831870003105,-27.298187997844227,-4.791401031066241
-4.1440070411688685,-113.50061751977289,-87.13444040598571,0.6670243850826727,-54.09724481568873,-17.26533326515538,-26.627870746927684,-3.423458917201982
-3.2211179203119498,-115.80346270152664,-87.66110722560259,0.8822464513779005,-54.877851303923414,-18.84045920733619,-26.846264694699872,-2.1095993023352553
-2.818772912048587,-118.60606822379245,-87.82893950104797,1.0465707659074681,-55.93363656765369,-21.27042211574826,-27.936187971425746,-1.408589406249754
-2.977128792298211,-121.21158594408745,-87.5125843835304,1.0003672331202969,-57.18015667648751,-23.7943651761213,-29.657628236332915,-1.5721079897761163
-3.6004333885168727,-123.2746567693884,-86.92263264994371,0.7006369634694494,-58.5203886586521,-25.59730482795302,-31.489853699295093,-2.3879041982764955
-4.502809181917639,-124.529580426622,-86.22004282091888,0.22202740003419794,-59.63364728044644,-26.101755164006228,-32.75213865422375,-3.296587753732075
-5.515552759721999,-124.9396219820582,-85.53406142808636,-0.32284570603146534,-60.144092073493,-25.285775012140498,-32.92782317545046,-3.7162376616682384
-6.550004736219663,-125.06537508853414,-85.23549693265092,-0.8420311663725738,-60.008009184273384,-23.780547369567895,-31.956036102510936,-3.35712793768574
-7.546086413671341,-125.92173923685866,-85.90342466134946,-1.2571904651894543,-59.63943278032628,-22.547930439299087,-30.22180517186691,-2.334901998539836
-8.367042938347574,-128.12065924435848,-87.80637055745095,-1.4831813961268252,-59.565172754759224,-22.26236871682324,-28.24412170714825,-1.0598122461010162
-8.766436417480461,-131.02950131836735,-90.37826483073985,-1.4506977820739584,-59.921016348540796,-22.821182974567375,-26.340448149181793,-0.020887994071549447
-8.477008533360717,-132.82064430654196,-92.26394593923291,-1.1477973331697175,-60.254914667983726,-23.35518461338538,-24.531032123645275,0.41205307733985413
-7.35350948259562,-131.47552142196707,-91.96786331843397,-0.619199167812936,-59.77509145379404,-22.739927433205978,-22.68872801556887,0.11879263904959456
-5.478677328608577,-126.03113530862501,-88.66258400635368,0.07294986890587433,-57.82397574125531,-20.269162730090468,-20.75173026129753,-0.7245641674699248
-3.2044119540439433,-117.3901913938063,-82.76436632450961,0.8566772664411174,-54.32827398901483,-16.113690211007228,-18.85989377484352,-1.713163001705888
-1.1279184798572113,-108.45849969076163,-76.12590293751856,1.6022629234900692,-50.09437053692214,-11.374684770005148,-17.393733655644876,-2.400482276487348
0.044120821948959305,-103.44269919551026,-71.64402477218671,2.1053724089076593,-46.7610470284958,-7.713070260666983,-16.890232554340898,-2.517219127188761
-0.20366207736805503,-105.98111643875514,-71.95434801928349,2.1978172542186183,-46.11193647503972,-6.629308517149576,-17.74812328930229,-2.0743435447110365
-1.8125697757405086,-116.29571469129375,-77.34791223669374,1.9369465118521356,-48.73872611200285,-8.606481942452247,-19.741720455070567,-1.2756932823347875
-3.9474642448039137,-128.8739994839898,-84.0744323659759,1.6808811144280293,-52.76437846900967,-12.53706389402194,-21.643103081843538,-0.3234646219664375
-5.231938788283448,-132.9614006706345,-84.71848608437632,1.907773824520003,-53.78771393349274,-15.900613256258396,-21.393181147812843,0.7132966066555808
-4.4045952281529335,-116.91833421194065,-71.34972686959831,2.8670647128850377,-46.673087584368645,-15.821552363821205,-16.982971651803773,1.8679672213454506
-1.0368424165823813,-74.67261890669731,-40.07727985451155,4.333892186611959,-28.461979122655315,-10.5450315276087,-7.64401994023848,3.1373616873462455
4.156206135534631,-10.348975888855362,5.823360603238226,5.685390256605309,-0.6093201568575379,-0.47903283073390834,5.419783022010123,4.378644367326489
9.64022777417336,62.27709672153701,56.50801700454949,6.270373058815215,31.068273066986322,11.875499408400982,19.335416833391758,5.3436428463424575
13.834792676679573,125.71457429080137,99.88027119475925,5.814104209771422,58.93125560666323,23.119676268043943,30.82322211783274,5.827068189280481
15.861726300858829,166.78975822948942,127.18613763944155,4.571550885437419,77.10395829653554,30.585897525192383,37.70029156740104,5.806392582404468
15.837656976112495,182.11180829601085,136.61640790589468,3.1342400095770246,83.98289325995457,33.45489419397049,39.74241188741374,5.458520031297768
14.608381166402875,178.045745036895,133.01020907357307,2.055289538099539,82.29548500313405,32.78486627657889,38.45981642924946,5.044121771194095
13.18455249494541,165.8856787486613,124.32860424419395,1.5726310805215231,76.98719827089467,30.60461173523785,36.059871865722236,4.75934319960628
12.264838346877628,155.77202574145247,117.45795968166341,1.5897271536994402,72.52689260005737,28.768636252244576,34.3303602715361,4.6657383717233145
12.067613187256846,152.95113537938653,115.77830167525326,1.8436751306841632,71.2477400452405,28.25533423796373,34.06312220330243,4.720845364602185
12.429777151498087,157.57735749290225,119.18251332222735,2.077404604309995,73.25172292394085,29.116846477660754,35.13025757722996,4.844879850942723
13.005739231811498,166.74894890371797,125.55038353650424,2.1154940667892177,77.2868950782215,30.831843399904837,36.90683272199246,4.960361760310587
13.452198216866561,176.81832054124405,132.34279697080328,1.881483948168158,81.74262047832441,32.717668441630565,38.69778408143161,5.005124443654273
13.571189280838079,184.99769606123078,137.69798370288632,1.4180314481689649,85.35918342905482,34.240319035225376,40.03123893030276,4.951681851079138
13.389646485782736,190.23163336633112,141.01731917803218,0.889091241266484,87.64598341283957,35.20488556420643,40.812401809284445,4.832286323338353
13.125462649313457,193.3362105814465,143.0060616570889,0.5051440685135417,88.97584849163006,35.791386174335656,41.307550410955535,4.731082418174802
13.032830111545568,196.2095540125517,145.03773648190798,0.3888895659296576,90.2317751558427,36.38388386397246,41.92582429715393,4.727416254749871
13.22212947511367,200.39263814142302,148.1025840973172,0.4861682773889401,92.13105269562548,37.26834056528741,42.90472931582291,4.832896341209117
13.58821915443266,206.01123675950814,152.11267655154856,0.5988273627671942,94.7209967541919,38.426009894943746,44.13655057486245,4.98012732716102
13.892413181060595,212.00849937898923,156.1712314369934,0.5023945590745804,97.4797181358589,39.59916369867571,45.28812045413415,5.0699811585292
13.919649713908736,217.4054446541939,159.5445247659768,0.054245073433016426,99.90106846050305,40.55899336833603,46.1085315075949,5.030981856825638
13.60342378581179,222.34449471015304,162.4216062073911,-0.7465424119980666,101.99054383815344,41.324982553057076,46.6600585816406,4.851365981092371
13.078360231179172,227.99710753931723,165.83163588394171,-1.7213938220434475,104.25629088733301,42.16413805903203,47.30779454448664,4.588813008683771
12.66982302615067,235.59532939219247,170.91333992277458,-2.501904567880193,107.31113687213511,43.417219826118675,48.51754447102198,4.374132275905981
12.803230124434904,245.46990236934607,178.13024235446392,-2.6268709952501026,111.458656914376,45.29579754368763,50.59569131791464,4.389343678891014
13.795256544847508,256.5246705978497,186.7262358895827,-1.7965048505689394,116.41545622684002,47.71139448479431,53.43727060810096,4.783160727097191
15.57310812258622,265.97770246435147,194.3901393938535,-0.1724664811375657,121.08106377211999,50.12991381470397,56.3203475834486,5.539264559449817
17.50492251652143,269.3968085622467,197.30085794694963,1.5158914428553198,123.42103770622246,51.52839898670644,57.885789981222196,6.38960729550099
18.542761996631093,261.62446322784433,191.04675312547727,2.2219769704233245,120.82594007772607,50.627453734526824,56.49616872132251,6.869660885440843
17.694056663976735,238.9499911079435,172.56081660757263,1.0995906246996152,111.17154711862821,46.45293403644274,50.9719943960527,6.516809123891098
14.574798895009296,201.678269953218,142.22868497667366,-2.0189768528267047,94.17457451109148,38.974038638210736,41.351673849697335,5.099134039507593
9.688560924509748,155.32490488970592,104.72197411702858,-6.489587716071776,72.14589510344649,29.38095534851298,29.16285147819712,2.735993194825759
4.233013183160719,109.22655552631237,67.69596695450527,-11.152208409658293,49.480745391564675,19.743441982102365,16.947738202432134,-0.14417903997984294
-0.4471022776555427,73.10322139620443,38.9212499619491,-14.862840462144545,31.069000117936564,12.220543792326056,7.286640257811117,-2.9478611466124853
-3.4070853639420244,53.59859252490873,23.530491594544,-16.9335009672903,20.564576267898516,8.31151551920077,1.9057344580139524,-5.056553198679634
-4.334285915664075,52.79254099438527,22.923027683817534,-17.262582849527,19.494624280418122,8.569853539035606,1.348870303742454,-5.919580278188387
-3.4343321201179613,69.04425806292686,35.516260982729825,-16.199817569809213,27.447869498199648,12.78510524693808,5.21057419767675,-5.157005792361492
-1.2182571053543148,98.56830711742064,58.03738338059104,-14.363299281448484,42.65967497152519,20.227822500156012,12.476711980444817,-2.7466040057881984
1.5607429837722409,135.7162725987444,85.81499043673705,-12.547767750610847,62.097729917264154,29.562335341311258,21.536039190720057,0.7532973469790514
3.84635428352437,171.7429224026929,111.9749390257599,-11.641814119066586,80.9841566135044,38.51758165124045,29.941476316305184,4.149847397719577
4.368786737076857,194.30548576370683,127.258001405264,-12.386221316016384,92.80542035718531,43.91215227219524,34.51193212484887,5.934213993300154
