FZ,C3,CZ,C4,PZ,PO7,OZ,PO8
-4.941457982906762,-9.35714194942917,-6.894407878246313,-5.822419160386316,-5.512742101523095,-3.2324999081431645,-3.7634672027084894,-2.949147420116719
-101.62336747027649,-434.84588302324767,-634.4404872099799,-143.3101810816508,-364.69007033251995,-89.57538166663325,-138.66370544978463,-75.77889457774
-166.954033297371,-742.8425247298732,-1100.9328651571548,-236.39207174651497,-628.7314298585624,-149.87214651569937,-232.2644177353826,-124.87940803184117
-183.35235882123962,-864.4891156820767,-1309.9811222794256,-260.1225957009483,-741.2339540380746,-169.217815334399,-261.02468824063664,-136.96538468282176
-153.51827531385456,-803.6694772846354,-1262.6824601740907,-218.2367101651833,-703.9713632009156,-149.23323424027805,-227.70920677615203,-114.12386981660372
-96.87411875925672,-626.4778385578476,-1045.0378562556502,-138.15876666597023,-568.9573048113213,-105.3987837466534,-157.0725387412033,-71.097654363431
-38.80527992710688,-424.6892267136445,-780.4350381427448,-55.82072079362685,-409.6926287824135,-58.49773416812601,-82.1727831646046,-27.113451061580175
0.9571552899239778,-274.28277597765157,-574.2412762872444,0.7716888828951651,-288.0603921081984,-25.15986465580692,-29.313636379603174,2.9224177886252285
15.065725582561317,-209.2754849830366,-477.3795874527157,21.09992575815575,-232.97599653721602,-12.157217864147665,-9.030429480909676,13.50378653720163
8.259318496399002,-219.7171790246107,-481.5272621875694,11.768589136516649,-238.11120306779446,-16.32628462598817,-16.064341889710114,8.271743329630386
-8.122582991143984,-269.0129363822417,-540.6614409323025,-11.218774315856011,-275.20658166424585,-28.80489698084571,-36.180279254111966,-4.160714321876158
-22.898728152057913,-317.62884071551,-602.3854233805796,-32.023009302715586,-312.873116981172,-40.50130431152963,-54.88833039826341,-15.330191451468774
-29.634782317227856,-340.6611371065704,-632.1798437268623,-41.49098478392485,-330.85428666141763,-45.961080799520225,-63.56412052159104,-20.385717245354332
-27.693813183611134,-333.3096501176844,-621.8974711303025,-38.674668895303384,-324.7689434203195,-44.401314490518445,-61.042048272142594,-18.86844901606099
-20.47197981383416,-305.84288788600264,-583.9355500270631,-28.35240098671338,-302.3843651081842,-38.39960973464206,-51.48744839605879,-13.365717498237588
-12.548778556172588,-273.90309105299133,-538.6528085718479,-16.99831583288243,-276.00411071268593,-31.61790439302866,-40.75519048453867,-7.35056637732681
-7.309394010094237,-249.91660173933198,-502.85098361495466,-9.412765880917549,-255.60377677975168,-26.853643629137235,-33.288405010465844,-3.382776165483465
-5.840902623849634,-238.74194372153002,-483.68380761324534,-7.153504034448006,-245.26988724758934,-25.097532143137528,-30.632016840097414,-2.276171383764291
-7.154922512024302,-237.89435338684,-478.5581059081327,-8.841365070160283,-243.2507870196336,-25.654165731762035,-31.644918589026464,-3.272129673902529
-9.277473918662496,-240.89795985166916,-479.233017360051,-11.692133841939778,-244.51086746960237,-26.972524479172183,-33.84008548442441,-4.870457098153373
-10.494892759891265,-241.5219391245402,-477.3256880426497,-13.275465602670831,-244.06227170644962,-27.64042922869222,-34.973343270857,-5.775374621779074
-10.103596544303635,-236.7164007684501,-468.40343294338373,-12.58266834205376,-239.36030082055836,-27.02612197566308,-34.055339277560186,-5.460275124136742
-8.400050703521671,-227.063963043737,-452.9164739296188,-10.024304917907637,-230.7661324134396,-25.322869553453252,-31.407736947695923,-4.154366626742386
-6.153106178858489,-215.1733587915596,-434.2450304536268,-6.688728227589461,-220.3258617485085,-23.145816995879077,-28.014276480804067,-2.4402352558633194
-4.052918407552849,-203.6056519491693,-415.8656693420054,-3.55712325137837,-210.0979989167066,-21.068310303692243,-24.786212104114146,-0.8386390757181637
-2.460726168730311,-193.74051441132912,-399.68000588993755,-1.1421983809733636,-201.20163980488329,-19.392419502329602,-22.202828557869555,0.37763859936527217
-1.4277047245940953,-185.78978017463453,-385.9952199953533,0.4852360363267572,-193.81512658719092,-18.161576878781933,-20.3317347167636,1.1693480479159788
-0.7858474430993085,-179.2436051459815,-374.1965210254462,1.5622847703915599,-187.55381473893675,-17.249416356487377,-18.96724601500014,1.6643234400568934
-0.2287665398067983,-173.18580254422363,-363.1825367619512,2.5180136071585144,-181.724809423843,-16.426754643747454,-17.738289059484732,2.0969024246263013
0.5590853384896805,-166.581579453607,-351.6331096890215,3.7959836536828933,-175.521046080474,-15.445766593052051,-16.24850694687381,2.7073734656044133
1.7224914172823798,-158.77552067523317,-338.57936693153016,5.6044387458870295,-168.39050252307112,-14.171596427664651,-14.28866392907983,3.6033764316185892
3.147957897492899,-149.92674482510847,-324.0679013644197,7.789041889050293,-160.40928224669346,-12.669740958237508,-11.970309071437782,4.695380805655998
4.585153029146019,-140.84806745614443,-309.1282949868451,9.996816746869415,-152.20869181486378,-11.137475695168996,-9.608817981707908,5.792778138248646
5.875896647840137,-132.26779985047958,-294.8407512751575,11.9984398251625,-144.40222390676243,-9.723202325356612,-7.435418494580679,6.778558753454707
7.056100456519936,-124.24626545034089,-281.4115573121846,13.839742142064473,-137.0759207801663,-8.416903578733935,-5.430062056995171,7.68320895306688
8.243160426402962,-116.34874930532537,-268.2517845226319,15.689141262102163,-129.8804790986519,-7.118225058687177,-3.434788697445516,8.595840485758696
9.475610257774944,-108.27760178614793,-254.86002056588868,17.607856888311094,-122.54741191180378,-5.777387510364425,-1.3741570818016546,9.543373488924786
10.70616913922261,-100.14495507371923,-241.34971289642587,19.531288844130856,-115.15577034607233,-4.429223260259118,0.6974135060431924,10.48869868845056
11.923711338340327,-92.11445723092423,-228.0209990218419,21.438714837683584,-107.86108842999386,-3.099321950066638,2.744568508600896,11.424100248114268
13.203434589342011,-84.01619860595473,-214.70986435888287,23.430946233380464,-100.54670827452202,-1.7373407192370287,4.849350382992864,12.40646920662154
14.598303221849283,-75.54644462498749,-200.93137177241763,25.58345305183195,-92.94606372376093,-0.28539799754078854,7.097962321601131,13.473080149324446
16.02762336708413,-66.79183385366551,-186.66534440959342,27.786201831250473,-85.08705746219282,1.2142266225813314,9.415297059537233,14.560130017583967
17.344398262185468,-58.28798995121258,-172.634831515275,29.831402754160624,-77.39920400422416,2.640268002215879,11.607933242894026,15.558819891433744
18.521838775470705,-50.41474554254122,-159.53981255010265,31.676679731797783,-70.24333241656397,3.9402135583642552,13.600073248408249,16.456953547448073
19.71838614872925,-42.86739741906121,-147.15323884106792,33.54546803844129,-63.43011051116028,5.217401421800031,15.563725096706392,17.38182153782143
21.11973883123032,-34.920541764139564,-134.47100525755891,35.70923945117669,-56.370104674702695,6.632206768573174,17.754930097625603,18.47352233327325
22.741400049439605,-26.195536556222027,-120.77400899775824,38.20103271125192,-48.69786312587174,8.229481079651851,20.242022262709817,19.73465361518005
24.424418054064642,-16.996857790285727,-106.28734401285976,40.795850709633605,-40.60333160795915,9.899819754145167,22.849814461287004,21.032519779213544
26.003821777375116,-7.878033115280986,-91.7124422619269,43.24501745506727,-32.51808418750257,11.505071248618558,25.35764682532804,22.23277668918874
27.4204610818644,0.8860186588781851,-77.44322508011884,45.44562917341763,-24.669267183851915,12.990912505810481,27.671235217777667,23.28780706372513
28.665936152530723,9.22048331052473,-63.60226749355742,47.377260323149066,-17.12126272146047,14.356023749432714,29.773932788567038,24.198243753868557
29.71772359851155,16.861582402368235,-50.673735441186025,49.01467085397637,-10.121118885881238,15.576344787916327,31.61999008331865,24.967038550439415
30.638922487642574,23.514993078416335,-39.42480758132897,50.464068037229374,-4.0137159565760765,16.657507498872587,33.23260018449824,25.67193348434838
31.73379823522084,29.639886467295504,-29.69676781638244,52.17871468034343,1.4309543629759687,17.78141582902035,34.9344962047412,26.567400562426233
33.46460626079333,36.8101210798807,-19.464612723462526,54.838200192577574,7.442686663451898,19.30650606031712,37.32672825515365,27.998097059951466
36.05809135040477,46.7667471925329,-5.775122542752527,58.77987457743801,15.593511717979116,21.49481088195498,40.831014051142766,30.087770263731883
39.13217073109803,59.74115456621582,12.796725877082505,63.447798192916146,26.396487408313153,24.175529908929626,45.14652816961032,32.47093831895312
41.751914078400326,73.63769023593808,34.366002885193026,67.45770047944835,38.450225583869816,26.69804081676053,49.18450915706287,34.37668923895484
42.95543642628665,84.95407989727472,54.287543055324356,69.36151810961957,48.97372357632082,28.28122018509413,51.6436179274402,35.075091043014375
42.39096621767978,90.76298245028232,67.5497009690954,68.60506011338569,55.313141778153515,28.513252907487658,51.83271473346256,34.386655706943436
40.68295436253685,90.47191461281348,71.3850211591648,66.1040297296389,56.4197910341485,27.68140445979795,50.230173064121416,32.94374654205031
39.39099566926715,86.73504782647298,67.2036639937572,64.20129179542069,53.78253956995955,26.80630413843938,48.56292357644858,32.093213210513504
40.552131870607454,85.41868093918012,61.69377928365407,65.97106632178175,51.733564774150345,27.38907875260473,49.38407479137324,33.4466227816653
45.75331956794556,94.0900915471262,66.13573961760949,73.80768959597785,56.63769721552308,30.823294166838398,55.05185223989767,38.079960481060695
54.83816427069679,118.29212929678667,92.14742417023587,87.481648885169,74.14270969067375,37.46069028765109,66.11966625299624,45.527142988139126
64.87644296650159,156.42113521165297,143.92213967815007,102.60010077350525,104.83429757710788,45.69392142025179,79.78700562424537,53.09854858688545
70.41271681912276,196.54359461773905,211.15826241124805,110.9658980474701,140.8747258668855,51.83281935948253,89.71622486922918,56.28796515543941
65.55256914807836,219.00418865404524,269.0710958434387,103.66780256850078,167.061361193079,51.381078264517,88.1986089848885,50.59568110332932
47.159319596029036,205.42432572405522,288.5130435686109,75.85520225580333,167.4376484323741,41.39752148199919,70.1208974730662,34.06764218421484
17.293264239502005,149.6342928290999,251.8807723921314,30.446213094792085,134.38218019483725,22.607206615662584,36.52456586784975,9.025337798331096
-16.891536688147028,63.460477189538885,165.01667336775512,-21.914186892308336,74.43250733599055,-0.25180538262063445,-4.734996148404137,-18.343324646009282
-46.117185715384835,-27.27999081974809,56.58143474218185,-67.2061557971387,6.461728352312572,-20.37976048648497,-42.1319954986692,-40.60429673437171
-63.261437609229965,-95.03066151697794,-35.85736269212671,-94.44863656973565,-47.379453897156196,-32.17700987515012,-65.84825275748146,-52.50144502853405
-66.43858617001635,-123.7527262334878,-84.72566678965752,-100.44340907726092,-72.57991683447545,-33.863664077751494,-72.22275895743587,-53.16631990105093
-59.11828983496214,-115.05649840421148,-84.43053091701844,-90.14688441769572,-68.25711814511337,-27.870572643148016,-64.64426719015839,-45.87323445944332
-47.50468147126028,-84.07220093695867,-49.64152514006793,-72.88505995551033,-44.96116469133097,-18.934943484993568,-50.66811316221273,-35.754149868153576
-37.14036226117672,-49.12898456259844,-3.168124960470401,-57.25902605003085,-16.918981133757637,-11.370867951988236,-37.63104446461675,-27.162096714007284
-30.842911154941767,-22.808935180258118,36.68543210850014,-47.900805033202296,5.31551232614672,-7.3076290063614575,-29.637268807552015,-22.27257050373621
-28.674091990646765,-9.108488711233184,61.66559377088413,-45.23019426901001,17.65767081157832,-6.625816438069474,-27.177097636416324,-21.25642343729381
-29.1113803245455,-5.718324936525001,72.03298135073665,-47.08246055351121,21.145306841341956,-7.966963921142391,-28.511469318579266,-23.186995223655366
-30.24192719852323,-7.526638979152995,72.77908223377699,-50.47594676215741,19.437193914104466,-9.7604734474591,-31.227343238593853,-26.746033018489594
-30.503904957094445,-9.052508904548704,70.83853463550555,-52.77140991483265,17.0139262094443,-10.785017768736768,-33.199158897025825,-30.52522743240126
-29.122183102668753,-6.169737975015848,72.77669500201701,-52.41070329531428,17.758310878754575,-10.423419500841305,-33.14352389019259,-33.26441128183948
-26.29634180861414,2.3493791924317784,82.02369763092449,-49.3290648415924,23.42714976405306,-8.781328009979434,-30.957480119186506,-34.19635971624416
-22.91783376229122,14.474196121549383,97.24301305725835,-44.697201839612895,32.92172641606159,-6.530547976237719,-27.569261438868526,-33.24933589882488
-19.830525154826844,26.73422631917552,113.995618513441,-39.92916079574705,43.44902623609913,-4.396876703734663,-24.155563520551556,-30.874485451280027
-17.198788718723943,37.00510764251585,128.69577706317568,-35.68860861692534,52.82698278258605,-2.6508451954082193,-21.28367625896273,-27.67867116483782
-14.578592753605978,45.63813269219814,141.01462084911435,-31.769103519091818,60.73752928143329,-1.1025089939768828,-18.772752969957804,-24.231625608002165
-11.582634713843056,54.000261086974085,152.55146624129193,-27.81503766211288,67.86790913552257,0.40155324878213494,-16.317823616543144,-21.09998464125885
-8.394677404159289,62.42147241490226,163.967178750083,-23.94788214880582,74.3462759630759,1.5732887385475416,-14.048696801257915,-18.803356569395802
-5.612977364525689,70.00320745978657,174.27932486798312,-20.604485787046983,79.52206327172836,1.8786570655321786,-12.338576411194236,-17.523119039927433
-3.7007082962095446,76.17624259341261,182.80892068019617,-17.945851325485844,83.17659726642107,1.1394858472690956,-11.172889299495235,-16.84896428902315
-2.694568367970599,81.70505612840752,190.72752542479935,-15.6810474007509,86.33006365494855,-0.12196030100861062,-9.949675945801365,-15.962927288954589
-2.374124056101871,87.80659651464376,199.9359616829095,-13.49575125465689,90.44532621709833,-0.9479459256893891,-8.002441106752771,-14.214895858476389
-2.5045836021321897,94.68487307485924,210.80465511847984,-11.436057421426096,96.03458930857572,-0.5144818687889166,-5.2139477199713165,-11.58324554695773
-2.8164174542203577,101.46258919086505,221.8242612061889,-9.715490957741483,102.41954127051902,1.5024687018855043,-2.0260687921947573,-8.62331090334761
-2.9030067092732703,107.43975969871434,231.49669471116758,-8.259599514675488,108.76625393303193,4.893438948547523,1.050633339173163,-6.03163523595575
-2.38482732422803,112.81702571753152,239.77859672552984,-6.659648237687407,114.86889049967918,9.00519064787003,3.7823407992187814,-4.243736128409681
-1.2432693125874923,117.97931680218846,247.28507062586561,-4.5920338201266135,120.75380995312237,12.87204588849758,6.144890052029026,-3.273693729372449
0.15722575953108214,122.6714467729412,253.87305191521145,-2.08013167032019,126.0465803579796,15.55892627722515,8.216830193832552,-2.70809496785573
1.5256040856672601,126.61020046006061,259.16622346342035,0.7782216425550719,130.41520033515502,16.721630247860208,10.339823825666654,-1.8090876677784833
3.082819515236626,130.84836616113606,264.5619275199142,4.161526740980494,134.66190379278297,16.94159720735459,13.212523369868393,0.1269866602012727
5.386448478325833,137.68252425726473,273.50402588525697,8.289789802767412,140.66970227982802,17.352316964615028,17.40935031311285,3.1493289070887087
8.633057286893402,148.44280354853473,288.4660063348724,12.734924379555043,149.5574376909629,18.705083662778996,22.53600806843588,6.215769497146577
12.182936768800012,161.31897648470968,307.3740555810606,16.168196486572196,159.77873127754722,20.672116120567463,26.952708844991275,7.524869014866488
14.853547607876632,171.8004897797096,323.58517700616386,17.093108449281893,167.4150075979748,22.054330185227393,28.65154195113462,5.6384006644997635
15.727826995636638,175.69326293818298,330.100421178665,15.026454692610995,168.77543812824325,21.737575337399296,26.724010847605935,0.627206946713744
14.780948288796266,172.20412678604066,324.60132900212756,11.094532092781618,163.19026870851636,19.617432135829564,22.228100143601516,-5.664406573221517
12.955484268136269,164.97590285571977,311.75120916829235,7.6434279212450456,154.04300631863734,16.876195955115815,17.857496743798208,-10.433258002797796
11.826550214509174,161.04689622199004,302.1501962523841,7.313629136616505,147.87605987926594,15.57336817169052,16.821956919153042,-11.209027763157835
13.034148243681061,168.50280741516303,308.9450030606431,12.069519219410786,152.25246277092282,17.793994273732682,21.596067567361466,-6.904046186158166
17.421437250604775,192.7159975733111,342.0634970235309,22.17196866394994,172.40014595858977,24.519102627289744,32.71631199004416,1.6534968681926732
23.995475975251356,231.20075673842211,399.9914858338504,35.12176067521082,206.66915034258724,34.475167077141464,47.66876696448689,11.69281614488441
29.44871574619417,269.63892183416897,462.6061587228144,45.37656831028555,242.87589810295702,43.66395815907308,60.54704532020535,19.11636017342165
29.16080647024802,283.7190758014084,492.2886301551722,45.96811564320355,259.51946676610817,46.424842490331294,63.57687497671791,19.950553392224304
19.67734220897133,249.10833336438648,448.0136540015596,32.001313739214815,234.14911630089773,38.07690562097933,50.660378578271924,12.300402600374944
1.2504061201482823,155.5243909813191,307.69012749464133,4.134788733561986,155.79779993399654,17.82272046970646,21.228396127879112,-2.2571758376582745
-21.466150758440993,15.970427060112408,85.31665716770196,-30.555792590779106,33.84613818853965,-10.052244348031795,-18.26828197534604,-18.956828652223138
-41.37379123218911,-136.1339878283024,-169.79526380095442,-61.44833101549482,-103.40811462196328,-37.76760855760589,-56.716930672447695,-31.958284104326047
-52.47402829314593,-261.5194605756685,-393.56632217913136,-79.50013647247826,-220.82860157001437,-57.66683432376046,-83.47461226351831,-37.16704515790279
-52.796217767086986,-333.03804306511194,-536.1661906522481,-81.5216213278621,-292.41881458426616,-65.73764012341435,-93.26454611446304,-34.09132325750408
-44.94386733259632,-346.5273727940354,-582.6291547927502,-71.05933151696635,-311.90483931522266,-63.00402874482917,-87.98081151992095,-25.67437117767655
-34.131711463408934,-318.9632998063565,-554.0566532449798,-55.63980236403237,-292.3689949980939,-54.1978001870096,-74.61993439311165,-16.35262367525249
-25.20151248583087,-276.61082180302606,-491.1820005095131,-42.45022673773892,-256.5596865412147,-44.83689497875032,-61.03006742739662,-9.673403592680826
-20.54099488589702,-241.5431290136862,-432.4077395589918,-35.22625083267542,-224.87538933062453,-38.633419787591826,-52.271505699919345,-6.91236866774416
-19.86348071126764,-224.11446077682075,-399.22266933778496,-33.79758207153522,-207.94633777527096,-36.54961665786298,-49.43083829719889,-7.239464376148152
-21.359964952166518,-223.31155930006358,-394.0633151475325,-35.67119925055064,-206.11535526960995,-37.45899021918677,-50.714821471168605,-8.865490877742387
-23.046211852037207,-231.68050870471203,-406.8716567353943,-37.98200145321466,-213.3756277936659,-39.435153291181464,-53.3359307350361,-10.16831187158724
-23.549098461599527,-240.55506138472862,-423.63419219140116,-38.68254368547149,-222.03598415323088,-40.77969657214211,-54.92644177801896,-10.233138594930388
-22.35139555512232,-243.61300740903894,-432.9150843410223,-36.94691991971426,-226.11792327155018,-40.548050537179705,-54.21638490155711,-8.899646046984303
-19.776909924260416,-238.74416050828864,-429.66253592310505,-33.17761716502906,-223.2533075031836,-38.7150375862954,-51.23694663238732,-6.6152283134605625
-16.752994309382405,-228.2151082209986,-416.1443776219556,-28.680711625959702,-215.03157194248962,-36.03352081551027,-47.11452888296387,-4.1764690031592995
-14.277708591995713,-216.79618933353234,-399.4954247361906,-24.909150020058355,-205.51038896053765,-33.54635526320618,-43.361096526250854,-2.318270468783382
-12.817647584151612,-208.57773584725567,-386.7855863908547,-22.58581377542744,-198.45693360448976,-31.94386520440407,-40.93659611715536,-1.3046616137419706
-12.103701956981526,-204.62948584025781,-380.8118805036635,-21.374532979512537,-195.14412900569232,-31.212949248115457,-39.7564652191764,-0.8389994654038825
-11.4993752087164,-203.20168549019218,-379.6093293865224,-20.374823899138946,-194.2809445156546,-30.83881768706196,-39.02662482180059,-0.38845509568437625
-10.553393294944382,-201.82362515285575,-379.32535052556386,-18.912664421348644,-193.71428549472208,-30.30621597899583,-38.00236616337081,0.38992924733380796
-9.209942883236817,-199.04905960089192,-377.210084945129,-16.8701919448182,-192.02923562389668,-29.404145214383405,-36.419037249140736,1.5117690237946688
-7.612435328297945,-194.58181450796627,-372.3365736506757,-14.431548940200148,-188.8232683070431,-28.15708003255943,-34.35333054645122,2.840433776287223
-5.8956301422266,-188.65762843071022,-364.85890793658325,-11.78884766179674,-184.24234936080788,-26.658565297311906,-31.959899253694818,4.257039721456906
-4.2378054565815715,-182.0483989170439,-355.89359809461496,-9.207750364302282,-178.94644644679016,-25.089832089046784,-29.50855172929321,5.618550081539611
-2.963993818330041,-176.4756032066864,-348.0971508292004,-7.17417024398507,-174.44039221208084,-23.811712428580766,-27.52885900387375,6.672401513698856
-2.3591906205897253,-174.03535546033984,-344.95967004946914,-6.1313220909565604,-172.62046801290694,-23.216330340570263,-26.57830575976241,7.194429171628549
-2.2746410797098635,-175.33148158946446,-348.0132521634822,-5.903691914889114,-174.1802124283722,-23.33222827041676,-26.644582331564806,7.2892745614905685
-2.0078456545086287,-178.03359843210745,-354.2479268947097,-5.490272436408581,-177.25547447591893,-23.589004483292236,-26.81797393363181,7.4886176526139705
-0.7302868393539073,-177.73708009291252,-356.8335712897652,-3.6491126251856545,-177.99347773817846,-23.087417340892372,-25.74512181042709,8.437604607201324
1.8538491869498983,-170.85895206709577,-349.3573635159847,0.1434706919760792,-173.00348483011376,-21.221621507924727,-22.5916531053637,10.401983934825653
5.184766187000947,-157.3622437179737,-330.4945501110993,5.169616827344252,-161.87493184442548,-18.159902448285244,-17.739076756552336,13.013166236747743
8.071581816657867,-141.47338757686492,-305.938253141911,9.725551500540565,-148.06110040908138,-14.8726214002644,-12.757572629340615,15.405979634118601
9.22180373843304,-130.31914924028516,-286.8775668309738,11.8533283691486,-137.86756434867294,-12.783889378715001,-9.808947408603016,16.57905315915433
7.812248372523614,-131.21794736198098,-285.8987298903414,10.188007689284502,-138.0938957588297,-13.221181970974,-10.777081695808343,15.808431400482524
4.0747413832318395,-147.8949954552455,-310.8197162873928,4.873975255811533,-152.60262738518855,-16.68604720704613,-16.18099504005214,13.120700831660223
-0.1966829698419823,-176.13455514976604,-357.2787195445848,-1.6004643861608077,-178.30047696516425,-22.044194519935285,-24.033696619547303,9.755020418198168
-1.709193675688955,-201.25778250181307,-403.66338978264343,-4.388107947766832,-202.60285926819475,-26.153105152259293,-29.42874478437085,8.207507375512032
3.1526802880229994,-201.02528345026204,-414.2333445229891,2.0706547841649408,-205.60038434282873,-24.637219174633717,-25.87682845804334,11.391841324827407
16.270669189258502,-155.13806664516466,-353.26167784361763,20.99775915935256,-168.23203456421612,-13.910465286509467,-8.434699822109561,21.03994677700165
36.138086930469605,-57.119486806006954,-204.75348905262175,50.64749808648803,-83.0922082792351,6.57121677790805,23.01487649303865,36.29518150979066
58.06948500144882,79.29736538336512,14.524147234507774,84.30070276600897,39.03371845315465,33.422780206056316,62.74106334860997,53.64894054450407
76.56924933991299,224.8881373481994,259.1280046192129,113.50196146127061,172.3353930186274,60.708111716356996,101.60552093542235,68.55545004972058
88.44116488284169,348.9705225909217,475.77400449641124,132.66523122782388,288.0166042711234,82.89616533656915,131.69417649336296,77.79221590816397
94.38287729598301,433.88910548281956,628.4257335753052,141.79992334551525,367.8406495557241,97.44771298438145,150.04842205044747,80.94109196940812
97.67899688111433,480.09520784419396,711.2062179836472,145.15487409175302,410.20181349445136,105.20750930200239,158.80511639754727,79.87404120010777
100.73473515949392,498.5139346877014,740.9046181325347,146.5401416177098,424.84685984645773,108.34302677924647,161.6231310884439,76.57256789513836
102.04582431561938,496.5620077565398,735.8847192615102,144.8499606705512,420.81942834478724,107.49495746120984,159.20807604862065,70.95765798976457
96.1921298071118,469.3682774883786,698.5477447922085,133.54953047582646,397.45590910530376,100.53554584926314,147.66503940010517,60.541249223623154
77.28457096643533,403.6794290283023,615.3005297228141,105.02985260529942,345.71846636435714,84.11086420295703,121.2968656972775,42.3575669164133
43.54104777257919,291.43487107364086,473.31607122639315,56.83786235138565,258.54459085230206,56.847880102590985,77.84263147026384,15.777565045801701
-0.4191294499359466,141.76749950861236,279.42126001441494,-4.942017532362857,141.35827209944654,21.64555142340878,22.009067932844495,-16.01504370259588
-45.39922411246619,-18.78429613480014,64.88221824010567,-67.89682112850252,13.751889962219003,-14.897276321779,-35.66303383119591,-47.157928208653296
-82.36258010976356,-158.70174989751663,-128.41209996382557,-119.64657063669503,-99.44184210346477,-45.64690668866683,-83.97305385733073,-72.1256496606547
-106.73046013372203,-257.4172380860044,-269.85175047331245,-153.81435839599635,-180.974238030846,-66.4136342754627,-116.5419766721991,-88.42614742150009
-119.26710281343057,-312.9098020224903,-353.2668826255391,-171.40941563974854,-228.16110453011586,-77.23469299111818,-133.65149775320052,-96.99698574529612
-123.1960298241636,-335.6887844395175,-391.60788690319754,-176.96132459166108,-248.9643002776925,-80.66442910226725,-139.32409564862854,-100.09342860183858
-120.06567848364318,-334.6186046130129,-398.22900834691353,-172.77580606648903,-250.81318981828306,-78.60439527559176,-136.23003178026065,-98.43897257698173
-107.79264898085265,-306.49966484790406,-370.69862002702104,-156.08123600223357,-231.64139227922692,-70.31753986874463,-122.67390306191703,-90.02104534760504
-82.520851128283,-238.2365695077061,-291.0388940065486,-121.46200310163128,-180.8142498922894,-53.25442539683832,-94.17694150585778,-71.62155438285302
-42.85647918306253,-120.16592255997523,-142.85879221998,-66.70551588598248,-89.53808472263253,-25.99353372224683,-48.41066308140453,-41.981043559241556
6.883906311398917,40.0100016920676,68.04946824711871,2.570298769239113,37.4459679489312,9.132587021369561,10.498618902137551,-4.16026696245081
57.077785212028886,213.97189847884607,306.2251044172524,73.27802798416401,178.32415226385805,45.914585476810174,71.8343192174067,34.78161654364364
96.83516059940602,363.5669096922534,519.023294705762,130.29880018840163,302.2145534148396,76.89854844011107,122.71439482443988,66.71742016887471
119.06888388559209,458.7759253642002,661.3293393417831,163.47299861950515,383.6785967125523,96.96509461591951,154.13795152469754,86.08682807894306
123.38796388621292,491.17819408878484,716.3275640373248,171.710979660378,414.2616231306793,105.43044100180632,164.6958403869841,91.96642850890987
115.2891876356361,474.9604165991944,699.686186798631,162.0646554260972,404.1341627865497,105.46074051240537,159.89210999198716,87.57290401094416
102.68352803271773,436.51116977986413,646.7078350496244,145.12308966703293,374.13358958510514,101.60600930854686,148.2145454359081,78.01080449123742
92.23896662382707,400.74515523177047,593.0635428951357,130.1015119750708,344.6317140312498,97.42985056031725,137.00333197422304,67.98587292089537
87.44424986356225,382.36946197145426,561.3494854148572,122.20612377692542,328.13303885080296,94.66434705153489,130.45711237236983,60.645562883405056
88.59422397266292,384.5845439817228,558.2074401164026,122.51299548115068,327.9543571275917,93.75213620382497,129.83770117920912,57.46823023463768
93.73850059579489,402.2298688894284,578.3201484119421,129.0388540825119,340.6342689274737,94.60795682655167,134.39675581565677,58.468454714041584
99.75464294188002,425.58470613224216,609.5564933802606,137.92824361749612,358.85123591935354,96.76227874518287,141.91962279679194,62.33650652563328
103.39027782612149,443.6725524930246,637.2039467350738,144.69116900342206,373.8535986043329,99.08548538987482,149.07645014364408,66.760438475589
102.34514587599456,447.682700641765,648.3365920487175,145.70813761876448,378.07175216233867,99.8163249044585,152.28820750754187,69.23142359628893
96.14996622903307,434.2441357872671,636.441354104154,139.65769277386852,367.9056789555853,97.23501002017478,149.15727991581983,68.12494793790769
86.42950821797261,406.9942372769781,604.204017589612,128.16427276828128,345.39752564151036,90.66036961396068,139.73467885742403,63.48608142056918
76.44417613514607,375.5185932644825,562.7801091744424,115.37378161915036,317.79428887995044,81.19470591179869,126.9104100298353,57.12685885973425
70.13741833226906,352.3875742379731,528.3092625486767,106.71090237201075,295.3864304960459,71.77918036222879,115.7251980234723,52.03608046131457
70.83866713588468,349.2775276839496,517.1763217626924,107.05017934948842,288.4128307488534,66.30372616250155,111.66470965601438,51.24918566904461
79.61768838340011,372.1164949834306,539.9078060517239,118.33257220425769,303.0311138635379,67.75253517381523,118.06553517464857,56.33084655087754
93.67992981220719,415.49825698978907,593.379223961588,137.17779112349325,336.48620960044076,75.95587396373256,133.3145592958768,65.90673195762652
105.94848578460437,459.2792579419701,654.6064400865561,154.10241895746796,373.753266547127,86.28028079603772,149.50358938473138,75.16913205725447
107.0245451226509,472.15263944108744,683.0257893809924,156.07778751779327,389.6974293491437,90.66447357911724,154.36463200517198,77.25449046217138
89.38089538099804,424.12644207514944,635.5458108705233,132.33529996744508,358.7663336278973,81.18869129834569,136.6459485439152,66.3725190912603
51.733838807161355,302.93802176802427,489.30835901640506,80.60853952053745,268.6124305063109,54.47699331321272,92.42138782495735,41.14207447077609
0.778279476674284,124.37067061317029,258.6688686561939,9.816544479364135,129.48772209913463,14.222613768749007,28.420994125799144,6.018018503758697
-51.206238216030634,-71.46391525292997,-6.119906811949802,-63.05047034093343,-27.572735725903566,-29.97461859817238,-40.13930003789618,-30.334626543817908
-91.78138439969929,-237.2302355796183,-240.0172713981105,-120.44710272352552,-163.96945822440026,-66.9768204572842,-96.34110820358752,-58.948830354776405
-113.74240030747659,-339.40015531562346,-392.5379699563561,-151.9337676723317,-250.86766213797287,-89.16084531380969,-129.10454759459404,-74.50873975791636
-117.4900738121253,-371.21946755554785,-448.37168888542675,-157.7133741972588,-280.69695630128393,-95.29220588730661,-137.24009636086925,-77.14327530541757
-109.42941613514614,-351.128390680467,-428.4042365429436,-146.56683615657622,-266.9177699361885,-89.89460467091118,-128.1683643641586,-71.33143782536945
-97.92246901421048,-309.57798739706334,-373.22202427578924,-130.22946943099066,-233.83039359701718,-80.04147164082009,-112.86429160917508,-63.00957316767375
-89.46758132311435,-273.6255315561997,-321.4359051408549,-117.95938785450713,-203.88419382742345,-71.83619737613795,-100.52123166526545,-56.820245192942764
-86.94843713255938,-257.8467454365963,-295.55354981152914,-113.96699999680807,-189.7470402992277,-68.4530605623345,-95.7177831323693,-54.844639957042055
-89.98888927897438,-263.7953825521019,-299.87417086740606,-117.83870250836156,-193.40243911806166,-70.10211058809705,-98.52378072097734,-56.845164628360564
-96.2773022947029,-284.48938495143926,-326.1579928604669,-126.3812956048821,-209.61489964642425,-75.06556043316942,-106.16813102433125,-61.19772873854926
-102.85881235580345,-309.46615722806695,-360.583701989889,-135.4513230209171,-230.03884436452287,-80.84970378729318,-114.80964320154408,-65.80101374177733
-107.13489292564387,-328.62633572857317,-389.0563432749783,-141.37376050360055,-246.36712742875028,-85.09708884190304,-120.90977057279801,-68.78848870059824
-107.65403112554496,-335.21478747913585,-401.346169350063,-142.06474789270163,-252.78882032627212,-86.30412252988027,-122.30230047331327,-69.10444988656624
-104.58581379322519,-327.9693408400658,-394.3486420088409,-137.71268765103548,-247.84595193272006,-84.2938142024536,-118.87809944693575,-66.85284849611577
-99.6447879983613,-311.52388355444987,-373.16048739743223,-130.68207277989876,-234.9273927449519,-80.24864845177439,-112.5784775243797,-63.24118665406885
-95.48796647846076,-294.6822507226203,-349.1124570752385,-124.66456455534953,-220.9855273724426,-76.28164053406528,-106.67697587989932,-60.145834168364225
-94.86472726359091,-287.4762376931419,-335.89898019215013,-123.4823352291887,-214.18232250558506,-74.76883845980659,-104.71898019648543,-59.51554884421089
-99.66316626612299,-297.95204238166366,-345.3494009538026,-129.7731384640542,-221.31094387438952,-77.59295538427565,-109.37035140198927,-62.71508822525266
-109.78373843086435,-328.5333105829325,-382.72226077810205,-143.46005517494987,-244.90791946186667,-85.21811956404748,-121.06442885444544,-69.73395875801698
-122.06811203425612,-371.98139205416504,-441.05935898701955,-160.2806107334001,-279.9372200080538,-95.67217280987357,-136.56957616618575,-78.399267180404
-130.18035026894105,-409.29821831226644,-497.20838779948036,-171.58328241266221,-311.772852727768,-104.10390481220755,-148.4824686763942,-84.2393994940525
-126.41406184933581,-413.540954658992,-515.1922216395446,-166.76015372927833,-318.7676196044322,-103.85301675599307,-147.0165564455509,-81.72701696303083
-105.24793397876083,-360.9125715127496,-460.10284801912144,-138.13263878879167,-280.8964866377745,-89.20998346918444,-124.24573069477556,-66.80703792246759
-66.80796698977775,-244.389321580726,-317.3777334180881,-85.78070437596892,-191.02208964863325,-58.60855538408681,-78.78858463039458,-39.40605757860362
-17.796924656061144,-80.9320689299935,-105.22579698552518,-18.910024999343456,-61.516929243059835,-16.174633477035844,-17.77387245207613,-4.174129738367551
31.204001181144683,94.14452517871278,130.20057580876679,47.83336066671379,79.45921097248366,29.683091268003725,45.768448994438,31.342068282794525
70.66707573452095,243.62495478202538,336.23576020469943,101.22418971263272,201.02326666167923,69.99289233535023,98.87253128571045,60.13576960689441
96.14996727746225,345.51943913507495,478.7937397786237,135.13822567309967,284.01992459625365,98.91838834783134,134.21556534365254,78.60525098147872
108.77699256530839,399.4970191506674,554.4594114427631,151.2972497321875,327.2879941008156,115.06953456878323,151.6673674333515,87.00236774607184
112.0562047723338,418.60342881552344,581.5750818319592,154.8338416218683,341.70054059248116,119.82141141176498,155.04209069450792,87.37293032978913
107.67239650512005,413.15341433234823,577.7585167553096,148.31877235901675,336.94164097704464,114.3076728170864,146.88247490890947,80.78617202247834
93.66909171984551,379.74833576920526,541.790375885144,129.06933643076638,311.5850443956291,97.73318972055785,125.59897276495869,66.16835095293217
66.4991037371596,304.34202421490676,454.4681194159737,91.92404261369347,254.46284667221107,68.47962418312022,87.34453872937432,41.71528826405721
25.289601902537356,177.00959617041292,297.8776682440144,35.26208367818226,156.27896420791376,27.075685350683695,31.106137072872542,7.709453497682927
-25.136547306280168,6.616476050603943,77.72573096609631,-34.583984529885186,22.17740710454184,-21.548277778607833,-37.199429946934956,-31.635535217184568
-75.02131732068428,-176.51116240682185,-169.17459533540148,-104.18755219547462,-124.87236508653979,-68.65760928890306,-105.17107058107936,-68.98041483812628
-113.93318333394197,-332.801161106701,-388.90467848114736,-158.8967830214273,-253.0628380564473,-105.1565890709983,-159.0518979152798,-97.00115576075918
-135.73811572329325,-432.5778744555728,-536.7829137469446,-189.86058756424762,-337.2334222004847,-125.73760843776061,-190.24493994664854,-111.83533679415295
-141.08678987180926,-469.5476872291277,-598.4848747207812,-197.68707552254244,-370.5804147460694,-131.06358239255087,-198.98486532078374,-114.61300416221165
-136.0761162528852,-460.5358949755942,-592.8669928729933,-190.73480504230582,-365.43040468551015,-126.69696567015063,-193.03320432559966,-110.23489386453159
-128.3507618301201,-433.13183099918575,-556.690504686895,-179.7113657318952,-343.77031824930947,-119.69119605789838,-182.68939799241383,-104.42013682613137
-123.32677215165889,-410.43946625636795,-523.1933912217133,-172.32646799268582,-324.76328260815166,-115.12959642810146,-175.57771807879033,-100.99379809263777
-122.58801540692964,-402.2484518106396,-508.25526228524757,-170.94046917782853,-317.08044372513257,-114.5328603386145,-174.16280108839825,-100.84923460863607
-124.68433143067953,-405.7887745813028,-509.9640676216678,-173.6051779096883,-319.0591542211138,-116.50654281297628,-176.60338180859085,-102.66767546027312
-127.16426425635476,-412.72480559764887,-517.6960940192279,-176.88977187481404,-324.19972491785023,-118.64606703850512,-179.50234992618476,-104.49039172325186
-128.5019551346105,-416.86922319040957,-522.8694572733804,-178.59911472962276,-327.4581121404429,-119.41892066063704,-180.6599639942137,-105.1620104112671
-129.11767030002073,-418.7958938826759,-525.6515390175574,-179.24467122359536,-329.099952485169,-119.20322816815388,-180.61432682769006,-105.08066261779042
-131.13555302757052,-425.7405492305206,-535.2870092348675,-181.76052179116957,-334.7724455338237,-120.12946225360754,-182.4262845666421,-106.00093286489036
-136.82617507146838,-446.48943012845143,-563.6191472900807,-189.37097037430436,-351.53910144249977,-124.6703178535829,-189.59917951617837,-109.83670223004397
-146.30727956825422,-482.8602961270364,-613.6652095659288,-202.37155838835565,-381.0633898154275,-133.43769437777584,-202.818004068406,-116.87430130805441
-155.91468815801525,-522.5112366055174,-669.3170293699781,-215.77395359788224,-413.6403882037204,-143.40889356334276,-217.3664243714116,-124.453336763743
-158.78462244902192,-539.3471121615828,-694.950597343195,-220.00468877640776,-428.21137724112054,-148.07882443201336,-223.47239257164387,-127.30030712030128
-147.96659610196474,-504.3309099655906,-649.6952063324861,-205.18717908924225,-400.92018602825635,-140.1151189944299,-210.38478280349005,-119.81189245833954
-120.49167071042439,-402.0623160333893,-510.75774961682987,-166.87094164362412,-318.7034943385155,-115.3526812773584,-172.33081040451813,-99.17098419387007
-79.81494580604165,-242.87600085978693,-291.4469437937878,-109.59253002871166,-189.54002699807103,-75.75012321933733,-112.73907616152349,-67.38887100354856
-34.88119502890201,-61.717280963719475,-40.69036473471002,-45.74495937504281,-41.91036821182644,-29.322387596247335,-43.83608008064731,-30.9084798912213
3.815071539934167,96.7697875150972,177.7553509072189,9.817818657930584,87.31919409752736,13.126178628493875,18.452732334455327,2.0953134428062703
28.89888882133807,198.5117732409063,314.7294390020079,46.32143991826857,169.75978300619204,42.67456763606981,61.433366367043966,25.185078795600322
38.847234040665825,233.8363185526549,356.37758455984533,61.039057626020906,197.2301085867952,55.771153521164464,80.50721460344425,35.99323874392435
37.47691759261694,217.62271137188307,324.9072598016783,58.811623416431125,182.09952361253684,54.80695929551424,79.58159286447595,36.35377335034443
30.995955322792955,177.59222721149354,261.44423638290806,48.158451341174846,147.56271599990365,45.922727679323486,67.55020148172616,30.58768314048336
24.741574619203426,139.4301115438219,203.71306970175033,36.84451965343236,115.08922951385861,35.71906301295285,53.53276426090645,23.25358628477776
21.377392553842878,117.37495112489856,171.81698256411835,29.31481708544369,96.44211199929248,28.720777909349806,43.55206533416465,17.572503474789034
20.903215022530347,113.14866109755842,166.92100882569105,26.48549596645341,92.84201951849322,26.470005034514763,39.62696137074171,14.91877442331976
21.719812953294518,120.33670846344056,178.4600603678517,26.898565173724368,98.81683835131548,28.022812614541298,40.625735148086704,15.081763752361733
21.89252746765139,129.8924006116512,192.7717072946369,28.167834649582016,106.89540547120332,31.17293123781235,43.80683949999858,16.881122061242106
20.18900207569209,134.47590629443928,199.2939089256973,28.267948659447057,111.0979669453083,33.81007844799036,46.39121606604163,18.887980903105454
16.671629512985984,131.14466215469002,193.93956868344065,26.456521828475005,108.95319539050084,34.93335454208063,46.784254386277055,20.04860012441273
12.584654956706974,121.9164387109544,179.6485889601957,23.443853875231582,101.89453869616251,34.88864117707276,45.005953131004,19.953922804834196
9.503269661505657,111.69681192220662,163.58661142313508,20.615290636075866,93.69171391329593,34.711275362602976,42.10356093555043,18.660649316601624
8.280782877472175,104.59248270090332,152.02860599438034,18.85794069713167,87.603028040184,35.07143261532603,39.03500055381588,16.342115876469176
8.605056048099797,101.3019112989457,146.42001084353123,17.99386607152509,84.2918936614309,35.67853067113082,35.99836071656707,13.192074024381341
9.474021288555875,99.5619493439362,143.66527946571168,17.25171580993502,82.12982324643878,35.596887435915924,32.714720600150564,9.651178425494795
10.063480114198551,96.75849462343953,139.82597473227165,16.15188395417687,79.25176379890596,34.077898958032904,29.154262218623664,6.5523039824428775
10.195891739090321,91.93688305126815,133.3078350432765,14.857874482541652,75.130525517842,31.111201945035475,25.801250823561578,4.804331976776198
10.16789315536553,85.67462494130824,124.90552266674823,13.79416867463235,70.37178333889985,27.329349507812157,23.225060119285992,4.782604318687093
10.341034703426617,78.88039425679659,115.95291632851553,13.15915971644432,65.62724494761925,23.581642267340396,21.574101860203818,6.003931179352569
10.916131812286737,72.2936694061984,107.39075367515134,12.870605996207296,61.20549694004966,20.626841777938544,20.579333279315602,7.4157293045993935
11.862715362810365,66.76025460309926,100.26998962518701,12.75042459483589,57.50493353461056,18.97835540290296,19.89326470806766,8.021615801118866
12.792867431944625,62.96852983223837,95.71934322135861,12.476654106768759,55.04394542916705,18.67180046138803,19.19184955753362,7.317955787222473
12.887256177422705,60.307750377103076,93.35691345049064,11.36325793196893,53.561233515350615,19.00357347915115,17.948508550618914,5.34257853603554
11.227527879096762,56.376955027578084,90.07844790998017,8.52649343471729,51.363573351378086,18.6502139556825,15.410902055235594,2.5383395936595248
7.5429486334960645,48.527334268360406,81.65708347257936,3.632606569209559,46.26699905458197,16.382052529907206,11.134418631128396,-0.37681127883540233
2.7789255135827466,36.47265957620257,66.46522662804311,-2.4099381273425644,37.636349245622554,11.944707828861235,5.635570384895836,-2.6091400680178953
-1.1603178187415721,23.39151406838879,47.767764235080435,-7.634783318333762,27.500483406803976,6.3674954929592635,0.3871294776841419,-3.6619413189670103
-2.4715639344058014,14.222744532938776,32.18794780824998,-10.116633470414966,19.510284724887715,1.3932864749225216,-3.020860480773124,-3.694254694000962
-0.6048859631499967,12.510492278245021,25.692131308673236,-9.185900003528175,16.627538987583577,-1.5567983472123754,-3.916651676219452,-3.5236373870451656
3.209020017434311,18.09684755717581,30.213166925316944,-5.986538190501569,19.31735096197031,-2.207818033796423,-3.0637184624846,-4.2260590560600795
6.266439407376722,26.608226543632888,42.312756320428065,-3.2374576420331014,24.98179061624404,-1.66496579670582,-2.5115860021039444,-6.683680555588412
5.390681255189761,30.39737208905511,53.307130239824374,-4.364002813144818,28.31245797515652,-2.0163442897831474,-4.96517778492662,-11.367281405231761
-1.5323681567936585,21.00229636154436,50.995220427933496,-11.960612660386236,22.659797038332982,-5.338803865639047,-12.638481253839489,-18.17007288873536
-13.801049354691523,-6.296534299844815,24.65530965155797,-25.6563788071868,3.210888224551202,-12.25713759836727,-25.51919571497735,-25.93815570627148
-26.805851235742985,-46.89597547161276,-26.733973505437255,-40.36642746098018,-28.40763614926085,-20.67258215123902,-39.72395178479217,-31.877436275458983
-32.80765446189773,-84.23485076418554,-87.84768096461525,-46.704514920234836,-61.09403671212925,-25.705598147193765,-47.485215089772886,-31.684995471297253
-24.041992040176694,-94.3368273408712,-129.01861493174226,-34.58636532012281,-76.62260958411395,-21.529530314556304,-39.90927927554122,-21.09077592114756
3.076485155778978,-57.374001299539835,-119.34684218630099,1.250500036510323,-58.09054579714393,-4.503670286734176,-11.708708619261671,1.644121872060697
45.14246221027503,29.93473320690727,-44.556963028603306,57.10769026698414,-0.12759139135627093,24.20723649606519,34.85100294893048,33.85229544788105
92.4048428578425,149.46454871753065,82.02529824959151,120.62194315750173,85.92855278250455,58.366362530188304,89.65255438148105,68.75557239142917
132.88218793360846,268.59818287713364,223.6384727541856,175.89857317306084,176.0455577854189,89.21551155837699,138.7996984032398,98.14669207387803
157.72241336787488,355.48832834076154,337.8092717050505,210.7036925560636,244.8661404273045,109.48246860494164,170.91364176538926,116.02896356139618
164.7589598667331,393.6460109043973,396.92743851351827,221.54909296852384,277.6456151387528,116.51743603972226,181.9949539766999,121.07915446854135
158.40446349043268,387.34656261961356,399.1890429897697,213.91570529011508,275.6436929574618,112.8143226560312,176.1427085520411,116.56573059244255
146.38425815765578,355.6636497486771,364.39018079276536,198.05746245236355,252.4573148679842,103.90384430431654,162.1657787941218,108.03615248585997
135.64824511160487,320.396422459044,319.5278917319996,183.46964678924607,224.88418315214463,95.23000669380635,148.65444618458758,100.42990899400955
129.83162373171146,296.07905183642924,284.91130674652436,175.31319138138093,204.78742848541555,89.95292093940013,140.55445150419666,96.30832297443307
129.080903895315,286.874475154899,268.4167911390733,174.03092907180482,196.1559436753124,88.55679971556043,138.58655219800292,95.76642848235925
131.40917850858722,289.2632295662954,267.68144167718094,177.0932461624006,196.85361031115772,89.76121888593765,140.69912061586354,97.40597760140446
134.2745695551402,296.45410003383876,275.1816421349729,181.1026325432994,201.90973801943238,91.70324184142332,143.93589745409975,99.43798862945329
135.69081162793873,301.8130341896007,282.4274770313462,183.305247592832,206.14104253515012,92.79238775415874,145.78943923686367,100.45159435657996
134.82990357297822,301.1221492110756,283.00663388202355,182.45494334131072,205.95587245783807,92.212495420106,144.99423288769464,99.84593416517932
132.14492067362985,293.93930559240397,274.98158368938317,179.05635591743365,200.60721515854274,90.12112620363453,141.82774131415945,97.93681295829548
128.9138966270393,283.3393558007257,261.4563294780089,174.80764816446964,192.25653433146496,87.4218677249339,137.72908289057312,95.63972938015665
126.35543795644001,273.57327760129704,248.01674300873003,171.40172638724516,184.27342386111044,85.11857111530213,134.27163081737075,93.82762952923605
124.90759870693786,267.1060105556053,238.53516656314878,169.4948063555206,178.79782049685582,83.67130163710334,132.16155677338566,92.80521535709228
124.2143894697682,263.4958815380392,232.96093817374677,168.63719143355527,175.63229035794288,82.8683651594078,131.05677443396308,92.30708155792311
123.70333624149441,260.84341098887154,228.8420161363448,168.05209645792294,173.27872611963144,82.24442435262318,130.23038427821555,91.92691374915132
123.08867688976561,257.890400233462,224.33448073592493,167.3453506483974,170.68084693529985,81.5360969473568,129.27554969199502,91.47807386374173
122.35396240251856,254.5274051821128,219.27048388574383,166.49533859880202,167.74775606594108,80.72772253185343,128.1666376948699,90.96222992035685
121.45249504419085,250.77402864142553,213.82933669328452,165.43258239314912,164.54656559676909,79.80210432397293,126.87082760310119,90.3392891797073
120.23789006483793,246.15168296681298,207.42956617946822,163.93466452122826,160.71650605063542,78.63976406937839,125.19931995282792,89.48479734310288
118.7056423406732,240.43369356562468,199.63571910856066,161.972324216208,156.03802653198042,77.212466468432,123.11129761163704,88.38329319546254
117.13845705039259,234.5294168112772,191.57740667692326,159.93490175220577,151.21105101408992,75.7489085809874,120.9647717733475,87.24112893047982
115.88187982675589,229.92190892843223,185.3674371060777,158.32468837164768,147.4567681866912,74.5720716941316,119.25847108923112,86.31595343368765
115.0166010143534,227.09958508426044,181.75442254522068,157.27801085970697,145.1883935815646,73.77552024962988,118.13562665868909,85.67174969628823
114.35710206506702,224.9486558325034,178.9203842573015,156.53624964929713,143.40979167458016,73.15138722454041,117.28381503367561,85.18226077616326
113.75204152376433,221.92611895472442,174.1308881132386,155.86509675473306,140.68251269712655,72.4533166286668,116.3422165769837,84.75433540599143
113.2330112881133,217.54824951547516,166.38347993368535,155.2887788327847,136.5187578973458,71.63067990027953,115.24639114481381,84.42534063196736
112.78010387951144,212.43141097456294,157.05305984268978,154.78337924417966,131.5918923926731,70.73414856650886,114.06185008358813,84.17078480870725
112.05969317536845,207.18212010581672,148.2563026132644,153.9033279503858,126.79646979158001,69.68223556970125,112.62175608657473,83.70569113030626
110.61529692787778,201.9461456223862,141.41886935797953,152.02745856081143,122.62705820964517,68.30128343198514,110.61133908254541,82.64591110415908
108.4287935971428,197.25929924293686,137.57543829292146,149.13676452177828,119.59792260949284,66.6690285627023,108.1294434978368,80.95558957848971
106.22958115660666,194.6506460408795,137.83885189038276,146.2551991394553,118.62312198380585,65.30857613094916,106.00776800925073,79.1974944114256
105.12454335963949,195.42478664025745,141.92886788107168,144.93180177639434,120.09961117409752,64.86926464040351,105.31863564986114,78.25778872148814
105.81346466249322,198.45514260253051,145.77043059590937,146.1236403057518,122.326617246557,65.51392279399712,106.40998785192333,78.7427448599751
107.9910678438422,199.48321562933984,141.66338445216743,149.34565370064996,121.30063453043843,66.57027519364144,108.32676781375196,80.49706640339541
110.19823115341201,192.9852775616179,122.44613008555329,152.48499472319688,112.72449441751706,66.68927764449789,108.99687896339516,82.44359318659575
109.95765108755869,174.83668454194392,86.43124632065702,152.0396493088436,94.5440383326357,64.23690038264697,105.78507813471109,82.64127517701141
104.11597356313496,143.32133461421705,38.36275477311174,143.62513268436,67.6020349597615,57.5975250745008,95.96197571054378,78.5399553060047
89.65591105803645,98.24563561386807,-14.646004093727132,123.08639355411137,34.01153364046185,45.46085271392842,77.22543656065677,67.65489783607231
65.10663435841867,40.14134987968901,-68.3543386061534,88.41782205681183,-4.778865741889921,27.357729672095616,48.654956009956,48.73700375948877
31.973571090295533,-28.85769868711592,-123.06649325630099,41.73694525799359,-48.13793941043036,4.366168642030353,11.898230695345088,22.937364198470725
-4.888566938976672,-103.18651328135458,-180.53191704700006,-10.165892602125577,-94.53755058776365,-20.55501402341557,-28.320138154231586,-5.910828164640593
-38.629306287640226,-173.34469020123638,-239.16071699511272,-57.66918318227819,-139.82892244097317,-43.13990542135304,-65.19443730980348,-32.40791432361833
-63.059113358582835,-228.34109570724823,-292.0964987007988,-92.02035658103229,-177.57014201497412,-59.28790300943439,-92.24168969539521,-51.714584696774736
-75.24315194528498,-260.43248006762855,-330.36042766824494,-109.01215932012106,-201.85316243967873,-66.76653520170814,-105.97663976798559,-61.55829433109593
-76.55698259479549,-269.25998239556543,-348.87066540891664,-110.53576575669197,-210.82385478682906,-66.17401029552613,-107.32032568404242,-62.9572023635304
-71.5879744677286,-262.1862826377218,-350.2593331379001,-103.07330293658165,-208.05907304545298,-60.52436652431689,-100.8210008664457,-59.258214755604826
-65.60964900961929,-250.14274813995388,-343.09098992564975,-94.1029111157057,-200.45097051090005,-53.6875818871067,-92.15762337062966,-54.17559156546659
-62.23931337958761,-241.87644491780497,-336.1827492899509,-88.70877034979272,-194.22620695921213,-48.71090420087422,-85.57978590826815,-50.142157781237
-62.57182626860076,-240.71214141921274,-334.09456853441475,-88.30501827139439,-192.26569400793701,-47.04046327667169,-82.83835418985267,-47.903442771249395
-65.8326227489152,-245.4157771780399,-336.95276018598383,-91.6064380171137,-194.33547847582568,-48.81243413611582,-83.7961618439805,-47.21236730221235
-70.56511498506218,-253.11674199825922,-343.05937671970287,-96.44179363247314,-198.97584829992968,-53.51969235292976,-87.59490065371234,-47.70200888894378
-75.41701605934568,-261.3039036211534,-350.7356638574615,-100.99478002323299,-204.80077981949,-60.31838097787908,-93.23651769702704,-49.18653008271551
-79.3806797967402,-268.0962486936092,-358.25747033988955,-104.17373344202363,-210.54549284371925,-67.92344505695861,-99.49243454563617,-51.42052618071071
-81.86191744807094,-272.14713648423026,-363.7019806025206,-105.61874304431436,-214.95701687546025,-74.59179403716018,-104.84483676368939,-53.84539960539691
-82.7662464293953,-273.1583098657509,-366.08968577527656,-105.66504657637898,-217.35140413592003,-78.53618781620233,-107.8939182037304,-55.66438605250353
-82.43410377533556,-272.2403992594212,-366.52648855235367,-105.09091185065776,-218.16169076117166,-78.58048479512311,-107.9228090025525,-56.140625702042655
-81.34259860524499,-271.0954816404603,-367.36796414209266,-104.57635421319665,-218.46958287887497,-74.63697939385466,-105.1238189532392,-54.88095619450137
-79.85076992970812,-270.6173697598677,-369.9263113970507,-104.29815484927875,-218.87851452570354,-67.80716593534956,-100.4539638898357,-52.04770988237424
-78.26987799275547,-270.53776380648213,-373.39664643432485,-104.10026406015055,-219.12499714683295,-60.14890394344382,-95.41360589945818,-48.505072034127764
-77.09023469169105,-270.5056547368995,-376.2914390467809,-104.01337467533885,-218.92357338036965,-54.135439460387005,-91.78997520688591,-45.72673925088677
-76.91714237598012,-271.0737943900071,-378.4567527185815,-104.42010359050208,-218.85266687405334,-51.80776496025964,-91.10575818539475,-45.24453516229496
-78.02054853727851,-273.1691081202029,-381.0488523205612,-105.59354369231603,-219.9718572891038,-53.88334660454778,-93.80122149892125,-47.78473365193103
-79.97207954143397,-276.709727135488,-384.6463411161214,-107.17702423475353,-222.56376551352926,-59.38378001530837,-98.76525437016508,-52.68501677857729
-81.85494764610684,-280.28363673803295,-388.172140575341,-108.31301257027857,-225.63490028257186,-66.16148994866617,-103.8217879631798,-58.119022273018416
-82.91165537150273,-282.47008234180095,-390.13039633946397,-108.35170828659655,-227.881990286196,-72.03579967198849,-106.96066889778943,-62.03021420480119
-83.00491073934234,-283.2244377617623,-390.4810025435674,-107.37099501530554,-228.95607375886888,-75.75578719263973,-107.36776673659695,-63.12534785456319
-82.51361697359606,-283.666608990799,-390.65306258632876,-106.00557641491261,-229.53711957287663,-77.23626468466487,-105.54416239150468,-61.35114050112907
-81.92387622887442,-284.7027814930773,-391.80720833609,-104.91835633383221,-230.34475545624784,-77.18619208771922,-102.71520979681378,-57.7827338569821
-81.59069491870767,-286.3270538678387,-393.8244812381877,-104.54107913826451,-231.52430854566416,-76.60967671927496,-100.21768995693674,-54.16664179234585
-81.74305931755156,-288.3133452246818,-396.3277848694626,-105.15336580644187,-233.10488379459446,-76.424809352373,-99.15429302949742,-52.26920546082577
-82.42494506727284,-290.965667931997,-399.9908669885606,-106.83186838392184,-235.54815176888928,-77.10556653418092,-100.05210300702349,-53.08175760816419
-83.26309538075802,-294.528563338501,-405.79528360548983,-109.08593738584739,-239.21198686188592,-78.34123618489028,-102.40708387258066,-56.16001282919946
-83.41513576978831,-297.895213531285,-412.7470442334804,-110.69168758519291,-243.18226488001886,-79.04541542805352,-104.59217759216223,-59.631546504314656
-82.03943291044625,-298.5632410427609,-417.0510461926825,-110.2792221931568,-245.13015149463328,-77.99667586053563,-104.64792106018413,-61.145432818203986
-79.03662455623959,-294.4767767700702,-414.40971346646603,-107.40476192007695,-242.87376562438217,-74.8060202037034,-101.65058052525517,-59.297126914772626
-75.37281721466888,-286.0973032508836,-403.56735465476197,-103.15020928038493,-236.33211267710178,-70.43398640813625,-96.58894095181968,-54.56266312469084
-72.60966934573577,-276.71145999238314,-387.92698996461655,-99.64046483027649,-228.08135079656296,-66.7660985402669,-91.96790051982937,-49.087798510745635
-71.99430247137342,-270.88818052925393,-374.32286762253653,-98.85477121581425,-222.23303623109746,-65.55610952515951,-90.43006428504272,-45.50870297435901
-73.76166624857119,-272.51577058584394,-370.46781626209247,-101.57858877237555,-222.74219854394394,-67.49466702596791,-93.35719780436351,-45.54576059644542
-76.93747306381879,-283.22327396284396,-382.16275628746206,-106.921906236321,-231.87062826375305,-71.85307879836763,-100.10296412698489,-49.05697982459826
-79.5167760460903,-300.7558310276421,-409.6973875301435,-112.32225728135738,-248.49268829163302,-76.61402679889814,-107.89463178989247,-53.90043002561726
-78.97202599112657,-317.4754882250819,-443.74207821879395,-114.08382646499446,-266.37765768080294,-78.92073406998871,-112.38310068405147,-56.72654452324232
-73.293209173838,-321.07426521853375,-464.28776468546897,-108.8267140218466,-274.2939174548976,-75.96065989012459,-109.10898997541675,-54.603811272824615
-62.48076813175091,-299.57708071430324,-447.0059443096039,-95.76102911336575,-260.02222751383675,-66.35315730125663,-95.8586009860596,-46.90713608501098
-49.632550801196246,-249.25848700604695,-376.487155485687,-78.52261760705214,-217.53276745370897,-51.48552609064952,-74.83510360331871,-36.3799911192733
-40.430381106416675,-180.1465776279637,-258.6723306549703,-64.7634149768544,-152.88448030462885,-35.721433851358526,-52.88641999009297,-28.37915300893729
-40.67520394670224,-113.86298795345094,-122.7367984449257,-62.85353393318964,-83.84000944284914,-24.816901575543547,-38.86096575442191,-28.325623051265637
-53.05260585569927,-73.56121583017197,-8.900478460092565,-77.2624886576157,-32.07274797277304,-23.126590925136775,-39.17871182553303,-38.69531324525658
-75.19466710857047,-71.73390631395579,51.4135138382136,-105.5461346031126,-12.237959788796433,-31.237777011463322,-54.25583707868828,-57.40964402477531
-100.4743515982214,-103.699630430653,50.85807762147535,-139.0976891552968,-24.73038860426704,-45.58363171636337,-78.13139402319192,-78.7128683593972
-121.2173679093726,-150.98101971586496,7.4868451415691215,-167.40501184361025,-56.64765689649509,-60.35267558662337,-101.63501169260671,-96.05975685503724
-132.40576186269985,-192.1405218133851,-47.850366638470184,-183.22936547820223,-89.96904348662044,-70.50493035676732,-117.12493512696977,-105.27144395551491
-133.64087109836737,-213.74740647714748,-88.82066035089025,-185.5517626426126,-111.22154596521399,-74.01066609128796,-121.85437748626019,-106.11286537509287
-128.37960724439912,-214.6907078024812,-104.32638074156424,-178.76422855541978,-116.49066869362936,-72.07081950574472,-118.12106613295417,-101.57099530523088
-121.3364698156325,-202.56862090345007,-97.77457457411252,-169.20534836093998,-109.78667686744352,-67.57271170009228,-110.70297096500568,-95.64937918410884
-115.98671673427373,-186.64425289436886,-79.1139811874768,-161.69193715864301,-97.82475907583277,-63.16782473826686,-103.79958965955898,-91.28427896670033
-113.56783051699864,-173.00635108286983,-57.55495738187455,-158.04977674442026,-85.86690415315009,-60.245416439606906,-99.45832690660801,-89.50696039442921
-113.55718347027974,-163.95957881956878,-39.13303258767519,-157.69363042940594,-76.70783053247429,-59.025062024733074,-97.79770196421326,-89.82802324331834
-114.68940675065302,-159.6897776235406,-27.50714913666223,-158.9893505607571,-71.55652099226715,-59.130712950808814,-98.00334959939889,-91.09301271710348
-115.76070872696403,-159.64596249099174,-24.700971150527078,-160.34326071998476,-70.80475978504859,-60.02934164684176,-99.11435620217512,-92.19542022647181
-116.09354848520039,-163.0368936186926,-30.8941026089423,-160.83314049227621,-74.16769748222701,-61.23143548274154,-100.41188945693503,-92.51394927528295
-115.7357858845274,-169.01906479916883,-44.25997281765989,-160.48885026626684,-80.72062126485233,-62.38825589008826,-101.58153427038167,-92.10216422341374
-115.26551823061259,-176.46942549096698,-60.972635362815254,-160.04248826101337,-88.82427835638029,-63.25574002481863,-102.57475300329587,-91.52318012374805
-115.13132889263706,-182.8339232383455,-74.54399706779682,-160.0315673573157,-95.48261786440527,-63.44811196008382,-103.06138880243425,-91.28964744105834
-114.96069629893375,-183.00046218893445,-75.3420133711684,-159.84444422572997,-95.76337645432962,-62.23131188365483,-101.92202211834048,-91.26282673960145
-113.55362997943973,-170.6069537998106,-53.3725389048364,-157.7236310354572,-84.164040639805,-58.830584443281154,-97.60722387657385,-90.57614574349039
-109.75982583589033,-142.74272380811092,-5.730081871169385,-152.03166536440858,-58.72311292349588,-53.31262651698616,-89.54081092658393,-88.2502150375223
-103.52948166768059,-105.12193134767399,55.494791085266485,-142.78170008869293,-25.443987346665583,-47.332045974000884,-79.49807614788298,-83.98432352525006
-96.1426470029891,-72.65480383899721,102.70760961837509,-131.98568264097,1.3506260803168362,-43.81064518086588,-71.4600962298221,-78.39797467155601
-89.33554571600892,-62.99686765457432,103.91015707730513,-122.36790995864077,4.955317953565418,-45.381994508581,-69.53572800847199,-72.5127238198602
-84.03449172795466,-86.28005149752433,40.61879313818843,-115.44541809662321,-24.21988547327261,-52.548634375932224,-75.2285893407578,-66.96158282623313
-79.72003679009475,-137.83615071075278,-78.78004149421997,-110.49273535043133,-81.73551871564014,-62.91398631854567,-86.03732218947354,-61.60410587429833
-74.8838973729847,-199.16752249598574,-219.8567754446746,-105.14095160577698,-149.77712194797442,-72.17272945953052,-96.4999125085761,-55.81417842743683
-68.18986564044499,-246.96088506598917,-337.74059017485575,-97.10203419312997,-205.4609596347161,-76.32758267087688,-101.0869315803286,-49.14387750092571
-59.48203596631904,-264.67481581864973,-398.457446005584,-85.75809292311241,-231.87987595844407,-73.77011978601594,-97.11559816930206,-41.81471929918286
-49.993653873399246,-249.90199752397518,-393.65779506565906,-72.60221084671211,-225.46622211119725,-66.00075277416394,-85.95646613959256,-34.6979382526294
-41.78940620912535,-214.1002548907419,-341.58101315894163,-60.50560240351971,-196.17409938459926,-56.73188600985641,-72.10244024795605,-28.91529903491444
-36.99811674466015,-176.42568287163948,-276.32565112725547,-52.604032711830484,-161.8037910845272,-50.128326655044134,-61.05922973615757,-25.470335373567284
-37.23096549270431,-155.8952027067689,-233.09838678715755,-51.42437566307249,-140.46060640637518,-49.17377145814499,-57.30733533921112,-25.088388743332775
-42.98492150275189,-164.55366296161523,-235.5364224355438,-58.014195462437996,-144.03873628522692,-54.591212255544306,-62.76529564202947,-27.972028628424873
-52.70388935136936,-201.8983947514799,-286.58022246832326,-70.5880081217813,-173.26484894584476,-64.21582407757515,-75.51662796338755,-33.15027785750494
-61.91869053221519,-251.26988083545288,-363.3320609227293,-83.22213027387136,-214.70832303294716,-72.89507013145784,-89.0388960568683,-37.75233060472769
-63.67685325360099,-281.48058237783255,-419.4670679094925,-86.29649368563074,-242.1358465024278,-73.49636691986183,-93.11569659409452,-37.17334782424812
-51.06999902740986,-256.9334310875321,-399.6804793379898,-69.913433048086,-224.86410539193946,-59.43986042353519,-77.38128065946194,-26.789494304429525
-21.005310159634377,-154.33426936213675,-264.358664867433,-29.21923345014739,-141.82155774619045,-28.038646890784523,-36.551960941117244,-4.6155238442004185
23.114488648843366,22.522107318084903,-12.947001720225378,31.618264412611076,5.539553216569566,17.22351656856887,25.602303887495008,26.80892085073794
71.91630809500869,239.90906143208346,309.0554336470487,99.85308563226256,190.01215108131322,67.24104913912713,96.50161218479592,60.83736021642561
113.92742000950663,446.9832726534293,626.6216750188185,159.40148231748748,368.72175114058314,110.83718939730213,159.7570834413035,89.50664738722858
140.68463574223875,598.0299615970462,867.7764096529364,198.0377350612878,501.80246730344226,139.53222358238577,202.35290001969193,107.142223680681
150.13570301694955,671.6734124514019,994.1992057649668,212.3829225196274,569.2611333572114,150.8849316988817,219.94666722171007,112.6641751512532
146.53845792525894,676.6107217015872,1013.0988162554731,208.02440123954048,576.8215197617535,148.64866757404775,217.45510678992068,109.36700714346587
137.33988544421814,642.1904975464455,965.772174873638,195.28826932136715,548.7020324065178,139.9914351776274,205.13405005722893,102.60171585381616
129.26613953311517,601.3206568269214,902.5319243080592,183.73406553164247,513.2328029069167,131.7321267787007,193.018835341147,97.00623417854234
125.8801602462044,576.3318419429078,860.0028107661327,178.59454901244698,490.37297135476024,127.77085016046416,187.02046137714137,94.87668538850828
127.39328622454148,574.102099694687,851.660703752934,180.3733159551999,486.9201131364512,128.66070789445814,188.16255353463214,96.16355236059759
131.95010640700883,589.5057867176254,871.6607841585783,186.57732958947264,499.05080704076556,132.74798338336313,194.16051407318264,99.4591985464149
137.14144193398482,612.1206352536688,904.7472709859204,193.83828587557858,517.9950634438103,137.68795202275717,201.60280961824097,103.06775409486626
141.06378026461252,632.0045996328714,935.4012435221749,199.43031374530727,535.1051486124393,141.55710235361997,207.59655463504794,105.70728906188072
142.87102384546125,643.2191868941446,953.6469118171013,202.08275033314905,545.0100730230292,143.42631224621172,210.67014589682165,106.85220981942362
142.86797094637998,645.1569251584004,957.5085409283538,202.1505323500673,546.8792152734201,143.47299945934688,211.0075822059171,106.76904007679798
142.09971530536566,641.5709638334519,952.0425477066008,201.06796550162017,543.7379163505384,142.63954200929524,209.97566118617493,106.20786909117996
141.60290907518126,637.6343910391748,945.2125194390549,200.30089927087792,540.049992706026,141.9647403317372,209.11860384226364,105.86774232236763
141.84047141827563,636.8246518204064,942.956228447979,200.52712973117468,538.9898435633543,142.01197401944788,209.28097122957138,106.01764629688111
142.7497704386585,639.8727456333432,946.9186074516758,201.6757079430758,541.3416278629434,142.80901020612737,210.51219322718728,106.57565327270974
144.2185166939432,646.1010203736553,955.9755937811286,203.59527732712795,546.4934094506215,144.22607497608053,212.64406461078624,107.48329181502234
146.3491433522317,655.0471550734505,968.8822660164733,206.45084031772546,553.8853523000531,146.26347537828815,215.7255286689509,108.88672664379403
149.16814497402504,666.285828787673,984.6617880326643,210.32936030226492,563.0582710677677,148.87609875199485,219.742014902538,110.88011594375504
152.15403651044758,677.9058648711099,1000.7199717259573,214.5504541532801,572.4769432081124,151.57729059303009,223.9939109088357,113.11298048705056
154.22949112028715,686.0588515077695,1011.9637671969199,217.60437834564834,579.0781466071564,153.3972806069116,227.01483956627843,114.75911914628156
154.37965634939442,686.9523341831748,1013.2984158610751,217.9900381034168,579.8106757876786,153.42041253174642,227.37114328193886,114.97396101856829
152.42694866832596,679.9400662944482,1003.9401443425936,215.3233252788613,574.1656047615714,151.5213705082093,224.77171397436817,113.49665901891265
149.40869217990377,669.1750888666724,989.7868491576019,210.93056691458037,565.5568450484926,148.74059887750545,220.6589358029557,110.99132065279358
147.3872238215939,662.6168786318716,981.8300362129683,207.65928373370517,560.458772268344,147.0607762353829,217.9376481061548,108.98892140295536
148.77153382232234,668.9292478995856,991.5238158477921,208.98921045651795,565.7841741005519,148.67121273137667,219.9565604276191,109.44401619156535
155.16836317778544,693.1228061448727,1024.829732077095,217.43780276032436,585.355360953579,154.84917712316908,228.8761530776365,113.8604704989657
165.8946396874752,731.6404993922635,1076.0399859935546,232.40580944534005,616.07604657871,164.6562132337587,243.65635067614465,122.05858859270022
176.87547304963934,768.8077904066325,1123.4442097867172,248.46159891520995,645.1915938071465,174.05945930570869,258.5739366492776,131.1658991704572
181.13057902959497,778.3310029222449,1131.245813877314,255.80850071919502,651.4379626662393,176.4634410619806,263.82471992862503,135.8270103199162
171.48837088548188,732.5278344059657,1061.5077608421645,243.96800906080585,612.3007457691173,165.19947004361293,249.14554707866884,130.2096916490102
144.55506824695166,616.8775705664649,893.6347358307313,207.44739267163,515.6887460651478,137.15561863327147,209.30707650185332,111.12248308817838
103.56572900569289,441.8370699172332,641.0239329807854,150.0733211120744,369.6975735547712,95.45290775710745,148.32544030294503,80.42081863014357
57.94748149550466,243.23432628217702,352.78513408670005,84.78657230678694,203.34432065624478,49.1538032864727,79.28198200075344,44.952746780040435
19.363346439639884,68.74340826685331,96.15746135951754,28.321891588411248,55.930410410241485,9.664093317673151,19.12646735917496,13.731120725183262
-3.6547912682393306,-43.081106882224724,-72.46108891083195,-6.4422244985666,-40.035264214426746,-14.359142592053905,-18.896008997788776,-6.162981031239316
-9.35542944214865,-79.48917974737358,-131.9807403403733,-16.038279643412277,-72.90998443683766,-20.716406074846756,-30.889452647405033,-12.571198682885859
-2.660027560239457,-56.594112470063386,-102.86581356439258,-6.769487021191518,-55.11134631495392,-13.936170138980893,-22.899880670985034,-8.504121734618211
8.295986918104635,-7.960418658308807,-32.56357638047585,9.84943406707285,-14.263765661648762,-2.2084845678713365,-6.553601747760312,0.18967130066050286
16.564607927616816,33.44670263974133,29.979749638922037,23.346964480692133,21.649176377943945,6.95288119575199,7.2214686605408565,8.03413089983623
19.18018869961456,49.40254363351096,55.75680391637443,28.599686490257696,36.43328337228741,9.846175065824422,12.753800184510395,12.141493761155159
17.3488695139503,40.59569236196299,43.419564117989594,26.558564620119117,29.771287279297642,7.259879315430744,10.654523135296778,12.626367992606239
14.738741036228545,21.740072833271327,13.476651488748619,22.159928126638054,13.609076428800407,3.058334803536805,5.883447342174753,11.622454974576984
15.15021419703314,12.188213486772288,-4.904826438078743,21.10481056791409,4.461576211035106,1.8086696578757753,4.491519645082725,11.738313801146731
20.442423813065773,25.90923822152356,11.155694831170916,26.75123881705721,14.879476959759947,6.405425101861903,10.343500024590425,14.547969223973112
29.232926499105943,63.26006109385139,65.11647618489131,37.94003775525429,46.14831603193031,16.34478134334985,22.681861698864196,19.51679478895902
36.96692750563488,107.47328509813191,133.99826577529532,48.727794701098304,84.72106823679277,27.33728438193524,35.52957526880638,23.8690275583375
37.80111830696829,129.26455032945677,173.159032817517,50.807245499437606,105.47115136993116,32.841725661839774,39.843288485013005,23.800709084327394
27.775573916713363,99.9290060490106,134.87112579288905,37.99655718382621,82.52293568840501,27.23894004782027,28.05055309759238,16.697361687595787
7.538306424600604,7.2900318475181685,-6.361838698088322,10.36662190315599,3.272153330512363,9.098455106708704,-1.301419589162177,3.085234679625164
-17.281133877835774,-134.95890322972005,-236.0782311143227,-24.811340090562837,-122.51310149544214,-17.499311405501317,-41.77932178576138,-13.096167406753603
-38.59273875235962,-291.22382526329756,-501.8430920803423,-56.289174126671774,-264.8532483485958,-44.62192500808083,-81.65047272757401,-26.30089258514705
-49.86651116230626,-419.89390401714104,-735.510040338538,-74.44918296466162,-386.5986357777205,-64.27599624791306,-109.48854070034177,-32.22900979999262
-49.23564048948643,-492.15786707366345,-883.5673816576209,-75.9095826703338,-460.0911974047872,-72.11209684781052,-119.49060722128864,-29.961364551706048
-39.90040393002575,-503.1476308566484,-928.5673585707037,-64.46952319126244,-478.085905571948,-68.95162950777402,-113.47478018955528,-22.116367633287982
-27.842987338648367,-470.1254420225556,-890.9855016801007,-48.19562743293115,-453.607099539206,-59.5237624462941,-98.78004907538599,-13.098998626874383
-18.52997713536457,-420.7664219808452,-813.5796454982228,-34.870927942173196,-410.57354587027453,-49.55566934230435,-83.87764993537871,-6.706645717853226
-14.651587582605778,-379.8906302617274,-740.0940762876555,-28.69484684985995,-372.08874601782065,-43.14842346651777,-74.5872964360194,-4.57481462893395
-15.85347186670633,-361.70437458003,-700.2183281864797,-29.6898002742615,-352.8013119489741,-41.71963368598074,-72.71726746126213,-6.104407763064858
-19.891943488239747,-368.77522843415113,-704.6683896260666,-35.127415305072766,-356.99509659882057,-44.41950911952823,-76.85285299425854,-9.400214401961554
-24.002969016304665,-394.3660871282925,-746.5391839200286,-41.31983011695484,-379.910127864252,-49.08776902361684,-83.81298192478097,-12.322486913717704
-25.81605487656008,-425.04767511143814,-804.3463913213095,-44.832260771610315,-409.69093824003136,-53.066854246616614,-89.7646460317494,-13.182315431051153
-23.93827412890466,-443.70094560415754,-846.6875618299196,-43.30004599495064,-429.9905804331318,-53.886320557336155,-91.10103315565536,-11.18249920227957
-18.421050815307613,-434.3937931797256,-841.0208436925246,-36.18432914593843,-424.57969270841306,-50.030474396730725,-85.48572266453161,-6.731981308464771
-10.838530152212721,-388.5001602571295,-765.9507232860515,-25.097917067888055,-383.52405460782074,-41.575286491510404,-72.78656607417523,-1.3961245922985508
-3.558273197695324,-308.7793551598593,-621.3680211266308,-13.045819252178552,-307.9057717283086,-30.164587073055422,-55.11163810671698,2.818191319806586
1.6211934599822317,-208.45580339383957,-429.9481137668746,-2.693251588060511,-209.92652133323148,-18.143580731323954,-35.65576480171655,4.637094980604483
4.580882126538897,-105.55323161738245,-228.2916236170832,5.210380138282406,-107.95611502395668,-7.360521819364318,-17.074307318348467,4.394267853258325
6.868690854332294,-15.816470186165626,-52.35016980719383,12.039771555708056,-19.255054233143433,1.5498957155999775,-0.523358883450383,3.8997921452355158
10.497640628439566,51.92289236750908,75.08221641444639,19.932745420804434,45.71757931800736,8.96421601405559,14.057161644206294,5.289357275674334
16.397710956529355,96.14242269444573,148.95736327768267,29.87734142697605,84.88824697781403,15.41847281920509,26.844723391221518,9.602749289436941
23.6587978999256,119.98408244180605,178.23477160578688,40.72239204820177,102.37261796519687,20.861157480011045,37.28403633875402,16.082298545041606
30.145567878505073,128.47443133931398,178.417693716894,49.91700775760259,105.05285449739081,24.66148725151602,44.31877744236052,22.700273223972477
34.01156025730841,127.49793682789743,165.59741532458398,55.40431342785937,100.29998347654343,26.358159514709257,47.529721590498184,27.518478552700927
34.905001338893356,123.70863763691327,153.49153746572483,57.08945595797006,95.00806549087532,26.4277704882241,48.038672981239856,29.842458579695972
33.94121217159669,123.28449317479433,151.43763037599976,56.66144538111195,94.50336040183684,26.292853835044173,48.131297059853075,30.342782721387294
32.61937548714407,129.2091065245675,161.9763964060085,56.048861042646784,100.76371657922813,27.49244816286552,49.76297534004054,30.223542794490207
31.723990937271786,139.3903276046516,179.82931580717332,55.97094040543718,111.36827502948587,30.699231685748963,53.22702796021485,30.2646576097388
31.065858770491186,147.93606467478435,194.76725702124205,55.75689639820099,120.83269612899315,35.3258779453614,57.10030600206908,30.478463172809693
30.03572269943207,149.10703820192273,197.66511315910492,54.323329687695086,123.94903327473673,39.88137787236226,59.39123235032803,30.440736612852223
28.370223330257122,141.1540536441834,185.92905455420598,51.361438658772634,118.92152548245816,42.734660559431376,58.93010383642416,29.859399709719828
26.663748068494026,127.83309769230212,165.24507809685963,48.00571737368691,108.54362759467296,42.924590090570774,56.1964742058444,28.987917845023674
26.463542667668644,117.43831004627128,147.7251527210284,46.782310832386415,99.37741358234251,40.78390789416031,53.36179122191679,28.72035138690613
29.75082902207602,119.88021947111864,147.76448330498673,50.68031523189997,99.49471428442324,38.01306502471294,53.47464131618925,30.231146001016413
37.57617636162016,141.6850536991611,175.63340259365566,61.1444781602045,114.66405242829562,36.7347383755663,58.629962622690755,34.034123784173204
48.21109358138081,179.4913915567731,228.91244319307648,75.53246774347961,143.18341730614432,37.6043159400975,67.51346460115448,38.74833979464248
56.144200523043736,215.54290904181997,285.61142022070345,85.83908502483875,171.89605545911155,38.12211844980142,73.86787517228899,40.50020916064517
53.407750666367654,220.4828078388559,306.2214155866981,80.68405807313113,177.73437669028968,32.78536031361132,67.8142575099553,33.954417943745774
33.34347839105326,165.55562575061032,248.88797764140705,50.669153684154395,136.977903333037,15.729048058728267,40.441273501098586,14.973655036156527
-5.136748928872182,39.115108924056656,92.29171802533494,-5.623755500886535,38.63767341047541,-15.44037306941669,-10.560131617881906,-16.507650566600653
-55.65695228760352,-142.829767908309,-147.4964536299355,-78.99641751557792,-106.23416173504334,-57.169291011669884,-77.90949993389839,-55.3775484664768
-106.48499704193698,-340.142160321115,-418.68218136591963,-152.65189219247767,-266.33654414484414,-100.75446249632213,-146.84352035886022,-93.05493981104146
-145.6983778094028,-505.59493298069845,-655.2747152919435,-209.53863794292965,-403.25642643475373,-136.18735412645486,-201.5213544433749,-121.2319621187675
-166.43144050970744,-605.9435150777579,-806.7438062582868,-239.82077266601652,-488.70276342259695,-156.7706552609332,-232.07158480297784,-135.49939948881422
-169.2177802713929,-634.9235368125313,-858.6696954490893,-244.23747349372076,-515.8800604810478,-161.7705872413109,-238.22860951157978,-136.78970359916528
-160.42588496225446,-611.5582155948729,-833.3845567883978,-231.9014531464692,-499.04310551936493,-155.77766927670768,-227.8342409406694,-130.042585357091
-148.27717556510166,-566.7364037944687,-772.804767333147,-214.62195006455832,-463.0410016203716,-145.63607871780488,-211.79679427479462,-121.26264244778477
-139.1089620121954,-527.6482512999919,-716.209567288389,-201.5392307390564,-430.4760246002058,-137.130963961168,-198.96411106973704,-114.89941574190172
-135.71140836534448,-508.7957051871174,-686.0995799197041,-196.7105512505754,-413.8860974883368,-133.22399184582025,-193.57819661396337,-112.79290786587705
-137.73321168504395,-511.7292760487739,-686.5689164082374,-199.67626880668533,-415.14355827587286,-134.11728927680772,-195.58854243791814,-114.57689628236001
-142.98226860857412,-529.7002306787458,-709.4448459484473,-207.33031653926045,-429.1350601569536,-138.2495942252201,-202.33514024037814,-118.63750964879432
-148.63362364801912,-552.5761494384951,-741.244515093217,-215.65173575693245,-447.7906472071373,-143.3084213445221,-210.16343845220112,-122.93627335382736
-152.14516541003877,-570.3522178705645,-768.0464257894503,-220.99280875294974,-462.93487759682455,-147.0071036802912,-215.60760697651523,-125.61724239191444
-152.01621725131062,-575.9031641775088,-779.2093680454656,-221.14019862586494,-468.50391614114864,-147.75924919441138,-216.3771126041838,-125.54345433034753
-148.2833204007896,-567.1964073792458,-770.6155144985177,-216.0381150254785,-462.41966081226195,-145.20932801713175,-212.10795436431115,-122.69250390856101
-142.49497180039597,-548.0228792374186,-746.1573963208704,-207.81188707268487,-447.35107743216014,-140.37316503354984,-204.52047768541152,-118.2013225681001
-137.18029013834814,-526.7308768177555,-716.4119040909653,-200.07594535390973,-429.82594789713403,-135.3147261102819,-196.88137016123852,-114.03422487617155
-135.09055174796816,-513.741032613058,-695.4403922257908,-196.8784783961391,-418.2743591265361,-132.55093211478103,-193.05850746345286,-112.43015833279982
-138.31969652528693,-518.568766863275,-696.9872959870895,-201.41503321854967,-420.6744508579153,-134.2943182324351,-196.32862994466112,-115.16630921885657
-147.1520308251336,-545.8565748446132,-729.4726067468994,-214.30069545814538,-441.42967751987027,-141.40116576981103,-207.75181744142486,-122.53615560161785
-158.8133629605639,-590.2193025135563,-788.8890878765981,-231.66809844928704,-477.14849573627254,-152.10193946096297,-224.2771433689504,-132.2585822449921
-167.09016788758296,-632.5799418710004,-852.5042994716082,-244.5007854899675,-513.283441089341,-161.30360639510658,-237.82152776097033,-139.15787669803706
-163.9713048123813,-642.9370235325852,-880.3673839894582,-240.9192961908208,-525.7147335193604,-161.61072598424067,-237.03783799525448,-136.54886433449536
-143.31226028963414,-592.0124037673708,-829.5157341279855,-211.50517067608175,-489.7217929372262,-146.38967046975603,-212.14875300177488,-119.28797960937368
-104.71804317086529,-467.40882572253014,-676.5823548555157,-155.11251155590264,-393.2833506804213,-113.55839863725734,-160.70127344320787,-86.99701257597084
-55.04172388439282,-284.4806269235684,-435.629625300514,-81.34898989070412,-246.80358414995385,-67.73899964577295,-90.59085705295273,-45.33519795920454
-6.070591461805439,-83.63088355752042,-158.21888024196434,-7.4870947328595765,-82.0296175537658,-19.067093084819067,-17.852357523662846,-4.138631982892847
30.59814688600664,86.06159225369738,86.80694808686277,48.93527297377727,60.62730362270095,21.00416444899166,40.064421310310436,26.799373441084317
48.60752133798885,188.08765998986905,243.19978595786205,77.71611370902663,149.6178759391818,44.62064391969596,71.86643611661373,41.9839684358199
48.99527399813932,212.81475131876704,290.1568660155027,79.58219753739439,174.84906043598582,50.44956914517014,76.65159255375143,42.16964875900633
38.57047663944123,177.9441535336621,246.6828001243444,64.24034761370577,149.12666046381037,43.25572792912451,62.86250218247724,33.16883909488645
25.976862580768884,117.09867021508242,158.1443768656583,44.775131627125766,99.47651272069064,30.88484577397817,43.29649022470838,22.58077746767824
17.93549024647212,64.64567114500854,75.35635397801147,31.938421229917246,54.750953672823535,20.692714053631587,29.410736295660467,16.43975521684958
17.318647411370108,44.21093029729671,37.01811375100476,30.86788617197538,35.79431042460424,17.131464854171156,27.562332645064448,17.270100084886884
23.07319688316872,63.11885502683678,59.56055598513294,40.51978383635809,50.27219766394028,20.90686835245501,37.805348992068296,23.8229079962595
31.14909510015501,111.11988079627517,132.71574426641754,54.80585066549146,90.94507214332414,29.214256342207968,54.50603991265597,31.999841046747882
35.93069126234987,162.44901521326176,219.8805359161844,64.76541451392139,136.65524099003378,36.679863814364474,68.20422312673315,36.50056605283297
32.23398622036817,182.76084742415094,266.3813399976285,61.77980975742772,157.54209665258497,37.11758342984039,68.78010619250286,32.940913886035894
17.685221097068506,141.87710303133227,218.42974229725465,41.41954076005096,125.7182473969726,26.06102771078102,49.63887605549403,19.945365391761726
-5.550454549766545,28.684347890586395,48.39805693308372,6.3003585835207545,28.692329488353074,3.2004197240196466,11.366959208928566,0.24641246969805325
-31.011346091556778,-139.64671732238563,-225.89231811633644,-34.06648927246088,-121.22475646112338,-26.701378295638058,-37.35299114988304,-20.098206826711884
-50.541645840194995,-320.8591508296361,-540.6292008863991,-67.0639863393237,-288.0328593784828,-55.308506856884044,-82.72335751015551,-34.32445131982673
-58.08711452425594,-463.43104450430405,-807.872160451718,-82.72362905026715,-424.8798845753447,-74.13813830683232,-111.60356792506468,-38.17552486368491
-52.568624574751404,-527.6971615095308,-950.6271384479833,-78.30650032125723,-492.9805051337031,-78.19395930731945,-117.1458664173533,-31.935869408684372
-38.1356813494875,-501.58232775102186,-933.9203472491234,-59.09575822673152,-477.20301459683867,-67.89293980450303,-101.3048430129665,-20.087780161541435
-21.658293585142868,-403.25799869711744,-776.6296162015592,-35.01699181933777,-390.6682305068019,-48.35284161689841,-73.01227588070853,-8.760118335435564
-9.001874723319396,-270.40928691425376,-539.4209230569714,-15.209553974108987,-266.81242907317505,-26.628375069810787,-43.3010484901699,-2.4523969004834902
-2.308487461046503,-142.7889588593757,-296.5869559195227,-3.7840667996670736,-143.90866343959544,-8.548087794861917,-20.2502719651692,-1.9218305040518866
0.26817826561956487,-47.1929873159457,-106.56435316548747,0.9929657638421078,-50.15024537795017,3.226695379910196,-6.353843503753416,-4.342593273903068
2.543933312477933,8.758887258141684,5.565560139075425,4.132700337451169,4.116883625153095,9.241992626904366,0.8140823463805654,-5.436008173775294
7.497355220319833,33.12694264723822,48.03603063457268,9.990820039394821,24.944162069573267,11.833202893944561,5.678824320059392,-2.1641329187952514
15.442880471833291,40.465569094068854,48.5660575666254,19.49763797940306,26.845322307663796,13.346114476815979,11.53929484108679,5.598367316786219
24.139977734459627,42.95213632452374,36.484004590742856,30.029751523721913,23.740535555958992,15.01879021783243,18.986980139731696,15.242971155227957
30.46999717302176,46.03432496203709,30.11897511794997,37.54645139007571,23.32308056889072,16.87425873870206,26.328956963442156,23.106907417641004
32.36883334993943,48.88355569593044,33.12992891334016,39.22353366148437,26.123259585579124,18.23345666408562,31.134456263947605,26.468665747157896
29.817499260467535,47.29949929978208,37.832651205038864,34.8932989474703,27.7615439167809,18.270069487953055,31.66518144095283,24.734175589682767
24.652381395255308,37.117475778306385,32.16289663016342,26.90104020636552,22.564515862876377,16.44522789545291,27.66436238045788,19.471305909458316
19.756148307058353,17.717464026414994,8.252976346253268,19.114655017046253,7.701585757699084,13.007827648275732,20.719546845106546,13.66431296101152
18.12204088939691,-5.008040943359011,-29.603444153996882,15.743494198139604,-13.155190967197738,9.469296854308565,14.25935856347423,10.632671266684895
21.76947928764287,-18.604163451570884,-62.11968781222508,19.889326623863084,-28.99108819573156,8.440923435591287,12.64198449025989,12.763488735141165
30.477793307494263,-9.16793445004777,-61.77764750082911,31.72103669762935,-25.647342220124727,12.357441192683012,18.984301651030247,20.22273888650997
40.95909340099437,29.817550705561676,-8.048956369797933,47.11834290578331,5.920651560237506,21.59397711120451,32.63962043316176,30.24780374690425
47.49147453332149,90.64080787900613,97.60369918239675,58.28721946087057,62.288617127096714,33.37681006067436,48.26208217261732,37.810118256727165
44.340557956275894,152.35341255038742,227.7307281635987,56.96078234026639,126.73566014684656,42.631471730282016,57.7828645441292,37.789268043711765
28.88585801832342,190.38769553881522,340.224708102282,38.804176471095346,176.55940803891843,44.544966642041146,54.568432076712334,27.663829214338943
3.516415421577069,189.32129050108892,398.92343725700357,6.325143747619129,194.4835765250029,37.27962249077877,37.2511259676748,9.104664456356797
-25.07354159138393,150.86469679054846,391.1318857302621,-31.75860310243246,177.21875564042296,23.075574937346136,10.743322425010922,-12.610731001392283
-48.9292803186063,92.30274413429066,331.93933000339723,-64.52432772996818,136.18336346124752,7.054229049114249,-16.23148543312232,-31.093053228283924
-62.45722305404069,36.934523538574275,254.07454900481167,-83.88260194064925,90.61344751750234,-5.439707321588176,-35.49466491885635,-41.77930742924122
-64.55960442688452,2.940104753555143,191.03763043575418,-87.74927318983157,57.977839898829735,-11.25579746091062,-42.9774442311211,-43.652715429215036
-58.3286633040704,-2.962185957153052,163.8251940210567,-79.88792158233707,47.38114117554042,-10.314627431616954,-39.659944704426465,-39.0076073100458
-48.996644501759796,14.697023309962832,176.39641445520127,-67.25117701265533,58.242344280438,-4.912002584462279,-30.068878213272328,-31.8379341733168
-41.69329189257143,43.935502723414984,217.66244200887,-56.92338301222617,82.41163366540309,1.5833752922802113,-19.96998935676901,-26.08465769342378
-40.035370830533864,69.14332017371304,265.3990141726033,-54.1196213403028,106.91247798958548,5.766591064354263,-14.627233282569637,-24.545742988444985
-45.44820367092192,74.50039471431194,291.11420171248284,-61.15176634658041,116.81959217268898,4.923808562207945,-17.675532896079428,-28.367635423247236
-56.703556651450675,48.767588342352376,268.3938382248019,-76.66381499425952,99.71531353118912,-2.142250958189951,-29.981191983810767,-36.707370084124065
-69.77807915913979,-8.658240221872038,184.91235252967533,-95.28751553569201,51.72215557056505,-14.246811924726112,-48.5951074790675,-46.62024112630432
-78.78625692906503,-84.29672899545196,52.15069359794732,-108.80661634576843,-18.225215200884424,-27.68900809864808,-66.94672238364676,-53.72400641313827
-78.34168871687572,-154.22712179857123,-95.5479717303972,-109.39887184010296,-90.1625905082603,-37.5413375851545,-77.20730417535513,-53.91094828048465
-66.42643815000838,-194.92452379568533,-215.36020330869744,-93.733821011095,-141.79068387296041,-40.033493763217166,-74.13121223945517,-45.45808098264774
-45.959820067200795,-195.5294228632286,-276.8708825613695,-65.38939773982158,-159.68006087647973,-34.65695382169168,-58.14505006793295,-30.24320185625588
-23.74732847611379,-163.66997467128678,-276.8349758311316,-33.64819971660494,-146.03102758686643,-24.547666530622173,-35.514133739514506,-13.114808184007419
-7.1317066261244095,-120.6781941315749,-238.40976628491697,-8.989999598647598,-116.50233224499549,-14.75728673465604,-15.193153861128959,0.39006773805694905
-0.2686204840625087,-89.07650501603187,-195.61492099827248,2.132365201237925,-90.49716576935776,-9.445960721824232,-4.185941271995563,6.6781030588403505
-2.2969891237875997,-80.44081464461293,-173.57660733532728,0.07334019223709493,-80.33228960209038,-9.776604445360928,-4.261442305438669,5.537721049996988
-8.433016788172358,-91.17543779834102,-177.21699715585254,-9.193011345769811,-86.11561717523757,-13.77350872011527,-11.898100867216979,-0.333833206544619
-13.07403291754734,-107.79734928596899,-194.0023130467166,-18.097904708896053,-98.65992355522182,-18.00486454100657,-21.085032333474363,-7.159696724390716
-12.851567525209378,-116.92788260452703,-206.30000535055254,-21.59863267151223,-107.17835367191068,-19.79274906863151,-26.88397637753714,-12.000839483909896
-8.010062665494894,-113.33292800634851,-204.00994025331792,-19.19547003767025,-106.30345120004121,-18.617565916070802,-27.70381392107921,-13.803470544555786
-1.841994112937803,-102.33825387180637,-190.73690038063808,-14.442201970544902,-98.95145169424143,-16.223575976387973,-25.576288496111168,-13.430036073749637
1.1313872339322804,-96.76144065064332,-182.0424623947923,-12.799262012197811,-94.65364660075886,-15.672225347894196,-24.827690648729785,-12.979950749813996
-2.529578423571507,-109.99808414885855,-197.12906255299757,-18.727168021476025,-104.39636717044793,-19.72917371408015,-29.703827561638654,-14.616393120076385
-12.990833243142347,-147.11490588377532,-246.15339495260577,-32.71328350086759,-133.3244463108889,-28.957401709208714,-41.46678199098368,-19.07384980795039
-25.927212938647468,-197.24716173132472,-317.74043901541444,-49.3718396094443,-173.94846530808047,-40.26042891530681,-56.07365764461528,-24.439374274472904
-33.36371950496981,-232.55661054911226,-374.72550238409235,-58.237231030427566,-204.34884753100965,-47.032526756386346,-64.21881857395822,-26.205305022796338
-26.949095639795843,-217.67985301699176,-365.2382970144855,-47.998098191542816,-195.12250584574025,-41.62252842226843,-54.86749282600563,-19.162785731438834
-2.3886276534162016,-127.35355450976496,-247.63702495583368,-12.594202771879662,-123.78132514637251,-19.31838148604236,-21.139438859205974,-0.416308973472194
37.52204336510419,37.21260260848769,-16.484680776675763,44.36419358478314,10.937936212790618,18.39391592869139,34.81495137202335,28.31585261334062
83.39769036018751,244.1104639918718,287.3442745823636,109.99060087132315,184.26980804202486,63.54933728247225,101.33762001517628,60.791104717031445
123.34230174963619,442.92128490342066,591.1120813085251,167.61040843965233,354.48821830821896,104.93774419419226,162.01209208158204,88.92110418572918
148.35629164314972,587.1822214321653,822.4383442116143,204.32868904561133,481.44058268775456,133.13394365371659,203.08601370605857,106.52040294899449
155.98557371340468,654.3317489267585,940.9517456217725,216.3277106446277,543.9825830480072,144.44553276167917,219.28052568717533,111.91052119362031
150.32636845372406,652.1606011768131,951.6647472366701,209.10279989171053,546.6143834481944,141.65448148794314,214.83651892174854,107.97513592748454
138.86313353594332,609.7071971730873,894.5642945063469,193.1509556103042,512.8000675074064,131.53110607379787,199.79395371893264,99.96292595811786
128.44437914608878,560.0586757445728,819.756741843808,178.28638466355684,470.7040372859977,121.02513400379604,184.3600433809483,92.66967120114984
122.74266827864356,525.9299521337686,764.416125486304,169.9346505035617,440.5366268767108,114.44800511652903,174.7959090535679,88.66816589878756
122.02637913794982,514.5670951730857,742.8464305790876,168.67804535043723,429.5207157562406,112.77492179363988,172.45246766942176,88.16046228619658
124.44655143688942,521.1007813138567,749.955065531343,172.00560782297143,434.23990067822785,114.60924026792223,175.23047755282417,89.8735082325204
127.56332726031762,535.2260591664734,770.9584085699738,176.47336366649566,446.18830572859395,117.64669879699566,179.73317302893412,92.10613008389579
129.42149672405358,546.982526638889,790.4532258785015,179.26189052882407,456.78506643861266,119.83905265708341,182.95702042541444,93.47125693585723
129.12605995191362,550.3218348315387,798.2757293938266,179.03102734317994,460.5569636604977,120.07540399510245,183.28350985245905,93.3160630861475
126.95985014092518,544.5014590085758,792.0925188844686,176.12273373087254,456.4837907017471,118.39779568013064,180.79715177702835,91.8307789861814
123.97781542042068,533.1367735307566,776.5323429703474,172.01279596489027,447.3747608186289,115.70406256478296,176.84123513206836,89.76891038047103
121.23935871878642,521.2205034062966,759.0790147568671,168.22318423503253,437.4574202275257,113.05401156524155,172.97892571910282,87.88877974775802
119.22285657949904,511.9985017102412,745.1968478498812,165.45989785774282,429.6697846861139,111.04552713653715,170.06818826056505,86.5258961026289
117.87619235429916,506.0509467328444,736.3183394730607,163.64592862518944,424.683823858475,109.7314229984533,168.15909469243584,85.63503734842944
117.1106891344141,502.8617164855067,731.7487663921843,162.61747858357234,422.09552348066825,109.0175977695192,167.10884684194713,85.15325446862693
117.06788171890791,502.5616508659237,731.4747774551543,162.54358145533536,421.95885763062194,108.9764466226365,167.04886822728233,85.18676156679925
117.79956890207487,505.5590960312633,736.1554322444169,163.5222631427258,424.63497331052594,109.65899222294756,168.08346869452936,85.76901436042553
118.75788813099024,510.5349271316306,744.3045850586158,164.86613577631584,429.14746395389585,110.64391087560278,169.59802911914898,86.49584436065321
118.78060211680503,513.4719460953735,750.4035609918708,165.03521385610242,432.2300722837574,110.93382755394906,170.10323095194386,86.53491393587099
116.74844080614363,509.4189582350562,746.964009137572,162.49769279504403,429.65252692444614,109.46420058286785,168.00231163112477,85.11308514709603
112.4227622955526,495.8704780041565,729.4629990360469,156.86256535643858,419.0547035219747,105.86929796797735,162.73384710047415,82.10312942930031
106.87514908783717,475.2650697743231,700.4647551557964,149.4758537679536,402.18402373870634,100.95379643829514,155.46929586193892,78.29333460154155
102.31466839410386,455.17327627506535,670.405671952331,143.22072971763006,385.2050371733334,96.61957549037614,149.01165102146032,75.23509048728351
101.3768167382313,446.17963815260066,654.8292437106672,141.62367414277108,377.0183441853057,95.27827102068404,146.94857431091842,74.74129613827603
105.87918080554,457.5782255909012,668.3500744324903,147.25537948913058,385.7235915389778,98.7737262070804,152.07300039423836,78.03404143254448
115.18426786050043,491.0563235950195,715.5293090017938,159.54549956942097,413.35522104503985,106.91616292766625,164.1899923268454,84.61876157478187
124.95469824090311,534.5213596993331,781.3199760174698,173.00583457489336,450.5509245226955,116.24619001773223,178.22581374489047,91.4322141398223
127.60790802042196,560.9556879923038,827.9138067518247,177.64828375485502,475.1521478763273,120.17320938626764,184.37660759513892,93.1940654613744
115.18717975169811,536.6514347700718,805.0132974709798,162.68421249148588,458.5805067612948,111.27610929091564,171.510305215806,84.45690715237767
83.64782520817509,437.4815906960947,673.0226214919104,122.28357463639537,379.30018777676565,85.11510227019632,132.86723164450044,62.6075763290397
36.041860304690054,264.68753422086786,427.7061779311918,60.03187384904063,236.52581814819786,43.41916618792058,70.86693036066123,30.013448496010632
-17.742011793449315,49.506101727776866,110.12940885809273,-11.169124506290864,55.05266094890052,-5.610499346455016,-2.366607723975506,-6.3087216577313265
-65.0036313802313,-158.18302426103804,-207.13206104680972,-74.34507400795587,-123.42042454928742,-50.515613530334406,-69.73452351516563,-37.635421109721015
-95.87050676739203,-311.79909902911004,-451.5770637467497,-116.04681309839606,-258.5361699272767,-81.65495497493173,-116.71463699641797,-57.481961438919136
-107.30381609792553,-388.0732390817761,-582.2993513188777,-131.9112639733017,-328.72791486974484,-95.20540214900386,-137.40257050316345,-64.24557412361314
-103.33501322367067,-393.90163413111617,-603.5839871447248,-127.17654014267399,-338.0262221604656,-93.88072990695132,-135.7402125027995,-61.12635563834715
-91.90144438324133,-357.6362534079942,-554.7562364463919,-112.50311796379717,-309.5231478729965,-84.36706474466193,-121.8431743872834,-53.72762493344148
-80.66643366771974,-312.1985877630276,-485.60304279940254,-98.27284249471728,-271.253910100702,-73.51255258389968,-106.33230700525375,-47.11843556987246
-74.28830331981943,-280.9317495480453,-433.7350696413324,-90.77209720393252,-243.77704030735953,-65.676305499608,-96.17015017810427,-44.082569037585536
-73.97880786433312,-272.57302177604936,-414.98975905268367,-91.51805400548538,-235.32713678823558,-62.26693077270523,-93.60084480402561,-45.03508036623947
-78.50183902692311,-284.1496871898233,-426.6363600082972,-98.64206216445228,-243.96368084205315,-62.76563025425445,-97.37113903082782,-48.888603954346635
-85.3762308044622,-306.6319877432231,-455.9490516726447,-108.62497823640639,-262.3878318697408,-65.89099433389833,-104.50420597685104,-53.94748561021152
-91.78638664815247,-329.63442695220164,-487.79864382275804,-117.63201787143217,-282.02802113043765,-70.19152305615135,-111.66470495254055,-58.4970218938984
-95.36964115263049,-344.6448602040289,-509.7023488332771,-122.61087452449512,-295.7484670556702,-74.23311828234534,-116.15058686252877,-61.242996575582495
-94.96030508151175,-347.2895202401889,-515.017503530964,-122.2414360335235,-299.6525470842247,-76.79148913044632,-116.67555431863451,-61.68785439650543
-90.99760303403463,-338.25774749021275,-504.0466091823147,-117.36607458828126,-293.81536509000546,-77.16311561990385,-113.72745693623824,-60.27919198687181
-85.35579269493267,-322.4043588128777,-482.53240376220975,-110.63717250985769,-281.59800292606656,-75.47850369089622,-109.30449461081814,-58.22736410849046
-80.73804542260139,-306.8444576840286,-458.88060352734675,-105.6525954815179,-268.20823388157896,-72.91147059322785,-106.2601403339381,-57.144001172203396
-79.86841150072765,-299.354853272986,-442.4360396482912,-105.93538330238404,-259.6404564175284,-71.61691177651343,-107.5651007955246,-58.63582982077723
-84.42995365652365,-306.85786089394577,-442.7997103999075,-113.63577566888166,-261.84169799340356,-74.04592489147701,-115.32623847479105,-63.696465106513635
-93.69517529915854,-332.38739922916074,-467.24758159244135,-127.76289134669928,-278.5924391574338,-81.45687416510397,-129.24968819512597,-71.74369403259652
-103.46218687804068,-370.534165403573,-514.6242162680063,-142.69129416891988,-307.6856434253169,-92.22685601099315,-145.07256731452796,-79.74452355179483
-106.53898765014242,-404.9110795697142,-569.5006157991197,-148.66342738725322,-338.0446491186267,-101.32881507766287,-154.54071005032128,-82.4442546065643
-95.50447430363977,-412.18080062695697,-603.6828940450168,-135.41471682262127,-351.7724396346035,-102.04040156837719,-148.21766295717734,-74.35295083355457
-66.7834577187814,-373.048322495367,-588.1560476329221,-97.73628351417504,-332.2088395141886,-89.43020361682362,-120.39669331775437,-52.80872298348045
-23.59186753848982,-284.34981511921717,-509.7629446667331,-39.65570963591188,-273.8855611289846,-63.585147690678376,-73.25404101332515,-20.244586808103325
24.471863453642047,-163.84838449274497,-381.4218287236841,25.909206821450724,-187.60644324996613,-30.342472178697818,-17.205039479028628,16.076796741957708
65.41323619987088,-43.38432059078693,-237.88075054586588,82.47717340266962,-96.47760185824701,1.2071190213134357,33.34240631899261,47.06178914433389
90.28189988071526,46.221152338951214,-118.71987240613034,117.48660419066107,-24.75798016938554,23.05775723907526,66.60188496200567,65.90764184513937
96.95689886205423,89.42521813509721,-49.19414638903663,127.64345663131402,13.639232533597307,31.88302480791643,78.5417316860564,70.97827082232482
90.23736434983081,90.8639285177095,-30.924652055157523,119.22038035376862,19.95631999784876,29.85328053610981,73.65512212223587,65.88423617402825
78.54350264176804,68.84516725416923,-47.176394508967775,103.61710450329068,6.448702413582182,22.515632826039088,61.33306848731238,57.00283385397292
69.4724700054947,42.9936544852823,-76.95792253122897,91.24302961692801,-12.767202099121217,15.400133728440798,50.479134049521015,50.13340258721528
66.67427487613142,24.540178144002805,-106.8729529007852,87.17184209503331,-29.156000805149812,11.486784809386194,45.60099926673159,48.13030391429726
69.14148949353725,14.111635269529115,-133.65838955467447,90.13912877770079,-41.42284435627134,10.623438179300159,45.966424243043626,50.31961184746776
72.4221548446147,5.545016079040431,-159.25001447585663,94.2091423743779,-52.524622692715894,10.510007757553884,47.195164405334204,53.34207672669846
70.68493320522384,-9.05484490726256,-185.4676703731475,91.58386636909754,-66.07050390515838,8.187737517663116,43.69253700356506,52.66612250439855
58.91914830472817,-36.211257594488146,-213.07651030145294,75.5362025360688,-84.82009192353074,1.2960075978117294,30.841696029088418,44.282854556587694
34.90513150144961,-79.75641330033122,-244.01299355861426,43.00992147681588,-110.84689114575255,-11.07589354122504,6.668896067285817,26.312014115664283
0.45805534368478074,-139.74849146684952,-282.39788730143533,-3.7063693339175314,-145.42607222794166,-27.958591096231995,-27.1646123614205,0.08294589161529223
-38.71642893291437,-211.21654137749385,-331.8112203707575,-57.08519125433748,-187.71595937621666,-46.6482233270775,-65.44753201831973,-29.90057045120634
-74.82580287806626,-283.9219068654455,-390.48837746026794,-106.654426995184,-233.2042576475,-63.5544222431877,-100.89117073917241,-57.37935867801131
-100.86944342720575,-344.5729744632241,-448.74485477705855,-142.78946743721457,-273.7932475562775,-75.55023951707906,-126.67823850764891,-76.68908747921002
-113.3037987967595,-381.51499826842877,-491.8714562248405,-160.34493951840068,-300.5158054453578,-81.24474183974515,-139.06342940989862,-84.97858106154986
-113.1840115275448,-389.8119717672231,-507.56274423517726,-160.35592565095993,-307.77460248826105,-81.4934682269921,-138.74655289204833,-83.18728196030767
-105.25785591309804,-373.7115304496838,-493.097102842934,-149.01178981226428,-296.46803785647444,-78.82920844263361,-130.28159214247196,-75.31241676241393
-95.67112101925846,-345.05122077338973,-457.68911242305796,-134.68271007005214,-274.0535891777059,-76.20289330881722,-119.9525425770231,-66.48466959776367
-89.66455464465395,-318.9869515608537,-419.3742542274918,-124.80904824266058,-251.9127285531535,-75.89180818496136,-113.45750629995345,-60.99528625787506
-90.26144473494841,-309.4786741898901,-398.9374474542376,-124.01901637599349,-241.7479377254796,-79.1092171913063,-114.48212958617187,-61.14950179588107
-97.86008122019076,-325.2657670871753,-412.69933778772776,-133.39851810677553,-251.84457043161368,-85.99424406923245,-124.06051957421,-66.96408459782128
-110.06005783750452,-365.4382493339811,-464.10005088807355,-150.0400426764799,-282.80840360071807,-95.27661571428496,-139.9380027960694,-76.21334586795315
-121.61142630130756,-415.24850913438144,-535.6277679260081,-166.77564807755186,-323.48552182517125,-103.5868875767641,-155.90647818117603,-84.66413208684887
-125.28924786927281,-446.17244326241,-587.0752807912914,-173.283904994281,-350.45632264883994,-105.41636741675049,-162.38323076805116,-86.95675083448862
-114.39508825694882,-424.46731115440554,-566.8285081228047,-159.62425684522577,-334.82048042700876,-94.7897173435564,-149.48928687033825,-78.50848013646566
-86.2067791825088,-327.0857894067865,-435.4918078078033,-121.27525070612649,-255.6226599095065,-68.39095187470039,-111.98464045845502,-57.87889950644207
-44.32914744282672,-156.66050215292,-190.193480509808,-62.73709663208093,-113.11935364590072,-28.30546133964276,-53.25661229562747,-28.171093649915058
1.9583026567688306,54.75005942955367,126.47213890435332,3.1256333182928615,67.0471461842559,17.731870873138803,14.651083211769095,3.7394129501053905
41.46752053137999,257.4599054547001,441.20109655396743,60.3040657194471,242.994279346731,59.22702810240678,75.70137137693672,30.047608214892275
65.99536725617052,405.8190706080804,681.7979670727287,96.68024191964008,374.80656201557645,87.48485792075707,116.84255603832149,45.426910614348884
73.55816168133818,477.51186948440034,808.1957859518265,108.86894877349309,441.5578469702056,99.2095270403414,133.33716059190897,49.07084171618728
68.27072627237146,479.90695559252555,825.4969928218304,102.31168628516403,447.76183857788004,97.16968150444353,129.5695000447978,44.31730530345907
57.35101232569439,441.416236418654,773.7616495799028,87.16143307915735,416.8493773160062,87.89200392941765,115.41656226466262,36.35825548489297
47.4009538411044,394.97453693878157,703.6551641088728,72.96019293855088,377.2471902105302,78.13683791630554,100.91131101313889,29.636350505710965
42.10238558887895,364.0150230743675,653.6857614010999,65.21070706435032,349.9258569066937,72.27654386293035,92.38857075121567,26.396996020383664
42.00941140766876,357.14493706816035,639.9164426005701,64.92828030134292,343.1681676978349,71.57923174614825,91.545587446337,26.745669955804566
45.62368857437639,370.6675718980494,658.4365257050356,70.09678260747086,354.30911272745396,74.94731943702983,96.64792338350593,29.511844278815296
50.594103602923134,394.2251736488051,693.88103347739,77.38144252630227,374.5500267547234,80.08099590736683,104.28640869957887,33.0687819670575
54.55248245280792,415.9624961369255,727.8977760815375,83.35642833633548,393.579228899898,84.46075824452232,110.79155634547257,35.826694335152865
55.734678438668496,426.4829150599941,745.7034819089735,85.42442406559515,403.14918985693447,86.13299278725091,113.32933294065147,36.591212642963804
53.511430944292954,421.837961907976,740.8975941189692,82.60211144985239,399.7509791792156,84.35694936202397,110.8060698363667,34.91708501678487
48.63623373798916,404.89470471965313,717.6576542126572,75.90122070704261,385.8462523652708,79.91482375180018,104.30806953650794,31.31106976518016
43.027643779575094,384.17264901991166,688.8808644716065,68.03545504495625,368.84088020454175,74.86497518758425,96.76280436655463,27.12757420201569
39.200159991714344,370.53568992431536,670.7313953055658,62.605877263829235,358.0755073843227,71.81578291472098,91.94358378193799,24.21202330055938
39.527292758602805,373.1820731399737,676.0884115718096,63.03711788702297,361.1655738428506,72.98419449008061,93.1818896052639,24.389327228536246
45.28129482170674,395.80347537361877,708.9156268849379,71.20544727047486,380.6846176269166,79.17865684805547,101.92029363509533,28.723196757103153
55.41028034717692,432.96374992350496,759.9148347040003,85.69914819547671,411.3772390279992,88.79350004629657,116.15850178123861,36.52116567040601
65.61977125738507,467.77216765239115,804.3391606360541,100.48738121229225,438.6373391640659,97.27010703105653,129.46324619046229,44.56065053310987
68.89775104265576,473.93461872299156,805.3434702075448,105.60274790173311,440.49432364180427,97.87684182984175,131.90199769755947,47.45554060136235
58.15863806222748,424.73169944583344,726.1537766084786,90.8364228044656,395.05000185126147,84.27223760721647,113.73215766055078,39.701783454344316
30.114963456135307,306.7898134670736,548.6585872304686,51.2487442855387,291.69722058381615,54.00929052356656,70.68890210992602,18.706305038459863
-11.935002336985233,131.0651147458235,288.5890558794213,-8.757802242214385,140.05693643006117,10.924477781152614,7.798808890361495,-13.006656842106533
-58.5608549692095,-67.21925267051462,-4.0909066986906,-75.91828042981436,-30.09822193023454,-35.49610131531656,-61.241051556763274,-48.10639474432992
-98.14439262999714,-241.95470256734177,-263.31898339434423,-133.5973915168058,-179.8927917238117,-73.9556550057967,-119.55935716878449,-77.5089244986057
-122.21771867073136,-356.3992561093367,-435.35217889938514,-169.39816415208364,-278.197673841338,-96.42974930919232,-154.68989805067568,-94.570444415856
-129.05831404536795,-398.8351803667969,-501.7145265946839,-180.4273997518833,-314.8640314464648,-101.56410141408469,-163.88064551203405,-97.97453352011507
-123.50165554492573,-384.71348001270263,-483.58726608682616,-173.22755641090313,-302.8163076583734,-94.44705870437413,-154.1194784156203,-91.66994694749496
-113.42450612245769,-344.95852271777414,-426.0399083651522,-158.90016929488328,-268.4459827448383,-83.13766654546949,-137.24961018564633,-82.13478666264186
-105.40479610539005,-308.70793799288396,-373.0060607001328,-146.92036499870463,-236.9931886160919,-74.33473511532608,-123.56344432788151,-74.87979903002518
-102.18055707194496,-291.10499531301144,-348.3711921860754,-141.40290474076707,-221.87389976662624,-70.80200469926027,-117.72595666442206,-72.27804274587581
-102.8488906482295,-291.58293879701927,-352.06277398929075,-141.24837891794198,-222.83538681912043,-71.58111374882996,-118.68613235054907,-73.56910529569785
-104.85711324249586,-300.391074798265,-368.8868564754812,-142.89892317422928,-231.3225534586995,-74.06340789613921,-122.44520071192221,-76.4090535001074
-106.16972631876851,-307.25020279522136,-381.46047556012707,-143.42919352652797,-237.92705296214996,-76.1856997631475,-125.33985204089922,-78.72197287765572
-106.52619818390279,-307.4919428790285,-380.1550528391822,-142.41605237335622,-237.86450351592254,-77.58167076892664,-126.1435335971553,-79.90577348758264
-107.43168868858663,-304.14924397516836,-367.569791590768,-142.05121105001027,-233.11730767101145,-79.47348421312147,-126.42354064905484,-80.97176525503242
-110.89560721275875,-305.8141883926645,-357.09454757394775,-145.46880845069327,-231.09391664711026,-83.58401921501094,-129.18346096810436,-83.56104894692727
-117.32640571348004,-320.47784705406576,-365.1726205583645,-153.7817031896593,-239.83709191794145,-90.51171871610731,-136.2131832815929,-88.2006824169767
-123.71959711436331,-347.56661880283207,-399.19422423521934,-163.3596682019065,-261.25803448990706,-98.31643606732558,-145.3957991152754,-92.78044403854211
-123.71127518601749,-373.3336340312718,-447.75300647714425,-165.59795157770947,-286.4304324681702,-102.36340762482165,-149.96065692243792,-92.53203855323446
-110.26612657349206,-374.6661156902875,-481.6444051870325,-150.42515355506,-297.4212561802771,-97.07832901700952,-141.04296877511447,-82.10236581779705
-79.86640967746081,-331.16393449628833,-468.0533414775207,-112.1543085266284,-276.32060333272665,-79.01591514527239,-112.69212096960565,-58.80526565522583
-35.56017316472998,-238.54445400235295,-390.3216699223379,-54.03302233921453,-216.45515682968005,-49.42731035516559,-66.28761566763615,-24.981785003168497
13.423018769248179,-114.13881435730335,-260.2071912402134,11.858924851199582,-128.22722805005486,-14.487168975801053,-11.198682020808505,12.300240401204091
55.62961172324833,10.026829466610089,-113.8204297383451,69.8099147558264,-35.15928438056621,17.26445912712249,39.16432993287344,44.297274781459436
82.67043610878875,102.77479802715305,6.666351725380794,107.81980007995449,37.73727710963125,38.87260665377062,73.68456300599335,64.64674557316043
92.71954678705283,148.43139972384972,74.02493252919899,122.72159185377112,76.06241789898436,47.978313728473246,88.4560215345275,72.02617845314099
90.32223301283517,151.9224851958672,86.84058419512253,120.25617998298414,81.3117014147978,47.18972425852635,87.48895215334446,69.97041270625144
83.02316206173228,132.28292000562342,64.84006349130425,110.60749991814936,66.91532758049229,41.8625697375465,79.23789056924672,64.2640808224643
77.20725582914436,110.12306659451811,33.913722356398175,102.63450078349351,48.791651049932725,36.94734571683469,71.58383716805551,59.75811142003727
75.62498658013749,97.56748958075548,11.900162634668774,100.29547353523866,37.10547454838402,34.88324474583948,68.43748245472435,58.496962010355446
77.52829164664432,95.84108827432702,3.3077723169269695,102.68525202232192,33.73038570613839,35.45866059601387,69.46217471024252,59.84798832600176
80.57864859849515,99.56782540405378,3.1871126804921164,106.61728436951289,35.10298591168259,37.126984131771735,72.14918489665966,61.98172088714952
82.98449381969711,103.168013650288,4.682239666960776,109.61812069979003,36.9960515460482,38.59019228872271,74.38227088601273,63.52519237402041
84.74433649870888,105.30927357319231,4.906159804406473,111.72482337601517,38.01048752799058,39.74756769410202,76.02988156111616,64.52796352830308
87.58714171435592,109.79253174343006,6.922200436044051,115.45689002702574,40.50138952025802,41.70521026564429,79.01017427634963,66.41264030214967
93.66930953477433,122.81713024135628,17.59454874060662,123.99475183399377,48.8671263631227,45.909240164829626,85.86527275068373,70.937162577485
103.51542586860928,147.42884910341962,41.691064154694445,138.21513734213872,65.63913208457286,52.71814178483107,97.34414799366759,78.54722876814678
114.30793247542627,177.65440076094197,74.4517965449538,154.1453020996738,87.00716094382622,60.14924333946636,110.23125883035497,87.00218765989874
119.95254566950467,196.7220907669858,97.84079178647897,162.92010420657616,101.04942622452475,63.84647007369198,117.1866835023887,91.41345933535963
113.6066916295445,182.90705192077456,85.84870674069528,154.33324374898166,91.63999170101317,58.87630015736919,109.6441543705322,86.24480926389275
91.65174261112199,121.64294008613464,18.681466602209795,122.63219237159244,47.42439743613016,42.690185762955814,82.73914565614537,68.47834132140588
56.674075477156904,16.843319906819797,-102.19719265795794,71.07877265535514,-29.328402504503735,17.41404345733399,39.28871587877365,40.03557630744056
17.234287959180744,-106.8575744120898,-249.166813710846,11.955816924526083,-120.52602159196998,-10.318642751407566,-10.143877840547438,7.695213261188454
-15.854010223328762,-214.0048637013381,-379.01544929498436,-38.600290105028854,-199.43124215473057,-32.28200098863889,-51.73108579150219,-19.757103304851665
-34.674374718183415,-275.24888263672176,-453.7701477177556,-68.14507870628992,-243.56693765708326,-42.71441996829486,-74.9729419359764,-35.59474910361443
-37.7028274218504,-281.1773490492032,-459.23980839677523,-73.40091178695742,-245.56938840327973,-41.0356424336945,-77.44218159642986,-38.05482676814566
-29.65375929798786,-244.90766762802306,-410.1171256725787,-60.57801707150671,-215.49457512926463,-31.598610057185308,-64.9375983836357,-30.48880439613033
-18.117393702278996,-192.86816500376437,-339.67216517777507,-40.877230638922015,-173.8860272991286,-20.847295445875996,-47.390992851454094,-18.98766699278588
-9.386801267430702,-150.6955567444755,-282.1275672733844,-24.424890844004388,-140.87704985739907,-13.887871627897246,-33.5092594590916,-9.19487497724742
-5.92473009313216,-132.92217211839917,-258.9326745639907,-16.188699812477772,-128.14113809181634,-12.517498072291067,-27.35065967338234,-4.109742539422627
-6.310105916521779,-140.41084428804768,-274.4583175164269,-15.304185436753208,-136.82533797324936,-15.337733515984466,-27.98971879822282,-3.577689571648913
-6.85256996238732,-163.38533086306117,-318.41630156560404,-16.918697179752474,-159.6689666443241,-19.118254939510578,-31.2234638008554,-5.052861468089294
-3.659317621034654,-186.0440220600567,-369.7716605514939,-14.988963257147065,-184.05625527856625,-20.297265601003353,-31.765987095605002,-4.976493302894275
5.500478125518913,-191.36423637946032,-401.12424269055236,-5.134212605050131,-195.15259621204518,-16.210783249539915,-25.30251199368813,-0.43531067515474103
19.838219577821146,-166.97781241480496,-386.4860070717252,12.966276232480666,-180.4391448210454,-6.149874273419807,-10.403687611121951,9.218788102784643
35.276506111740275,-111.43492264815104,-312.9040963693973,34.62190197812585,-135.60011675970125,7.966332643579087,10.223477251716258,21.548003861484865
45.93346301702353,-37.01531335512612,-189.97288792733787,51.79160631657764,-68.48191331835787,21.98378363208362,30.31049408757155,31.865372136892546
47.12819323193716,34.585374446660225,-49.07752881368249,57.22684230599713,2.8138421389541124,31.309276133340045,42.90955718836276,35.70230722122235
38.29628378753519,82.64905996202324,69.85891070302198,48.88263875841381,58.00890546527375,33.32963640937533,44.24176031665865,31.537929566608874
23.736065778491422,97.73077508055084,137.09427731242556,31.52944428607442,84.36275314555685,28.8732731388791,35.94721151160551,21.887170208290176
