FZ,C3,CZ,C4,PZ,PO7,OZ,PO8
-6.856100145599539,-77.00855720417249,-58.51525386653441,-4.3196246329479875,-38.56842039651979,-17.881472735937137,-17.54598205221403,-5.723088277157332
-21.287783329756177,-117.45100131146832,-98.80671736875689,-20.618375591088142,-60.240094626425346,-28.63819224147462,-33.37149105829833,-16.182618748547025
-32.8312423107749,-149.92033919573436,-131.89559582224155,-33.56562411937449,-78.04252275159097,-37.70333822078618,-46.534060963548015,-24.303534974178255
-39.70689105640418,-170.0601115238461,-153.7418273024575,-41.061996553461086,-89.82098606027193,-44.063675007403205,-55.37375582233171,-28.679134551641766
-41.757680897039634,-178.74382447943873,-164.78573407318393,-42.84701202031257,-95.86102186846172,-47.686361777451154,-59.700925179662455,-29.29536170706708
-40.1568900954513,-180.5374053574044,-168.5627692652539,-40.231269802426496,-98.11439464309855,-49.246435741393206,-60.48486168920171,-27.334175657639605
-36.64049442248002,-179.8439614652552,-168.59601382374862,-35.355180383346706,-98.42269418537164,-49.47741817002435,-59.04334868993447,-24.53536030868933
-32.819803199502076,-177.3910326662198,-165.85119433270415,-30.508433805673647,-97.03311438566372,-48.63636961854923,-56.33520805524349,-22.518462561836476
-29.912246758596734,-169.82175613837816,-158.70742633797076,-27.73832420748634,-92.60150231364044,-46.515029722280815,-52.83117000499255,-22.36186824595028
-28.79416608641287,-152.9024065902716,-145.40058170295268,-28.58782023483427,-83.73594271648408,-42.97914615618584,-48.92018739325491,-24.481584357759893
-30.042076391221617,-125.92595873259657,-126.84363940063665,-33.74789995518806,-70.84255697966677,-38.547255160858654,-45.34705751346206,-28.68243872464036
-33.77713140992684,-93.85169540690718,-107.43704344561394,-42.695978780155414,-56.75008402104489,-34.468442619638225,-43.1926289660465,-34.270521768442954
-39.45329333736025,-65.47913530044461,-93.15849332772346,-53.653692564802554,-45.55974382076712,-32.17655944902132,-43.35960410714024,-40.220733276987396
-45.8769428064337,-48.920076277332136,-88.32767879645716,-64.10653633990147,-40.51517152166077,-32.50115309091437,-45.97464100106879,-45.433616101639394
-51.58259871890746,-47.41259048827279,-93.28506776843462,-71.74189975259867,-42.326615394147154,-35.18610082719649,-50.18353081927175,-49.0496442765894
-55.396176954856664,-58.00387953310516,-104.38484460801276,-75.33045097583212,-48.95050817776781,-39.019957605224256,-54.50488564634379,-50.703330817762776
-56.86151003815971,-73.51383882301963,-116.04280516714616,-75.0842542694026,-56.78432472480024,-42.45454817289563,-57.5095129002392,-50.59489539658636
-56.30141299488144,-86.13913120722289,-123.35426597222406,-72.35726578481344,-62.38106077395419,-44.30021267964415,-58.403160972166,-49.35016882251432
-54.5362613910432,-90.48418831015327,-123.78859943183984,-68.9415977419449,-63.68487694246748,-44.11984520362295,-57.21812779374154,-47.757248659238904
-52.48866491158885,-84.88963164204564,-117.49856953552847,-66.37232202367562,-60.40257757979952,-42.23135647670044,-54.633324524665646,-46.51681509906485
-50.91001551380619,-71.43785560466615,-106.83427278506569,-65.51215654142604,-53.822535114226305,-39.49679955187512,-51.6655080137966,-46.087807708382925
-50.29218580179038,-55.45035079870913,-95.76210418741955,-66.42707353331869,-46.51177894153619,-37.0893816178388,-49.421908315447425,-46.61239524599433
-50.85203194394987,-44.48214184975569,-89.15580390780678,-68.43358674648212,-41.8690747784422,-36.23521657432834,-48.8814339188954,-47.86593369528566
-52.46535139300316,-46.126426350334555,-91.41960096283634,-70.2663550894034,-43.17106109208402,-37.81247104062494,-50.57236268797981,-49.23551481220298
-54.57081300918495,-64.6164477467822,-104.42013359603403,-70.41947793981224,-52.08122758752276,-41.84433586505233,-54.18424667025264,-49.80885901042168
-56.19156280653924,-97.79164900419758,-125.78165615456355,-67.67072570435896,-67.33495490769909,-47.190230329071255,-58.400420790404475,-48.642506447915196
-56.18643865007293,-136.7209692033479,-148.99470857039935,-61.616630249071925,-84.63642539164532,-51.78679136249544,-61.245042309045566,-45.15306514639668
-53.670547573739576,-169.0317002593233,-165.8580843002688,-52.92337467620064,-98.21873391845973,-53.48043626060017,-60.91880605824598,-39.439822934938924
-48.39278141466396,-184.53049415340124,-170.16287948314707,-43.096186026623265,-103.40590115478203,-51.05017554788897,-56.70136860343032,-32.331802298187554
-40.85622367832334,-179.9453790560849,-160.53290128225333,-33.85014709747393,-98.75104599730737,-44.8147786861328,-49.370150437379344,-25.09400201368065
-32.12094116580995,-159.99220733631202,-140.7751977391916,-26.425905186334465,-86.5233135038209,-36.44439125485417,-40.856480347994825,-18.935392444426036
-23.424925980248087,-134.30766156639316,-117.68931467827454,-21.23422001534605,-71.36436467046758,-28.1116093412159,-33.34895594158601,-14.586549305908544
-15.847036720281984,-112.41650377043088,-97.85764952888887,-17.985259334002713,-58.06806334720535,-21.54102301920978,-28.396810485674802,-12.160596359695605
-10.144988495923526,-99.84036788807317,-85.29878181517323,-16.120538306431097,-49.802714936188636,-17.514735249581047,-26.494826162483328,-11.311674874589498
-6.725768644733895,-97.10700175110111,-80.85096086306868,-15.18677053231333,-47.490843679102476,-15.975982299582896,-27.22157117777937,-11.51510959775535
-5.628129739801116,-101.17109582040906,-82.83737917675218,-14.919620672975395,-50.14785252483384,-16.426343914865388,-29.63461445788589,-12.264345646829147
-6.485151339093857,-107.60825721313941,-88.13901011528672,-15.103140759712444,-55.59665470221275,-18.223205108225322,-32.609229635126574,-13.115477720672915
-8.557125386128247,-112.44404608015438,-93.29339145454668,-15.441088175359432,-61.24305088275982,-20.653209476393393,-35.055892362681284,-13.66227494273874
-10.914638073507557,-113.41982989021966,-95.65858529789135,-15.58380242335731,-64.90541053159859,-22.936403416264582,-36.121530838356364,-13.553247235074481
-12.718860677014122,-110.65508791670193,-94.40928396154963,-15.255852258067831,-65.56816841511217,-24.329656094418535,-35.398446877155656,-12.577639624573454
-13.455128465316001,-106.30716657144654,-90.7115489004792,-14.356962356231435,-63.64337876034138,-24.320604970066373,-33.01365041205284,-10.764193774247238
-13.025706953250513,-103.05316724007129,-86.73183881475207,-12.990410854674819,-60.459065214449275,-22.78815379685257,-29.500033122672953,-8.424286790911866
-11.7144469242325,-102.19375423959958,-84.08462529862982,-11.448837051006498,-57.27966622828959,-20.050630303121277,-25.537997992064955,-6.100933682786405
-10.06830410039693,-102.76829900587475,-82.86907803212642,-10.158822309053,-54.57926279699851,-16.805195498742012,-21.757980140717677,-4.41439634598069
-8.704756019579,-102.36552893701537,-81.92323690303822,-9.542435682525793,-52.04404964011457,-13.966645773276586,-18.686245275694205,-3.833777635056017
-8.065898977967208,-98.9395173194862,-79.90297843873478,-9.814420762998466,-49.14784498792304,-12.39900773935353,-16.75227656929184,-4.466450154280219
-8.227977147773997,-92.31544242207592,-76.330281566932,-10.844726283136032,-45.787972667657385,-12.606276330913214,-16.26152351283398,-5.993766963373217
-8.908695584360286,-84.61974223387253,-72.08451046493866,-12.209785714842493,-42.61284017311827,-14.550766483433199,-17.34657574712131,-7.818599276657284
-9.683651165105033,-79.64074114937705,-69.230497123466,-13.39460630836553,-40.93104036693329,-17.71913976258527,-19.943920466424647,-9.342309187200076
-10.228936289161172,-81.2582857126297,-70.09716005375823,-13.970565630145416,-42.134467756930476,-21.336415918395716,-23.743112713928067,-10.183648656015798
-10.376847032296379,-91.0109296416015,-75.56779661840814,-13.63824852112666,-46.616300700030614,-24.48258855583622,-28.011968004215074,-10.20665249678721
-9.973457745315056,-105.52153834178584,-83.19659102753637,-12.2185702256921,-52.57725235324367,-26.019913525878227,-31.378894988169236,-9.401661895900954
-8.75289303935244,-115.60306837238647,-86.61138638526245,-9.746129036255638,-55.65546036966598,-24.56095935036272,-31.89394439746396,-7.789467465346165
-6.436747997927494,-108.8629858692476,-77.50458467845928,-6.654297801000256,-50.23287549560088,-18.807789497329974,-27.646223718870022,-5.464220708624948
-3.0231411861144264,-75.59683466742166,-49.87022756489796,-3.8316455526081077,-32.22399875229811,-8.279313051968076,-17.788386516749604,-2.7160751039797866
0.9970193658419275,-14.954444386291081,-4.1504665266447,-2.347073406870293,-1.840318964254325,6.016965326794289,-3.3522405840590346,-0.06455577990368283
4.737000132338908,62.7202986687494,51.577608415235815,-2.9141637539384684,35.56836443979612,21.55705329195557,12.800429470013993,1.8994721302028474
7.316990377627257,139.52126645663714,104.60554942194125,-5.436227964266703,71.45736021261372,35.14407814445294,27.04702493780791,2.7902803796143836
8.31560036683992,197.9466570455855,143.31077976480054,-8.976751342837378,97.89091301851346,44.24552563561259,36.56357869891898,2.6307764291419145
7.964536654566988,228.67555932039207,162.29546055660413,-12.21856655372661,111.03717383052695,48.06123120078986,40.48795872209673,1.831102955335525
6.9626822619935105,233.72050404695173,164.0255386243865,-14.131742305449663,112.37113293610238,47.692323387300185,40.03636701767467,0.9512976707140486
6.054496745952864,223.5385599995671,156.33520250688744,-14.427484373531122,107.08865879952917,45.35159293003019,37.58842474762998,0.40967839430149794
5.665909427389869,210.47702687217168,147.73227396399946,-13.539998737610425,100.96788399206869,43.15646734504073,35.378872502277375,0.32425022485873095
5.807548170927454,202.80464911282755,143.47715488675644,-12.22059599046425,97.67160965654452,42.23850695777567,34.576219408360686,0.5583504840972421
6.228915935982939,202.40536946175314,144.34562874124015,-11.073828236127149,97.83195916741153,42.578633018643366,35.13988981607372,0.8891750421794603
6.647396960772537,206.32700335973902,147.9507273958735,-10.328766652760551,99.89604585639991,43.45260274012823,36.29972597148216,1.1584539021062743
6.899797870484259,210.2216692898295,151.1730441262662,-9.896861573047245,101.7702979926626,44.075998812862395,37.22498385428559,1.3265522131173362
6.987220801021187,211.49441862736364,152.27158812389425,-9.568644910991026,102.26901604789782,44.09962186923196,37.53285381481291,1.445047632030892
7.0490789701492025,210.8996670612266,151.91108992544738,-9.191972422207916,101.82055354169928,43.80311289416307,37.48466727488046,1.5955087902198295
7.276643416560179,212.09569194546924,152.79021657679263,-8.771716623181815,102.21961983735932,43.94048809443719,37.8206134953924,1.8199013656071203
7.7651310719288285,219.1435893283984,157.83991374711698,-8.478041785456798,105.42118047887259,45.245276315342664,39.250170168340155,2.0604490306421446
8.371413915745597,232.82771987493066,167.62104181674954,-8.534136761075102,111.79814650767652,47.765273117384815,41.79289465774767,2.1532749559929254
8.707038203877813,247.91633603703056,178.4415055142789,-8.99086389159343,118.86990777123607,50.42280879028353,44.3781055431644,1.9197062282043993
8.33087094343689,253.75772054609033,182.8421398004575,-9.521733285971296,121.61291581315355,51.21173041421171,45.088626061318486,1.3261647157119467
7.035932268888275,238.88892998964658,172.8262322959795,-9.446389335777662,114.63351465105798,48.08694021655808,42.054151822430775,0.5942091541189831
5.019549659140281,197.48539785767767,144.2610874303644,-8.065948945892561,95.16448304373228,40.09515294645334,34.517384904921855,0.1433955569815029
2.804425097722545,133.76212954715893,99.82752157150995,-5.130855222830574,65.09324588999873,28.059871822134685,23.416717895723135,0.36814984158139225
0.9715406625881275,61.375939983999864,48.63290806290245,-1.103361034655512,30.698266830094205,14.381372476725963,11.111335606705909,1.389363639394995
-0.10157679959653641,-2.122389758528722,2.5954397326301017,3.010116345071657,0.14020446158838973,2.058545886370121,0.40196282997957566,2.9588566788905357
-0.33370401792056953,-42.776101570392456,-28.442239623375762,6.177108132329475,-19.932633368540895,-6.509466047033432,-6.598705305704047,4.596426124138854
0.14997733101479507,-55.664875480392425,-40.364441394262435,7.873909681526306,-26.8944883305713,-10.320356591572093,-9.165605870563413,5.87685522561126
1.1625534409434655,-45.83278357319207,-35.66648298951903,8.291181300722638,-22.679929048535847,-9.871467474252938,-7.9814862470279575,6.673072460994402
2.5118256372930987,-25.003072979020057,-21.702635258419175,8.103895117064695,-12.463065216708074,-6.713264434115581,-4.645226479688007,7.188488433094556
3.957165033243801,-6.337699338998328,-7.529942189277702,8.014499238280289,-2.4083709852784367,-2.796580339724858,-1.0134398887733012,7.770697028074884
5.204225944403398,0.4782198108242751,-0.5630931493115756,8.4181019885707,2.5876936260056116,0.16839077812870915,1.4115502696702182,8.667198010347224
6.059475123749777,-7.349132141778483,-3.764147277563044,9.380285897899828,0.6666049373439815,1.3021591261008578,2.0096334284413997,9.909498427916846
6.666376729252732,-24.352434047644078,-14.046286020485374,10.812570263280241,-6.065592358564937,1.0039348672812578,1.3991875580586295,11.371760520090826
7.572550220037389,-38.20521543712022,-22.872680615496776,12.581959061382546,-11.983812847121127,0.9675298444892466,1.3561617998771855,12.890606746907117
9.458728559563966,-34.37601086637563,-19.641032893768905,14.440229849178944,-10.118707525708658,3.4993612414969926,4.082522578447341,14.314390281001714
12.660565734269023,-2.8667172769336005,3.1289099067283566,15.923551048588799,4.510538566851559,10.296605398593304,11.031760441407908,15.471754101876684
16.84574126284026,56.20830017940033,45.49138197376675,16.451364821832975,32.07518650325048,21.359216898505675,21.959405672713444,16.160475547972837
21.130050098760734,131.76880754049265,99.449360261462,15.655379476254062,67.4460448092424,34.796046215390184,34.87934244783053,16.235547354473194
24.5789384459827,206.75439880447294,152.736329265265,13.701190726018979,102.58539753218861,47.75112503587048,47.04865180334223,15.750573956724793
26.73060964824082,266.26704042840333,194.81148145001708,11.299952321894278,130.4737184554012,57.88423354589725,56.368867332224966,15.01323082730142
27.749839181712563,303.86683488368357,221.28391567719135,9.323274446648965,148.10813363604507,64.4069286597508,62.25754656187335,14.452479793134241
28.104641198033644,322.1001793080007,234.02399108928935,8.26053432696451,156.6967579470377,67.96796695290348,65.40352321294849,14.342859859750583
28.03685373520424,327.31632602515015,237.28271960340498,7.922798316208072,159.1438406259587,69.52609690249287,66.64545646988127,14.571733998399145
27.271455902671438,322.9294797762547,233.02835742451919,7.641306210933108,156.87788204466878,69.1276826665731,65.89496022951703,14.642004135422141
25.222356436768003,306.36942480573356,219.19289313609946,6.827966070645939,148.51610924730957,65.60207521786292,62.00825109768935,13.947087957781358
21.544447693844806,272.02973588952057,192.13822816209773,5.468682824396026,131.3789810824518,57.48216169960513,53.7659837991528,12.150836347511182
16.59030683936907,217.77657459841265,151.25525692798118,4.168200780144402,104.60166812110464,44.48403888952958,41.225298699938705,9.421000146738816
11.395787088298775,149.77719413500495,101.90974484172844,3.7212607221584864,71.3319973674976,28.406433211278404,26.378498269193553,6.369344357329379
7.178389106009154,81.70605368053194,54.24152640744218,4.547246703097032,38.21422456785298,12.704700514323543,12.544991793058628,3.753612947048484
4.693038380945406,28.628729195759423,18.48327303031984,6.407848425684355,12.406180703403036,0.9416691020951912,2.8411976617252743,2.138940296128903
3.8825432277511163,-0.29595857550097127,0.001877330816055095,8.591105082642644,-1.8469007096860655,-4.896786125489528,-1.2817377415060964,1.7089637436550835
4.033041688913235,-5.52512960279327,-2.6747743483802844,10.39149107131322,-4.848459094798582,-5.173226137522884,-0.5294480098570085,2.2886030120058956
4.282277480154969,4.703986139421548,4.113771269464143,11.513046849381263,-0.46381059215674836,-2.0819514860976254,2.9044607550636288,3.499016260354113
4.109051589951386,19.807060707944984,13.26678465803805,12.118444123376024,6.477111883597354,1.6668603362264687,6.590853639145645,4.915352722046832
3.510864013106417,31.957499506424465,20.25599828484336,12.553392944808774,12.511940165547452,4.075039625926832,8.881871624363411,6.160436491377848
2.852039812906354,38.096286408775306,23.96468400791092,13.023955052166482,16.366922126753046,4.3970588712501275,9.247754369657452,6.959609320542965
2.579098037813669,38.879289934802586,25.43357981675156,13.48320619628641,18.36582625567996,2.993072096356502,8.049022754681632,7.201081231695238
2.9999967859767294,36.469851430177584,26.101372018679843,13.752090388138383,19.36730684393062,0.857246298791767,6.11434410438368,6.9858347885553265
4.191627455110089,32.91102568651351,26.772395057198832,13.711531742980059,20.036952739735597,-0.8627886699092925,4.373471474537832,6.606425140423546
6.010277627612901,29.5847595143073,27.551217341167412,13.415192271748152,20.668102863324865,-1.239159338507104,3.5978146339674297,6.435724773694576
8.17835583764674,27.453962299395222,28.395936005972644,13.090653630699139,21.392592139462806,0.20486254143495686,4.254193074221511,6.784671401226062
10.413150027142896,27.64431106015612,29.830975211547262,13.047919732400652,22.548079748432247,3.4448291783899436,6.4920222472838045,7.799337856815538
12.503212530217645,31.799213762613707,33.25254789668101,13.489115154095227,24.88736314741167,8.049879760398067,10.197504373129629,9.401632252459889
14.225323908573833,41.43341021360797,40.19864713716258,14.24752511138503,29.2279226875139,13.25839686014466,14.939014827502334,11.236741741051453
15.13033451248978,55.980819080040966,50.51336395940619,14.616539378515089,35.42337788652499,17.907775350570486,19.726598579677347,12.646602575338497
14.419070253118656,70.64225609785231,60.52383193176027,13.496104364343942,41.26242668107359,20.349023631267944,22.819175183656938,12.771009011139025
11.15229678859154,76.26178937475096,63.078998606751334,9.91913851445836,42.419422061181876,18.682049250933694,21.99799740259927,10.848971153546463
4.795277179102698,62.68508332981544,50.43319434869581,3.702526878669083,34.134789437295275,11.489239183476489,15.472490937216225,6.629602026347787
-4.226358174097458,24.4400205844177,18.795608729153184,-4.215330919311556,13.993539617365238,-1.221592398973486,3.0229563835874314,0.6485030436602671
-14.386751783066666,-34.757498553110416,-28.326074924370776,-12.036990680435313,-15.938873558875496,-17.505511511260863,-13.385191428587826,-5.853448002748464
-23.529749327606165,-102.03194636235055,-80.49692414425971,-17.866970453748166,-49.23181474876869,-33.90604567921746,-30.075535204141197,-11.3853109771219
-29.740847714831546,-160.5158608792606,-124.64686670131292,-20.541350907881224,-77.67977456688673,-46.75192574485181,-43.10958263594918,-14.810704066842439
-32.14326046117815,-196.90360291524135,-150.9355497503656,-20.06390199214505,-94.96965079952636,-53.6703047668461,-49.951617613639606,-15.780021847998563
-31.192079308080057,-207.0937314943877,-156.86267349275633,-17.459910247270845,-99.33683032795727,-54.49203709289886,-50.44191702702395,-14.781726996942597
-28.36256252286706,-196.91688591230445,-147.5074080921409,-14.227170098144532,-93.81570322856754,-51.095356469352566,-46.61132114189518,-12.840072111298081
-25.472391086472335,-178.08370833049617,-132.23152642964484,-11.750413726479572,-84.22592429967091,-46.37389764242254,-41.565373000369014,-11.069360899067652
-23.998399030677497,-162.19234029216508,-120.0898438336335,-10.931112273506686,-76.28971368128435,-42.960344568095806,-38.11519570334174,-10.301217850908616
-24.61459558879395,-156.0671420063767,-116.321519850502,-12.025973386889094,-73.4086551037094,-42.301097489334246,-37.769913572580656,-10.869159055935048
-26.98700953139346,-159.979424372729,-120.95953228107638,-14.568837902104143,-75.78090622763096,-44.29523004827469,-40.316182088644844,-12.521501608725398
-29.812401137789436,-168.30691185600367,-129.25072398415878,-17.375048263717353,-80.64278463018245,-47.390004367558255,-43.91229615044716,-14.445417022542452
-31.15994614564723,-171.59135027779388,-133.28212186693338,-18.795602434481882,-83.2097182029839,-49.01015485683447,-45.616854879330845,-15.460190633725622
-29.16428773191167,-159.56636828488166,-124.60490216965609,-17.33003689462421,-78.1908606045083,-46.330000810595955,-42.35317274855983,-14.426584649516208
-22.90949482916279,-125.0700380678947,-97.64576964457675,-12.403578381219669,-61.831712760592204,-37.35354297981725,-32.18111202803816,-10.770229598213591
-13.083127601377642,-68.028139557223,-52.942707697320884,-4.841181056269851,-33.98991992110925,-21.9855058415611,-15.423150499110767,-4.8530259557481
-1.945376828037646,2.326372050126672,1.4546217776694796,3.3760601606452485,0.7633484873449234,-2.539631357774605,4.987912122795837,2.075395995728871
7.527078083687742,68.84452186623757,51.75149153730701,10.075133917837022,33.9472504442356,16.75621596587371,24.324241116698857,8.400847952009258
12.966979080157207,111.88746147150823,83.23184576869564,14.074286055673625,55.995523522248995,31.226198491187414,37.83168228146382,12.89679042814362
13.71608499819271,117.03365796699589,86.276304573806,15.856888542292857,60.09064103591815,37.59713477415098,42.671918800694606,15.285951130898408
11.075774386812673,81.61181504293643,60.716201770157745,17.26953066855572,45.22943429728335,35.3547035721004,39.082612522621496,16.28346613233498
7.561647950956709,16.57527789746512,16.172929348527973,20.39320032652734,16.881638390128455,26.905615932420087,30.15815156333839,17.106001641369645
5.59609804653975,-57.693490864382056,-32.01814533306491,26.28151448494728,-15.264136656890342,16.43913398604456,20.36471275583392,18.754658487820894
6.37739248860319,-119.84189370104927,-69.34029951214887,34.338490100929306,-41.4207103187906,8.062572117563453,13.559744249231954,21.494786042744956
9.50800373354578,-156.05160184638189,-87.79177865469997,42.673843404518095,-55.61266963676645,4.153319739073316,11.507717544579801,24.80152168835771
13.482986222911919,-164.3510758044388,-87.98806934729754,49.1521895406294,-57.449901802805925,4.711212223282862,13.560393443363699,27.74157707763636
16.65398908209372,-152.9611027997163,-77.00595433157119,52.467909253088365,-51.09351477109422,7.910753615893088,17.505948271814468,29.519364014153275
18.079456425911687,-134.3376835426214,-63.69034555444022,52.65112007885771,-42.34163112275866,11.391843168136399,20.97582197543296,29.86668504915272
17.834290286465993,-118.78239077897409,-54.33188797796977,50.84027507823781,-35.69029039391154,13.492315271007024,22.590924713599367,29.103464029818635
16.737945009999684,-111.03467949873802,-50.88326983655292,48.61023568136852,-32.89685773560378,13.809294661241596,22.33035654520666,27.918557775694918
15.788765602246793,-110.69182257693623,-51.89093718768603,47.304752906769686,-33.33278743815749,12.995533233350397,21.15495576585907,27.051085396696344
15.659482162269171,-114.78308581554714,-54.67891090240441,47.641593495873764,-35.28918433274481,12.13046678525977,20.292287320078284,27.023366003532466
16.44767104640146,-120.1908558152502,-57.13625017379701,49.58314442809101,-37.179650275564434,12.080316608736856,20.586455848831626,27.96854544518362
17.69203518257219,-124.75181752676608,-58.39598440452394,52.369131282932344,-38.12925665934302,13.07959935034214,22.10688040766591,29.546806304386557
18.601931327922273,-127.213320796019,-58.58636395838336,54.70679712514575,-38.002210882981686,14.611772363866006,24.078976309796452,30.98692252965108
18.448291772184163,-126.64069434893082,-58.06131430067835,55.18568105365565,-37.062901969624065,15.639288994757527,25.192199385177787,31.321094387946403
17.003757150688443,-121.68254537528418,-56.4505171166325,52.86532754333259,-35.41318925504346,15.176734716700517,24.26607816362385,29.797929660017076
14.810291751106668,-110.10721118225445,-52.01769741816295,47.77498080806902,-32.4648657977087,12.992203436522807,21.015291279346723,26.30008668295834
13.050414340303641,-89.19866486803396,-41.964797914361625,41.005787326015785,-26.88108079443864,10.01167826015316,16.448024502220072,21.51150409249414
13.000639671358478,-57.25315759880764,-23.894736812796708,34.2734850469988,-17.24715103021686,8.064478540596724,12.541718711293905,16.680208585061948
15.337759557282373,-15.45401007631858,2.2935581015310884,29.150079237084533,-3.1658714438784976,8.998153878706038,11.280560734231608,13.058967160506313
19.71273972135566,31.27823684284351,33.40977526679232,26.37532039510134,13.987670249743859,13.634885276492476,13.590984889220476,11.317654676119671
24.867078628171683,75.42920201452829,63.7883218882787,25.617283645487145,31.28848314047817,21.19070562231489,18.815398770011015,11.258100047503868
29.228501926304645,109.6771747488818,87.620376709872,25.780355503599488,45.43783136339466,29.514108836550385,25.02999200826391,11.9876191718662
31.62586210324477,129.76959020021195,101.42429971442893,25.63990429511971,54.182879671322034,36.00366888203081,29.977732407352008,12.432332961527033
31.720898674690215,135.75378711427217,105.1422293056309,24.438962776776076,57.080016487057755,38.677390144329664,32.038674530840595,11.886326910779927
29.98873622184186,130.92783568975165,101.34420368363699,22.187554806178852,55.204230880527426,36.85695793700737,30.74450727027226,10.316448641828988
27.384744379905094,119.6003836534269,93.4576976570982,19.610397262105874,50.260422173749696,31.27041087325314,26.75234623299927,8.319509363015456
24.953910210502322,105.64938978185981,84.58641189508204,17.800575346759437,43.99963837802089,23.738674147023513,21.527537788155684,6.79975624665602
23.514956030206857,92.89768978021962,77.63147539291182,17.652310630134032,38.37294398171391,16.681685722573825,16.95776389548936,6.507703566683783
23.390623000389468,86.2157191812571,75.85159925434266,19.21804585436659,35.880937100401596,12.504626651903848,14.87365051014883,7.597904706161051
24.177475006323466,91.18619540744432,82.38078744718582,21.303608517539388,39.16398101119473,12.840238356271778,16.387182991361247,9.387656065164945
24.712878252715093,111.45358726906464,98.34687206102343,21.679903312115865,49.5891219823104,17.816362828748137,21.23070029314479,10.494328938316865
23.445586302897233,145.39575206318491,120.99480686710866,18.033881983150344,65.76638452966655,25.76726601801743,27.568252421317403,9.399719398477764
19.193980070893502,184.98962589755317,143.75643915004017,9.28530870431824,83.35213756651176,33.74324825575753,32.63794254492292,5.240712346141961
11.937290833246259,218.43970396642172,158.8963972435207,-3.4661598730481256,96.68878627979039,38.73040145182357,34.05417144651767,-1.577631379584107
3.144170358538655,235.4334690906272,161.36637523048594,-16.998580567129466,101.48358539851463,39.00425783492301,31.080271023050372,-9.323883727505228
-4.6463519606136785,231.98597512762953,151.48941652441184,-27.127797135742824,96.94403833069246,34.89932156474543,25.11029752909572,-15.539493710174696
-8.851298570146337,212.04286537835154,134.77307784004265,-30.443150043999182,86.09571689198702,28.584448277286295,19.03583227401211,-18.042778906602827
-7.9817080474971,185.01554226186096,118.9377428677669,-25.76844577167418,74.11907194259291,22.976791183375333,15.818015271091408,-15.863651631058662
-2.3239065841870383,160.82546821371224,109.92152980676988,-14.64740514658453,65.6989938206526,20.370216468456952,17.031319339220854,-9.665299924950537
6.164394042848315,145.3235736299417,109.13752607812637,-0.662749541414206,62.87373047849121,21.455661592440773,22.13738187042547,-1.4634277904594706
14.668330369503495,138.43717251992203,113.3675684235205,12.029088118379127,64.45680383421008,25.15090129294546,28.815668053147892,6.206736641395953
20.628455966350373,135.61039639296894,117.0625603460034,20.232251103642326,67.13852647196485,29.227980552547713,34.108073226688916,11.275253104935361
22.642560046025114,131.26012717201374,115.53494053411544,22.656430186867738,67.48372439628741,31.37419849759248,35.76035596297824,12.836324799559636
20.815261385450423,122.08763791067322,107.26358404569919,19.99532574091564,63.69727950993395,30.190272963915845,33.133879163516596,11.30700903304268
16.522276599131576,108.54894642904051,94.3115924801482,14.31696217464973,56.34234345252765,25.73270379021752,27.36229360134233,8.077841943441747
11.809446601586234,94.20774317029807,81.10255083662578,8.185175888800439,47.91449141515171,19.461349133368483,20.824699940066974,4.897146792404498
8.702040767469214,83.96393278034995,72.5893816557591,3.849231254722561,41.76135962096091,13.692425119046455,16.248162525347112,3.253304783938052
8.586045963617586,82.22498778334763,72.61316013146686,2.6125953496716816,40.86067736907319,10.747334349121566,15.736132188645168,3.9063199361292154
11.721397880285116,91.19932613133831,82.47341379840401,4.406720272076679,46.60967513849903,11.980903619511125,19.90173704188388,6.6260738483138155
16.99321176424462,109.07460492636204,99.56191778253495,7.711819271127779,57.69045965043637,16.946043470656484,27.305345480264442,10.200754000327162
22.11017170395529,128.72348835242252,116.71843058495702,10.040388518224038,69.52637806216141,23.119104637880238,34.542425730471955,12.799653228725816
24.38488883083619,138.6372283445467,123.64471766643243,8.98323273008263,75.20559091022047,26.59860071189121,37.2835954220854,12.671673188757724
21.896248898937426,127.14737754943366,110.90194757615987,3.3976954564775754,68.1851067765137,23.74760669042384,32.09841488581849,8.937309651513681
14.470836147362242,88.49471817322215,74.91976281540049,-5.926821434594847,45.71402413707652,13.05895469114595,18.240177324704664,2.071425381769466
3.884771496212323,27.107563732865426,20.945108261428313,-16.571949258684636,10.922324644381137,-3.8425899211949015,-1.6763672360368522,-6.23384350641677
-6.904270278886543,-43.122602228398925,-38.381308593540034,-25.632255441163018,-27.997574946985573,-22.762934873097556,-22.652671255244808,-13.800903316136594
-15.096187787047302,-104.71778010487053,-88.43504303371871,-31.048539016662122,-61.31599194261189,-38.82845907301239,-39.49424908366961,-18.911443187628485
-19.216725821482658,-144.4092362905989,-119.0162573123112,-32.39447427404984,-82.05156939590057,-48.64541444073011,-49.01338756233385,-20.959670033675604
-19.513848287906775,-158.4269000530893,-128.1807334066985,-30.7602751026744,-88.63030526256041,-51.550614297438194,-51.078875986087205,-20.505277453011566
-17.486121710714084,-152.59621841017434,-121.66721189123506,-27.944226637393736,-84.64156989873729,-49.39803806956503,-48.09816336786696,-18.787617078437655
-14.949383331142728,-137.8738825353722,-108.84607279078125,-25.520054590297914,-76.22886931219121,-45.223904483028186,-43.447708408548834,-17.05037678460218
-13.218226301119412,-124.50833702734185,-97.95384811971955,-24.284766462785864,-68.91500993433114,-41.697760803189794,-39.85683268377643,-16.05441105161388
-12.764035563616178,-118.16145528979223,-93.19595627855091,-24.23178865339274,-65.6046398518917,-40.18252772758235,-38.54809208577527,-15.953609788263439
-13.343873934086199,-119.33985941176697,-94.56420267382538,-24.86180976949179,-66.38882666129463,-40.66878910400977,-39.30711945540617,-16.463558936431056
-14.362920364529176,-125.20750251557872,-99.47003867075485,-25.558539331307593,-69.59656605864684,-42.30096615289632,-41.1161731729654,-17.13808469413283
-15.234543804361937,-131.9790402687223,-104.74041797236033,-25.86829074699405,-73.12435547727773,-44.03406497175107,-42.86008091547521,-17.604900758295727
-15.618149794739345,-136.70745091455146,-108.06323744045875,-25.640772784160912,-75.41144368112798,-45.116664881806955,-43.80952780395806,-17.697547356266465
-15.499820731691615,-138.1928273946719,-108.66409609206072,-25.023571635375813,-75.90296559724742,-45.311517213419364,-43.80899155706136,-17.472641719262818
-15.116018084107399,-137.0674902605468,-107.2555044329902,-24.320346197398713,-75.03313378176527,-44.864068751953646,-43.19367817835367,-17.125796252763433
-14.768648805965865,-135.09779429857213,-105.35215233490835,-23.788063029972196,-73.79076753829364,-44.266618386147385,-42.50569956898747,-16.85495153228882
-14.643423341054497,-133.99634936869228,-104.28334736128275,-23.50434862563684,-73.072058389032,-43.941169428986626,-42.15990705130662,-16.753048550819052
-14.745060373196042,-134.46208324011923,-104.50074682069817,-23.38616082818911,-73.20631322492679,-44.02887296791807,-42.255577581122196,-16.79255913320272
-14.966822857363894,-136.0906556325,-105.60978717971886,-23.309008414268384,-73.95113811949689,-44.40608102986828,-42.63067477635098,-16.889867252417154
-15.202532182273641,-138.05923023062397,-106.94763184997231,-23.20038183033167,-74.864624203472,-44.863235415674296,-43.0615371819878,-16.977424560105945
-15.40007518561171,-139.8309389950046,-108.10099899648903,-23.042191917456307,-75.66055950896603,-45.263517814582265,-43.41500254234283,-17.027174318884263
-15.545132959290015,-141.28953621573666,-108.97393230759985,-22.830573700381642,-76.27025714921322,-45.56849845964711,-43.65907717588394,-17.034083094265686
-15.637128570388485,-142.45682217140106,-109.57880062270829,-22.567899334967944,-76.70552334838975,-45.78156859650934,-43.80285922303642,-17.003260014170934
-15.695740426802374,-143.3332249231505,-109.94226585064432,-22.28627291889652,-76.98488547666088,-45.91964117982571,-43.8734415984734,-16.955555526272338
-15.768230282560754,-144.03255257117462,-110.19951422019086,-22.042874944225073,-77.19074094282169,-46.032752082049484,-43.933577810307106,-16.926324960678176
-15.899240917256344,-144.8642246534997,-110.60921530931515,-21.869069835372752,-77.48821395255908,-46.19936036489015,-44.06524355083734,-16.93994683662841
-16.085736163324423,-146.09198174483527,-111.34333484461467,-21.732990549084647,-77.99553381960028,-46.46353703345212,-44.30085858404554,-16.984551393441166
-16.27693217231871,-147.62571957762768,-112.28723534640713,-21.57205325297543,-78.64699069737475,-46.78423210598671,-44.583448594269036,-17.022585593986584
-16.430741342813654,-149.0911646097314,-113.14815882506122,-21.364344079644685,-79.25149918781271,-47.0755273366474,-44.82359538836299,-17.0315591175235
-16.564479085018647,-150.25968086389955,-113.78825444182465,-21.153719908716894,-79.70988592092938,-47.304861389192865,-45.00009060088403,-17.02919509867243
-16.739150685510783,-151.32504992862442,-114.3851025811599,-20.998864094375232,-80.13329708494783,-47.53352622021171,-45.18602218955537,-17.05377184562997
-16.995474328243976,-152.67832011473413,-115.22031932299868,-20.909848419276763,-80.71437972011917,-47.84824147327994,-45.4675180604692,-17.12387248800292
-17.314434400730214,-154.45793058129746,-116.3574648212263,-20.84473906584867,-81.508088486292,-48.264629349763865,-45.85091519268458,-17.223007914836547
-17.637879345628093,-156.41350336193463,-117.58835471857188,-20.75664034816481,-82.37946640141743,-48.71165543627353,-46.259869567838756,-17.318840214224636
-17.911359769691238,-158.1898446202066,-118.66289803814576,-20.623292161304224,-83.14938277056149,-49.09957610256824,-46.60687235476241,-17.38548893994652
-18.101068793389285,-159.61996002906147,-119.47895578046098,-20.4330266360849,-83.73224989068699,-49.38019462266161,-46.844996994635835,-17.405595620279193
-18.19384612476725,-160.70384436062412,-120.04087921215607,-20.17538736641883,-84.12452064536683,-49.547234740974886,-46.963186808720614,-17.36887651279596
-18.220624521619115,-161.46661955055924,-120.37138709202841,-19.878301577047882,-84.3490879186065,-49.62540287435039,-46.98423764097546,-17.292251276303823
-18.294688437387983,-162.05725899047522,-120.61505327149423,-19.649340780032034,-84.51526915846543,-49.70324135711337,-47.00921524324515,-17.24585607179017
-18.594586717679952,-163.00099596114018,-121.2083957639256,-19.63755158311901,-84.9263161226939,-49.96262346388697,-47.24197116633111,-17.336745411868474
-19.249112149173286,-165.10195325730376,-122.74263323354785,-19.908076596824742,-85.99051459434479,-50.601944821820126,-47.89075166587367,-17.633055889599696
-20.189627684302046,-168.78189828703833,-125.43474702811922,-20.332971497908993,-87.86665536593593,-51.65033495615804,-48.9663233845015,-18.079960954239017
-21.1026107393411,-173.37117008231442,-128.6508530731154,-20.612366664554724,-90.12958624526561,-52.82579739648781,-50.14795445001699,-18.485745207492474
-21.558068490016268,-177.12921997326828,-131.02787231823007,-20.433853900045378,-91.83352746273555,-53.60700355099492,-50.88060361214131,-18.608094098575172
-21.261053232183126,-178.18928033387058,-131.24692502465297,-19.672438326044034,-92.03569158733976,-53.5263331145467,-50.68958354915043,-18.297638220802483
-20.291739558369702,-175.8298566352777,-128.961765282077,-18.523580208867635,-90.45629846656558,-52.51346385116414,-49.530640785997306,-17.62372029064523
-19.205684924035893,-171.27862137002128,-125.31480718925097,-17.51104095246656,-87.869857027404,-51.083561475338335,-47.97381185223854,-16.920134608184693
-18.908412805954104,-167.6409771312246,-122.7813869337982,-17.334922595513625,-86.01676666592213,-50.25120282902115,-47.10463301245532,-16.706658524398744
-20.266628238500946,-168.89330146196193,-124.31214188651566,-18.535610446609983,-86.99883675012752,-51.142464218604054,-48.10612649509425,-17.46080702309188
-23.52095487629309,-177.97118328571443,-131.81517408942662,-21.03850819735653,-92.19943748600852,-54.35449280233763,-51.56885480032784,-19.277092918148753
-27.748010843936026,-194.3022577278674,-144.31747147797952,-23.815545850436926,-100.98026832520323,-59.26075380051695,-56.75503899157047,-21.567147818045544
-30.76304351582172,-211.9596768767031,-156.77863327973316,-24.98687981236163,-109.83088579584935,-63.66518760628529,-61.26651457337257,-23.033753202032994
-29.75486838468912,-220.19949666207523,-160.85266233737823,-22.51319755283617,-112.86878388081189,-64.24626648457382,-61.57837207986816,-22.07308795344643
-22.54284563965445,-207.34752820185327,-148.11623255969639,-15.237022753119708,-104.07100492289612,-57.88508179022971,-54.49510284337929,-17.510440485949275
-8.864630697290442,-166.78019004326754,-114.56023620221632,-3.7014297276577834,-80.4377797195588,-43.349799085861044,-38.92329910838018,-9.30880389040862
9.082861354337131,-101.68279430505345,-63.76405719632574,9.804765642259516,-44.30289693546466,-22.370454190166587,-16.929355923944186,1.1819187894170193
27.30028280315392,-25.282137306316244,-6.468540290338297,22.112008074180935,-3.1522141486809665,0.6820240389484516,6.712295022189556,11.651309609429601
41.600559644164925,44.23614413618929,43.67489611531747,30.52703888073644,33.288490077837864,20.509806942139644,26.42281998562791,19.756317247634485
49.338090221004315,91.5118237778363,75.93702198435957,33.94778028726367,57.188818073068305,33.108787097739416,38.1974220092099,24.069230092926542
50.33219016749627,110.07096725248267,86.62766224874525,33.159676828460725,65.64858786238517,37.27706395395728,41.15604687425225,24.559799696588044
46.58430909507656,103.46985086948723,79.40991588685218,30.25734566153296,61.078168671520245,34.67615962235151,37.49503525931642,22.425186482820212
41.11578888764184,81.75380407139549,62.32502060692848,27.619948494458775,49.174185135013666,28.652530135166575,31.077692574370307,19.452839297459963
36.654751907856415,56.38345140109815,43.9789675440755,26.97687874873373,36.169343412770786,22.710865999131197,25.640119913071633,17.280848830843954
34.76210541437055,36.86728327274883,31.124813738116806,28.86120614751877,26.99675396941871,19.47307299474094,23.557099168766317,16.84575853902674
35.56146877265822,29.859459957656426,28.00083509347616,32.482788565810225,24.749277544703062,20.33285233426279,25.484927303563158,18.134597582692777
37.938634756338026,39.10555239915234,36.26086052277148,35.987599017583904,30.67601711077591,25.473492086279812,30.608275464172852,20.254076624696992
40.05178327242136,64.6542771265263,54.57038893068893,37.105013732454324,43.991398914101836,33.920191836128,37.1142492953986,21.801369604371626
40.05460729477094,101.74895230377358,78.31548367034618,34.085449058367395,61.67698499964982,43.680429205480564,42.766630715114054,21.459107172055212
36.867364425900846,141.25762759847422,100.58352002975776,26.579112923721052,79.03870424310787,52.241239375920294,45.60957631565011,18.605081979997973
30.686382917092445,172.70483645402723,114.73617091415497,15.9652954611186,91.33802143514491,57.458833685240606,44.68853729485787,13.63929278986933
22.932256793412687,188.7358296809506,117.38080494547025,4.850164680661812,95.8159624532335,58.45117784508786,40.459254283177714,7.8251897800202155
15.603164278449519,188.34758585756472,109.87939003004003,-4.068036857309138,92.8830260652115,55.945651520569,34.584460813910574,2.7044973344057626
10.357059518410683,176.79289927117435,97.3476542517583,-9.160153993711045,85.67142313671916,51.820987591758396,29.14308481916002,-0.6001836036541234
7.8229488775807505,162.23306712200642,85.74244025969111,-10.42198361707854,78.20556636561892,48.09642558108762,25.657445502854515,-1.8176551282781515
7.498655266917948,151.33035106847674,78.87057252294856,-9.174429485108025,73.34128160183633,45.973576299483106,24.483291346999202,-1.4905079112739554
8.22447784939,146.48484031822983,77.08122292841986,-7.179697992942955,71.69861407203618,45.47117829470589,24.881872400857134,-0.5511652765309195
8.882340582145483,146.0214835981392,78.1173310033013,-5.750060671506458,72.03607465725055,45.76721382806342,25.65039670585435,0.19487055253272118
8.890112914652603,146.53153536967088,79.14879789332285,-5.326169524288478,72.52840519634175,45.910403458655935,25.856491152761393,0.3845762303926425
8.271160655566774,145.45550488121555,78.51577619327092,-5.622681300714038,71.98827345953659,45.41698242007232,25.245168744651604,0.09886957676600742
7.384846405022732,142.4582509788707,76.3398592890863,-6.094890250452077,70.40306418986508,44.46662932096164,24.190384186019628,-0.35757204979012025
6.5680502361224455,139.29571128611198,74.07475206704166,-6.388985495456466,68.74147620132257,43.7019662682189,23.347033281492944,-0.7187873656237495
5.89692264398451,138.5556677341291,73.45862012693826,-6.559432438825809,68.27809426938148,43.78541926394714,23.224533322775294,-0.9255153438634082
5.152726472063813,141.76436758001623,75.26617525186168,-6.992729926011511,69.68998241726263,44.89045633453327,23.83259970168403,-1.1440477508003633
3.9882752817637055,147.5627008986971,78.30754786435506,-8.081365847960782,72.25139733080235,46.34384895140844,24.525078150963267,-1.6378576434127157
2.2341739773459923,151.11245139524377,79.35928121417882,-9.79236520595482,73.64731293384968,46.6853013504391,24.187920654123705,-2.541705852990051
0.1966573105039528,145.7699562262006,74.54048907532179,-11.388540853056643,70.83985341232338,44.28969466992215,21.810602875014595,-3.654230516203691
-1.2775314601544803,126.72599443529586,61.704345719144136,-11.56993437140587,61.77775281045956,38.33193024277528,17.193801354471518,-4.404537435258843
-1.1267250095377135,94.52229139863236,42.3413071338475,-9.08785817199404,46.936195771679536,29.506882336433016,11.310629811275163,-4.07976107114738
1.303537867271362,55.813659802075605,21.415471514316362,-3.5290020896444716,29.504529436062317,19.923612314984222,5.952543589087991,-2.225116140165321
5.707466914777023,20.326057043231945,4.853784637077541,4.245991544498623,13.848420145283363,12.088291766898156,2.7671049674937307,1.029326071756241
10.747965623150337,-4.317365292982415,-3.8149454932164137,12.371417233556915,3.133686929121196,7.55685650592828,2.2894374854599,4.955191961803213
14.613244980049974,-16.45278960037879,-5.334775453489141,18.857051780784793,-2.2685688852224355,6.1598628223477485,3.6675257413914144,8.572966340020383
15.925652115971893,-20.146419717196395,-3.6517776814271827,22.544282866345277,-4.414968948884502,6.372577186909007,5.343799576705595,11.155794022695394
14.447667620552137,-21.000273111806067,-2.5568267940463603,23.515076248236873,-5.689109800121092,6.593364759341397,6.249572427826022,12.56127426077834
11.115451342758327,-21.180596002456586,-2.543579097205009,22.695309056455287,-6.573546877627462,6.387797828489671,6.622869028204418,13.169476725251782
7.364718581053575,-17.605219484688774,-0.39114421786652787,20.971566923011544,-5.102413009273132,6.744838857120079,7.785007770142828,13.4833166125297
4.208591954173373,-4.792511911060483,8.084674566363438,18.498654690014792,1.48345351081813,9.149691527588319,11.006614259377361,13.695114875826368
1.7024104325098968,19.88358132481336,24.221275365128662,14.716072393685735,14.1476101031926,14.21337463690909,16.332101593066255,13.543861762735586
-0.8683220752556449,52.72350276443209,44.63134597638732,9.027153351831963,30.587849089227717,20.933392235776928,22.27969037845491,12.55860001981178
-4.280296924501233,84.75245329721906,62.7242207439922,1.57809133835506,46.06346381127258,27.13522191846098,26.65018806013041,10.487284125614561
-8.700872355695,106.53775679073185,72.50339986587215,-6.486221015570774,55.94682359683513,30.736016298579933,27.84591240631499,7.580623592043664
-13.522754736933527,113.34244936155264,71.94203029676021,-13.495422351537357,58.21301478311298,30.91375374242968,25.775315577654347,4.5244465736108985
-17.76263880407629,107.1896566270156,63.731214483728536,-18.11697644759067,54.243683366337464,28.42244456887121,21.78268169151309,2.0789220870883924
-20.67975406782363,94.80642536324594,53.180205569118144,-20.010023724411028,47.59760180171227,24.956980802373582,17.752686175328694,0.6838852402226048
-22.16393673867023,83.27558823394602,44.97411163367854,-19.85957489362025,41.782121898075296,22.108307833149844,15.060712650782193,0.28826255551323177
-22.67185162170426,76.46724240706278,40.999195093398214,-18.842924687859405,38.55754013537781,20.619664186588917,14.032349278716811,0.4785392416828075
-22.84337015282992,74.2241540480373,40.32084214454666,-17.94913516703438,37.6640927593763,20.307879422936878,14.115300372523995,0.7709698025408924
-23.122987170534824,74.01997910365225,40.73414185328555,-17.587814698694825,37.73492136310344,20.498737922795307,14.464457773466993,0.8560146955048361
-23.62421537482677,73.3564734858763,40.48820973333946,-17.636507109511513,37.50061014606922,20.564023935620302,14.479653846662005,0.6729587409180048
-24.24182496975253,71.37453767977915,39.197529208637185,-17.769540387906,36.553766401749165,20.252880789802642,14.036659548870604,0.3359449456001983
-24.861568052183042,69.18234607051455,37.794482050614725,-17.80745736091593,35.464741594285165,19.746464067974678,13.421188456700671,0.0025085614552125546
-25.521890212502647,69.03316009212122,37.776530320631856,-17.903013240612484,35.33793269875196,19.482437421387118,13.074901554621237,-0.24409844353071852
-26.452860913915,72.60353531720547,40.003269420184395,-18.483890324839912,36.95177668754324,19.808128746393397,13.246164328448923,-0.4612627260592116
-27.958193149216978,78.97242069455088,43.48821792482492,-19.946454019560246,39.797642192756975,20.59108778079096,13.681464789733118,-0.827636635597595
-30.148035234343237,83.60487359364738,45.039288944193245,-22.20798515638894,41.653804915283686,21.045156174046863,13.582248146312589,-1.5179495569103614
-32.64116024523589,79.7009327150651,40.50180932896646,-24.38645831999131,39.310900793710395,20.009426228615787,11.983491632554689,-2.5230376829584573
-34.474868921754194,61.876959873468444,27.3044132723448,-24.929327139094173,30.36067139895412,16.623664006162443,8.407755365057875,-3.546962620361109
-34.421153161936616,30.10190011015254,6.718366242739738,-22.29410914800186,15.005269505000554,10.979466379844872,3.349672623665979,-4.099761313617428
-31.645483094728597,-8.985717420557288,-15.98063019979699,-15.874683922099788,-3.455022794785074,4.25067922088785,-1.8221964952125185,-3.7688021598155013
-26.336168370917267,-44.77249266526811,-33.94672989689188,-6.589741467997895,-20.01880069208293,-1.857359493755201,-5.55893779521783,-2.498403220153265
-19.854720427649177,-67.99835009891243,-42.40368781695535,3.322779605413998,-30.51312505946984,-6.0100363890740764,-6.984111011257692,-0.6758195400674364
-14.219811884793069,-75.41101834760701,-41.14032694207138,11.273745685304288,-33.67197245008481,-7.9122951124893515,-6.340889330575571,1.0513558778851042
-11.169133831723043,-70.82045721397931,-34.24290460343611,15.515599801290334,-31.46418702085216,-8.322788656269937,-4.7546738565146125,2.1125031044121565
-11.335141914687348,-62.05975523431613,-27.33849630889426,15.866588980683662,-27.563542401416257,-8.441328644303711,-3.507444874897849,2.285612083314655
-14.010539449909762,-56.09045010714866,-24.289507083954714,13.585448067514879,-25.08350716511344,-9.108431125218981,-3.3306464864339236,1.7398247034689551
-17.606052104360472,-55.5123198173657,-25.48009408729965,10.566728404637402,-25.065711074570768,-10.340224184102464,-4.148411785191021,0.8606567841987702
-20.4837596115854,-58.36695636225313,-28.486251374174568,8.407947794184352,-26.496135685002482,-11.440849561080912,-5.330101517268471,0.016964829259096797
-21.680522289603825,-60.65359815615412,-30.22708569600725,7.852216399761922,-27.501661631873564,-11.538357724571634,-6.1737663821218955,-0.5754860495854096
-21.19865258819272,-59.472964801729816,-29.03113907586033,8.747417711542539,-26.778556394198667,-10.18938119402168,-6.304292144239644,-0.8691213035219035
-19.84227195551232,-55.008635628708106,-25.62636167211187,10.34103936426944,-24.497636526113727,-7.7614519527739905,-5.861260594629489,-0.9568654691276065
-18.765831396312358,-50.67934497441617,-22.904120467218217,11.678285996380144,-22.405996235037357,-5.4443312291830095,-5.485669200940671,-1.0508527162100576
-18.918368690083298,-51.50032415672698,-24.5993270352534,11.992644933372912,-23.08175232029569,-4.821025268910237,-6.071851412148986,-1.4213316941644292
-20.546158738679495,-60.98763555237382,-33.061648885460535,11.033660005492257,-28.41608018144989,-7.038597279507924,-8.228500309026128,-2.2400692702623313
-22.94882736903756,-77.64769150436442,-46.80402559674261,9.20832572472695,-37.81420539815512,-11.885877909249091,-11.602945928272439,-3.3883331084868935
-24.67959586297651,-93.15520859524506,-59.352049231595124,7.393065949861554,-47.20939763086444,-17.360233855020084,-14.530361000490458,-4.397347998017815
-24.204622814939107,-94.36632530821954,-60.93086200602588,6.442123711646049,-50.01761524447835,-20.22844393873368,-14.47734216480105,-4.639280171107616
-20.735840001740737,-69.31640996228819,-42.984032001081346,6.665507169899297,-40.12552763997878,-17.52065777090312,-9.273625483551134,-3.6941138423325404
-14.763746681429225,-14.327436542619546,-3.297889405609723,7.625923082258433,-15.461263269723716,-8.194820686770047,1.5162597962548405,-1.6536741951673493
-7.938644930166697,62.20465356951371,51.50836635659761,8.403869681177808,20.079493826426923,6.050920626360366,15.981693872293498,0.8588331079341702
-2.3310486535114894,142.22702113903352,108.07333242236489,8.155479895807769,57.79097242701479,21.389760546297133,30.509966309805883,2.985024072732092
0.5187357149215668,205.75160768655203,152.0851762935649,6.595218849081754,87.9414043738452,33.60220208346193,41.385667955479214,4.059761392207788
0.2382575500245017,239.6352882695402,174.55493492143492,4.113714522160784,104.07343397125531,39.95446168863343,46.43665235464906,3.9091860835451513
-2.3545887288630176,242.62212650491978,175.1552722603038,1.5160222473293912,105.46523916310977,40.20606672185275,45.82492025024627,2.863223030346983
-5.759930306090238,224.38739557542124,161.21270687697017,-0.38478110637621915,96.67198342027739,36.33954696293914,41.670183012386396,1.5280842720436576
-8.482639651128366,199.99157033283518,143.58539699508654,-1.0579425471438721,84.86287242277935,31.37984959492762,36.8996620950751,0.49524067600887306
-9.566137026028667,183.27773375084786,132.00819773969542,-0.3602351857361599,76.66894351451545,28.057947383079817,34.022666283522014,0.13510962399197568
-8.85941921245922,182.1378684474971,131.85971229092212,1.4273866767472703,75.92337625642715,27.88730355437574,34.30881125517062,0.5036146962098894
-7.0637642762011925,196.49000195554726,142.7950696515978,3.545047909049592,82.669179077254,30.783900583568546,37.45313300493665,1.3219796725925017
-5.577931909315663,218.50229309520782,158.90248095569268,4.786053559397815,93.21753928095397,35.12856771407514,41.65392149977241,2.028151243646663
-6.07805045077502,234.84881269275166,170.34157983380678,3.804019517541173,101.189705903316,38.244919529178155,44.131219005660924,1.948843669261937
-9.844853984383086,231.21596877664908,166.68013511802647,-0.30468025764046247,99.67237143023925,37.33404053765249,42.13338588829965,0.5923765560740659
-17.090416190260846,198.34236128428128,141.32964075520024,-7.443925100630783,84.13520781768102,30.686177576486767,34.19016600773254,-2.0643104482549104
-26.693367075129775,137.01279548046296,95.10474377968711,-16.383545286048115,54.85683442810114,18.62503166356196,20.998286969412636,-5.486410931953514
-36.597607605526235,58.7865666371747,36.59590396280136,-25.20378834046632,17.315795099024243,3.5646638314797268,5.320021682495169,-8.78896972027271
-44.71731836389491,-18.769710232590818,-21.384252167819426,-32.08217781272928,-20.03714096848436,-11.003547978492945,-9.200549411220873,-11.14535123822785
-49.82841150032005,-80.01884513144722,-67.47256697106904,-35.95922941157782,-49.53219946093271,-22.086172323333237,-19.681311900316413,-12.154368405917014
-51.91000126639695,-117.64774290384845,-96.17804227840197,-36.72793049161784,-67.35247187189627,-28.400941984247574,-25.126690291653883,-11.94214123081308
-51.76738078233659,-133.63866022199068,-108.44394518949014,-34.94226841120936,-74.10244358009088,-30.50916956096942,-26.36769105971608,-10.951637359520902
-50.26288410947068,-134.62270610023333,-108.40234748605312,-31.359702521356905,-72.75800799119614,-29.86993921250155,-24.95381116905656,-9.588656710778121
-47.73445981478067,-125.35929559991416,-99.04242396172464,-26.67641312391871,-65.7045571751046,-27.55547410462675,-21.855510533550955,-7.988008360549587
-43.99791572934399,-105.28654043439863,-80.14539202462889,-21.56478294247414,-53.12625280411328,-23.57134372424466,-16.928939212648977,-6.057065600252878
-38.85381888315228,-70.53163057054559,-49.886226111622356,-16.815013280595416,-33.83673335689695,-17.22570173614904,-9.468233749904446,-3.725900808834067
-32.63357659373196,-19.404186750501406,-8.487676802101184,-13.296486928061169,-7.649358475072132,-8.165719817421708,0.691290204908115,-1.1704033796865196
-26.319188211897746,43.32380721647454,39.34292793224969,-11.654988834905645,22.833990566108543,2.8080175206523963,12.470862535438128,1.1907914094358247
-21.13405897316854,106.9914892933001,85.44539494598945,-11.952999331456335,52.622503960061564,13.835301539417285,23.846714888657885,2.9276061307533365
-17.9246639715716,160.1904897585356,122.11453119189375,-13.576518369459981,76.7252570354052,22.941397253210685,32.92296974481472,3.8644558828178823
-16.804778601117683,196.52162134914192,145.89929995897228,-15.562268336418171,92.68164137307411,29.08353111838005,38.91340327568826,4.152364687081325
-17.30491481494954,216.4990603293396,158.29363192803729,-17.164851256857272,101.21781775191324,32.46126462768123,42.23093920749276,4.07816052937845
-18.848882588066395,224.2388239239019,162.77701749701927,-18.253479522908062,104.50737598538117,33.85803894150449,43.61973732330899,3.7702551207583386
-21.12044268322018,221.8720615614961,160.67646169878904,-19.222290285166537,103.5043709744883,33.594487599982436,43.08230205465352,3.0620879247838055
-24.01338466723193,206.56754138835873,149.37520326007126,-20.479921894373255,96.64125037090037,31.00713239612627,39.55755133596785,1.6484243473296
-27.25995200629425,172.89154480532508,124.50881259214327,-21.938340295018534,81.08797765187016,24.923564246818547,31.699393812452815,-0.5818016706695018
-30.13464783163422,118.73565280618442,84.5070119582189,-22.924966344068782,55.64663000108854,14.771980696815227,19.195085817890128,-3.308670136250546
-31.563422077193515,50.008857143370925,33.90796926904833,-22.588212668727508,22.996219527551823,1.453646146325826,3.6092464455077717,-5.842161178642269
-30.61415019909853,-19.821719039709752,-17.20163204047623,-20.474189960471424,-10.514198322815039,-12.68821747058212,-11.915518209322146,-7.456042979207177
-27.026928415178556,-75.36602638089842,-57.40059189362491,-16.84797136131569,-37.49909301136401,-24.784615160100905,-23.94967501440396,-7.775466424354297
-21.410362726998123,-106.44775854826875,-79.08297736852178,-12.559175346126361,-52.88820339769115,-32.62934128007365,-30.253272616433076,-6.969451587527437
-14.971245864282949,-112.25003940144316,-81.42915692387389,-8.587083711170202,-55.93798346188669,-35.430099290842186,-30.578701109426504,-5.633754583287705
-8.955412668849272,-100.3154210647383,-69.79410560779382,-5.588336686807418,-49.9096411299983,-33.796099313098765,-26.449073422954047,-4.44599548038186
-4.138507185089942,-81.73065728752847,-52.461194718240655,-3.7065950096134066,-39.98188010489952,-29.154943959270657,-20.213524901764075,-3.8064954782131246
-0.6266168958496059,-65.86830615243656,-36.9921593498872,-2.677104632541332,-30.872444273634194,-23.06375102603544,-14.016202064590576,-3.6667486216549148
2.004778392605845,-57.47305097262865,-27.962306536894392,-2.0645757373068268,-25.3906685911999,-16.773024956250335,-9.177090775851704,-3.6147190032704133
4.399683540814616,-56.67552968520759,-26.490035470814366,-1.4520593378345084,-24.205499627840396,-11.106733367895771,-6.097356565725816,-3.1369378820279774
7.13387156209459,-60.73380698321313,-30.9637642986714,-0.5213667376855898,-26.38755575401354,-6.530563227139371,-4.519125057996404,-1.9070141641745704
10.54825505805366,-66.05226228946935,-38.278287927555496,0.9239451808998137,-30.202276519460455,-3.2885728569176935,-3.922356526225119,0.03148562585925907
14.707269623458139,-69.73666050459373,-45.198510018705484,2.947426748242924,-33.88435421101636,-1.5506218110842114,-3.8963416917191656,2.2632229550282834
19.461010021901167,-70.47171625448777,-49.51962798674089,5.500424300969063,-36.23381091896816,-1.4902048605863674,-4.339408051475557,4.191219506631832
24.581951456934735,-68.57068605812678,-50.57060059758829,8.49811914067657,-36.82501578932714,-3.1799440202989797,-5.370638763389153,5.348332481772095
29.902288654171052,-65.21312624017534,-48.84138211826712,11.897896852472101,-35.74403695460569,-6.312509042960646,-7.001398497999152,5.674108746410845
35.344183116475364,-61.41247779930461,-45.14476173852743,15.683402126738006,-33.132616685981645,-9.984911369920924,-8.839157036661653,5.581858624954735
40.80026082888247,-57.54723012448679,-40.09130840483364,19.735654444395806,-29.01917195166856,-12.85307028037178,-10.130982149942733,5.7451027172390186
45.96390896511892,-53.77058475089591,-34.25524685995065,23.703531783590307,-23.624856635124782,-13.708682268400304,-10.188776341632567,6.710395176261284
50.285210525762274,-50.69880256991726,-28.630002175302646,27.018223531085,-17.795620612135494,-12.151113112950252,-8.893186146134852,8.560587550863534
53.142183666970574,-49.49379312223466,-24.67642463748841,29.08669232964455,-13.01657858767595,-8.8898734134942,-6.878589161704616,10.822203740333302
54.144565104004904,-51.14485791258603,-23.741137335550306,29.56284620139406,-10.831819867216913,-5.447419655242851,-5.238818202703547,12.670088643768699
53.38915189283936,-55.618557538838665,-26.278572070795025,28.553738187601358,-12.026130836684006,-3.419059798788616,-4.9348040145532535,13.331217968629502
51.525958552437594,-61.63574666482539,-31.460075037778363,26.66657516216478,-16.108712624182356,-3.68895816097646,-6.26052632106501,12.495025430449964
49.6006689493441,-67.1840405646529,-37.39178436168463,24.8630062953295,-21.39604148478124,-5.993315589430461,-8.659586328965165,10.522818117167063
48.723015996705556,-70.32307942002058,-41.797319308267355,24.138676800023617,-25.64396155249033,-9.042755289445054,-10.985616858534396,8.326380407187044
49.66622278330612,-69.8915730577943,-42.924557403882744,25.12638668678695,-26.977291341114142,-11.164845466392118,-12.08338082627709,6.949598516275547
52.55591685779156,-66.0038193702765,-40.39739767063274,27.81470021914458,-24.762327947631505,-11.168194039202648,-11.39777787714617,7.067338330983401
56.8212732897971,-60.19251749600945,-35.57476112596806,31.57312023691092,-19.985962881365225,-8.966461484459881,-9.264927593767045,8.68852681540385
61.47905421986505,-54.87584548859615,-30.976280556949515,35.50750069186218,-14.797537641107551,-5.583234340196428,-6.686799165026147,11.23529487163214
65.61562062931228,-52.09445937156954,-28.84175383123607,38.93291923255667,-11.312107069552793,-2.5196327425311296,-4.71340385465059,13.928054895168392
68.77741851845973,-52.19493394810937,-29.66368613442226,41.65504786866178,-10.357765105115329,-0.8904562156742718,-3.841026001548998,16.21202621203837
71.03452927513622,-53.51418433494987,-31.78296466138824,43.89864348022869,-11.028264301176806,-0.8866790539244163,-3.8280460300945043,17.958120187715114
72.72084498671782,-53.4909132221758,-32.43571937277702,45.98672437126,-11.38017805475927,-1.8628334087995932,-4.0065743111129715,19.351559586935682
74.07459497320164,-50.46354436481557,-29.536845760317004,48.025260162320606,-9.778420631087943,-2.895101666087158,-3.8024928229029245,20.597681009139517
75.0255640383257,-44.8704237682388,-22.99562456467234,49.78419730021957,-5.977039191652161,-3.3846780242916523,-3.0847431934651093,21.66976215444077
75.22019811634846,-39.146134339535834,-14.849661950447429,50.79086808422234,-1.3326991688903955,-3.3617958637006016,-2.1833785296262653,22.255068163631574
74.21009197780724,-36.593016847156534,-8.358107051945948,50.53122131767981,1.8136417100989048,-3.417385745985096,-1.6854675151683993,21.902873931060988
71.67638457367586,-39.918697920663895,-6.620454077738317,48.64496132670175,1.1735920695185804,-4.384024281093902,-2.1885763736663786,20.258343613979047
67.60299923384302,-49.896185629600055,-11.200266351970678,45.04862923838012,-4.434457519945459,-6.918478289416959,-4.082981623186058,17.242725211734204
62.35992863512142,-64.4343530871631,-21.130444929488355,39.970029966198126,-14.32580544000196,-11.115335878409468,-7.352936873093205,13.102411752643912
56.678187242120465,-78.57905417289457,-32.785639388570395,33.9190623938559,-25.82667317631863,-16.297549838473557,-11.442063315768673,8.34078159538515
51.51562894953489,-86.0232314494235,-41.04184899654524,27.644107419656766,-35.068873337587064,-21.12737729775807,-15.308707397926735,3.6045096623318513
47.84358517552671,-81.95337777957232,-41.523578824639266,22.095460251912957,-38.574376240983085,-24.06331137542161,-17.7482331147264,-0.4152195555126277
46.407123739943025,-65.86941796180345,-32.88338235894491,18.341393050820248,-34.92322399290442,-23.990444593631523,-17.886771937595178,-3.0673737460675072
47.51198208314074,-42.54951894109526,-17.764901568658363,17.344087816025983,-25.565844191827864,-20.728129587904153,-15.608616964578905,-3.856475962559241
50.888271217701806,-20.26760330867356,-1.771277855398197,19.58996514055739,-14.254695985265831,-15.173485341567766,-11.689193250192524,-2.604684760655461
55.68950568651215,-7.100375665057157,9.053000481280774,24.74267288780521,-5.370485385256713,-9.02193644215119,-7.550046632041952,0.40602334454562755
60.6761836454218,-7.349905972059156,10.882512722482101,31.57883866595025,-2.027884092817542,-4.18580860391796,-4.728955995527298,4.427776627495147
64.5662852827098,-19.92703045386141,3.599081872569032,38.34418032746691,-4.883710785904399,-2.1292902012926067,-4.281586870290539,8.442083120899275
66.42978545753856,-39.29722914874029,-9.476646573696799,43.39469106893607,-12.116107607785425,-3.359124795117795,-6.367500889732076,11.49631293158323
65.94658086093705,-58.26517074260552,-23.31558272878967,45.78731985071607,-20.459918320972392,-7.27514268067638,-10.21238158852229,13.022568067556808
63.408446865491015,-71.16983629444887,-33.47539335415025,45.52256745715684,-26.758017802592935,-12.467491805599133,-14.476779504582588,12.988052485750982
59.4947355106888,-76.0370236401367,-37.87014742363511,43.36635109990709,-29.30384739353304,-17.337787946851748,-17.847818865662326,11.826005272905812
54.96906489903388,-74.74419423619244,-37.19168553846176,40.397379869479956,-28.34965859540084,-20.728909391583265,-19.53906814547984,10.20371904699698
50.44131619829736,-71.24137726231739,-33.89540180671442,37.510501089811136,-25.589595429651624,-22.247723421572175,-19.461179813484637,8.734020984504905
46.25043991874595,-68.9975635912433,-30.52850469175694,35.07745935075377,-23.02925349475904,-22.186040570927375,-18.06430321858036,7.7342836133781985
42.45479023786505,-69.29240049511597,-28.511960543734578,32.8936784511947,-21.98477971897454,-21.195166512672294,-16.04028842288024,7.119149868769466
38.91037715552539,-71.23855226373976,-27.9643288546347,30.432025453616628,-22.724035217554004,-19.94336178616495,-14.063610588821676,6.481005174881842
35.41637483128376,-73.09139275212881,-28.283592934747897,27.272213016671927,-24.71644158268805,-18.892516590829906,-12.62868348079731,5.337717891070858
31.864863754546203,-73.68365524993568,-28.81994595112966,23.451487594276557,-27.130595868462244,-18.23021633569068,-11.98005599514226,3.4261953541284242
28.30103878218956,-73.18172275756784,-29.279234544041923,19.51485145109894,-29.302014128440693,-17.9547500238865,-12.14917547950312,0.8764303043566611
24.857551852149122,-73.07121756260786,-29.89244416783236,16.246480662212534,-31.071079748381408,-18.055513724642747,-13.080379293588795,-1.8244899984200096
21.637218454946204,-75.48910636954726,-31.346196253412334,14.273671164682673,-32.858278030078694,-18.63008403264188,-14.718974797150716,-4.030900433517841
18.653751941108734,-81.88345437368024,-34.263528721909246,13.767246886436661,-35.27007323287268,-19.766509759430893,-16.90757605728966,-5.177030119674253
15.849604056833478,-91.28983406726968,-38.27015683015094,14.326163278097233,-38.28608791529998,-21.21537449801458,-19.123630570355687,-4.96989120348927
13.106302176644327,-99.32657346729678,-41.33495052958699,15.012137914934229,-40.595665504245154,-22.152721340819415,-20.34781240692749,-3.5180567491946038
10.187533516124807,-99.27593389920624,-40.30200694786383,14.51669627414438,-39.83693204588177,-21.384540642859168,-19.36790297162773,-1.3784743373486323
6.689648144649177,-85.45061276246675,-32.74679346315078,11.51172394911037,-33.92306024731358,-18.02374592540814,-15.483698269208116,0.5420968390514878
2.146611482190431,-57.08586480260137,-19.02953799549418,5.183037137106319,-22.68345699850356,-12.219957229512678,-9.157602713303282,1.2794043397566262
-3.6725831219424974,-20.023257531287335,-2.908305607575015,-4.245290723379186,-8.579290515777641,-5.364014303130212,-2.065339482691068,0.22490376237651008
-10.442730899775809,15.415861088010113,10.064311330978924,-15.333467048319998,4.219900918978884,0.4888167893930496,3.622267567915167,-2.548891936530535
-17.206233578387337,39.423144991265765,15.522581270651306,-25.83322208340875,11.953891772668692,3.6686599814886334,6.333755265363122,-6.269073907074287
-22.68775041540164,47.55508684280677,12.712421419543086,-33.579491977716934,13.242148205632079,3.7445648358798733,5.873163986233133,-9.806001368154726
-25.875922926149194,42.41606292573741,4.7140123732814185,-37.418618788055966,9.616266659307106,1.634001095408737,3.382414953540539,-12.20648673948456
-26.53166414091435,31.266110643917767,-3.6604099632279565,-37.640321656077575,4.3168632950968995,-1.0618890100202947,0.5562441096446752,-13.109694169998432
-25.293326830615428,21.419920363487154,-8.761028151304515,-35.66122296261927,0.27507057185383316,-2.99807288095038,-1.3187128384002944,-12.809075799013677
-23.30574271125293,16.619794912336495,-9.78042037945977,-33.18246977600042,-1.3087169617200454,-3.6665561138470366,-1.8714008497181651,-11.958858274094304
-21.621123863852382,16.41887103855032,-8.321161417089437,-31.36515444399198,-0.9973305357284675,-3.3371663784412067,-1.4887316327114224,-11.15320761873943
-20.748484390585144,18.13488885169102,-6.627884117331574,-30.488503264228374,-0.10461517592063023,-2.5856220166004817,-0.788279100585358,-10.655538162787293
-20.570188825594077,19.359488925407785,-6.001038703769846,-30.16634061597043,0.3963835251234928,-1.8530260280383393,-0.17948069855529794,-10.401851722594946
-20.569661649931767,19.390606314887076,-6.283458906012072,-29.84201514693607,0.3724208978580962,-1.2901212409063134,0.26122338794064154,-10.195956193124994
-20.17286003088536,19.28750442504389,-6.2844141259381265,-29.21616275983832,0.4132716524366762,-0.8344497605769622,0.6756332892870828,-9.923819129974486
-19.05618548570263,20.975102423466478,-4.642399675009106,-28.424568898558356,1.3618395309216564,-0.3645896355777506,1.225286628027192,-9.663356244854368
-17.35836215569015,25.740231328832117,-0.8537401513757295,-27.943933693491594,3.652369541273405,0.1418157447437639,1.8884936417111537,-9.652504694571164
-15.724056358307003,32.547433999763456,3.8014164262538896,-28.26521985113501,6.632694079446351,0.4819518031751331,2.3221798137094014,-10.126973867297291
-15.078618352440865,37.23573391430122,6.107543098774253,-29.439292011293986,8.33098175303871,0.24652033960351868,1.9343109971225636,-11.07850684515105
-16.14226357890689,33.83645905834885,2.2209745429330923,-30.73578510267055,6.179681257033157,-0.9042689181626147,0.2630688093847374,-12.057665745607785
-18.919956799898102,17.98677558378724,-9.863300880777054,-30.724713186453982,-1.405714628771343,-2.8143395080763995,-2.5130629196700944,-12.196456228733691
-22.525877790106335,-9.58600605725372,-28.280112527852257,-27.900017876458154,-13.584404142643448,-4.617743660043061,-5.3614126340402,-10.545455870347807
-25.537329927210983,-42.276491064253094,-47.4867583432981,-21.564149521704547,-27.00435637412635,-5.058076544130687,-6.79850341138139,-6.6020830309991645
-26.708784536586265,-70.6547613305463,-61.030033878903005,-12.406289909783743,-37.43268949459123,-3.2578359378961785,-5.762212744710472,-0.712204784967239
-25.602664876683445,-87.62519771991265,-65.22564107744964,-2.328934406284052,-42.1338101680625,0.5814285980797109,-2.361436623878592,5.953642665117249
-22.737840444464716,-92.15984296668069,-61.18628996359087,6.430347872900802,-41.33686626162431,5.124967822202877,2.0908106992690736,11.889624392855593
-19.195214588308854,-88.898255287908,-53.66341914998912,12.333011753678266,-37.69508659987353,8.65457232112194,5.868576710076763,15.930948730691794
-15.99960172656617,-83.86607179083451,-47.4515905676999,15.057338723245369,-34.09115385909259,10.175675866688422,7.933844024593275,17.70002661785321
-13.726025060038609,-79.51264776495537,-43.96818486653581,15.198028186921508,-31.416197583155164,10.103103571206027,8.555801578048756,17.56046106453063
-12.551678334548038,-72.88053020009207,-40.56684395560036,13.449724728062202,-28.023348323688577,9.983988001784994,8.977536321077629,16.162451140927303
-12.581457238963967,-58.34139850011357,-33.07396365464657,9.953256794282924,-21.282347545745388,11.403699458434978,10.37160181576677,13.944614932033012
-14.058500797201662,-32.76416252710987,-19.54183380498678,4.324992712110112,-10.01621630717886,14.843524739319584,12.875383623682678,10.956997900718415
-17.219704133067342,0.8880702107936497,-2.3221682019991494,-3.68354168126579,4.07215209025639,19.3050534684925,15.427850578598814,7.0908884050428185
-21.920304963875328,34.2533121005319,13.049256268565737,-13.468482650334513,17.056995395943563,22.94331218961968,16.502439086109366,2.4748696382544337
-27.392106060852846,58.031161056077266,21.235985628422643,-23.42050512417591,25.024503166840113,24.22914419229107,15.168531207426003,-2.3154154056941674
-32.41072300553583,67.05401644239076,20.282380935737304,-31.51781925156002,26.29120922624303,22.83887617050531,11.72081386511949,-6.4159708165124645
-35.82068006997483,62.62711868202429,12.477131043466501,-36.28461758453702,22.14487102630152,19.729138735870155,7.480902998367772,-9.09000732954553
-37.07869718437663,50.94212247552658,2.584435493223888,-37.47569513994688,15.783228486853764,16.450765438655658,3.9804305202008794,-10.101829713652037
-36.45105723863254,39.129817845081185,-5.036826828812927,-36.06259426271515,10.375917050724627,14.248135802254575,2.134370489663014,-9.79583527039997
-34.755447337242316,31.825563223296907,-8.386802306829718,-33.59572993194657,7.618760193828682,13.544834529924588,1.9384827844822643,-8.852125528296975
-32.86538340327069,30.12988029862888,-7.8828176920832105,-31.410682938992046,7.524441290515811,14.033262418246006,2.7678707414474832,-7.913253307868319
-31.32838080949543,32.67965404850753,-5.145130614073019,-30.154484818161617,9.138286425888257,15.113800852824566,3.9119076760599105,-7.32910033567346
-30.29376414552442,37.23524275210114,-1.813238106870746,-29.787332090133468,11.341103736360443,16.267482968404895,4.915440194293678,-7.131937572768798
-29.67393718938529,41.63412874764763,0.9120250979754282,-29.88539104217319,13.228836547864384,17.1644357993133,5.59052897006189,-7.173868152133313
-29.329877773702933,44.16304063952206,2.2528212505691485,-29.98299542793717,14.17525936048985,17.609680646354484,5.8687159169902,-7.287240315210729
-29.151869785577208,43.868652031691624,1.8571261185558037,-29.80899260262408,13.880546837914116,17.50388758235976,5.703197880824815,-7.3814218750637375
-29.05029423242114,40.855489670763504,-0.11958196138520494,-29.3842880131413,12.44968788673121,16.864585465233592,5.072923796498119,-7.464471194208427
-28.919108161065235,36.223393812451214,-3.0754882188047086,-28.96222443650341,10.349739537595251,15.84971564788172,4.035888814887607,-7.6008575833785414
-28.59985201286023,31.613069003060357,-6.1513194143977055,-28.808717399813222,8.242461898266649,14.760632419321357,2.805741417348714,-7.81723858154713
-27.86944628327425,28.76781932751027,-8.297995839358258,-28.92479967651228,6.867303792072506,14.044733333703412,1.8368446534300045,-8.004294517747299
-26.515401007449714,29.277455510205424,-8.260099219700871,-28.918095660854686,6.9962198284178285,14.244876747925055,1.8063723696558065,-7.907185119845776
-24.536519955990617,34.05252127969435,-4.948098084905954,-28.165440834831884,9.191510161554362,15.764227230289336,3.328882228310223,-7.264665350741817
-22.364124843085065,42.1639056833857,1.5431346127489443,-26.179899624252876,13.192628764870038,18.434053597753124,6.421171064875204,-6.032427632919268
-20.87386729184067,49.72256355632506,8.901975628063784,-22.913468404565844,17.302870297650315,21.15513086725078,10.061779857016628,-4.5185621302431285
-21.039664784282557,50.26815564520804,12.741374953221918,-18.777727310858122,18.521288670338507,22.01922996420575,12.307366315123597,-3.2906416721680385
-23.364377712028183,37.41918914562115,8.451083309091153,-14.399053092120313,13.780506065676091,19.06541856596541,11.115167393327292,-2.879130162402064
-27.467071177255846,8.645302872716357,-6.147530453623538,-10.324011172686596,1.7238528836525369,11.334964754502632,5.4772656417934105,-3.4647999831496197
-32.16925218235647,-32.30990125748188,-29.148142982569265,-6.895556575681525,-16.157552123092973,-0.41952075734066413,-3.844404900057608,-4.764375008464625
-36.09480891852743,-76.27163445199952,-55.17268351712119,-4.350906087692359,-35.901058900366365,-13.857440129829378,-14.498552523059788,-6.1984545241268645
-38.42060086028565,-112.55781793039738,-77.94365879911514,-2.989610677067153,-52.8265697524019,-25.975556205653426,-23.57860809741238,-7.233874816416626
-39.27774991810775,-133.73225656621878,-93.14363204744872,-3.1867531274121577,-63.601603225312836,-34.30737041443908,-28.90494150089789,-7.675065773606733
-39.53042507286467,-138.4129135250671,-99.78342035348211,-5.1600598897542325,-67.3918055132686,-37.74287631047766,-29.829039779252703,-7.722150582215277
-40.10190035651328,-130.7759019050779,-99.5327478823622,-8.647871207148016,-65.59761424842962,-36.63596653514368,-27.209910435382657,-7.785598031826046
-41.34233124362901,-117.67070194851998,-95.02206540114162,-12.789898636938451,-60.70133432133421,-32.3639765604937,-22.775299872535992,-8.210100335765391
-42.87282605812447,-105.56248816937934,-88.64420233302417,-16.374706654444523,-55.20213697463837,-26.76259201605367,-18.375515766192645,-9.087238899946332
-43.94522968465857,-98.87402142457616,-82.45305530674518,-18.329398200574207,-51.15516621721015,-21.70146067871943,-15.482065984328834,-10.231183670122425
-43.9701959863887,-99.63384989107422,-78.42954569270239,-18.141013134370684,-50.036973941919925,-18.739953875751162,-14.93228358626931,-11.272376996843064
-42.80879804897322,-107.47318645863331,-78.11375028896474,-15.969795469515365,-52.43197371401228,-18.71255024276059,-16.77242277385598,-11.789322845757724
-40.693324758301486,-119.61815940655188,-81.60491874344102,-12.44689811276359,-57.56236473032419,-21.333342730848038,-20.20004063010155,-11.435077083839435
-37.953147885249976,-131.46514426202023,-86.96506515436904,-8.3309060849088,-63.24343094628098,-25.157036706880426,-23.773496868836677,-10.046680052695654
-34.81405454277348,-138.22682265507035,-90.91721226254639,-4.2235420110363355,-66.69909906162586,-28.13976838664984,-25.96855623676205,-7.721085174936341
-31.41057465981106,-137.1002633922738,-90.61225855706884,-0.467923154328227,-65.94961358144339,-28.640121618874353,-25.888582758024807,-4.8348933419529425
-27.96400890748158,-128.74446368112916,-85.37533224914931,2.7527368971433255,-60.96807953015402,-26.351014942858125,-23.770174342743086,-2.0012378742333454
-24.956519850476337,-117.2931673457788,-77.4466924377559,5.218606902811588,-53.958015015325145,-22.638949337366896,-21.01371361134034,0.034560151900537475
-23.104840828061267,-108.97951223739308,-71.35416597984376,6.579821146167558,-48.61608015939649,-20.048332513366866,-19.679442682403902,0.5778803905272553
-23.027376994847153,-109.76044493618933,-71.99673929462716,6.527239495218341,-48.59607855483524,-21.09961212304243,-21.568586944926647,-0.7422133188700442
-24.7162129782309,-122.28749282350638,-81.84416675117753,5.157884601030484,-55.566740817187124,-26.843656679586942,-27.172618513735767,-3.6861609094870307
-27.16391745849287,-143.06917689888678,-98.31308601966478,3.2129376491150663,-67.56940278765283,-35.86652386256868,-34.9662354690071,-7.295171712076006
-28.5299418808674,-161.63542436829817,-113.07294088354524,1.87139715001655,-78.73226238865594,-44.412767927314945,-41.58182108029555,-10.14548303396769
-26.930870459794075,-163.50469840407732,-114.67414923055668,2.1194108175362887,-81.14655460838947,-47.83790792925467,-43.079618244495585,-10.945249928329902
-21.46900848267986,-136.72418184069252,-93.97810118227541,4.109186025215661,-68.51701303067165,-42.821829500163965,-36.85107383394275,-9.178737865345282
-12.855224831930622,-78.81816200009754,-49.576203396946994,6.996962313330594,-39.75749728101849,-29.17194962941634,-23.12833473998896,-5.400145642484906
-3.184816741139268,0.25703045479621733,10.269196317257485,9.414536101960643,-0.28394656294054277,-10.138369666697798,-5.144372153352443,-0.9696373937060936
5.038266107398548,81.58036131393933,70.76364896018066,10.265010211218064,40.046712236668526,9.008571851841715,12.249732788976813,2.6224387468073322
10.058158513892876,145.59422691587287,117.22436479166032,9.315108700906254,71.33899784388838,23.361623810808293,24.763244903589328,4.4439440731171205
11.549119471531686,180.6193979941115,141.45310725204507,7.2266827538180145,87.93207444372028,30.409770940438364,30.42999844131475,4.442646869175362
10.503478958079931,186.85753634403093,144.36042535392338,5.071002842012712,90.23087022689448,30.695879813293583,30.059134585618697,3.2793463830485767
8.509303276148831,174.17318810960984,133.85770062472062,3.7002779953274327,83.39138471695242,26.949159968055692,26.313101428926856,1.8528856857399356
6.924479619524427,155.78005222419216,119.91173765200323,3.3845359914732525,74.06043760386788,22.41018569681401,22.13858338384481,0.8406468692051822
6.401517181722512,141.9680672489064,109.94322037864697,3.864091890193636,67.27030186480538,19.373942514109373,19.497370741780767,0.4891403304767321
6.889137597430663,137.0425221858891,106.78739182066997,4.654868232740713,65.00703624844449,18.605489867810967,18.937880502101127,0.6741280326302526
7.927860327582565,139.91234162152472,109.33238171373972,5.334799885886723,66.58766473532172,19.613693693312687,19.91954440073335,1.0927110833734994
8.982140184212344,146.63176234509615,114.4842223558914,5.671186121323334,69.96655938293286,21.329115164863104,21.444611143846306,1.4446880168853777
9.669816035983848,152.9803194750189,119.08164696631206,5.626596503837028,73.02905484598581,22.737777898085962,22.6118419150912,1.5450149241294582
9.870477477874273,156.1771425810188,121.14916749673675,5.322420499910057,74.43665220625067,23.267859887982123,22.94351417711091,1.368093948762351
9.71885355805909,155.62158402472716,120.40215906957295,4.971108913485874,73.96740655122082,22.90635021013454,22.475105656759656,1.0260577048737765
9.485373362847866,152.66470587543148,117.987535146094,4.762330887001751,72.3566080698717,22.068219488051763,21.61841096382068,0.6845019211084661
9.397210006416941,149.49715850780962,115.56911316912392,4.7530316974183755,70.70770882450972,21.286019085179547,20.861027775069612,0.4572439527980435
9.515601141697248,147.73481811229178,114.27079883695976,4.854037022097901,69.79224262188413,20.89020019546285,20.475337624434598,0.35161530480512715
9.753318073093666,147.6478235485073,114.19076691770746,4.9310484965853965,69.70362119270864,20.88234966357932,20.42863133637466,0.2997216266338453
9.99202210231144,148.50390017332577,114.7467979644279,4.919876209271704,70.06022323373247,21.057492731165873,20.523779009011122,0.23345511223313847
10.175492498757581,149.49545440263313,115.36969764674977,4.845824404139599,70.4656661180106,21.221736651538087,20.600879680277682,0.12850412644751777
10.307031010187243,150.2899487236132,115.84745765599291,4.753849122730124,70.7615760356974,21.302148428031273,20.613448436751344,-0.008457821610765763
10.397320587823122,150.86030714491287,116.15685921701451,4.652536436249101,70.93454719135772,21.303618151390346,20.566738872410934,-0.16898952221780514
10.446297407785254,151.11476090876565,116.21318641846386,4.533085715568128,70.94339289624327,21.23346906192185,20.451655165413346,-0.3455066136087471
10.467696426498172,150.90677545651036,115.91676301379655,4.411759061345221,70.7316244800968,21.098499622445186,20.260887961820345,-0.5176245144010505
10.494841673116989,150.32132879487395,115.35363797180014,4.317826435453096,70.35549414694965,20.938663861054785,20.029704213696366,-0.6609044061295457
10.540126009820172,149.71477065326542,114.78040296948686,4.2398578955304425,69.9835349822432,20.80671154209664,19.81202413426302,-0.779851170006318
10.563884880401934,149.3858646103056,114.37726334838734,4.11681496212404,69.73584115704743,20.70286483581196,19.616530916489246,-0.920131313460414
10.51322806477494,149.3422940430959,114.13354246861692,3.906729402042119,69.59524059644747,20.56855480045282,19.407934079845003,-1.130053487401635
10.39991495874581,149.51309977457498,114.05182921743754,3.654567485605555,69.53403438232449,20.378940830976166,19.194249922948945,-1.4047986525378071
10.320670680124211,150.07806672822366,114.3539923772063,3.467077907368532,69.66944286648453,20.226758590299916,19.082222670689738,-1.6754734470895454
10.379341038325306,151.32666424903326,115.28322941425536,3.41182508069204,70.16876415611156,20.268409627793922,19.19304153433578,-1.8587590939762715
10.583543872033916,153.07013936900034,116.6215718414394,3.4490315793145587,70.9452257549398,20.557888802286246,19.499647186934993,-1.9194316330234802
10.817827327836282,154.34202398227904,117.51816939918412,3.4614169771638,71.51548433954292,20.93801243878978,19.765202487361012,-1.8943905919571067
10.910231623478703,153.94989384082496,116.99000927955721,3.333239160306937,71.27675030861363,21.110241353140054,19.674117202036552,-1.876972648133106
10.724493988081605,151.5189381862502,114.74786993550424,2.997582141885912,70.01325572678826,20.82625355955173,19.05609494027222,-1.9895361643755376
10.224143799718371,148.09650070529446,111.64804840509713,2.4489131103308113,68.19158235206623,20.051403457890263,18.03193867323441,-2.346410583625703
9.517631548882314,145.79957513901059,109.42732077719269,1.7756499003677908,66.81576367611903,19.022180262238464,17.007882732000425,-2.98355903068133
8.890573482454206,146.78327622981442,109.92381757194495,1.2078334623562186,66.97039280715532,18.214141748758482,16.550648170312535,-3.767577949638036
8.760854699224744,152.0588229018501,114.11246289166114,1.083232254732446,69.26642995607874,18.216045532712574,17.165043465154916,-4.363489657386963
9.483262288132321,160.40649806606,121.12328529820535,1.668872601242775,73.275917468849,19.449736400513938,18.964939964730846,-4.340840624614945
11.058721333023904,167.60675465356047,127.53008779312212,2.936859752100791,77.082541096006,21.764227824043253,21.332821250434712,-3.3956529688712154
12.957718469080342,166.69206379282974,127.60487015782661,4.499785686373972,77.3464696251776,24.15269238663006,22.842794051266505,-1.5494705433735412
14.25769714461111,150.04172448370443,115.18363432106814,5.811738624202697,70.3232745430856,24.93215036083411,21.71344743708126,0.8237868330891325
14.079543243423414,113.09276281679716,86.78629669654863,6.510064954689884,53.71418313606673,22.481170822071793,16.724069097439656,3.176021038971643
12.063879396410846,57.81453205327134,44.332700882068686,6.632565176480094,28.399417723181823,16.186770664954633,8.095033797073297,5.053585827970639
8.571341315842519,-6.495388380169936,-4.502164855694075,6.529467664701187,-1.1702763165487258,6.992048955985758,-2.295675043126109,6.279124500657819
4.4759133059223934,-66.21629962944598,-49.000080268346764,6.529414401579412,-28.4661104625909,-2.8793310691553,-11.63252976756523,6.935500307950367
0.7012705007383444,-108.94398383391008,-79.91765265889084,6.6208152237902524,-47.60208773428523,-10.922780137852621,-17.478556506591563,7.187528108670978
-2.188301707806797,-128.59671979672976,-93.32266244758553,6.411105786357162,-55.80068494087576,-15.494399758316625,-18.922408882589906,7.0968423714891244
-4.107149138450995,-127.33177178573591,-91.67015036695108,5.412028058224757,-54.264495931982346,-16.428629156176974,-16.880303254774738,6.579957125418881
-5.283572124334961,-113.52829243847698,-81.80879778838346,3.4365917889471906,-47.14013553953296,-14.85042700589839,-13.435861208424566,5.5310383118935
-6.009702335572316,-97.4928298396382,-71.46414689700055,0.8127738266965129,-39.42597826480845,-12.449308057197818,-10.718571516837656,3.996229695855978
-6.488296170810774,-87.52977122276613,-66.30724278728846,-1.7129762077827122,-35.09881146601272,-10.746335513678154,-10.021193946994982,2.2641674786131323
-6.793753162197036,-87.93212487984493,-68.68745726666317,-3.2751429352130437,-36.16095562951604,-10.68485828199323,-11.522961932250942,0.8212241138578659
-6.862306759761207,-98.5637994182727,-77.643675058541,-3.2137139877266128,-42.42004683746028,-12.490044258137402,-14.487306465574244,0.20291683752172401
-6.495118503921121,-115.00060071014599,-89.3637367578805,-1.3490781563850247,-51.542132478936324,-15.603398251205943,-17.60967223870957,0.789947090179368
-5.467849599507388,-129.15179815981782,-97.99988069703176,1.7927433573987566,-59.40578802059166,-18.7045152162432,-19.379367968328157,2.5935963221408866
-3.793074533528308,-131.32934027133717,-97.41072494922942,4.888451379327476,-61.22576491953677,-20.047650124058652,-18.538435196575747,5.112741381762119
-1.9822994158914693,-114.16748564933734,-83.8819968864893,6.05793854000252,-53.54849513368158,-18.2121583497351,-14.647506429626116,7.38842471247965
-1.031108171449072,-76.89361076745072,-58.598875275237,3.5492680944784403,-36.284628940518566,-12.958039959431428,-8.493534981239742,8.331222292190155
-1.9919731523574247,-27.210699737255553,-28.07483160831001,-3.3357397723156486,-13.435066811934076,-5.613741434443355,-1.9678858561417023,7.227917855019319
-5.323535002464384,21.01919560874833,-1.7274754892165805,-13.5762296177121,8.258083667109995,1.379770817242229,2.6914581756377274,4.164604487003929
-10.435528447930311,53.53843889936587,12.34488642044082,-24.515976357875388,22.21102553279443,5.60261434088674,3.9515240367153863,0.08942825139835674
-15.779658874975702,61.8953154605632,11.052408497575826,-32.80917362672696,24.89718883997783,5.8340401329761535,1.731080622619188,-3.5768856516730314
-19.50518005155577,46.730678807566356,-2.615945602401182,-35.83003021816909,17.167521362159082,2.5968188966551127,-2.6060668712813206,-5.6020650711109345
-20.33208350732849,16.54695195734231,-21.634335624366614,-32.8322436201588,3.3765241224409657,-2.210912823466528,-6.9998922505656065,-5.513726878462053
-18.143948566845577,-16.99860335810443,-38.73041160286781,-25.239474569037597,-11.012713807643797,-6.321577395161472,-9.723114589830974,-3.7571432316032776
-13.971977627942055,-44.425176076778854,-49.66365838610899,-15.915227350778443,-21.901374988166584,-8.138848143465747,-10.098190592449868,-1.35914890117471
-9.416597573396345,-61.61510525472946,-54.315625682250754,-7.822770406210373,-27.847867422189132,-7.293786089883652,-8.570214035839223,0.6820466872571402
-5.875260758164472,-69.73183206727057,-55.4310705395668,-2.7999659742810348,-29.80143935458615,-4.562010135666121,-6.230940885594254,1.903196917955479
-4.0092814174110165,-72.70634787503643,-56.208733212229205,-1.056263005226628,-29.810778751396573,-1.34197000928777,-4.174509852819488,2.4886286177070622
-3.6789858884430067,-74.26577746732555,-58.37297759645667,-1.5382262604603416,-29.670775078973318,0.961316601104166,-3.061840391429183,2.9684142515269425
-4.267248377033489,-76.28285140746526,-61.75047892504581,-2.8052535333364252,-30.262848977667783,1.3826165354906497,-3.0453564713603996,3.746185588144839
-5.104425252903853,-78.92976153836788,-65.19116755377915,-3.83138007116054,-31.697179638175985,-0.40257686614515537,-3.9412067013349694,4.78429056827048
-5.7287541631207155,-81.71829551699226,-67.76215125497335,-4.327201044689389,-33.769097015265125,-4.0622172951712905,-5.421517711026947,5.629490642279869
-5.920638194211182,-84.18027420870185,-69.22947341577272,-4.5775257659678115,-36.189856231198526,-8.729108168718465,-7.106259599913456,5.710400925840298
-5.639641538016966,-85.8549423030237,-69.7678801820802,-5.075611806235015,-38.529621436942634,-13.289164793561644,-8.624131934072691,4.675722063872152
-4.996652768816852,-86.22400568300058,-69.58380328220389,-6.218373294408653,-40.226424892279006,-16.824309087183185,-9.748952966273762,2.5752763987700042
-4.248916159401592,-85.11031037605224,-68.93814266142454,-8.136470784701586,-40.87603937589324,-19.01063555926648,-10.553003087751248,-0.16110359214656708
-3.7181760858337976,-83.14711560220346,-68.320677184984,-10.62280924972056,-40.55348816821525,-20.17366720735794,-11.382520113826933,-2.8786425792622006
-3.6204331498657067,-81.56902218205232,-68.2817382645084,-13.166789016741903,-39.777825900044355,-20.910907117517294,-12.58182415056496,-4.9142872216717235
-3.9402679154969937,-81.31744990731717,-68.96190916517205,-15.145207365673667,-39.12075676876667,-21.573278771536547,-14.172159779955987,-5.83424393773267
-4.481222895679431,-82.31451428323794,-69.88621460386815,-16.130230975707953,-38.86322685352709,-22.04644025455516,-15.78852707726303,-5.62978496796602
-5.0567447761615645,-83.58671027585682,-70.34260358021601,-16.136497120731452,-38.99517136653395,-21.988364385039702,-16.940948354784773,-4.761049483691322
-5.645903749817942,-83.9624013698566,-69.96354897189187,-15.63173569718698,-39.406960222256316,-21.24300656905292,-17.350901345634547,-3.971753752893245
-6.384122110012683,-82.60655147382226,-68.92540177824756,-15.304571402321002,-39.95860665948599,-20.02387025245861,-17.07660373074575,-3.9376582218911484
-7.4220080068838685,-79.21374370978947,-67.72844757183915,-15.739340820208811,-40.429048524625664,-18.751781819021005,-16.399288456342813,-4.940811672611183
-8.771291275364469,-74.3033495362497,-67.02161042252334,-17.142068616596212,-40.63469658565123,-17.780874303044357,-15.666040937288436,-6.748190628708449
-10.201884861407583,-69.70603816322604,-67.66162075703052,-19.164795824946058,-40.77610401393019,-17.27781929455728,-15.223251368887516,-8.728671901331522
-11.184487591167521,-68.43414107769759,-70.54872562242967,-20.8552672004915,-41.58487888036648,-17.262654661301855,-15.35939153972392,-10.104306760256282
-10.905320202961935,-73.12975670322852,-75.7857412537703,-20.826999843688302,-43.81670862725436,-17.626022147787612,-16.123724904924682,-10.205738973367334
-8.448432243405737,-83.65419146857037,-81.59092857614007,-17.733941625878884,-47.28372439808247,-18.032429048619377,-17.08797784239091,-8.662550890785445
-3.1908603173460106,-95.76586334221375,-84.15333599312288,-10.942060630946287,-50.28523823288269,-17.855706725242943,-17.321519188812616,-5.514786063991491
4.73527882632142,-102.52716393548566,-79.19059185021734,-1.0530831045169178,-50.18210631488681,-16.3593220346912,-15.773383271395447,-1.2348756025633565
14.219236143265913,-98.04815379088618,-64.54839716837492,10.09903061822785,-44.9536372057786,-13.123203518362791,-11.915518975296436,3.3694626936555507
23.429546061262123,-81.17593994540165,-42.07369961781167,20.09420881338058,-34.68520141663305,-8.436875211850847,-6.212662684057811,7.384923307507225
30.508852952980998,-56.54020371468764,-17.26615540983783,26.927662263586775,-21.8636824855122,-3.3173772786949978,-0.033448499979842644,10.100060604974864
34.35154464608454,-32.147839749585664,3.293182650300087,29.825467023214966,-10.179906992515916,0.9430728936460324,5.003795146303424,11.258607150103506
35.01944508912646,-15.103224946548217,15.168408656408298,29.424950170079864,-2.6060550313704836,3.4325421419443765,7.842384088141431,11.117950794810726
33.5652431547217,-8.247387303707871,17.924881473624687,27.26385268274961,-0.01502191684951891,4.03854749527832,8.431017075671436,10.270416706409355
31.409301081264886,-9.674118153389214,14.599910519361602,24.944216516570197,-1.1574406793810945,3.3687467791699457,7.557363811342519,9.33452641547504
29.676344345144678,-14.889447258067472,9.471729363656822,23.479563911058726,-3.7829933801876563,2.293939377036753,6.2767614156900375,8.70297778098357
28.853937166770724,-19.65369112035953,5.8261656758540825,23.113769449867924,-5.9509529295673556,1.484276669355431,5.376550581553689,8.471716490924493
28.851281567515223,-21.633434179797067,4.996285969082521,23.53788688477265,-6.702901073180003,1.2198208857504345,5.169967391771072,8.529557166706798
29.27583564769781,-20.468854583041434,6.684670580912938,24.235178730193148,-5.997104058880929,1.464923585794296,5.586177153329008,8.694584014990706
29.702511498325965,-17.077212765008195,9.757035308682662,24.750123135028357,-4.336340547725291,2.0185867689004184,6.350448597290935,8.808349799247814
29.838461874157957,-12.966369438072334,12.889576576941536,24.837420286064393,-2.442450536050861,2.6210882675847706,7.12988854363597,8.778913835897992
29.596601951056037,-9.631385410861174,15.038829273591768,24.512068782635627,-0.9845894843427724,3.0411589185497236,7.65790974172263,8.598708921406805
29.09194705118225,-7.9047622918767875,15.837990552243808,23.99412717856518,-0.2932518426576312,3.1780090323571315,7.848821418235292,8.338035956510188
28.548901896810968,-7.555327780512893,15.725557972708627,23.55186189996606,-0.20364119175259957,3.1138906913527746,7.827378970412013,8.098352867381234
28.151292857042193,-7.5889465528131295,15.5641110501526,23.33058492182347,-0.22965265080530575,3.036661425329747,7.813528275067209,7.943290967547229
27.937271649307487,-7.108676577217854,15.966361682082654,23.29505974855357,0.025450782949786865,3.0800245917020352,7.944656547924307,7.862973247087968
27.821328260324854,-5.943548373143926,16.92785532185954,23.319830453949976,0.6018669053800098,3.2360418943298703,8.200980156528761,7.8040774394092685
27.706870465567615,-4.479145393876289,18.076872750204085,23.320660314999696,1.298604352022168,3.4200235278258826,8.491608334803365,7.730335460432439
27.56791036016941,-3.0274629372438144,19.176788390554993,23.297116832457966,1.9778486633394328,3.5921457551705394,8.779820018786046,7.6483429402086
27.430625203107265,-1.5340838175822809,20.290693888483982,23.276183299574924,2.681247758481875,3.786269689879827,9.099897961805773,7.5801154735654634
27.30745814341193,0.1236411655406574,21.512943696198427,23.256282417102092,3.469407246977553,4.030310525034633,9.471678681476602,7.527046999068531
27.175914062473964,1.7856804683025362,22.7212318882398,23.21989327139553,4.260245342735193,4.28273379927743,9.84629460673084,7.470522608378987
27.01421773431237,3.1373149482978437,23.6996001784596,23.171954307529308,4.904221838719788,4.473565711227181,10.155940958074467,7.39854075545033
26.826829261032213,4.115292512927156,24.422552387398127,23.130634881321402,5.376866883034564,4.586688432868112,10.38916167295561,7.315128222054108
26.621959498188595,4.9872621876526395,25.072201392725624,23.083243411825805,5.803136608311041,4.667223396190577,10.585033775744913,7.2224181305383
26.38873742033041,5.982579975115313,25.772647328637525,22.989420951357904,6.280009577589487,4.752367699348146,10.767133544266592,7.111847811032188
26.13047255271123,7.018688753034751,26.45828932235875,22.855059491714805,6.765155513192811,4.837312841775441,10.931178759483247,6.989727815247701
25.920812508759674,7.947913799558258,27.10553460608482,22.786875409594785,7.210162802893567,4.933396543888036,11.11760690474351,6.905526303394288
25.888034050686578,8.983493608013136,27.99423898243456,22.931514461213194,7.749508844910044,5.126980050614227,11.454475352324913,6.930334181808939
26.10031424300938,10.628181421983514,29.532932705451167,23.330970980961563,8.631602257517027,5.520356621993753,12.062103701865157,7.086467758338831
26.451000428615767,13.046566798703669,31.725578769126052,23.83430217812492,9.900858913724221,6.08637166573634,12.884669684948639,7.294909597840626
26.670381886188743,15.606438725869126,33.88777039148678,24.159987687915997,11.198162599107665,6.604981383950556,13.636971795237388,7.401736768497704
26.479758962484524,17.211502401588646,35.023634860556385,24.062566420209777,11.958671683891188,6.786312722867928,13.960399363386937,7.27202550524938
25.781307704711136,17.162476233382865,34.5733633839167,23.486803098090547,11.849198182005587,6.490390745668248,13.677284118888645,6.884015375999663
24.767229018275753,15.734917808091973,32.89152076466802,22.643431443778237,11.04761704808202,5.861391237987765,12.953194179764854,6.370046525287547
23.904029295262962,14.07386453274588,31.168648763535234,21.999791873831434,10.184119139960059,5.2933330065053354,12.28090937074446,5.994021937287686
23.788979721806815,13.713039552006267,30.997072302144566,22.15550246346108,10.091996624617668,5.279802000648714,12.318765173722118,6.065929659324448
24.86933108941803,16.076318831291285,33.78363459404336,23.546763527217717,11.521994749514185,6.2094744282307195,13.616414319237155,6.7847255311525
27.06363056664093,21.835201868279647,39.94246541390429,26.028544112041775,14.760688666342666,8.111562150758909,16.23739963807432,8.037710503068753
29.471204786149688,29.96666228259293,47.95291549692482,28.584120352721747,19.126541791560374,10.40650902448529,19.399898932722472,9.272439326884685
30.45726080283047,37.10913594398585,53.9845601427377,29.478797669808692,22.695482777661255,11.871890617722256,21.437450229661536,9.596456361505666
28.263472354691537,38.34447557412215,52.99812348230333,26.948208021834212,22.809981008694916,11.052453015180298,20.351132960846915,8.154185977649618
21.93016412463482,29.746772611519006,41.336377233335945,20.118284059145417,17.464523095400935,7.060548530781877,14.847291410357228,4.62088279306346
12.000329528701723,11.343662837993204,19.388886544171008,9.615542062348974,6.810452341976152,0.31312308847639186,5.286774295557991,-0.4899635753746755
0.5040560046897038,-11.774362213225176,-7.645616260606977,-2.5439623530109463,-6.366808513898075,-7.36866559127264,-6.1420512490518995,-5.945834179814745
-9.868748639049699,-31.46064937695576,-31.816852195621397,-13.776417862429978,-17.77330540647299,-13.518116211759873,-16.28909871491236,-10.329932678375302
-16.978466164657117,-40.67638818469743,-46.27292112984856,-22.020558259164357,-23.775954699223526,-16.265525290909206,-22.522385546052476,-12.70745550747573
-20.13765140457851,-37.20694892950545,-48.5660224703991,-26.497552042753068,-23.266600558591456,-15.307495025674099,-23.954222596700014,-13.034484474956272
-20.207756398845653,-24.540455213900838,-41.405200537161946,-27.767466468775375,-18.037245260170387,-11.979009275024616,-21.682977008581936,-12.069951963063245
-18.91414256392364,-9.446351370846315,-30.571498844664916,-27.16222202227342,-11.489933134912516,-8.38379589848151,-17.956247994421968,-10.867622406374617
-17.87323076324955,1.9626621646723963,-21.56993966177903,-26.02385493632981,-6.626139171774211,-6.1655915422171805,-14.850468716132399,-10.187613572362027
-17.916518380655653,7.030577289430402,-17.208079188430688,-25.184532899826564,-4.657267396735835,-5.716222332038923,-13.30498605761821,-10.182856165239526
-18.99494220888187,6.734448442905371,-17.26936015021045,-24.857153790413907,-4.959480429529499,-6.253880789930914,-12.994633816613492,-10.489275448139807
-20.54105696245503,3.8755062620612213,-19.786384884145306,-24.832032672734744,-6.03546391887307,-6.571753518962134,-12.907167840053022,-10.576427184397547
-21.956582970517648,1.0920935942514989,-22.574152432430495,-24.777804302333504,-6.574835340842426,-5.8656716774827515,-12.113646695291406,-10.098578350914325
-22.943803433702413,-0.08870937108119563,-24.12967860598108,-24.485887340495065,-5.985216021887496,-4.142969789492506,-10.282866008139582,-9.058619825627387
-23.567312842149065,0.7431024875600849,-23.892485919747593,-23.962837385628816,-4.3890695186005235,-2.0904213588613167,-7.781831209137221,-7.746820661730421
-24.07626251000707,3.1734608013499006,-22.179562910277113,-23.340839343598486,-2.362525893791617,-0.5854268018617109,-5.424196837963727,-6.532609831734201
-24.61323810820491,6.3242052167674565,-19.855870795985243,-22.680303588777953,-0.5630227229160867,-0.13854015055878888,-4.015320999545122,-5.641204829721462
-24.998739055540188,9.401116418466572,-17.715430921038855,-21.836898832257763,0.6969147411627321,-0.5469287553441786,-3.9039107138993403,-5.045777246422349
-24.76166812712032,12.227220676317856,-15.908938749192416,-20.53770649837148,1.7078609302560759,-0.9722864684123089,-4.793448385970991,-4.541950965316233
-23.433402333206686,15.190953688683093,-13.967970893223958,-18.629617348656055,3.151299241755887,-0.4638675026874024,-5.960395082874769,-3.952047394933664
-20.912585040061163,18.470922064274838,-11.497625926784119,-16.286312979034914,5.455024733823904,1.3614867939627247,-6.7469109353218855,-3.3045860299381604
-17.62809930047918,21.303254003355523,-8.857643405080234,-13.981012729142043,8.24708266285488,3.960100381635265,-6.966912233486418,-2.847135928515229
-14.377373417465789,22.236335156829192,-7.067110458038609,-12.243401304984378,10.467732349706242,6.123616817493174,-6.9342730646049695,-2.8858732450866884
-11.967557301928702,20.341276687455306,-6.958835282739895,-11.403320021041552,11.11572943369685,6.697943657897698,-7.147150726216007,-3.5859962533492657
-10.907463711864269,16.262346432542717,-8.40367706657111,-11.50072024188327,9.999363323286929,5.24204507723865,-7.925399948881594,-4.8840110262080625
-11.304584452696917,12.063738505039938,-10.334568423196172,-12.367305511885048,7.875064030371253,2.189451172600831,-9.26287992052207,-6.552041982521754
-12.945261152681097,9.953874172520077,-11.503021129911705,-13.75903975582156,5.921569016435194,-1.5126238744244473,-10.917999762599942,-8.332409920384762
-15.445965235930892,10.86391942299304,-11.333332485362037,-15.436489250225936,4.983365536274345,-4.958801670620975,-12.595758163032595,-10.030505590161944
-18.385385202169363,13.717831385344793,-10.375827837101777,-17.170385503901677,5.0287770986595355,-7.6740868119743455,-14.090217500780382,-11.511164863819198
-21.373005267531155,15.601564367513781,-10.24309065964115,-18.691389240628407,5.034260606398698,-9.673139871708473,-15.339119966518936,-12.619438032585833
-24.034683214757038,12.816139952247198,-12.98148263755075,-19.621627762317956,3.398647926233968,-11.224971161437807,-16.365403805855678,-13.097680302432982
-25.942472077757902,2.879897899065395,-19.780995127177537,-19.47865281477405,-1.061199209454688,-12.45891987276921,-17.092383866765026,-12.592723952229807
-26.598223014731996,-12.9187022131522,-29.342494690354012,-17.876668810082847,-7.814134427101303,-13.015175658141017,-17.124450589293776,-10.821665983930574
-25.599245747295523,-27.90486395504179,-36.99869616508183,-14.934628240913696,-13.837024885389198,-11.987735363951622,-15.716836476506781,-7.861392438121997
-22.972363121514967,-31.28941925524992,-35.859457308866396,-11.644426302493168,-14.291933187813731,-8.317382356396617,-12.111130959310536,-4.380336287795274
-19.442583348733386,-12.936892158107005,-20.1420952827035,-9.795515893822135,-4.829533396373155,-1.5137525608915499,-6.127528298173732,-1.5722829683889408
-16.335503528700364,30.359227303596754,10.909757360483875,-11.243954023797865,15.552570570490108,7.71277229863317,1.3881076693701306,-0.6935563845005925
-15.027157696870756,90.85573475539245,51.02324413514077,-16.798492387862108,42.87462850641047,17.375090356634548,8.660783689923342,-2.3902946655698782
-16.206149332228538,151.1520134133477,88.47840045358303,-25.398585287414377,69.04765247857893,24.856884969135834,13.682466941362115,-6.215603872012536
-19.407138568039084,190.9443040946999,110.877411117423,-34.21591345772148,85.12249511664066,28.003573077630033,15.147926553333148,-10.686437844877016
-23.146656077477132,196.1271615963087,110.77200189762218,-39.79901754369842,85.35759136190255,26.08612574027279,13.09085709281502,-13.925356771374929
-25.63318084701985,165.51057060555277,89.18541469857198,-39.73049263326389,69.97013011759134,20.110647334383593,8.841104789580234,-14.573495605733227
-25.67718568943463,111.43425777369663,55.072764930717625,-33.902984525565074,45.039938656183466,12.289762645969015,4.305068869162264,-12.481864527700935
-23.301559232170785,53.73812945038855,20.894348351755596,-24.676499637814764,19.526568725606005,4.948400732992679,0.9552704985367197,-8.795717405722709
-19.705273340002545,10.203452011399689,-3.379313100627223,-15.765651164535639,0.9550057197986742,-0.536714453386168,-0.8997126173272346,-5.36989678259751
-16.570677348991957,-11.36466114435558,-14.553248436384626,-10.388644730672809,-7.879864846184466,-4.162041876387214,-2.116352482906812,-3.805771819596711
-15.061486404938009,-15.119847675332068,-16.413124172160867,-9.624560605134377,-9.384924739142955,-6.845977281002903,-3.9416523761397304,-4.600004085937043
-15.064074909089863,-12.436781025969594,-15.913775521587203,-11.856082846666714,-8.690780512577298,-9.411038792847657,-6.912324470481531,-6.849593641290631
-15.145941259401871,-13.759787141810907,-17.957483150916637,-13.631881711759618,-9.92611814023183,-11.707238401329386,-10.161377879681996,-8.685251291147202
-13.324014318084107,-22.30572038567,-22.24009756989092,-11.516619188311392,-13.68036713191951,-12.518761304684428,-11.679464046865649,-8.22641568048079
-8.23688020700945,-33.305366451052485,-24.095269943532323,-3.928664374924107,-17.161536925975803,-10.354466402289463,-9.460685046410445,-4.559669992654029
-0.02700018971162338,-38.52164011037727,-18.401152484346518,8.03822978189325,-16.636675734218983,-4.57783119754812,-2.82334605104886,1.7835296582663938
9.611015187511155,-32.39313944786776,-3.5805995103963215,21.222224278427305,-10.258002761615899,3.926538262406537,6.974754116017345,9.097681886194344
18.251256802958284,-15.602171249003064,17.06136160477626,32.02231953375855,0.6589653110397987,13.029173529276601,17.258734083476792,15.349820263885736
23.93300396383233,5.821978739339032,37.31835865432695,38.103845618553464,12.557825356029806,20.39933686733609,25.27999819413573,19.12074043399357
26.03745026112617,24.503177007021126,51.69561440651226,39.28876414556467,21.843314712728475,24.629093718334047,29.53915242525216,20.146858540939544
25.390296934853136,35.606527475654715,58.04387776027239,37.29825189078587,26.695239962234737,25.731160993924263,30.297178292854476,19.24083318947056
23.636295206920764,38.12316995468605,57.652865594362545,34.67843008722117,27.36997110672516,24.77500312584202,29.058324194787808,17.73467564643967
22.339155929906795,33.54640804040012,53.32681196292263,33.579809224168784,25.17872775819754,23.034248057049506,27.48753249030942,16.80983529885556
22.31345169655458,23.94330882658559,47.33075971368316,34.93739088277388,21.286352098931687,21.29693919444817,26.512647388406503,17.04181781448036
23.42837664598054,11.264718919475,40.69067273303245,38.236677202402205,16.305262373446507,19.739394899126843,26.084679104928462,18.281092727077937
24.811026871062626,-2.10841842371373,33.78488179088815,41.78639604153417,10.68649526604626,18.24734520668468,25.52884790453886,19.808634973421118
25.25277054409141,-13.027153454211414,27.08599016098391,43.36293172077847,5.167347368457115,16.758776385336116,24.08538272185781,20.651041532999308
23.671289958212085,-18.51860077261922,21.183962919541806,41.0846147104439,0.6708208472714259,15.322351725987888,21.297823913253975,19.96359589706516
19.531719220463145,-17.531649865468946,16.24427870809569,34.260713990236326,-2.2538143596387914,13.910721572015603,17.1554176885292,17.384718814902875
13.104004488188057,-11.977624619642336,11.662966557132755,23.82804799964125,-3.8805954554109694,12.250074551175171,12.055953313747088,13.223869161180804
5.422459592609726,-5.988884358461653,6.408628566963429,12.068116168586881,-5.197159584679213,9.876852069446285,6.662300741818705,8.359240410251205
-2.0810354631400223,-3.706482329749555,-0.17093565422971863,1.658068040503738,-7.284298266432951,6.413804365102184,1.6889309636341276,3.8508981129701603
-8.118075605865071,-7.071205285680154,-7.769396341878512,-5.4710777902493,-10.653750824215455,1.8645008381623227,-2.340358976720435,0.4545043274398439
-11.990231891678853,-15.109878789918557,-15.299640393576079,-8.839435572540847,-15.026555294367686,-3.2955274172192106,-5.277122474999495,-1.6868303168875622
-13.717382301907119,-25.026440451558887,-21.674574770072542,-9.311514533343743,-19.628641511777193,-8.284991821735748,-7.355248943900289,-2.97980984513232
-13.81593552889002,-34.00689269084531,-26.447834808323538,-8.3145777116215,-23.62777501163932,-12.292560640782407,-8.956288242163428,-3.984204566753186
-12.91267425106339,-40.32757419067797,-29.73413244484418,-6.932759176764854,-26.313936476720322,-14.683245825985331,-10.24675190750604,-4.947328783677848
-11.462119379927268,-43.368336307907576,-31.64699230062986,-5.443073291295797,-27.060147002762434,-15.109175070357955,-10.972215632621065,-5.592286427963471
-9.708251499388615,-43.264901127977154,-32.03801249805818,-3.482101486962737,-25.44004879756512,-13.616182027413807,-10.637472410297416,-5.3093329397905595
-7.807934469928666,-40.90330709366505,-30.90286372587737,-0.585268641513719,-21.645777663660514,-10.753985324885752,-8.983841330336329,-3.6175889456866135
-5.928166448844041,-38.00086425351479,-28.91812763153271,3.326366514209438,-16.80838684802001,-7.538602102026649,-6.374810800624201,-0.5876625502911648
-4.231855677358447,-36.55636420541936,-27.32220179282683,7.768448802714018,-12.70167209845333,-5.140519506109355,-3.7451001268441226,3.036021414756883
-2.834381036178138,-37.69067138366575,-27.100181410542135,11.819019220788261,-10.860266313316776,-4.410037826733896,-2.136183199783891,6.073574070736386
-1.8379853568093731,-40.86627196755464,-28.2671836488726,14.422716574274926,-11.76403823825336,-5.535104057603958,-2.166292020198306,7.382116665757766
-1.4130399624423904,-44.326228150174046,-29.953980573214743,14.76962002921246,-14.710439751324628,-8.032472161765869,-3.768902292219911,6.354620943283214
-1.7843875905770799,-46.42235864796269,-31.144611439493506,12.653681958409885,-18.368999463663854,-11.00855070814373,-6.272635192633333,3.240173333527358
-3.055538067211082,-46.71501996543076,-31.35878259924767,8.664877399701059,-21.513006337876323,-13.486110955291506,-8.69700565129133,-0.8671029881857384
-4.988471310415915,-46.169776386204354,-30.859984886604668,4.075556891861653,-23.50790374698857,-14.67878007173461,-10.131348221451914,-4.407281589864094
-6.937447525572044,-46.68514904570813,-30.515152575484795,0.4277229343575264,-24.486706526301774,-14.214913295362702,-10.101102820648684,-5.963956433240857
-8.021866465621429,-50.35719533773442,-31.463762986662186,-0.9936870423014791,-25.23260564896187,-12.27711067961535,-8.773362943967355,-4.827043898273166
-7.448929002003881,-58.39343569066806,-34.44522815345792,0.4168667726699296,-26.658791283974175,-9.522396894888779,-6.823836990698068,-1.2494582500938265
-4.834820635247526,-69.60196798374305,-38.77815732765018,4.364266107366899,-28.91432976416964,-6.717122295227216,-4.965557098147908,3.684906030999215
-0.4265225999068128,-79.32463597583924,-41.69855795574064,9.627258237940687,-30.653302872021502,-4.280793729982165,-3.450767610138635,8.46459064065571
4.833598413823664,-80.3423875474452,-39.092996872867374,14.258709369724375,-29.27076694070794,-2.0999433863753083,-1.96509466380754,11.629365585308616
9.478546965764627,-66.28125851751474,-27.792315000852042,16.099682497299266,-22.35170375337794,0.20473304964266487,-0.03729207146733306,12.179910424079385
11.973110501197336,-35.841885915445275,-8.090263251442881,13.579281415598814,-9.514343122586409,2.773469658495556,2.3761473765246586,9.848353916678978
11.343343093409823,5.128898327938525,15.467096318723295,6.496082633267653,6.726769501302826,5.207229207999018,4.649929338938484,5.179052673114547
7.673907691381339,45.606930258838496,35.9233512854929,-3.6884467171102053,21.87446222886149,6.742653341354455,5.822139528605916,-0.6305959742591013
2.153628014931136,74.52060783730349,47.38274460348544,-14.331480755997683,31.663732408344053,6.770646575601143,5.248728826694216,-6.121691353551184
-3.4165395093969466,85.95438252903399,47.922955268392926,-22.696424387051557,34.17584611975199,5.2939394042999295,3.0786587059150365,-10.075381368477684
-7.412127942830065,81.3358337445711,40.17432441302368,-27.083445329430184,30.553113480688168,2.9794461743698366,0.203905903771041,-11.916306872559607
-9.045365027675649,67.60141529494072,29.401430209924538,-27.40267110449741,24.00324152705122,0.7778065918390508,-2.259631997632176,-11.833864246114256
-8.556355158959366,52.926437416084994,20.526021503144197,-24.934801035023497,17.90010252946296,-0.6003019086538911,-3.575499296518962,-10.57418527325403
-6.887977346498297,42.86064754471632,15.999905240727559,-21.508369691434044,14.239801562359137,-0.9856468816057351,-3.67263428220874,-9.029123687190063
-5.101085007449582,38.87429933187813,15.531765398239052,-18.61930447192407,13.234043610613703,-0.6766379148531616,-2.9960890269186917,-7.84924088919587
-3.894366051828236,39.31109831715748,17.24465411549319,-16.947873105494313,13.901944659475143,-0.13714554919608804,-2.131332081667938,-7.266172382948098
-3.4476831216388812,41.31695910031264,19.090744802296435,-16.391225351771258,14.954067891013075,0.26830702259756484,-1.5041415333670154,-7.157418192430417
-3.554198692779077,42.39174614663161,19.6954617986878,-16.41238064391023,15.399362309277258,0.3656187878731357,-1.289780474260525,-7.242113995453917
-3.8573909285717805,41.160211075748684,18.58311540472398,-16.4220062593697,14.78016732514584,0.14275791442096955,-1.4593967582005944,-7.26254659272137
-4.041628574185235,37.572034948612995,16.088472413050827,-16.028567255580082,13.189267438940053,-0.2958077118154051,-1.8513201412547926,-7.07719473619501
-3.935798964058914,32.66399826990656,13.081977099732166,-15.133390298386916,11.13595115201907,-0.7749052050554834,-2.2456066568353683,-6.674347048612958
-3.545150508291567,27.87330317178255,10.48593331027097,-13.89706667953381,9.24024243664111,-1.1303944701600124,-2.4664929642383666,-6.140784570476733
-3.0146098275931865,24.16702724186571,8.754340295645994,-12.605363480843343,7.86650162611092,-1.304983960810629,-2.477311627841991,-5.603988729371983
-2.5280845819040225,21.576084411168782,7.692056255930678,-11.494176057502559,6.956426469702346,-1.3727450250665822,-2.383267024535555,-5.162893353317208
-2.195381330024087,19.475242827865728,6.769327960999918,-10.633675390460203,6.195349509268642,-1.4565740564149592,-2.3256309311627863,-4.840256087677462
-2.0061970055919427,17.261437062262882,5.611371022237649,-9.941323596418087,5.327696076032199,-1.6188547893066407,-2.366689299162461,-4.588678720164932
-1.8787924902840216,14.746113828032147,4.1916122216626,-9.289458830797098,4.30787126704604,-1.8355406514112025,-2.4746685275225397,-4.342152043636057
-1.7438931938729605,12.001998353381648,2.6349856691031786,-8.599810820986697,3.1964794818114033,-2.0623574696850615,-2.600371095999534,-4.0649641025553045
-1.5822887341633078,9.046186525229356,0.9730773786008018,-7.855906458532894,2.005313401767221,-2.2971194159912636,-2.738732053780594,-3.758818335417195
-1.4009831557726369,5.81415788183831,-0.8424295727882012,-7.063749962294775,0.6984674058723741,-2.5649924493186145,-2.90889883570054,-3.437560765244889
-1.2017681351477365,2.3766006558290953,-2.7651006278291668,-6.231562666034891,-0.6958460338022311,-2.863965200659777,-3.101750259647046,-3.108513913291083
-0.9856404909086514,-0.9983913350247218,-4.622512945039108,-5.385298053246295,-2.0588072986839623,-3.1549475075819204,-3.278244141629654,-2.778187541293514
-0.773124583925824,-4.07932588161123,-6.291733732510333,-4.574763529015906,-3.2944455307294715,-3.4088489677511697,-3.4189862000431765,-2.462305193728836
-0.5964940848050962,-6.890787515831867,-7.828915852156505,-3.840723182327178,-4.425408251322593,-3.6399208191350305,-3.5489960756133976,-2.1771445969084295
-0.4652228959735332,-9.61638510436873,-9.363698375338846,-3.1770560752338897,-5.5362294443576205,-3.8772076001084126,-3.69908526852016,-1.920930273749067
-0.3517311982363633,-12.335034672393487,-10.91315695441834,-2.538319245540298,-6.650201101006583,-4.118395540894798,-3.8599701738263947,-1.672571319076005
-0.22260069030548832,-14.983866022043852,-12.396665202591638,-1.886377431484002,-7.725746806112477,-4.338759206793565,-4.000161448060496,-1.4132467590936295
-0.0793179686564897,-17.615328947518503,-13.849611332684017,-1.218969030952201,-8.787663971349714,-4.549230893419182,-4.12934944641123,-1.1448462714191237
0.043129193755687655,-20.563105913581673,-15.526897524127996,-0.5495276898239737,-10.000075784187539,-4.820178897011867,-4.318120878899176,-0.8825846564153622
0.11865208562277765,-24.19069735820203,-17.690857387805394,0.12497756853293668,-11.53633219073562,-5.221494589406858,-4.632942744054651,-0.6332825067039854
0.1609963158182033,-28.424439389023657,-20.277028860200122,0.8165609393975342,-13.35780619671605,-5.735350366124889,-5.052718563057401,-0.3890950556212258
0.20807919324438376,-32.5930986835215,-22.812463177806187,1.5064398735624283,-15.149053329695823,-6.239100699119883,-5.460916998640831,-0.14407606044450746
0.2843999615203083,-35.80083059091214,-24.6991689404985,2.132296343806069,-16.50004669433266,-6.581482697923045,-5.7230308620763415,0.0910559386689856
0.38758081752536055,-37.528633093667,-25.611797570988717,2.6343784386113005,-17.18017946558474,-6.6827090450700295,-5.77436974105025,0.29837991085258536
0.5039941308709351,-38.018290115924515,-25.72098409827329,3.019126210515026,-17.30300894699976,-6.586775129543578,-5.657091717543639,0.47579195897901094
