FZ,C3,CZ,C4,PZ,PO7,OZ,PO8
4.343586849517125,28.45658804306025,23.01561730734845,4.299225493727717,17.074743773458685,8.921034930400479,6.0996460870329,3.0841439672345983
6.139194583204779,-10.579293579012528,-0.6598923362137759,11.978257039942962,-2.0608718486740463,-0.42252185311262114,0.9455511068210736,5.023075157833377
7.778495528774523,-39.04800062954231,-17.733967058054375,17.903970097767264,-15.550684653738113,-6.963540244091524,-2.066333943538791,6.952179795413324
9.10396069151612,-51.30034738612908,-24.69855478536749,21.14294327336143,-20.339878833224617,-9.071767994946564,-1.7040628134994071,8.904355844885075
9.989095795601962,-48.44572283721273,-22.28241696075455,21.91647212884031,-16.983519709649972,-6.820309310706185,1.9254664303188154,10.92796288479004
10.39151808922624,-36.46638834243437,-14.269123723887851,21.284444187984153,-8.728351762250064,-1.6875967270065846,7.565936504983249,12.987781993633902
10.392205648403051,-22.468031693987726,-5.156294095000507,20.45494474216652,0.45040261655914404,4.279082552827911,13.41866357779636,14.882890883623723
10.200643583888384,-11.583506173063952,1.804066984596788,20.193902168391205,7.583075640923995,9.339599786716184,17.840948857053213,16.284994598012915
10.116362141832022,-5.771398002867116,5.429593719320392,20.639843788427488,11.495435082128084,12.600397212086014,19.88712115623758,16.9072354833966
10.423223953155855,-4.230750635766527,6.404776035060778,21.472668616937877,12.669983664304258,14.076605308461156,19.54050347697761,16.68287714788923
11.207660619872494,-4.655163318453194,6.4267808454283575,22.175042194529418,12.512938223157906,14.325576560354566,17.549258546650705,15.797428121579559
12.178276582915789,-4.779801871454859,7.034439806720893,22.20492199608346,12.372829757981583,13.85919857498377,14.913965932522052,14.531050046706984
12.648851341048676,-3.7224994938154436,8.591696046589284,21.098794401984744,12.70900390634703,12.683548084978291,12.29588075057739,13.03469298095496
11.798036226129403,-2.420927531022708,10.048293359971662,18.596511277056127,12.866947034604213,10.30409057870369,9.729286007801816,11.226934896170636
9.121132017818885,-2.753695849252581,9.745200049965597,14.780389571021464,11.6583881445634,6.2481407715587265,6.838978782526934,8.900996331646379
4.805055267072917,-5.90153439277583,6.724040103844587,10.126096780681243,8.36889523314309,0.739171615606188,3.379093023832285,5.96587584788567
-0.2298067409744343,-11.239807181139026,1.5271795600565043,5.402348264503538,3.43771522730865,-5.023020808001486,-0.3414854856646292,2.6512303574489535
-4.6668727025569785,-16.626424768222456,-4.081602009791442,1.46376462513185,-1.6841891188175877,-9.25879729394412,-3.473008490423901,-0.4651149995650951
-7.3291560143487375,-19.711989609501554,-8.112245552784273,-0.9823381217138832,-5.3145239954238574,-10.466697394641043,-5.057726006889277,-2.6454765586175992
-7.653907913626877,-19.152156613247826,-9.240235040011974,-1.595868702120467,-6.350105956557713,-8.217908760818082,-4.589881562102673,-3.3261270732776023
-5.914131242143131,-15.015643916733259,-7.151824856766235,-0.5776680146503621,-4.6639032310218385,-3.4462884884311222,-2.3818352078440217,-2.4428047542391953
-3.109384251250077,-8.550270371598584,-2.4931506448314327,1.300922452435271,-1.0692129658590976,1.88396881565702,0.44984676120183953,-0.5618383664795745
-0.5581580594725137,-1.7416267580288682,3.3217861932504893,2.927100785518321,2.9834047754484736,5.560459514262581,2.400895622283242,1.3053007955497988
0.6570213093010594,3.2717327517674577,8.485653052899945,3.309503797785256,5.903400344235715,6.035269138772161,2.2583905177256893,2.157181144632228
0.14050329778232412,5.041328926836684,11.466788672076932,2.045978047891695,6.599716536481109,3.106028951625033,-0.2603513000613142,1.4973588391156076
-1.7028382184531092,3.6097435446508803,11.725876686626279,-0.4868196079138132,5.01433999142613,-1.9478458124212426,-4.272710581715366,-0.4124578338299898
-3.941711027382915,0.5961964786805592,9.959225889584653,-3.3282744688843406,2.182605857245319,-6.88813358554477,-8.090996290757046,-2.682244047474882
-5.597921257914889,-1.7063561470248976,7.63500487455815,-5.3741591818695715,-0.2987120424691655,-9.489331238247306,-10.014221172555157,-4.217681294205438
-6.054984608208566,-1.615904938589693,6.174972634158541,-5.825729572061923,-1.075765937396761,-8.48925536357447,-9.11235000466939,-4.203843165913169
-5.225318838176709,1.2246755327122563,6.354923473884324,-4.486817658864476,0.3804030671158466,-4.064451593626861,-5.594923570269275,-2.432326915848164
-3.4822301074595408,6.059905132496557,8.16662858362234,-1.8483796944237967,3.66772723845429,2.3402177240357767,-0.6432816718221727,0.6294314633143365
-1.4537850571402835,11.696879812364234,10.984206563322322,1.0704920502032755,7.729821417114415,8.670012769149935,4.128139605467558,4.0223341881766554
0.23217270912429594,17.03252947179891,13.848887455295246,3.1221724185024113,11.306730252459051,13.083155607354312,7.312515583872524,6.661612282283057
1.1748657688573794,21.302362061133465,15.865165244546825,3.540579843864365,13.42435892791718,14.624431306114982,8.225435065883786,7.755191430942628
1.3053148430385106,24.249115290798823,16.664819197441364,2.294596083705998,13.797047709237228,13.518899613078224,7.128409993543445,7.10485496564072
0.8036054541778649,26.208589361816905,16.647995532846398,0.055161802136945964,12.932443944319129,10.971215745808253,5.062153175609156,5.153978682629728
-0.11474833255212386,27.865223248441975,16.703147973466333,-2.2066245065690437,11.790015030728236,8.543532696609308,3.3321155591675646,2.767846994705584
-1.36518495366077,29.68798390973631,17.545152836183753,-3.71837741730106,11.164154845246118,7.411171151360165,2.8888711050731946,0.8679196915130497
-2.9614991193067737,31.54408365744679,19.244962634171273,-4.198409771980045,11.249596261016762,7.894742639476778,3.9413724169415496,0.09225478735400425
-4.817022874408499,32.95072099646384,21.374299019468936,-3.834511061651406,11.72294282204042,9.502760829943135,5.998097745199173,0.6033859914488948
-6.582847693073256,33.74216947349139,23.546010371866643,-3.062338682642445,12.19630923509864,11.378485779374303,8.239721221071035,2.0802379178760035
-7.708239517531869,34.40336033365476,25.727811720051132,-2.3199243329811345,12.566661353648664,12.803554213228582,9.938524102635109,3.8739057917848876
-7.7182432892030945,35.66052352429792,28.020707905058806,-1.8845298586763641,12.958937844898385,13.459544655307434,10.69915833869371,5.272552863222773
-6.524612151506109,37.76421546461555,30.23537652131214,-1.8217975293047968,13.424300914483405,13.39846137456212,10.493475880295687,5.779184337506979
-4.566028365818121,40.23544531842238,31.805512875388654,-2.044971679809756,13.778241590136021,12.86860777317949,9.583947830330034,5.278020962140144
-2.6919220010337668,42.29012386871605,32.151273781695785,-2.4462982493439616,13.741342357728255,12.144569234562818,8.402926965898999,4.006396949708502
-1.8420883417302332,43.42772129457663,31.112188780829733,-3.0082226307027073,13.198507692264114,11.412051058424243,7.393964731741337,2.363898425489815
-2.6553831842756224,43.63162666916713,29.073485845808207,-3.7988624158995146,12.3238701638844,10.715045953840672,6.843227471655212,0.6961087290944453
-5.167551828827649,43.20464828645739,26.798219043992095,-4.851537385775218,11.527792641374765,9.993236475637417,6.791576309554645,-0.8076723658873245
-8.742029274849221,42.62673026082804,25.197952772718736,-6.045890772882073,11.339410523697058,9.213006298009299,7.094376494712045,-2.0693689303289364
-12.296134391523958,42.551412516899795,25.113942495868447,-7.118495475335112,12.267712407230206,8.499014033923855,7.573433592550564,-3.0149653337904954
-14.736849259857923,43.66536629815134,27.006283311050368,-7.809790906327579,14.583115338510778,8.128143667499137,8.123361252623337,-3.5211399909350427
-15.387684296621073,46.27643184439613,30.613250558153698,-8.025511884853918,18.064146542703202,8.354332713110214,8.700027149300956,-3.4639986888851984
-14.189415240050993,49.99332334859139,34.920362108442866,-7.887640941331945,21.941614632578677,9.200626782208769,9.25165922799973,-2.828170253328731
-11.612916625397183,53.94324234602771,38.664139402083286,-7.661204826195784,25.216778736739442,10.39466242066178,9.690756911459241,-1.795111080647838
-8.4014739516482,57.40682671932538,41.078624864377225,-7.634387991656095,27.191831442709407,11.491739144543349,9.922394778946318,-0.7460380998360506
-5.308692373442791,60.24181603922137,42.27808649630815,-8.013335796147969,27.810206109618825,12.083855203032838,9.878613090622487,-0.15218672397390604
-2.9102275395345303,62.72077876211538,42.997721090509685,-8.832392133148101,27.57735945823997,11.981038651775535,9.549218440095828,-0.37000489992066105
-1.4814370416112324,65.11680191410363,44.030213654553386,-9.886651585958656,27.22707342576944,11.326103665509129,9.054545953521052,-1.421460710833703
-0.9480197503962305,67.59441190966889,45.87362419766221,-10.75842103285871,27.44382145568665,10.622561259677578,8.745351849634892,-2.8951331427106757
-0.9686631811216041,70.41301677877706,48.69256587057414,-11.007478458029244,28.719736382296453,10.605572559577451,9.190363701155459,-4.081695603100622
-1.171128675890864,73.90553416401919,52.292192977398514,-10.467235327072219,31.18685203063384,11.906557793454207,10.91976970225687,-4.325617031514288
-1.4344334022544383,77.9465530448636,55.940269722220386,-9.452551261188987,34.36922862306318,14.622665669254216,14.002366308330643,-3.4144240891268014
-2.0306789198556605,81.3842189323366,58.298030851831236,-8.706036882575233,37.08637622100243,18.059029497870554,17.7505366517879,-1.774571045658398
-3.5166821293195634,82.18134186446486,57.7924906710076,-9.090769906044397,37.7714472959163,20.865289353462483,20.824148787851943,-0.3494980521660089
-6.433354158413284,78.41351476493537,53.35024317574656,-11.205098500965033,35.14437481724608,21.544198599637905,21.741703102411332,-0.21273503816791103
-10.976827857479753,69.51176848387125,45.05348786860905,-15.108623363431281,28.876702642911127,19.088238405865518,19.546136195014366,-2.0919783585381033
-16.789706944999075,57.0231802444093,34.39262670793862,-20.25072594833989,19.92833421117943,13.469235757866434,14.308329507072179,-6.006057794885438
-22.954583012199343,44.57768222477726,24.10022801919024,-25.613429571136113,10.474156406051161,5.806299602034058,7.2485890988442705,-11.17597005925193
-28.223294948453752,36.99427486710997,17.558202857376738,-30.04572047806318,3.4129903611261203,-1.8818777484930056,0.3827519917778923,-16.28094975940514
-31.453782858659395,38.40552660467695,17.5756658443183,-32.69788182021161,1.3726573525578605,-7.373537018795946,-4.264542091499954,-19.983579531495117
-32.10440539899133,49.59049724000311,24.569168346607782,-33.35147782409574,5.2845420588533365,-9.24595540223074,-5.626535885914247,-21.48766129361912
-30.52034160138446,65.7133193504944,35.01287046796264,-32.41757552814375,13.143753298023073,-7.744655703882137,-4.263444259047714,-20.834553989449578
-27.788973172081402,76.45797504105545,41.63357557497628,-30.55925753782443,19.985932052666524,-4.933255700728724,-2.252438292958789,-18.77297483320511
-25.18886188425277,69.77150150223977,36.17628834840842,-28.18663362770313,19.705523660812243,-3.822967555447638,-2.194381328068668,-16.294457508919685
-23.54682192730597,38.01639049764642,13.750356549481939,-25.209159723459255,8.1169250583138,-6.825577505730715,-5.813799575668618,-14.130335221752638
-22.903851158924926,-16.940719086375474,-23.79958268963646,-21.25033984408625,-14.469047629832746,-14.408284572011846,-12.97423761700338,-12.50475143195844
-22.682855247323708,-83.21696260418632,-67.89395803859038,-16.16114577890022,-42.8861095734629,-24.79111793444464,-21.728611564099868,-11.23991832232724
-22.20425494475753,-143.87778232574664,-106.97692195851768,-10.417604447497869,-69.41153248394194,-34.891462765233655,-29.38015187705227,-10.069288978634635
-21.172458168202485,-184.74644435656373,-131.95140652950386,-5.064652396787041,-87.44964518383621,-41.92779723363209,-33.89165568154564,-8.903782507640443
-19.814426001982493,-200.5169284638453,-140.08030366133954,-1.2137063715972216,-94.42557718346767,-44.705852636802476,-34.79226951360162,-7.878731093512995
-18.63394454801263,-195.77603604312984,-135.20821848825446,0.5548536934939868,-92.29189807712042,-43.88785775385804,-33.114506904548875,-7.202496454665987
-18.026936029301616,-180.95851777851155,-124.65090485090177,0.46267258565019703,-85.68392840222505,-41.26499322550171,-30.5617097183671,-6.972604815050134
-18.061754392003863,-166.39954948926467,-115.13750737367711,-0.6832259493957454,-79.21441621540613,-38.664680307160914,-28.556929569756104,-7.11267821911076
-18.53502461688017,-158.18849256836293,-110.27518658637918,-1.9858665605722152,-75.60596132115214,-37.19152244765472,-27.74242705197659,-7.447064987891337
-19.1695008125756,-157.40725541217273,-110.35455051955117,-2.8629671041473426,-75.35204825096756,-37.073930996593894,-28.035256681938574,-7.812233872762442
-19.756568483870524,-161.75380392729528,-113.60187313852323,-3.151640021079142,-77.43042840558388,-37.923703089015895,-28.958153519650374,-8.109720908039497
-20.17969063847683,-167.67328432944092,-117.59563103240504,-2.9831109352050507,-80.23599348518775,-39.091431516802714,-29.94828848600796,-8.297024631624918
-20.3939617338056,-171.98328241452217,-120.28512059152779,-2.614059294476531,-82.3097356741742,-39.965219278566096,-30.56094716417354,-8.370083958338562
-20.42812449750556,-172.95300751187892,-120.66127190945139,-2.305734006641873,-82.85008549189159,-40.200053983390085,-30.607684838649593,-8.361685538426613
-20.380835320654555,-170.8158707595464,-119.04001611841396,-2.226883306082323,-81.96470904027598,-39.83527997563415,-30.207569776142172,-8.330655470080263
-20.363684473368806,-167.37416680024066,-116.70510617474143,-2.3751912829703086,-80.48339126694131,-39.21463912798381,-29.680490665768026,-8.325890299270096
-20.426672236049928,-164.7227346772995,-114.99423397014637,-2.5877743813402385,-79.35997593761368,-38.733175988800724,-29.32145287946928,-8.357975925216095
-20.551970940647333,-163.95638073339506,-114.49237036130631,-2.6790152085357386,-79.08664781448985,-38.59946552580985,-29.23494215107511,-8.416747800731612
-20.725690677020786,-164.85082776937688,-114.96478417873608,-2.6071359057494172,-79.56930884143213,-38.790695389115946,-29.36133453862041,-8.514981364996709
-20.988320089656803,-166.53752575100387,-115.90099310565566,-2.5098917105708365,-80.44011823323515,-39.172685932733415,-29.61725497456363,-8.6940747431554
-21.379182601492175,-168.23709975610268,-116.94615459152425,-2.5697082336504744,-81.36382559327332,-39.602946019144845,-29.95835163311445,-8.96688290087665
-21.826975592516476,-169.34643581953304,-117.80901279140843,-2.840967349602775,-82.04412801750517,-39.9211700981925,-30.304711892782525,-9.255789480848243
-22.126615534060228,-169.2251736960593,-118.02154036195871,-3.1954280136479314,-82.12904510077712,-39.930103746793186,-30.473473679648272,-9.406675467058246
-22.064112453742982,-167.45504658728927,-117.132343200189,-3.4040551790998363,-81.37198716451118,-39.5026177858999,-30.269052311924874,-9.288569582859978
-21.59603341184773,-164.56692453365662,-115.27567040710586,-3.2585201861578645,-80.00799605689137,-38.76484713194643,-29.67871479848738,-8.90498076602377
-20.937172374778246,-162.31465769242416,-113.43773475527668,-2.6675524189452635,-78.88986520328933,-38.14613841127981,-28.9714179511991,-8.435339597704619
-20.49852090800085,-162.80637970918892,-112.97294334212157,-1.746439629386503,-79.0709062326544,-38.17280002720778,-28.585200787970244,-8.182889518663345
-20.71772327181068,-166.96443646515726,-114.70271778461134,-0.892460719576337,-81.06903903406864,-39.11977992705232,-28.887576639623287,-8.450132146109361
-21.833895167247334,-173.46593786982396,-118.27501726798863,-0.7308887905721787,-84.34165079675093,-40.749246808979024,-29.959446675082724,-9.366115601449694
-23.640244086989398,-178.7920046457563,-122.04706645140372,-1.8209440543140147,-87.25151816751709,-42.263840588458294,-31.457283863108874,-10.704750429750804
-25.308830926635643,-178.1091781874186,-123.28106215385544,-4.216112405045857,-87.42018504950026,-42.46140856309157,-32.54949025672202,-11.793719421778327
-25.47440410683757,-166.5332318250401,-118.57367002104367,-7.194276495627356,-82.32207727443932,-40.06194798217843,-32.008388655388615,-11.649390091972133
-22.70834239922689,-140.73696372269384,-104.82003455368204,-9.443438683800187,-70.14021076421004,-34.20269809855103,-28.601181943942294,-9.381327834742159
-16.244851534792488,-100.80730679431957,-80.7975526149241,-9.676680971598127,-50.79529058677769,-24.985973136070825,-21.750195246345267,-4.705773602274765
-6.539612713703254,-51.467907985985434,-48.603802852446066,-7.313292633345923,-26.626686446292428,-13.762594610495448,-12.110120202853592,1.7441960070467417
4.763257986275278,-1.3261679864817522,-13.678132626334344,-2.789777727396533,-2.0106463932798277,-2.815065648937652,-1.5839152927211577,8.560347135442706
15.536241253791333,40.32222729574942,17.210419180032584,2.6895258298240448,18.298223811563634,5.577363787262892,7.415231136298124,14.133519441715732
24.173713540075525,67.8089506159103,39.1675919735684,7.782517861532711,31.39146733369218,10.250106023482761,13.123355805623238,17.35838200655177
30.30446690073124,81.93706518860061,51.61871970785733,11.61831851758802,37.671551527325306,11.767671039475944,15.311793846369692,18.076283387605347
34.792944922217394,89.14660452459678,58.20365995581385,14.058297556544414,40.45999375206882,12.079178433186541,15.298918993624305,17.029499264934692
39.065290472764254,96.89548051537953,63.84828155441335,15.571740166688233,43.71069143549053,13.320820348993513,15.019832083232306,15.40358995717268
44.22000321349671,107.84771928405111,70.7583426313143,16.93947698132331,49.10922386735592,16.455212343953445,15.73059703013003,14.265042821091257
50.479833019828746,116.85003832152866,76.15716934633818,19.008835213873557,54.5024059780537,20.62240411944403,17.215786464987843,14.207594635223586
57.25313939998161,113.30577913297427,73.6558876314956,22.5356638103316,54.93411537271403,23.66253685512244,18.043114169780257,15.322726117392659
63.63714628300413,87.94878743146636,57.62019784229704,28.000928605102228,45.83055054805277,23.49505882866908,16.66895630714493,17.379865359147146
68.94852933947111,39.73085201198699,27.62974835243886,35.35223881964892,26.302220123497914,19.458626953188038,12.60114575740756,20.01597125438642
72.95693062631898,-21.852842648662396,-10.092457797993609,43.81726322605305,0.33828908709190797,12.757561858880056,6.821543695206702,22.825387793443117
75.7896546088496,-80.75672933569712,-45.36958560826969,52.029771261206804,-24.95178622982435,5.779085600943277,1.232431617248436,25.389930132598206
77.71156821613205,-122.29517706904741,-69.18527603006585,58.55391472660192,-42.93726836893253,0.7834611541764127,-2.4295686374287864,27.349816759294093
78.99798395547217,-140.07566414680232,-77.98046717087921,62.57798802213796,-50.63708539383148,-1.1787973680482344,-3.460758702786135,28.543000660212066
79.94105259309471,-137.90511404414124,-74.61388834188516,64.33068019571981,-49.60912871779932,-0.5126415741072478,-2.3356475694802605,29.115211556949422
80.84818705761258,-126.11033119645026,-65.84282083587621,64.87222776096473,-44.32847801447864,1.494818313608387,-0.19746509130298232,29.459057055309504
81.89448376968815,-115.2365118437786,-58.36828965462783,65.32282039293469,-39.415553718569214,3.5247727800141164,1.8163519739527576,29.94672304950874
82.8891506887656,-111.09452692508681,-55.88958442670991,66.02483093955473,-37.478619568839314,4.777944672160325,2.9667761384824582,30.604430078593204
83.19584162830117,-113.28794523916228,-58.26402820968622,66.22743021887639,-38.46815606914825,5.047526876018607,2.9586995174196358,30.969578546711023
81.98296462822915,-116.72403321491589,-62.30030378905691,64.52247902374015,-40.28889651976115,4.5317556588791685,1.8654417176025297,30.268293760037967
78.69774273772433,-114.42989781029665,-63.265312391569864,59.73141937930136,-39.9577447008158,3.653464332486674,0.09830189786508835,27.825663366889938
73.42994254690878,-100.47100268699185,-56.665910624628765,51.6632475688145,-34.84627590929189,2.936666422788843,-1.6518068337709093,23.459798785220226
66.88899419950185,-72.44475306090689,-40.13811796862762,41.306821509625905,-23.80723124328623,2.8450883604041883,-2.6423666484525707,17.632919973240938
60.01148322286357,-32.937806509437245,-14.872693544637734,30.41231235262714,-7.873719054125575,3.572437426937942,-2.4311885674020512,11.296027880501933
53.48370784464716,10.900050335079909,14.3449722391303,20.757682981191703,9.909368431099336,4.920734309013611,-1.111356707620051,5.536373591069042
47.49602229395931,49.92926578903211,40.90012959184511,13.504931417415156,25.65419146845196,6.393409864024677,0.7704218098869902,1.2168871032923856
41.84567396757179,76.74160441554287,59.19800324484823,8.92288970754899,36.304786188433496,7.469645807187886,2.571183245803625,-1.2379595665888967
36.24836647160841,88.63543828142471,67.04993909682032,6.510044630519755,40.91608326463962,7.88681373145532,3.935112559738841,-1.861433903345375
30.601762067670276,88.21236659309595,66.23154709395946,5.3582420529854025,40.809399489015355,7.758698375275793,4.945647222222917,-1.023561223404904
25.037598359648104,81.30941777928372,60.96285277034865,4.553716094430609,38.546673794337906,7.4809024502027475,5.970279074359659,0.7344965477804801
19.797661561074804,73.619781352471,55.38099356923398,3.4762168294396,36.40790159089072,7.518615589549488,7.344651342819844,2.8392844355432976
15.088230916668115,68.15816600588853,51.66104987363147,1.9287791101331975,35.352148931113234,8.224815839568182,9.135703736290557,4.77243008091863
11.021229495789242,64.98950242749926,49.81175373248583,0.07602517487924847,35.03359059193662,9.761666077347357,11.122540858298727,6.1135739045909405
7.62398238551815,62.869135164699486,48.835395359493575,-1.7717343196125679,34.63041755684022,12.081292696569886,12.944818813399955,6.558964904474747
4.83989685538721,61.123026204000645,48.036308621280575,-3.4101363982378223,33.70584778631489,14.90004839557895,14.271414194929026,5.940046515788447
2.4926605622628992,60.28843037741006,47.475884626959896,-4.877475001761662,32.474312428786185,17.693225115006143,14.89813008906774,4.257724178822739
0.259242580683006,61.318333163609985,47.48818798577615,-6.4027541190204635,31.435751063344952,19.80341744189939,14.777959623469261,1.7186004472148744
-2.2986981376681497,64.21433228442542,47.84806221358628,-8.227755593695246,30.773257386870576,20.66829208871224,13.997412794164802,-1.2723131371536522
-5.6424524895645565,67.08358397863134,47.221813723210836,-10.438262499562724,29.925942310959933,20.01799283369777,12.677934393914086,-4.2004154067804516
-10.120120403974456,66.23503599324098,43.292635118242224,-12.890732480826996,27.58924511361753,17.891935028308534,10.834330728722303,-6.590311496745783
-15.785515045037133,57.63232889210934,33.79942130688389,-15.227237273205834,22.30529612997036,14.534926219916702,8.352740231299878,-8.133756748715259
-22.191871887401703,39.636753211387926,18.443242338877095,-16.94470355170717,13.647775278870432,10.409383135452662,5.259079762265988,-8.726025586515442
-28.276027750358043,16.02783611874411,0.8802684667511291,-17.52683578479079,3.546569773987608,6.432891360389709,2.2000768308849055,-8.417134772429808
-32.519583917767626,-2.827815504448778,-10.767949637867318,-16.656637380304407,-3.235359038631529,4.189590701572682,0.7269583514185243,-7.348020182817405
-33.47996303799177,-2.740141965175804,-6.288682762616556,-14.447402363180759,-0.41611703406745887,5.667018003822018,2.921967310845017,-5.727802267493827
-30.53010163985994,27.576969204749773,21.569495567804136,-11.540424598558909,16.7314096512002,12.336299584414718,10.307994170218766,-3.842824174533551
-24.41517899401153,88.84097897597717,71.74763321637235,-8.942825163300151,47.96866691668746,23.972438275694987,22.57918589933171,-2.047619240851208
-17.232375757929287,167.35303055150052,132.65091793875882,-7.632642845471146,86.4947388670599,38.01484347537073,37.006976867923974,-0.7065338598106994
-11.71008007295506,238.3799783520486,185.26100033903523,-8.122726150934998,120.64398573506315,50.109063800373875,49.11165327041909,-0.09963324382539257
-10.059852581128988,276.17452786039746,210.81729604603333,-10.221447117768017,138.5297985929149,55.78986031386677,54.4610421596252,-0.3335530315260676
-12.95962698826931,265.80685516259894,199.3566003013019,-13.12470326029599,133.41063522562223,52.50513215654002,50.72122810792685,-1.2965303194079925
-19.21005451235115,210.38730825864639,154.4981782293458,-15.789286319960722,106.89368454182514,40.87379235464003,38.83854920675295,-2.6793983379522732
-26.268829375365925,129.6117702497436,91.78622303503454,-17.387375787489074,68.19061869657534,24.462442906536484,22.677245140357616,-4.062977664058017
-31.398253172990948,50.486007477613015,31.52436064185674,-17.61468981443509,29.85751095790748,8.20810871250308,7.3031328000642235,-5.052581971990083
-32.840392432304036,-4.611903946205482,-9.978425918561522,-16.72451154092923,2.357991636529957,-3.653855252664188,-3.1669778327397977,-5.420602646954643
-30.446171393740965,-26.342977298124968,-26.303621662030327,-15.311194398912944,-9.776134832390765,-9.115849368204566,-7.0687360305444935,-5.198445831738492
-25.507315504050652,-19.647482732492097,-21.51436604819344,-13.983327655556895,-8.557796796228015,-8.737663998936446,-5.403955398234396,-4.658760040034307
-19.9745239035773,1.6126371553071,-6.0592285972752045,-13.098826880479402,-0.17800025201091846,-4.837718673854329,-0.851256246589545,-4.173811259279136
-15.53639381513723,22.735789629621728,9.131753636520498,-12.673537768504106,8.62839941807345,-0.133856830768623,3.7453587306479186,-4.013957508839326
-13.022263177897281,34.4777845773111,17.171476352389284,-12.460485079399124,13.480130709325513,3.411358078415612,6.583627676906571,-4.2020199785247625
-12.324510552149425,35.046099229608195,16.664840717141615,-12.109381998852747,13.365819655289895,5.064414891072242,7.310196653034752,-4.5142454107280905
-12.725656875820288,28.19332648792146,10.409855710327086,-11.31522352251689,9.902836400841425,5.110136836012448,6.659768026976946,-4.628771582352951
-13.362087538339933,19.62609572456301,2.8619287811311143,-9.922209775381617,5.760683186895543,4.289240666243456,5.720798149911349,-4.330061700204823
-13.592055647522994,13.8808401765711,-2.1981379244603914,-7.981331672442638,3.179993745184014,3.262166753118237,5.266187185611802,-3.640948869092373
-13.156741337477204,12.695445980642091,-3.0492510877367627,-5.739453420033101,3.0926942762355423,2.3261241436921085,5.422260919871486,-2.7953847495101902
-12.132960486801052,14.950991175395872,-0.28254986778172597,-3.530665255709322,4.978610548321184,1.4349591262295827,5.747392737311123,-2.0674923813029067
-10.756388676254522,17.84320361766246,3.9744315365491603,-1.6049154981307958,7.38880550129274,0.43750005307632167,5.617437306971446,-1.5780174078686917
-9.246583792733507,18.66751613722436,7.437717793926542,-0.010636513810339768,8.853176086174885,-0.6481147978125913,4.674828301362444,-1.2264698629744935
-7.7520469984824425,16.28953644928445,8.879901644343288,1.367447936436166,8.667796557684358,-1.5339196791264778,3.0582691237410025,-0.8043710144769523
-6.427378434112191,11.45910872492896,8.4629075735885,2.6466158350175535,7.096918403723477,-1.8306620188053462,1.274552183626742,-0.1926833233415026
-5.522260824642708,5.906962662843298,7.130496312150052,3.8122584935161083,4.951390463651394,-1.3574694671819294,-0.15688713605283078,0.5311179047112572
-5.334537696115541,1.0864127641977877,5.729710732308781,4.734615628637406,2.9864991349585006,-0.31827145995259465,-0.9857227048181394,1.1721054237564053
-6.006839859058408,-2.4298039673213756,4.607967708933588,5.305154199775799,1.61729243444018,0.8336723032464294,-1.2353483861446535,1.6097806327080881
-7.315896935212203,-4.668391687761012,3.8122190993601652,5.5485598843048205,1.035858621419133,1.7458723390844064,-0.9997842889618418,1.9282023403550492
-8.647314312829122,-5.700415835625236,3.4203094612042855,5.60717739524062,1.407213800198921,2.4349848634968505,-0.27697801569535235,2.367915598500592
-9.220488941615338,-5.455631433145855,3.5795750574687877,5.6266026690526,2.846067049983279,3.2440983145713984,0.9992763107133372,3.1374140486382167
-8.44730767871408,-3.9217784078801436,4.31609532842243,5.648577536421281,5.225048786970573,4.522342521572896,2.787848700745189,4.229725076292184
-6.22320444705967,-1.318787796058686,5.440019480442615,5.585926887466003,8.079156598221992,6.279251324518612,4.813718405122291,5.374168688358014
-2.999284133275234,1.9508287193035405,6.652194554303832,5.282843670703613,10.735977317923151,8.075897691117632,6.609550618982793,6.155116625037499
0.3974251369104028,5.386868385869234,7.664243610047518,4.6263912194277195,12.557694514952768,9.244587488779695,7.708024728126276,6.234474860303372
3.115922171504793,8.360648981063532,8.206405930833133,3.665093414763234,13.141121452239942,9.318894469822899,7.881216216589577,5.566716730268532
4.6484709558563635,10.158186762506276,8.062267183235651,2.671593934426206,12.453712092056147,8.419211599839613,7.308666809591478,4.4924673386067475
5.033774785779532,10.316561108217313,7.272248718053687,2.0787421699975908,10.921873551927288,7.3274464626478855,6.567579166432286,3.6369401919044653
4.782839649453199,9.040103519938155,6.330127784692181,2.278258168410728,9.369860464055204,7.123977058946139,6.388061669583624,3.6292750667257856
4.566663078461142,7.186199573187047,6.029640878450198,3.386660496005698,8.678529467840136,8.528530905808665,7.24801110940603,4.770858471508641
4.854186511467598,5.667126900388869,6.932072358985551,5.146120764332919,9.263495071859529,11.34140771082895,9.041463666225736,6.839191857629571
5.7130869194850735,4.770742970132872,8.8906627912884,7.048523315397995,10.741824270347891,14.399453447403985,11.07569652130066,9.153808256197479
6.856948312802059,4.031868058443556,11.083257721371224,8.601937027322577,12.096084961744392,16.149973948071082,12.445609102741338,10.875900193059062
7.852014666797857,2.6888703374131255,12.504328689686925,9.556975637346623,12.240125060195698,15.505888854874062,12.541764224647212,11.374737926912793
8.328187609464704,0.17011421055294837,12.44148894552467,9.96652782072671,10.559058611108146,12.436601324100995,11.339857248418307,10.473082736753332
8.10070409244676,-3.8087058820024744,10.604654590748353,10.092582517548594,7.090328061620548,7.948295197646217,9.305039849349242,8.479204006858748
7.202336073366185,-9.336685786749097,7.051802991046602,10.255815192484887,2.3887894682505353,3.532014013047801,7.047697284963057,6.033728811517336
5.855010241189393,-16.157280913337328,2.225122401879687,10.699494068489665,-2.6725853660387546,0.4580183365581848,5.012180455696101,3.864018814859809
4.387494350356926,-23.31160448724704,-2.914330408520367,11.486646516985466,-7.057542435709525,-0.7093854772871225,3.3774916391464953,2.5409488270820875
3.108224808314747,-29.11669966604746,-6.994161632434955,12.44642973485532,-9.783449500073012,-0.20941029410323939,2.149397750769083,2.310336734654777
2.1861308637955648,-31.826166114301447,-8.764764580049466,13.208733214989497,-10.267690515315076,1.1628069510773682,1.311066073630357,3.0428587897303716
1.6112176593802687,-30.619358306655535,-7.7775481116061265,13.343652093957832,-8.64415863651401,2.4858481842039364,0.9106267641906001,4.3070580499792905
1.2551174104790572,-26.209426187527406,-4.728006967152591,12.554436443421125,-5.811365002616126,3.112230597383522,1.0277506723047167,5.52819841027654
0.9793674686844986,-20.719439934745974,-1.2592316788553988,10.835052170438171,-3.159971640272245,2.852439461621517,1.6356813082347677,6.178060183765905
0.7241532755947415,-16.99886033080655,0.62835471827012,8.534060953863598,-2.1279163969518713,1.8887123572160651,2.463679563184757,5.952180014396307
0.5500612939712358,-17.615965324890855,-0.6313118748389545,6.3074203713060575,-3.7112024759340256,0.555296249541021,3.0205865172944004,4.896890117947736
0.6276050767184282,-23.56979988901067,-5.28447987413558,4.937492573396516,-7.952146191943031,-0.7966041986730142,2.861522903228313,3.425975020303256
1.1491103257154829,-32.98929916239715,-11.562645458599293,4.994359514415991,-13.525042883650995,-1.7677505409331864,1.9598187782524725,2.159027732714101
2.1438637772212634,-40.727465398236795,-15.796203067866534,6.412975476210332,-17.795455270693907,-1.8626145722941108,0.8681912294131956,1.5890925644214928
3.267401259980068,-39.88685735074152,-13.8320319159893,8.226585804511451,-17.717783687390565,-0.6360037918217185,0.43866854775615544,1.7321288595274333
3.741152027210941,-25.21928737066064,-3.3795771001908586,8.748633911347607,-11.402781897205736,1.9581163111049762,1.2149422877066243,1.9998113569077962
2.595745105023458,3.3404197099200386,14.087897040848139,6.283328227370922,0.505664315369176,5.283720274388917,2.9291549572588518,1.4480464345363582
-0.8258303131936162,39.46220776163952,33.357992926425176,0.061483913926385095,14.667201689359377,8.124718832512164,4.522893114946215,-0.690394052032731
-6.382918546432387,72.81938162111318,47.79605260175108,-9.157475007730172,26.454249636304155,9.232734670957885,4.746102838643556,-4.503447129192396
-13.011442527448935,94.02661690787086,52.73733775069363,-19.25759874935835,32.23472821910074,8.021227393969648,2.9517138245436847,-9.25921100123025
-19.109518028327635,99.212376645577,47.87961067743442,-27.69374677856602,31.164952301804018,4.942926850567733,-0.4618017916489484,-13.73813023416333
-23.25769909065727,91.41725511541635,37.1565410059982,-32.66286206730658,25.38121104755278,1.2652362640560737,-4.272272202692525,-16.8405200572687
-24.858524072802883,78.09901154791085,26.235366243516836,-33.83804149541426,18.52772311228782,-1.6321884978208887,-7.160433615906758,-18.096600664117307
-24.314631001949834,66.65804582635445,19.389494687758027,-32.276171281603645,13.676862384091157,-2.969818172305421,-8.42459842621479,-17.788776727121757
-22.670651804146605,61.033626509089245,17.787219970645868,-29.65901468404734,12.016317044471002,-2.8288300091517216,-8.212582214946522,-16.67041648160959
-21.001218599177708,61.158102515818854,19.95405995876804,-27.419319456845162,12.93342651328672,-1.8675797583202292,-7.2118445653567385,-15.520134348765108
-19.951772620296627,64.64548957242333,23.473004900380182,-26.254423560880184,15.009420619207656,-0.8107521343986125,-6.1438072298409505,-14.818554132130584
-19.644556896894592,68.78494876197676,26.409680470708327,-26.145210816796844,16.963030272324037,-0.10905844595837678,-5.449386731596278,-14.674475948628734
-19.857288736593894,71.59853976790689,27.777988478992977,-26.65581101716398,18.036062412474795,0.10140379581901272,-5.262003025598813,-14.93251103235194
-20.250139084999677,72.12706138166237,27.42766088933326,-27.24658416674299,17.998612286461128,-0.10556368691193811,-5.503212115317474,-15.327982742453738
-20.516487443008014,70.53359502433031,25.892771675879246,-27.49650238460108,17.10015138928019,-0.5285867450674261,-5.955609222586971,-15.615036405730747
-20.474223564470773,67.9976436918557,24.18198698203072,-27.242051981310546,15.961464410044302,-0.9029009796216508,-6.337723462117373,-15.658250289744359
-20.12507358231352,66.02985667573684,23.25784866836939,-26.61126934283596,15.242519826478679,-1.020352666353169,-6.443323044803576,-15.475437458418801
-19.639495561153364,65.44720841189871,23.412099883697326,-25.90694729127236,15.209253595516373,-0.8606278001913309,-6.273320986518551,-15.20194732266827
-19.234051309238588,65.906543616745,24.136610713458797,-25.388443973267453,15.597633558644874,-0.5923268601404319,-6.015090070059046,-14.985888491829295
-19.017654088893938,66.48114180098747,24.690695319881073,-25.11566263880859,15.943500023070001,-0.4101900025776388,-5.861835119360663,-14.890424078827717
-18.940684084874775,66.63568084751242,24.78726698531853,-24.976768078946392,16.033542009851868,-0.3671491296220849,-5.851908104811211,-14.880749408173775
-18.883809726250306,66.54350573689062,24.686422419301053,-24.839448388977484,16.002003930341896,-0.37428739357387214,-5.888780796158885,-14.889797906255502
-18.777158152548974,66.5537008130008,24.711006476946775,-24.65466137472094,16.040931892917307,-0.34259011370756104,-5.8874423303140135,-14.881877263356476
-18.626702260572788,66.6365678889213,24.85771585336942,-24.43223386431862,16.14177162530093,-0.2804129119493433,-5.856624821811557,-14.85546730020627
-18.455328869485715,66.51078520976937,24.93802045063515,-24.173389724869352,16.17271781058224,-0.2429733017933545,-5.838391997940693,-14.810530932147797
-18.26546790404543,66.13959003123121,24.924700787528483,-23.87193664713539,16.110104019687014,-0.23400885573342198,-5.824254077354035,-14.740815466500246
-18.072713404784707,65.80509950653708,24.952597670051762,-23.566549995198734,16.05925526582289,-0.20782029777698238,-5.7802805940792155,-14.658988048261742
-17.93787605798994,65.65398736952717,25.00123566606849,-23.33597723001446,16.04973116575217,-0.1578464293584979,-5.735700544259793,-14.603986523150393
-17.91705973328583,65.43664349256896,24.81170819433461,-23.209195870635565,15.9508042482341,-0.1432856967195117,-5.780624850630159,-14.601711183158898
-17.971179799886723,64.92120271161605,24.28143777969147,-23.09994491118618,15.693198862759662,-0.19329215265715316,-5.941117148163259,-14.622286443723755
-17.9571198412262,64.45804825878248,23.84429099860745,-22.869506077148504,15.512417884143746,-0.2175221276861693,-6.088520019520858,-14.595722735171783
-17.74112181574349,64.82227021864071,24.226059582155752,-22.467116108220637,15.818340321824094,-0.070863316223737,-6.026986403036963,-14.480323871256667
-17.328897948795827,66.3355738071813,25.701224918631127,-21.995205829746812,16.74418829933254,0.2736981646299774,-5.689599092771551,-14.310872275564002
-16.883276331456873,68.25123505034635,27.635450287381946,-21.632026254266055,17.86647477536639,0.6440460160987329,-5.23402483773003,-14.175177696569
-16.623812944618805,69.16942821379376,28.82497360097224,-21.503179543047988,18.437180375963795,0.785890876982285,-4.941873429334779,-14.148859266376178
-16.709196754504248,68.10086377665327,28.300519360769393,-21.62177100538144,17.918472565554698,0.5613877059472256,-5.036949981421273,-14.253570064202897
-17.16907686990918,65.17648981943577,25.90934206681496,-21.898963181776057,16.34882206171829,0.044299774289727034,-5.577419772875114,-14.455977146571879
-17.860065893865286,61.585645536221406,22.441297529332935,-22.14809357266245,14.35606618629825,-0.5246599014341315,-6.430686399761114,-14.672131887156555
-18.42909114327138,59.153975299330796,19.53407966156738,-22.08138300047302,12.985879920561548,-0.8198258490541771,-7.251230338271998,-14.763012113925807
-18.36718981213993,59.88822065605735,19.386020705258794,-21.401300501710065,13.44055867178391,-0.5043092339159861,-7.489402402337552,-14.56479757519968
-17.248322954260427,65.14594073915625,23.87618770857695,-20.025538082897544,16.546223530324916,0.621173962956213,-6.58047520102225,-13.9885178471763
-15.075856407025075,74.16739391224642,33.006621125458985,-18.285177390595283,21.899276256786028,2.3618119054009,-4.345071886639607,-13.130354622613163
-12.464047027383959,82.84545224510136,43.622287804321076,-16.85006340953881,27.234762288809534,3.9570669688124025,-1.3371868101924687,-12.267316510886502
-10.413624642522388,84.37963328864254,49.88135364955066,-16.3221025721918,28.867224422014097,4.279986784798545,1.2380088279370587,-11.679261128852476
-9.734305980750905,72.44213799915582,45.95343697418999,-16.745398812216173,23.44657069827434,2.441059716707535,2.130686012105308,-11.39694296760524
-10.4765203976256,45.25383320854266,29.553439890212598,-17.408802884562647,10.122892212553678,-1.573045068400399,0.8123030029453591,-11.073789607257146
-11.780030541009017,7.685839772174122,3.905120851369915,-17.132286863243618,-8.386673887686154,-6.729534191984426,-2.155947947442728,-10.114038740339028
-12.279855402099676,-30.432573338929423,-23.39802296658649,-14.887436123954744,-26.737955068666537,-11.440288256315977,-5.437265165766604,-8.007994467889679
-10.833476293324711,-59.000838130207505,-44.06345494463334,-10.368454817256913,-39.45649220211463,-14.405058820889327,-7.694220150018092,-4.667280655922295
-7.121898672967212,-72.45189526717631,-53.03624000700184,-4.162969223440015,-43.48434138770028,-15.233727103362767,-8.27725448531589,-0.5364653378404626
-1.7756730950555872,-71.78422878720339,-50.36990495942766,2.560867423387848,-39.28330697475332,-14.451318147262784,-7.381720475351872,3.6014032483498744
3.9960689858060903,-62.89207724147339,-40.217255017172256,8.624179423593786,-30.02375926109835,-12.95602945454885,-5.660723650460044,7.004229483675071
8.989018112298035,-52.71274934006716,-28.038581159994983,13.30613875346024,-19.637391843632116,-11.388461616288119,-3.685873920523061,9.295974353233657
12.447856459075757,-45.85047694811071,-18.010117057603253,16.480914241011135,-11.069767284011355,-9.880262203136223,-1.6949299258259491,10.553347831379698
14.197552988570761,-43.457496079936284,-11.962073957237022,18.444110483170597,-5.606261761832278,-8.291690094062238,0.2589401170137078,11.146457893658352
14.519987157153386,-44.22860425736989,-9.782070059412513,19.61523050497882,-3.1949669121805506,-6.6393928054838325,2.0135662161176415,11.476204275347985
13.934853396705751,-46.106635540708886,-10.362827712637914,20.294393450175853,-3.1110880054074115,-5.306430323739359,3.193850120334457,11.771207608729071
13.000409166274453,-47.490766904803685,-12.350199966069962,20.553250469796037,-4.445658015310246,-4.873458337760642,3.3884384864525323,12.020547893961782
12.176071433522367,-47.67778244975739,-14.568290757769143,20.265112155641667,-6.3563062521877125,-5.745689545418901,2.4205613655202454,12.02545637316687
11.760532299782685,-46.81568063240826,-16.27174031583463,19.244414178537678,-8.225548441982431,-7.871939709676909,0.4806505545578917,11.516556204064178
11.906158494795015,-45.557779704423204,-17.221207632930014,17.426847699824172,-9.748632867539735,-10.713982390496028,-1.9437879534811175,10.288781703850827
12.669736766912155,-44.48170228000384,-17.492256917158695,14.983823269050758,-10.864933201777088,-13.4256781477977,-4.244544555688171,8.314511630748331
14.02627990021779,-43.56466351941289,-17.152774973448853,12.289905972428876,-11.569727142053678,-15.124311929989275,-5.867240190757257,5.7986458713600415
15.813044830081859,-42.18487482351062,-16.136740181944603,9.764579376193888,-11.801203284235266,-15.167545574356438,-6.4490954351842396,3.153227802031772
17.668852899202264,-39.74990645533927,-14.436399292118365,7.706087207194995,-11.51706692215273,-13.370463947080928,-5.912670524013177,0.8972610609083673
19.081718738289634,-36.40206184341069,-12.334349111308612,6.229249877003139,-10.829996089003854,-10.07969479332571,-4.479228391167393,-0.48552965216881794
19.581703593462564,-33.104466419692095,-10.331906544275816,5.319849490974098,-9.99100876823866,-6.047311320197678,-2.570687953585989,-0.6844741917446109
18.976310741912332,-31.02493226160594,-8.816893664571051,4.92886326663246,-9.21370498708821,-2.1533470914316584,-0.6424108313281056,0.3507999325631744
17.461375374123293,-30.82860005940752,-7.862513973154257,5.027003324902507,-8.552168115227397,0.8788750322246137,0.9529470749341991,2.405066664192542
15.518231083718618,-32.4827048668887,-7.401078642596296,5.597965232291202,-7.985451485394601,2.6487216597272054,2.007526685546336,5.074227812318682
13.656625127328773,-35.55407525730208,-7.552992084011511,6.594205897980278,-7.597662273601434,3.1040734908334757,2.4346013077602224,7.884803837994937
12.158386861464527,-39.533241691139324,-8.695191113064231,7.886442892412846,-7.617388325135039,2.4784785243416856,2.244756418991336,10.397149994919804
10.964253774514843,-43.90691569800969,-11.1559924605658,9.238244307419299,-8.248922742446162,1.182192255561433,1.5406745310762375,12.257808259448977
9.759510020703486,-48.134861834570124,-14.838301833739369,10.344286792710696,-9.46941743415794,-0.33828801287103294,0.4970267809546219,13.219665636308795
8.209462239066298,-51.75527377632765,-19.123536910669046,10.949438379201785,-10.990982193987731,-1.7413929226204345,-0.6941748178277254,13.175337900287566
6.2123096709092245,-54.538749877312625,-23.10823061978102,10.995289437068111,-12.401143515432096,-2.8707527257816285,-1.8812143491500841,12.212985769590214
4.013838395793427,-56.455005111658615,-25.971878492168923,10.680460764523492,-13.347520871611472,-3.734801019905742,-2.9703563097592594,10.640734840143605
2.1020314726433913,-57.460511609371444,-27.288964706886564,10.358012969719296,-13.662523751879872,-4.414958076907998,-3.902575203361096,8.914643908831145
0.9482186090161033,-57.38763475539121,-27.205492253487595,10.322506085661791,-13.413099528644807,-4.969310054154675,-4.621086472590849,7.474708495082674
0.778279257792152,-56.08541221897802,-26.39300594871312,10.640363975394393,-12.86012992579935,-5.366661321292881,-5.045671457847209,6.579088888090688
1.5315539883653324,-53.59197813357226,-25.680209888034188,11.141296209189296,-12.280514851659747,-5.44634301920858,-5.049450511976458,6.237462078025274
3.004481445165355,-50.05565081324286,-25.46923859721747,11.548894396652592,-11.697684739981298,-4.9219284424635426,-4.4608183794911564,6.2674104553517545
5.024134345134661,-45.5009408880477,-25.3612032451073,11.628431073838245,-10.741897748640385,-3.490217513922031,-3.1475571903017907,6.413348216497725
7.49564911899013,-39.83591035848297,-24.415703887239946,11.25930869660255,-8.865704421931406,-1.0607945372833487,-1.1905421716569924,6.453272306631835
10.30832688462194,-33.23988643017194,-21.96882459921907,10.439948369591349,-5.848018155390969,2.021211666756449,0.9733338922999493,6.265109203257354
13.220661918138706,-26.522701717627108,-18.36210503482846,9.282551359993828,-2.183457560405036,4.973206916165776,2.6215904014828815,5.863133308670764
15.84951181449063,-20.930600861477664,-14.920863241878802,8.017590716376317,1.038366455726994,6.893836418529968,3.086780769868011,5.4088449340019595
17.782707384325054,-17.42058249903352,-13.147738424019202,6.9753752603157,2.7485206733149243,7.247338790160049,2.18519362291659,5.177833866747903
18.73575309192777,-16.026953619573007,-13.76021902877233,6.5146279161722855,2.564798399243181,6.195205783084626,0.425265299856941,5.467987289278403
18.659424713269257,-15.894171857385608,-16.27281582673157,6.910083363737688,1.025864353841942,4.544726213826186,-1.1861763292660925,6.469054033539316
17.75183525527481,-15.915222409256938,-19.32657957358083,8.236444303924111,-0.7361515445049969,3.343638450885405,-1.6427344812625744,8.146494814565715
16.375362317542358,-15.420345339030506,-21.449081226513,10.284444004673496,-1.6331083510343112,3.3599910166525815,-0.4487893743601334,10.19593354931635
14.909170711878177,-14.47425835388021,-21.786691399034325,12.549421529936218,-1.1971548019754221,4.713151078517887,2.1323768541488457,12.100459499697784
13.599232657827965,-13.765144163262686,-20.491366978739492,14.344186641353733,0.16966243301182649,6.812640004975341,5.19677222581906,13.288621462578535
12.487481236942802,-14.258063853381213,-18.59949561736852,15.052703823705855,1.385838421679506,8.625580046764744,7.613562106228932,13.352383990737994
11.465752874375166,-16.689320852962762,-17.395539849818466,14.434832196994263,1.2783320154490758,9.16944963700377,8.551587719316904,12.242265517424633
10.408103053185148,-20.9910106350471,-17.54019803267716,12.794616664265968,-0.6893239418615296,8.01018492502663,7.879596301644005,10.334903324802987
9.26785442202773,-25.98712811252179,-18.535913982515993,10.859536531083384,-3.9893347700184894,5.494793087134408,6.224506354586518,8.306884057203641
8.063350050161267,-29.784207484879676,-19.01940602850223,9.403650844499799,-7.255686860668317,2.5598089288819086,4.624426297001213,6.850878175325595
6.790233064219659,-30.835974942771845,-17.785887626714363,8.840151675895287,-9.092662948757347,0.21532358140896785,3.9527472444505323,6.370878122298867
5.370853224413146,-29.011837713381137,-14.813350530225454,9.036751684698103,-8.941005985246539,-0.9754883744340453,4.448996447835697,6.812648505409143
3.7121872627920984,-25.846175801464653,-11.485520960110781,9.450463980418068,-7.410064689853618,-1.1069478179048502,5.630087925915215,7.710682156068218
1.8442088403212757,-23.711104257640137,-9.799737861271844,9.479605176927482,-5.870707141804822,-0.7402798216084298,6.616462347200792,8.425560209550559
0.04840971533451489,-24.395101831751198,-11.050504807551652,8.832539080850108,-5.5883619820137795,-0.46947671820858006,6.676844419901016,8.467596453725633
-1.111288999539159,-27.849639986767333,-14.749586809459187,7.72876293689647,-6.887860640227237,-0.5048516590031742,5.707046147672792,7.765458061818712
-0.9175575563784015,-31.68114875158429,-18.365317851599862,6.8150286484480915,-8.761923354159327,-0.49005793329458486,4.397786360252859,6.735642311820221
1.1811581706520897,-31.74906709703393,-18.170776322922944,6.776742689901438,-9.175949779184396,0.3319160092983549,3.946968561750749,6.063697299156148
5.11442260980338,-24.080566264544125,-11.187502373740244,7.778918721832564,-6.1478416009603425,2.6077590230761434,5.335551842322348,6.247662398233441
9.801871551098342,-7.8096173433848115,2.3191963832411893,9.044927010760333,0.6624062284712109,6.197266971993707,8.440267247049498,7.133631752923925
13.15714972531146,12.175210598198511,17.080829226185767,8.930735903118672,8.64272752159089,9.709542709928007,11.502847899962768,7.763233035066197
12.721006078442977,24.974567559768733,23.414386689488122,5.644776311658882,12.28281888530288,10.68046098333013,11.476573056804476,6.735362295682109
6.814598160267367,17.30059734905823,10.92928456993477,-1.6486424800412378,5.219856706488226,6.557057963512155,5.367446837245414,2.979403708320632
-4.318160399794804,-19.77439354208536,-25.79610771154398,-11.958541032623323,-16.3008336414219,-3.855521685815006,-7.96580798433583,-3.47109441556063
-18.085657562705826,-84.24085373946667,-82.51453716510682,-22.450937890660658,-50.33847909396958,-19.26237754946243,-26.5573749265731,-11.197167061588958
-30.27356466997364,-160.93213635721872,-144.74906372368457,-29.486243278489276,-88.588476625575,-35.84490817904933,-45.51969487468573,-17.85832182455133
-36.73185544851353,-226.03485620497267,-192.63938224408307,-30.278691234601148,-119.08150499707223,-48.58317240790926,-58.8392152921016,-21.218942312629828
-35.23302876223032,-256.9543668224124,-209.37230334468322,-24.302794481851528,-131.27000053018494,-53.400746701452505,-62.004949835495225,-20.197985285821805
-26.52224250647333,-242.702593379095,-188.9682388999841,-13.635373288625473,-120.93499875549662,-49.02640992241414,-54.108828769674155,-15.362739287309171
-13.970408338755096,-189.16540562635694,-139.16464630181193,-1.9994940665330658,-92.2067179176978,-37.53398603264373,-38.258982163655304,-8.600342938198988
-2.003147087662033,-116.26724937082919,-77.74399682534116,6.979676877167722,-55.540564914178674,-23.25453038666331,-20.07135976052431,-2.1701483289138372
5.854383069573558,-48.62775364024648,-24.34055446029946,11.361740659807799,-22.798965925644517,-10.702062330296542,-5.088103738620459,2.328199670510848
8.312924176550304,-4.8449311873564485,7.835195389744731,11.50890912324175,-2.160950795278691,-2.6857653879749783,3.4772037195047,4.531193158713015
6.443658867339128,9.1297979302153,16.23714623802655,9.50931498911382,4.550081381562557,0.43500188851070404,5.56980338307768,5.18863172929979
2.7024250000712393,-0.13931390426922088,7.696582867133362,7.839606319610734,1.146777035213451,0.1684593540306232,3.5093961007181877,5.498528768954272
-0.4802932595990407,-19.20590192193222,-6.768784787533954,8.048718437677957,-6.041715464177238,-1.4188372242131146,0.303721814482528,6.329231016676304
-1.7703015800907829,-35.04237571857559,-17.716469936050828,10.120056278134003,-11.611499835476723,-2.8431197726173356,-1.8782710524869906,7.762462726355795
-1.2225951669295188,-40.23792706753781,-20.763127874312925,12.71307343914012,-13.092840408381331,-3.6071008676730405,-2.354077042059968,9.153415840512823
0.1476363435163473,-34.446965977197024,-16.88688630699809,14.019664089330623,-11.032559890553786,-3.923295592774519,-1.6664352824637834,9.594681866298671
1.1308804750476251,-22.74813468885885,-10.469121497832392,12.752221002204358,-7.8115646510344146,-4.226855129721097,-0.8834773340916297,8.481197649610111
1.010878695296899,-12.539619666732388,-6.598144155802778,8.834589950453262,-6.1695583855083,-4.874548999160337,-0.9518030150199214,5.882357637691954
-0.07894673389323349,-10.242736309824599,-8.700786357193293,3.552312878411905,-8.002835303818891,-6.060872313264101,-2.3001669072673465,2.5733058159784012
-1.205774310291058,-18.54494603269372,-16.998198359266812,-0.8866282867587687,-13.566051016665666,-7.752892078691505,-4.66036660348805,-0.2549672813026667
-1.0491060999144604,-34.93026447396535,-28.158162842385167,-2.2377425819248353,-21.18078171842086,-9.56023496284225,-7.085413539462125,-1.4699224836414113
1.4752878319023213,-52.376500465612615,-36.50078860570402,0.7861707043361166,-27.706764429142574,-10.710806594599209,-8.2455776776435,-0.4639695141399598
6.6380345159522065,-62.46187491165771,-36.60661987093748,7.872532347083121,-29.870674875862658,-10.342695971709569,-7.01901601046963,2.5793512687467
13.666729506628233,-59.669882005308374,-26.22054813157402,17.188038752378972,-25.972325884955815,-8.048521685949678,-3.14212695027554,6.750196238426283
21.040596683848037,-44.47364544627894,-7.734212863695603,26.209516151134217,-16.96911794780611,-4.281268540154416,2.5081474563854345,10.80829726688716
27.196541278527963,-23.047804036709838,12.952947290125095,32.89497475247049,-6.067316516511508,-0.2074994543262125,8.300734455346516,13.741624856485016
31.24358181726489,-3.445728743954737,29.778845787718378,36.526731820925754,3.1455422228255863,3.0196987177950194,12.759723297867207,15.199975366101915
33.22344184385451,9.366873017524762,39.9645496751544,37.72165309742528,8.865030878615116,5.075166109670822,15.401994050572824,15.548906565954342
33.74044904311959,16.094295533987726,45.095851909502116,37.64850400931756,11.951995537331568,6.684011971431451,16.868087641311096,15.505269637706341
33.253859381701886,21.349592783519896,48.974964186286016,37.05064266903092,14.79587383352394,8.974192132522228,18.210771365818953,15.594827779207135
31.607651584839605,28.968846482160735,53.90307038599866,35.79326092418869,19.01176704869059,12.405791706437038,19.888755337241204,15.802152849934101
28.19240769227846,38.22176229802373,58.38389768288101,33.2146617963109,23.821588712839777,16.13978165598069,21.281290574122625,15.640749249690572
22.610242435289628,43.96385449414093,58.09448649260201,28.921138109085202,26.430617658162785,18.40559608621108,21.120787998986064,14.5607866895675
15.292428468040375,40.48436480262251,49.29978277633993,23.354521917829757,24.078999263405848,17.638723118171367,18.490279317102704,12.381334761397591
7.560354662718454,25.91785832448766,32.006178322681926,17.698090880730348,16.150870957581585,13.556438316349888,13.599742265718566,9.451203543064047
1.0657317695292543,3.921347066116902,10.522633300524163,13.222273295522637,4.791258202531631,7.402174260647454,7.770217281526972,6.461987883764013
-2.994564940304119,-18.36047338063874,-8.828215851358674,10.567131418932647,-6.3027637144885755,1.2219379537854698,2.680324609353001,4.073047451975573
-4.370267463012416,-34.31490212902041,-21.101404880519173,9.451812999738438,-13.946435355098423,-3.279077025747846,-0.5533770923129415,2.600220969624649
-3.6922916938815407,-41.03662229455574,-24.949052246692865,8.95625421716351,-16.966059167494915,-5.517488711035618,-1.842533478047879,1.9351826649720227
-1.9824804325865237,-39.851457069497286,-22.49551458547121,8.124956104594663,-16.30536478791051,-6.014252310060249,-1.9142800401224616,1.6905965006520207
-0.11168228267015726,-34.4847776140459,-17.42714502898011,6.4791641588346875,-13.984876075036572,-5.756279677108869,-1.6905455811289185,1.4395612196927863
1.47534266154894,-28.645774175679442,-12.88146160647691,4.167137160950724,-11.85566638760792,-5.499809650016623,-1.748527176250508,0.9085446364066609
2.704740839982068,-24.635747567587,-10.404201035553685,1.7666125573837124,-10.946217067542007,-5.472164839654458,-2.171270174902953,0.058138392828929145
3.6524915333799677,-23.289869655779206,-10.116981135509205,-0.057010822253575205,-11.512080749992956,-5.513112620989088,-2.7380446042732927,-0.9397424393198444
4.364003060497102,-24.52000765052964,-11.40567742234227,-0.8345815035765344,-13.368553775166648,-5.381164935296615,-3.1938404301495185,-1.7917515192036726
4.806501144847402,-27.74667374967343,-13.467088834045434,-0.4251044708916209,-16.110993235855727,-4.955293309885472,-3.3968674969978,-2.2016328216737406
4.920326672117017,-32.124665887507774,-15.55546651743469,1.0056728421097003,-19.171638541761123,-4.261100386103255,-3.32083292293281,-1.9724009524664423
4.69434996841829,-36.76256098744186,-17.072190630894024,3.1161003514627454,-21.86310580913378,-3.3924019778623102,-2.9850634449264835,-1.0477174301528738
4.212808867342586,-40.92108496789377,-17.584962321641253,5.5536313006557565,-23.487242919738613,-2.405823771677953,-2.3723546577866155,0.5152347017395454
3.6429609485837897,-44.02392597343714,-16.795586626106243,8.059129982220876,-23.481305586825805,-1.242211161598722,-1.3781721552593926,2.5904244752622
3.1490891323030845,-45.572268714844675,-14.58313114107037,10.45211993626123,-21.60062603509979,0.25561565323600033,0.1437197279764972,4.977200705325899
2.7648667335255035,-45.296960313983696,-11.26547321579853,12.53774411329167,-18.15885234793484,2.1779930335533435,2.2028624234861156,7.339777091484997
2.319181443622453,-43.590944994503324,-7.919953642551653,14.055852400416805,-14.199046301404932,4.311258665775733,4.457535638516175,9.18059980822676
1.5097127334978173,-41.7059459641153,-6.287550609520816,14.759411327008898,-11.307271232069843,6.040724976165726,6.178670699853265,9.953146427842364
0.11265352006638137,-41.17467313815535,-7.972277953125203,14.580682912541182,-10.92347175848602,6.573066089160931,6.534623587799938,9.317616146764234
-1.8110535014491125,-42.66307015536964,-13.315617642590807,13.746960447271176,-13.451922450925833,5.420052593326157,5.084346696857099,7.40194822271179
-3.871254783048625,-45.1883811847624,-20.797997247160392,12.738688639783174,-17.793331330425044,2.8387636365460898,2.1542057437206674,4.879408067181643
-5.5078541557284195,-46.4814364098951,-27.53647175372553,12.098910680914742,-21.72621058687104,-0.1027825287571512,-1.1894538300543576,2.7632193672195773
-6.254646747261113,-44.341747194244626,-30.649794659065286,12.190483268116632,-22.987658571818624,-1.9415694373343655,-3.6024679040061436,1.982998272104471
-5.957925504802832,-38.08732497176029,-28.69846099857873,13.010554203591543,-20.4521083354008,-1.5307220770958383,-4.123629257079264,2.9390726639333407
-4.845644882217362,-29.263714847809304,-22.472554236893078,14.15063427424078,-14.80224099713924,1.3088741421205516,-2.6926367335613532,5.261711126284135
-3.417061728579724,-21.310201695778094,-14.806700861441184,14.957477668240156,-8.387465264518923,5.539161053760488,-0.2516215225726191,7.922591453848732
-2.1901743877535442,-18.242711419449694,-9.42632197412497,14.864551877607711,-4.273188512608348,9.249313511234492,1.6692328376210461,9.681234003869175
-1.4184074433049287,-22.58581973876524,-9.0921590082652,13.721068634118426,-4.743076333685464,10.529057762999347,1.744454758744399,9.661133364359534
-0.9498118847754753,-33.22757249755006,-13.7527315884514,11.864272040934651,-9.83873461522282,8.495150758972969,-0.3566839748076947,7.744696682123346
-0.3680059015669817,-44.51632236408184,-19.843281958838144,9.808126963731686,-16.785375528829764,3.8957391744083245,-3.664506685148622,4.553225153410219
0.6228154253881334,-47.8851852338439,-21.627267677208042,7.727902824046738,-20.951777233236292,-1.1518439459366059,-6.364806198989123,1.0279160689259117
1.8233544326252962,-35.93085719957096,-14.279590956812923,5.152193799354399,-18.14817135420937,-4.243366321234321,-6.824951602152222,-2.1116573318899388
2.486751495444941,-6.906408978996729,3.0002952856399427,1.1808998128154569,-7.057976060286435,-3.9892243893997237,-4.578028491292416,-4.683325092424454
1.6997398572262998,33.29475809217016,25.938554232369064,-4.845858925436679,9.729956812340099,-0.7413296233795486,-0.6265392821340756,-6.959836209318597
-1.017276516099704,73.34823494640302,47.11892832619218,-12.686453955510675,26.86732165749016,3.6993238601033274,3.143508653151656,-9.301328270632226
-5.299521956151637,101.92384798979707,59.848118514009464,-21.051920823537152,38.96976974011674,7.1802923418719455,5.059276132727168,-11.79774475007112
-10.022956904813281,113.15416136502314,61.57357084952525,-28.140675777361864,43.2808315623283,8.38056309839504,4.560962395164544,-14.17337991762348
-13.858341132266418,108.86518234688158,54.75733989363076,-32.535040149037414,40.69036747623163,7.3536538813695325,2.357267187695812,-15.988315272632502
-15.94135543671163,96.44690658790951,44.85485051826198,-33.87936605057839,34.65045274075323,5.193238359065867,-0.17844878822074356,-16.951019224768018
-16.230244450092346,84.16376310068445,37.00312812596231,-32.92320469072847,28.936206638489292,3.194501813955119,-1.8736614922456614,-17.09857811483185
-15.361912254512088,77.16445814136657,33.68671083123596,-30.975595584284964,25.816974640301506,2.15010073746301,-2.2856392543915516,-16.738119844747064
-14.182375246289821,76.34587685173189,34.54082274408316,-29.20384812450651,25.596345203137044,2.1654423346320355,-1.659222680181872,-16.24246942461818
-13.314316219464356,79.7318535779324,37.672517039160894,-28.21871631392274,27.29178010188878,2.8965499916428987,-0.5450617011313658,-15.876526658845794
-12.998268412631573,84.49440648435258,41.071159485602735,-28.06949935343825,29.56418195913826,3.8677620406481457,0.5428766849831437,-15.747933566136453
-13.172699509296791,88.24529279960825,43.30914409376012,-28.466200022214895,31.29733100935415,4.6626619802635965,1.2694515561029054,-15.84445502469537
-13.61939437576528,89.58937456395513,43.73509937393697,-29.006646805959402,31.855156180284634,5.023098886192092,1.5094611602841257,-16.08109639355315
-14.073979138791243,88.42411484241273,42.56287716777695,-29.33866846038421,31.227364231352134,4.929573733994238,1.3641126218889235,-16.33659877801471
-14.319486101820711,85.92102389992071,40.770229433307335,-29.28274027630707,30.00402712548985,4.608065063736526,1.1175002681536943,-16.503133659618122
-14.278386471923334,83.80782910037253,39.539751028229965,-28.89236950673264,29.008927758163466,4.3805359906759715,1.0702868344447984,-16.5426297912093
-14.041942894214642,83.20337677984028,39.48105819294429,-28.385505799723852,28.74718896940981,4.435915700247619,1.341858442889416,-16.499613227531587
-13.783841147946825,83.96697920301567,40.31309116043536,-27.968698157684443,29.128952629153464,4.724917569417359,1.8226205064755931,-16.44764651239532
-13.62120878865244,85.15002645222332,41.3046884204797,-27.700835607846763,29.70819699149905,5.0699657190652765,2.3190919408042796,-16.42171632380375
-13.555908946830959,85.97874249983481,41.95617813364959,-27.518302907783575,30.132105601646987,5.348278584376521,2.7238632816377026,-16.409572672916415
-13.540587516444464,86.30147570537083,42.20311647317642,-27.36794509833696,30.31599561413343,5.547615438242053,3.035473917647131,-16.403729605550996
-13.567824330563774,86.23451407258896,42.102421764246934,-27.278720995114032,30.269872181523635,5.681664939889717,3.260489431045719,-16.439961241019102
-13.664437382899697,85.75955507040676,41.61068994246814,-27.293734365102303,29.949747568310766,5.730607868282433,3.3742231022195077,-16.566449506316108
-13.80768980311569,84.92120480044345,40.8236493844706,-27.364227648848377,29.39775385495626,5.706083085648198,3.4073851320052686,-16.777348323614675
-13.888047266931657,84.25620398523529,40.277736080891145,-27.34768032807888,28.94538333412541,5.732097800313582,3.52031430538069,-16.990335348525218
-13.78424876644083,84.61795053854439,40.709604963754884,-27.1142502070292,29.083280348613812,5.98226165825496,3.9141137918321887,-17.09511431812846
-13.473575388143031,86.33361523558403,42.34862679167863,-26.64133575772595,30.010655541616366,6.499886312632673,4.635035375765465,-17.02298445980882
-13.061618808389161,88.61384903813712,44.48847439678462,-26.019747260464655,31.33010924412319,7.1019187358316005,5.48116794945,-16.783171221218463
-12.720010113446929,89.97862477040657,45.850566054990274,-25.419175595247076,32.243461775265885,7.491559193965878,6.11749920531903,-16.46779162782255
-12.613686842202588,89.34090477197758,45.417362735350984,-25.073803818343094,32.07338218586469,7.473742379919998,6.2857830268822275,-16.24956511157158
-12.859066303688081,86.74317552879063,43.03560663729749,-25.238444001324662,30.66171023946358,7.077879851759101,5.938794700037604,-16.350880104470473
-13.463203318081629,83.30642938834228,39.53243147223983,-26.022571538033052,28.45970547069841,6.534767616046319,5.27047787701735,-16.932215030086443
-14.215298014226782,80.8083336193378,36.584704384061624,-27.151689235037367,26.462624552776266,6.20512167625283,4.714927580876011,-17.91408023722559
-14.632173897768224,81.25558138279186,36.404878873977786,-27.881435512896594,26.048477161104447,6.507134415100154,4.894434452586393,-18.8592858298505
-14.107976616526026,86.11558363597338,40.86419537005034,-27.25147938745053,28.4756965623671,7.751121434978828,6.380665402629311,-19.06109196510227
-12.26214661277753,94.87569663508395,49.94526718814072,-24.594284953124006,33.92030674752596,9.832811683769577,9.252192182240906,-17.850275645629623
-9.2538308918529,103.71716860474473,60.4434327853499,-19.96844640229871,40.58359350548282,11.983706685984817,12.733072900333262,-14.958267461522098
-5.790363659433855,105.95879248358578,66.39890691686263,-14.212354989748682,44.82553961825757,12.911813040655137,15.31652996899219,-10.713558645980237
-2.7763717371128056,95.04710453088595,61.80244614921972,-8.578201413896622,42.76037896991196,11.429853014081635,15.478597173012407,-5.950343057890082
-0.8329208822351707,68.67412919289109,44.23671626994874,-4.1716269366483285,32.56415762036485,7.223907575411633,12.586595776173835,-1.6802197993112427
-0.011230674648580422,31.181865705919353,17.01009198947789,-1.507603261281139,15.964537387311971,1.2035871408003154,7.374049181135227,1.3003894826320934
0.1328956564914463,-7.742845815528769,-11.887832875914329,-0.38913576816985684,-2.226609277524582,-4.868157991861566,1.6207024490015205,2.6812744339916095
0.20359219657946487,-37.5795677194159,-33.58196350237687,-0.11588006336937648,-16.389480886869514,-9.249949211559883,-2.770673976830454,2.686526442752201
0.6319941603822907,-52.0030121492437,-42.60394503175621,0.14366344152141008,-22.83039374648486,-11.03620112583232,-4.707690841267516,1.919895427106349
1.55802678314902,-51.44323501541375,-39.16151404655909,1.025873754266229,-21.358984815548713,-10.425557435379753,-4.2981408780902015,1.1080932867626812
2.9332638733028156,-41.899620840177974,-28.275401489300364,2.806144436796503,-14.909746098741964,-8.377964539662264,-2.55883718223623,0.8468408704581225
4.679092203583226,-31.165374787508334,-16.68720705991893,5.386978981514882,-7.677849748236818,-6.006165724783585,-0.7551337140598626,1.4203383609066187
6.742994377763345,-25.01855828033359,-9.603386807229896,8.393138057345627,-3.0360055547526374,-4.130713771903575,0.17522746913119097,2.7426393986103235
9.04503193147769,-25.40317056789656,-8.957517715140389,11.342840572839048,-2.3322908901863313,-3.165168633441689,-0.1307186262032149,4.4488368436189445
11.421056180286742,-30.877940410447028,-13.543853724764015,13.847276516209957,-4.865677718799062,-3.1854056382591853,-1.4918879795153217,6.105467725609075
13.640831379064517,-38.24486346874081,-20.307061385365675,15.743462390938525,-8.648980719158322,-3.9740633472596962,-3.331452649158703,7.432563946598367
15.47720497850337,-44.17218000938572,-25.888023633069608,17.082870589643207,-11.414373913996995,-5.011998987700186,-4.8663268513235804,8.413472715270519
16.76129777258997,-46.30262560161371,-27.874983998966563,18.00934324579186,-11.498243875949674,-5.547730752632581,-5.3411155787075035,9.248364802297022
17.40435073439801,-43.8087503005834,-25.489044892452625,18.651612413242624,-8.388444492547908,-4.825582204310783,-4.270146449683301,10.212323116273266
17.40657832478873,-37.372550461203254,-19.551911308671944,19.10983218052912,-2.777438674815881,-2.387381505309353,-1.5869244001840799,11.509058651343116
16.84557338845918,-28.618874951423848,-11.831733526772176,19.477739980553604,3.865001424032261,1.7051243746726616,2.3552989730232743,13.159976357802408
15.803587453056908,-19.372968554365936,-4.238351734956114,19.785217439331404,9.903949277898734,6.799417320652743,6.871816396781401,14.925349517234189
14.244182240509694,-11.286053718770448,1.5951890745460666,19.85648668808565,13.947865407438742,11.722507815044237,11.035912267304216,16.282525474934282
11.952238905590818,-5.934813746377495,4.28764406343748,19.23677441720222,14.948740501911095,15.006149793652439,13.792741386599806,16.53405503458495
8.666867530687682,-4.838507259069856,2.7474893434278376,17.349794563376044,12.272447635579782,15.321223253496653,14.213828989938735,15.08539731831008
4.392053754947971,-8.815890144557052,-3.275487551347184,13.866826676315219,6.028287310457281,12.074419065896235,11.911126365267164,11.801038033484375
-0.32435182789272005,-16.916401793008433,-12.388198237280422,9.058611595015424,-2.4828259499711156,5.900564155152299,7.398492399454355,7.227560641252556
-4.401707193507366,-25.943166021027817,-21.35828042333925,3.8614636302012846,-10.72832769711147,-1.3220096991957289,2.081609345110698,2.4930167948362554
-6.615729319334167,-31.39669600793503,-26.133245036919092,-0.4417228537948699,-15.695930007954098,-7.1088161641335414,-2.256819059700783,-1.1277239348046428
-6.190230632822053,-29.612059938452337,-23.773640578513184,-2.7808358434536387,-15.232585047141608,-9.431496081168081,-4.261722373315688,-2.7748036257778748
-3.2614513437719626,-19.942480188916125,-14.26672829390752,-2.80107548938836,-9.27545118870834,-7.679537588008641,-3.6726080433750345,-2.3900872496554375
1.0631900931871487,-5.783212653136917,-1.1849909414580648,-1.0259444917214566,-0.2767633234180382,-3.024832219365265,-1.499748204896644,-0.7155248265202372
5.128786121014513,6.196856121097005,9.309233696370558,1.4392328401151995,7.498331453713451,2.0121221874903923,0.3919048140796142,1.1019721166029257
7.48432636278134,8.635519155826856,10.988428203640291,3.5381451092716456,9.68373351712807,4.650966978703873,0.15343773663919577,2.1005583328156865
7.636402661342992,-2.6734038429933045,0.8992901144763356,4.8846840310535695,4.035866635060821,3.1985320070420777,-3.023485112003867,1.9912608762153834
6.429170649352287,-25.009048700013107,-17.831349301096413,5.981866103358642,-7.701592875121755,-1.8890730196202996,-8.149019285515863,1.2954258467229194
5.790042349166543,-47.206087563858766,-35.463408315245395,7.853553086363883,-19.3869393925248,-7.785020828963155,-12.40132922536334,1.0564190839947352
7.859789731276823,-52.423901471062074,-38.6105248311702,11.277245051916198,-22.311680992120568,-10.236190330519461,-12.08290778002444,2.2643041728046733
13.861139939745586,-25.35757304892607,-16.245997987330412,16.09567038284427,-9.028759862858957,-5.4781470152232155,-4.35967502067656,5.281431778699256
23.262620776912954,38.90685358211995,33.81394658414089,21.07002583998083,22.39741672098586,7.685066315616321,10.975332342957449,9.564778968637258
33.714045638571385,129.22727512059032,101.55953124437782,24.4112686152317,66.02071890167963,26.73925599890052,30.710572727432908,13.83930481844657
41.87158154493543,220.0491889840001,167.12446476926604,24.699630308201474,109.24515970289198,46.03663791198901,49.04644565366827,16.64920630285963
44.768941697406056,280.87160902635105,208.47363407278164,21.649643524983475,137.59316229590254,59.005834754329996,59.860968686918504,17.012319802098727
41.08233577421028,289.4668099599222,210.95661240021792,16.260387338815015,140.90063406108112,60.979200072661015,59.36630956785638,14.841331075356308
31.67340770569882,242.11396475464923,173.83804415609333,10.267233339001303,117.8114588554967,51.21142870952804,47.792808899434725,10.924551698485567
19.173437108497943,155.3219380874854,110.35349474143469,5.245963714988566,76.22373426795738,33.074352130611835,29.218361005718776,6.5104860081947615
6.868499338738417,58.134921060272546,41.38970515051401,1.9167950778568716,29.543435571742187,12.413228036090791,9.674892816782627,2.7524153711887718
-2.5402922545845805,-20.716007898245273,-13.666906711032457,0.021275740300552015,-9.143052881325863,-4.989256983696596,-5.427577355692265,0.30610852849275777
-7.7526358974887275,-64.07562994327917,-44.16934268520059,-1.254370315282271,-31.959422118362074,-15.549049895130373,-13.263030251706631,-0.7652849275307392
-9.005828481744198,-70.83967079400705,-50.37697573811396,-2.6619437546437084,-38.04707747919944,-18.718474820604527,-14.122302929019993,-0.8201752252884058
-7.630293682393469,-52.66260026201527,-40.49318199021117,-4.4794539529645325,-32.05927208301102,-16.418301520923183,-10.54225180769096,-0.36302743697239465
-5.340417059211259,-26.027153528869476,-25.12459856412637,-6.488862811251211,-20.807985666390998,-11.640210566965315,-5.729726833307576,0.1780028502077952
-3.588649352224894,-4.460017086760127,-12.415017617953412,-8.239596915620615,-10.081224810184098,-7.034365956306472,-2.1474760971710594,0.5511863519929339
-3.178235501147067,5.619846343103192,-5.871782168119387,-9.345312265683758,-2.977772467118186,-4.07350072444608,-0.8170877192011066,0.6796670191773038
-4.178512343873217,4.7616345346645765,-4.915325868711684,-9.630717136424444,0.08648827469650675,-2.9465018231581017,-1.4046784989220267,0.6109972791567697
-6.093555264184653,-2.3454658898748924,-6.8545344387289475,-9.125240966478312,0.3866227895904243,-2.982242942387417,-2.809971117891022,0.4513961199984587
-8.188046359376463,-10.22786135631735,-8.889291461930611,-8.008034685583306,-0.2906790235836414,-3.277337526343229,-3.8905832392287123,0.2969523786489469
-9.836342129800089,-15.075516989094478,-9.37862899288898,-6.568926204491049,-0.5489766329659869,-3.2372839371716733,-4.023703744594138,0.17989783795331418
-10.746187964686314,-15.765012520083067,-8.208050401275331,-5.156170983738393,0.15376958253811154,-2.8296008910579844,-3.316911079080452,0.060387844872994645
-10.96789302357575,-13.497265125256,-6.375484950335358,-4.068689699953569,1.5147754743165787,-2.46993359743797,-2.414451245495028,-0.12406105191302202
-10.730390934802791,-10.47321170498668,-5.112841988771896,-3.4309706976887613,2.7940475849276307,-2.6377342353758815,-2.0270673317874426,-0.38573081116125135
-10.252170358910073,-8.411296991414318,-5.072323952140933,-3.1485471859763785,3.3583070223307803,-3.477298317038666,-2.469587199262618,-0.650173255770349
-9.656050534803835,-7.772548222885548,-6.07563372929684,-2.9895727988764076,3.020000928779643,-4.64167425681937,-3.479866867705315,-0.7824421040267563
-8.989601625545554,-7.99777785061874,-7.476837363237698,-2.72387617461766,2.026128443992053,-5.446134150960543,-4.385460529265218,-0.6407001202541613
-8.253030601736459,-8.247078889755429,-8.66587131667451,-2.206203610361527,0.8651541438785352,-5.175590732969286,-4.44803969943863,-0.10358202799974
-7.367529046423295,-7.856482281715844,-9.195223381284308,-1.3645463690434052,0.14803680302904498,-3.3387024802410936,-3.1563984901073265,0.9326972108018734
-6.131049857605582,-6.254822198003118,-8.51924676058014,-0.15809204131945892,0.5927452710500544,0.20439839926988024,-0.3736634989854878,2.535692849925707
-4.26505945698927,-2.7731426099302823,-5.8266039702918935,1.4104899630585528,2.904652220500436,5.177830338970342,3.609717722474781,4.657747735949167
-1.5879377320213857,3.159934111130762,-0.3678476771328083,3.213626508837305,7.417754154651333,10.846570978466238,8.066342709213577,7.034148622681085
1.7693703485262982,11.499564997972437,7.858295471378951,4.909284223953843,13.671534950996753,16.073425933910404,11.91590793937297,9.15313741439406
5.247128755799069,21.247159193776884,17.59315146145082,5.924310372900729,20.275410326825202,19.587671324045896,13.984237408707012,10.365416393476346
7.93940982335815,30.63438979117641,26.408279185290283,5.56543403736385,25.25218233721034,20.431208550930975,13.406405793689066,10.109778738702483
8.880209845444975,37.704570510373536,31.435379746993604,3.2654347364164598,26.737598918729955,18.36056656532256,9.999258108773054,8.154106126378567
7.4431370150940666,40.97892431379552,30.48634459906192,-1.0996829250381392,23.74143132351241,13.96180806584757,4.407123094822931,4.740765333368076
3.6907609725280746,40.037114485522295,23.18485394991386,-6.974307605364481,16.69323529239556,8.418080317472802,-2.0578150125006105,0.5706803030209892
-1.5175583573662816,35.89292227732732,11.598553321774824,-13.153526089258547,7.541406449014928,3.0799008501511893,-7.818494146783949,-3.38197166710034
-6.779297356470714,30.864501271094934,-0.18876066966364163,-18.163783634530557,-0.7888339700998651,-0.952253121496136,-11.543662158026073,-6.180414871638282
-10.699727708942195,27.654586394266016,-7.743336776005157,-20.858182699391303,-5.564335880414305,-3.1016034574875655,-12.601944824671264,-7.261404924255735
-12.475782881720466,27.912889391832277,-8.516274813712561,-20.91082204253039,-5.583044980381482,-3.394788556868662,-11.275074255263588,-6.6516291815562045
-12.195001901701188,31.21792074981327,-3.3009134960478588,-18.922248630662494,-1.8840321339790034,-2.3338059297532268,-8.59051867619153,-4.93966990602424
-10.697831826893152,35.34607971299723,4.159806105164326,-16.08657015283043,2.7526316754238453,-0.6072975521662042,-5.811062052860061,-2.995068324890304
-9.11988881848713,37.72666776372391,9.275106232451604,-13.634527853364718,5.31962073925924,1.2097330755569313,-3.8482305556874916,-1.5747304752961222
-8.390869819962708,37.00127424852094,9.088691110496033,-12.356811594247167,4.185632788095348,2.7913864924737712,-2.9388422629782593,-1.0227934646904342
-8.919629896280728,33.60609795931538,3.650689055989932,-12.400404710940268,-0.17224216572000883,3.9900571594983782,-2.7342172671219784,-1.2023104755851963
-10.533325219733587,29.216188962882903,-4.317678938360332,-13.352398972853436,-5.611796253554961,4.707258138303003,-2.65361828187776,-1.6570738786395387
-12.617460506767904,25.725006208202746,-10.983993161063335,-14.511064212954038,-9.510827095953443,4.888481319866809,-2.215970092377323,-1.8908325742937258
-14.372973591283857,24.449364565034386,-13.23006241932529,-15.210434320266385,-9.986650671264742,4.653324083604263,-1.180921626661189,-1.619272085871396
-15.10675872509028,25.754125133376427,-9.936579215274156,-15.069881650066243,-6.632014608110086,4.386492557604682,0.4646150412878182,-0.8856382198686157
-14.461402039966337,29.023174018758105,-2.2807088131751314,-14.077718403961015,-0.560212216408231,4.626783564313987,2.557031899679249,-0.005229781573075302
-12.50366594384049,33.00488484329699,7.032034186423871,-12.506662951932435,6.2019339026106115,5.780044300197964,4.790293397946787,0.6081852631332652
-9.661724145896708,36.53374970156347,15.220799511208003,-10.760851293391992,11.691725139205827,7.838042161473087,6.752177331779722,0.619875987789003
-6.579167812320472,39.24333091222352,20.74537427305932,-9.275168334515834,14.851507897074237,10.271388275316781,7.9770397837675775,-0.14467365510721314
-3.9615425932277675,41.640910898184295,23.673706250324592,-8.494124568486647,15.749880024169071,12.149118290026825,8.006947994130101,-1.7253681568334467
-2.43110980306266,44.35366549230755,24.958633348534082,-8.844723329594403,15.110701761283417,12.450273522465368,6.476071225525805,-4.07936589469632
-2.3644808961375965,47.17983568210407,25.32508961770254,-10.61336114583115,13.595353166259327,10.491058547453783,3.256980709260304,-7.072174177489451
-3.7256042989299036,48.87488038190348,24.7056090495113,-13.748994306409994,11.427625343318134,6.332775337728359,-1.3485782034411276,-10.40261002077676
-5.97838377801155,47.97665724249211,22.585239536558205,-17.72380541379179,8.583020491562062,0.9716418764174731,-6.497990415036509,-13.54415307650587
-8.174461028983062,44.07351233847799,18.84269762218313,-21.581422209942815,5.270890049768464,-3.853423048434907,-10.922048397262957,-15.799516539234169
-9.233080001263055,38.635260415893114,14.41152106676528,-24.203888364634935,2.2790178291736143,-6.219799671788876,-13.286811082771436,-16.499824128604374
-8.328434244912918,34.93061116881645,11.358691456951018,-24.718740953934958,0.9482003990135912,-4.728681619318285,-12.658183390167794,-15.288291945094937
-5.251215684068703,36.99152227084106,12.290202059988282,-22.896910328426905,2.7625178302244535,0.9158645593890431,-8.87746280767499,-12.363555199821269
-0.6143709246477936,47.72072439967465,19.114938818296427,-19.354337550791858,8.605265645937257,9.634476762183086,-2.7401869100504093,-8.541469881773473
4.211795345892422,66.50292205273797,31.434938808857986,-15.383422742888103,17.835971721781668,19.073857670397178,4.054649466241491,-5.038100867412488
7.505116372423383,87.42195982252429,45.37271272268143,-12.375641399674654,27.650677752944752,26.11614018901925,9.231548020471969,-2.9956498659304516
7.870221298287058,99.76639804366967,53.993088006929575,-11.060573584711372,33.413334724796,27.784046138919944,10.583811520045154,-2.9413341655250242
4.917634803906045,91.79581510697061,49.88676472180737,-11.009169663887965,30.313457317540873,22.347409132910027,6.82260115950181,-4.478843141582846
-0.4391243320489861,56.61503769641964,29.0014191900097,-10.789117517762817,15.799807781138771,10.190027303611487,-1.7279785380318384,-6.438270343107542
-6.309565333614066,-3.051519883776344,-6.468759590856502,-8.770674315320628,-8.575868122738067,-6.0694266252396,-13.031288849513748,-7.451762291013437
-10.665185139224018,-74.48596831193866,-48.1899948734875,-4.122692945054528,-37.22352708130095,-22.428450677065513,-24.03570347450718,-6.64677475714709
-12.255570159800827,-139.9323679151809,-85.15015374321085,2.628089043495684,-62.75477006895355,-35.03407036388604,-31.91516691480872,-4.0632458628063
-11.101016975989266,-184.44187572122198,-108.67133076822972,9.833808523951022,-79.27370410689876,-41.67800609745661,-35.23154039243291,-0.5699730925642109
-8.309805209792938,-202.17645571724498,-116.08120882060138,15.603631586396304,-84.84740302547002,-42.49142663204342,-34.39049671324804,2.641764708885767
-5.374465957309771,-197.66090221768002,-110.9920750152844,18.76566375631291,-81.77451561896783,-39.50521539218096,-31.164309806039977,4.671042140813238
-3.401386005899882,-181.77591335406544,-100.3894206500967,19.334791841613402,-74.7144872390343,-35.404277963583034,-27.626781903994562,5.27793285096277
-2.715902225615209,-165.56320599145818,-90.72810827233093,18.276708238384334,-68.0802849228736,-32.25291047502137,-25.181127165089947,4.846258471383895
-2.975705624091749,-155.71082618032423,-85.44925468369284,16.836187630246684,-64.30998024744048,-30.86906856512321,-24.19861323118657,4.041479881647009
-3.5741539008548284,-153.57215520869795,-84.79349972781469,15.920950953365784,-63.66610444681761,-30.98227746762162,-24.27860086457877,3.4299812766469464
-4.0025237368861815,-156.83455177854142,-87.05826842339674,15.86255759128796,-65.04946599872825,-31.801701423634913,-24.745834243528652,3.2780571730916583
-4.002981943151618,-161.83607922950625,-89.9882714864292,16.52614341187531,-66.94877016692081,-32.53639408944898,-25.018623960273324,3.565364700990382
-3.560301885169867,-165.31987718189302,-91.71085562152516,17.545106426659625,-68.09103454676801,-32.677622203131925,-24.764833880761152,4.106673162571682
-2.838401126737266,-165.51920857844297,-91.3128199486752,18.52099940731182,-67.83410405799832,-32.09712059985908,-23.944947021851192,4.674615132085851
-2.090619784493066,-162.62874920625862,-89.09490934375216,19.17100958910228,-66.34075414465573,-31.02407315563886,-22.787602942276653,5.091011083885813
-1.5319360539870288,-158.39479022739923,-86.25879812754107,19.4307209291784,-64.38854331732432,-29.88404629343485,-21.65200386890026,5.29000589707716
-1.2221890719263664,-154.83742675786254,-84.04064320665455,19.459117613794728,-62.81120315436681,-29.032951149988186,-20.801325985637593,5.333804302968107
-1.0555006563200537,-152.94012418121596,-82.90570716470091,19.508074753884454,-61.95416198607194,-28.554529604424772,-20.249830163972092,5.356804481355504
-0.874163948931446,-152.34326055869693,-82.4792324368325,19.73962677470125,-61.59588463678424,-28.283087468289697,-19.820675574624772,5.467018657480342
-0.5984446487795444,-152.13383133826022,-82.15966092872388,20.144460274118764,-61.33357219827683,-28.00771428625971,-19.3435786858362,5.683164752739133
-0.2506623768898754,-151.75172988398373,-81.67695750637608,20.617182258670177,-60.966484734196584,-27.63965122589543,-18.780134285013865,5.955519820811708
0.12163811823656696,-151.12215012887035,-81.06171781594367,21.08102896429094,-60.50356689185781,-27.198409031334375,-18.172672253798495,6.232977930507989
0.5095929546139227,-150.20388777547043,-80.28676548945002,21.524865400045684,-59.93370010837484,-26.69982843371281,-17.531315700883393,6.499468375595995
0.9220597730754324,-148.7960028894733,-79.18804727672975,21.947672902729757,-59.155313733372026,-26.121416449973722,-16.823189149853565,6.7551872780667805
1.333854559877217,-146.89160069885605,-77.76654434695843,22.32090142600457,-58.1617477388541,-25.47597408820917,-16.059354853762855,6.989829364886002
1.6943351496796546,-144.9710395948009,-76.37088758739755,22.630763979514477,-57.17265267746986,-24.857695838603572,-15.330658714871632,7.193478238575561
1.9917866458154398,-143.66257819539584,-75.4075454142199,22.930838409444895,-56.46198126260514,-24.365798927328754,-14.720040611656175,7.385960706257087
2.2807247076859802,-143.09871406986093,-74.90137249589655,23.309941125196215,-56.06612937744525,-23.993396629056132,-14.201744884132177,7.612219011069037
2.6247556607720686,-142.7786467541739,-74.47473248464532,23.797417555708066,-55.74670769497014,-23.63137984999038,-13.666795473947388,7.897123919945464
3.024400894504265,-142.11638468058652,-73.77351611810688,24.3230402650189,-55.25687164140535,-23.187845339473355,-13.046094629846532,8.213577534769199
3.423703506455034,-140.97134265886464,-72.78588111974673,24.786319785808963,-54.56547265943608,-22.669747107477978,-12.370902338609328,8.506832393195367
3.785063023931378,-139.5397190464892,-71.67936652670052,25.15236600755464,-53.774516780921,-22.1298791076659,-11.699304888506559,8.7480560355585
4.131091751802201,-137.90418538583728,-70.46809306165169,25.46437040512206,-52.9046638495933,-21.571222678942842,-11.023861437312503,8.955159080428803
4.500179291851147,-135.9980734234648,-69.04834098962712,25.779136189454118,-51.90121864188345,-20.957593263433154,-10.29918470122227,9.164715436954179
4.882848479013345,-134.07868973729916,-67.57816962825052,26.127742058634162,-50.87176395325452,-20.321212674208613,-9.552783086230356,9.400675401920854
5.23227680450913,-132.94370117848112,-66.60636019800528,26.546935845435605,-50.18019902254417,-19.802668294574126,-8.910901178178607,9.678694917956367
5.5374775709052,-133.31472461400628,-66.60348116854276,27.1037186044666,-50.150151207998434,-19.5288396366431,-8.472077461390489,10.022688716844483
5.856317754552055,-134.8924964917364,-67.33357177298312,27.829740132055395,-50.64004132407592,-19.447384218986585,-8.166469191917539,10.445576166330758
6.255423141080632,-136.158215628996,-67.79848662850291,28.616220338288606,-50.97840213409897,-19.311829526371568,-7.77428799113064,10.900510777505776
6.729050143047798,-135.28431269851222,-66.89097345153797,29.214542373881446,-50.3858384374355,-18.848360894944808,-7.0933790547480715,11.270019923364313
7.19924197954576,-131.40190115356228,-64.16511008732417,29.40035459477636,-48.51500676434228,-17.94509889166506,-6.084441705342022,11.438031237632565
7.594410753617692,-125.27350643484218,-60.145598443854055,29.18118449348187,-45.70287088262735,-16.718818772334362,-4.881586394364358,11.39959848538838
7.906758999409013,-119.16037602800436,-56.1806141873052,28.8684552705694,-42.893933538370376,-15.475791173345069,-3.7275221755253636,11.311114463972276
8.169672235258103,-116.19067876670245,-54.107575286502254,28.95223283326185,-41.3953709976729,-14.646724307741266,-2.926671808010964,11.429747783968534
8.41046787028726,-119.23981424941945,-55.66128679681127,29.858076839565058,-42.43855397109305,-14.669088959220659,-2.7766787457057323,11.976291919564693
8.655924597926345,-129.08233176547418,-61.35542211574815,31.68742206790028,-46.395014833573384,-15.725468174023106,-3.3763170529974498,12.989145619581068
8.965477431005292,-142.3425925652689,-69.16907821821346,33.99834342628884,-51.87204833623969,-17.406962039617234,-4.372621171513154,14.21424405093089
9.392066025817421,-150.96189816776987,-74.21628659300823,35.7089357081058,-55.47104275222538,-18.60529475538773,-4.919174222899822,15.066220569613865
9.850259359440601,-144.77404826275225,-70.42591497790424,35.281192458032635,-52.91730143556507,-17.908867031511456,-4.055549665858922,14.722469231419618
10.0219144319462,-116.68399718259224,-53.79727411239376,31.285748843695384,-41.3080719651262,-14.399972049627817,-1.3580223955763528,12.40120459353451
9.454822641970898,-67.48304944621346,-25.249439106999617,23.178478556485846,-21.149371944917654,-8.346635040252421,2.605539400730367,7.765570079114139
7.852771974468635,-6.884519642221943,9.018750226524169,11.845939004552585,3.288898790452643,-1.2539060903403825,6.423363131429825,1.2551412925504208
5.370720190137073,50.38875518638932,40.16567057315778,-0.49747775652774373,25.742205922605482,4.854259483527774,8.58645095824933,-5.88068163605327
2.694556548033309,91.36215693249335,60.83948959076952,-11.102604856838019,40.87726203862645,8.52552433413191,8.401331146198563,-11.92919240662254
0.8202070956964697,110.46954148222046,68.37205610455686,-17.769444047387324,46.66721811268504,9.683523313227298,6.499875119630421,-15.309043255692387
0.6355519837094405,111.01803557949282,65.33399403117535,-19.651346314487014,44.92656420119194,9.659204449747234,4.614161295426349,-15.147740441192798
2.526217955026549,102.15647588486316,57.52685343120897,-17.404826329912904,39.93448556677229,10.442871833282657,4.733215333783752,-11.591859376787303
6.207198633131909,93.73141288684378,50.98328052358304,-12.706562949852021,36.197412225061704,13.612635963257638,8.120459177835963,-5.734566735812772
10.840274407064513,92.14112409887989,49.72484771730115,-7.486964700996935,36.654675936036746,19.528852114417383,14.703169465798839,0.7785840526561234
15.33329484026236,98.87598496084837,54.98827719278734,-3.2962501699872084,41.98437241582484,27.141872675413584,23.064241357788266,6.276023874672859
18.65514778775193,111.3890394082868,65.49067743209518,-1.023229140094457,50.826778030935124,34.38708807492883,30.93446145511434,9.511793947579095
20.065498767732237,124.97148510587232,78.054576706302,-0.9167623157191834,60.43237146090763,38.92123854646326,35.937946762205456,9.920191627908215
19.252393923457053,134.68722816510436,88.43762571541662,-2.730499816862384,67.49302893357084,38.94422398132659,36.37226391398892,7.659361415771264
16.39317210243889,137.0837819333637,92.58819662718558,-5.870990683613586,69.17246057399369,33.8996963040189,31.837278609300178,3.48846581640861
12.119860333296115,131.44934559732997,88.22682252650105,-9.54276308843105,64.21186042125798,24.84168370236964,23.497954492001025,-1.4697514079826184
7.366671541822706,120.09978841319295,76.0557400376309,-12.914754818944619,53.65370845851004,14.262280481948881,13.795937259656952,-6.028647433500541
3.130930096153284,107.35819489693708,59.79918627280065,-15.290837099486767,40.68590300455176,5.326636903912232,5.624258196568033,-9.233645764839205
0.22405509823554098,97.64119795788983,44.86261511495607,-16.249422890993774,29.512240459347915,0.7400707217298441,1.2643030777683735,-10.584827343857004
-0.9259893660706107,93.64727732026503,36.15673665879161,-15.74621066064413,23.6875351043328,1.6969258457171936,1.5406171766664667,-10.138732711063039
-0.39551329078538183,95.4657870820512,36.02431380379954,-14.176661000058342,24.635271832586152,7.367357091582401,5.558284162361183,-8.470458807050502
1.2234123694679127,100.78302618516169,43.15710401157332,-12.337110617488882,30.99977319600069,15.1682391416995,11.125951233561924,-6.49228704748244
2.982180486676972,105.930286130903,53.06688443360795,-11.19371364005379,39.18678728014361,21.759898440908778,15.692647357350264,-5.145369732064261
3.924457622035024,107.44673906118318,60.10857907473362,-11.469309569373605,44.9877612955419,24.419078414564517,17.43041350808492,-5.036989984439127
3.50440404637335,103.70818444549161,60.2515261573852,-13.243563323938812,45.62033428905631,22.22956185734431,16.006820907180362,-6.168825771945693
1.8367088885795406,95.86299778466747,53.145790008925374,-15.84408647496035,41.12198381696005,16.512319671389715,12.667194048243683,-7.914844893470309
-0.40335390305294394,87.33786678165785,42.20333318377067,-18.157125777278182,34.23051983984746,10.206453348091697,9.543193171214426,-9.303728336478374
-2.3826596928572292,81.96954909053169,32.59537433172165,-19.199614521075883,28.766919175377208,6.456538681184903,8.530625915180922,-9.48555781342604
-3.5521799735240482,81.89270824364861,28.462677653848722,-18.610857191661953,27.532737047791443,7.137925332708107,10.354195154090649,-8.144284157113715
-3.853239466028546,86.58846341145001,31.075593634692567,-16.79026197428195,31.02143161467836,12.090801155952114,14.315910357634712,-5.648946019974914
-3.6084097550233922,93.58119399719975,38.814532783128314,-14.648333930962396,37.57032904402157,19.38649720445456,18.7753641843753,-2.887281480429092
-3.2382026141479994,100.02281541057856,48.51820297303789,-13.152525988286623,44.560713103924414,26.357717347881376,21.986790671104174,-0.8835462143438019
-3.021311443674774,103.99065632285942,57.091601206701476,-12.916618085736566,49.749327741940036,30.79370656799919,22.815396839924617,-0.38568459176362335
-3.0342913246522984,104.92559166625468,62.55562192227752,-14.019007730943875,52.036292457980686,31.75088852601243,21.051319453654642,-1.6046446339217078
-3.2642978586183418,103.40293664081011,64.34609840632893,-16.104786822311034,51.51884992897941,29.698885591285347,17.300040053677403,-4.213653229273881
-3.775768331801908,100.63088870937193,63.032081633557645,-18.672969241362843,49.05644498412133,26.030443100573542,12.593385518015769,-7.579498038282906
-4.7726635978801175,97.87395580250123,59.71817218321454,-21.33662068810711,45.68371444741057,22.238511046156383,7.940815780709051,-11.056858697317155
-6.458102794130985,95.95490234567522,55.48064696536438,-23.86517253466133,42.20030780900234,19.231937526072326,4.052705526597859,-14.140296160428955
-8.746932329864288,95.1329057868193,51.212722803669365,-26.002069710171984,39.165985741569195,17.182034319318866,1.3652703562972692,-16.400517841901152
-11.046239967777353,95.51710285860096,47.95642855275395,-27.266383994562624,37.24761587287397,15.919661302922815,0.2666427478233643,-17.343644536058974
-12.340818802394475,97.6319672535711,47.266275401232164,-26.991270026955146,37.5091286863942,15.469677526785414,1.2233619874984552,-16.428999329104098
-11.637332476141593,102.4102751676547,50.940183049423396,-24.657884410440996,41.16499142961519,16.20090733248451,4.563108068432108,-13.346503846808782
-8.544478083226831,110.33714596074411,59.948328513216346,-20.313147749357373,48.73831181056759,18.428655385702754,10.000759072543456,-8.389813053129718
-3.6222208940819427,120.38155436556234,73.21639481190377,-14.757747571819804,59.17211950378638,21.829007663635117,16.31336490094262,-2.6080117002005534
1.7441485583041925,129.74656536273562,87.26303399986821,-9.341522946253372,69.65518071046122,25.22814396049879,21.54899908404139,2.4684144243365367
5.892204888400617,134.86587842348564,97.19316195848313,-5.461186360840259,76.49972247395998,27.034427408170895,23.779134177150464,5.435679295195977
7.560431916091307,133.08132573598994,98.67030779366173,-4.013944665518178,76.70582919444048,26.06656535316115,21.993746144169158,5.626713978526294
6.373595615558127,124.00868142685721,89.94021066628343,-5.051091453921404,69.42432117339122,22.237477944399718,16.624774257651023,3.381711667850395
2.952684557834417,109.95301105202579,72.98664163287052,-7.770506628231365,56.601662607833845,16.674188644206183,9.414830224785158,-0.1565416869152627
-1.3571544738399532,95.28995137889302,53.23168365972952,-10.858961919175979,42.468084146997626,11.229456787595511,2.7104685290208654,-3.592691961910567
-5.014422606588343,85.00639119554701,37.664050069650024,-13.054778973113695,31.97721564552851,7.675052363030359,-1.4794858652407554,-5.87621098255466
-6.855375031644326,82.75367828313222,31.936806201141444,-13.675712948889,28.74690379063752,6.984286914520197,-2.245541952499563,-6.651604701354988
-6.482207707521439,89.113226437356,37.69550162698308,-12.840119459791653,33.402586499976856,9.021061452589874,-0.032001347921278324,-6.222597229774636
-4.308975515247382,101.05768228588923,51.63262980479167,-11.268881913291578,43.22476133348205,12.74332787854769,3.7264357898095146,-5.210061739206362
-1.2784071197927154,113.21168307625962,67.01872361015465,-9.812798865344494,53.42934854240094,16.78477999959375,7.400046623809532,-4.143661352563999
1.5706105452137333,120.43450125018146,77.0109793458908,-9.015183157264394,59.47883305343324,20.093612787694273,9.962164449644623,-3.235855924763828
3.460743695001767,120.30568560268433,77.92502466623482,-8.963171001549071,59.17961392626954,22.292824998129188,11.35301247093381,-2.4409892303313705
4.033629108380366,114.16776459094382,70.74555782008125,-9.458379167752753,53.484602836454094,23.61804001552282,12.253131712378018,-1.7018860988927151
3.320356357727527,106.35073709304899,60.2912813252363,-10.329200504719207,45.74057165725651,24.55613238003509,13.48635220623013,-1.1715966378152016
1.6043943259155375,102.12072781216591,52.67216223148094,-11.650943957871048,39.9259740266242,25.443509896943432,15.450308748726036,-1.241535726164968
-0.7559103256727046,105.14029137607928,52.23800066306992,-13.73001862541642,38.71819564496671,26.21192824850598,17.849263760954265,-2.3573114363866856
-3.491166005250052,115.1488119769143,59.19142371911708,-16.851094708606208,42.09941388456902,26.324126642455017,19.760031010225347,-4.738498105275141
-6.497822854649747,126.75210856218486,68.84351221849636,-20.913515908282182,47.01058652261513,24.88568901297583,19.93281532466031,-8.161062153965473
-9.76450341657226,130.4214666402449,73.13315536189445,-25.17115820153035,48.355256362496554,20.945801710655346,17.241118597151814,-11.921973928495962
-13.178333753629028,116.17452081879354,64.17919191192443,-28.295830347716606,41.20265562109348,13.964512935435582,11.19401829989662,-15.027498605614788
-16.363903485469294,78.71778021447291,38.38718213482215,-28.847441067677874,23.32459161603396,4.272234296324942,2.32756927598559,-16.551304324310152
-18.729047244804015,21.214327636019217,-1.1556156149384098,-25.977412306010635,-3.298784008741156,-6.781972305576008,-7.784127995417646,-16.01651264704913
-19.754708903980386,-45.07384072529544,-45.6840132025076,-19.975642065197516,-33.068755204652305,-17.21536636864031,-17.044510801893864,-13.616051882450005
-19.35714671213243,-105.73219465562946,-84.91190400489236,-12.28384102678449,-59.35993565787333,-25.235478725583665,-23.711627747260973,-10.142251331898848
-18.036635218957713,-150.03533404425025,-111.96796405630487,-4.882670028414419,-77.6739080129959,-30.05212830093077,-27.160494767876266,-6.636724269124174
-16.62791898000275,-175.30421138780264,-125.97581837859687,0.6405937123307793,-87.36530247118807,-32.12032564783079,-28.016028654417884,-3.926096192094026
-15.754523977687112,-185.80507027494826,-130.58603782356525,3.787135764928109,-90.788319221306,-32.57367837004939,-27.504935594269895,-2.292268570955054
-15.360578661903709,-187.1138993940777,-129.65780702021615,5.155009056349826,-90.53582169010076,-32.20296757301274,-26.449620611481564,-1.471127679540223
-14.70010010264966,-180.40890826720008,-123.49723237442093,5.764381693837292,-86.92469944177742,-30.751499566764647,-24.656926559606383,-0.9772543550421732
-12.841434541319307,-161.30328802385628,-108.6614233743458,6.204233464364463,-77.73234574325737,-27.119428958941192,-21.18967948623002,-0.5210726821520775
-9.336653409946324,-124.19188892641621,-81.46641435657995,6.246612614933278,-60.394362132769274,-20.36035908383914,-15.305095767799962,-0.2011275401912987
-4.567860272743336,-68.59888546882654,-42.332960865070085,5.201771915639054,-34.88437553545448,-10.69656773006339,-7.297338991261107,-0.31995826412373235
0.4631873792729757,-2.421713633000934,2.535121966302979,2.6921969555869283,-4.970737446015335,0.25047425017591785,1.4264678673332394,-0.978289220035914
4.715923129084775,60.55874458141584,43.51319968371057,-0.797986461008613,23.15335899662954,10.199110936041345,9.07559693223358,-1.797571159338249
7.634369461764678,107.21799812907817,72.30333178320198,-4.041954353896887,43.89447057139424,17.36773059469423,14.435228513168793,-2.0356913897410744
9.279499488085936,131.2500050435754,85.8394657351029,-5.774889034373546,54.86799571040551,21.24460944023307,17.368684567072663,-1.0572278726412052
10.054670481776519,135.14625636974594,86.96880937927153,-5.472148508132094,57.493331035846005,22.518346730427997,18.590984645491268,1.1671436256943373
10.295879749487305,127.31995539601344,81.89886956786944,-3.6573464552776067,55.48594360365782,22.367755209055005,19.005340650967916,3.9078490665731898
10.05254142216678,116.84685344439504,76.45008127152063,-1.5527594429449465,52.508267798201445,21.72068796572716,19.156848425430304,6.015624119232818
9.18974286017071,109.28523454733705,73.51199642824889,-0.3443439345623114,50.51689378725922,20.98096766436748,19.15389236357952,6.55243924661277
7.678230369300241,105.59036501515627,72.82578243460543,-0.5591468022168413,49.55198005131218,20.255315169035345,18.966096594709068,5.3099853763833575
5.8187786790366465,103.80451884726901,72.55989061379184,-1.9098725466427346,48.65603736022128,19.72286854074138,18.731454109520552,2.897321621113861
4.234533379139358,101.79541197643218,71.32712927290765,-3.6118656361852053,47.08213661527068,19.776947439348756,18.796966564123167,0.37421173795441753
3.639016769492953,99.35083432506873,69.49165944218637,-4.9069138562270265,45.08571822268503,20.84945689697454,19.512314686997144,-1.3179515604260905
4.501691441681033,98.65774998762136,69.1940868848158,-5.48436412295386,43.96560711973483,23.088219595746317,20.978635135104494,-1.7975224903372933
6.754874469738739,102.87255166058446,73.01084965051372,-5.609014627345138,45.30121354969031,26.099287514300066,22.90135872173731,-1.3491451617567414
9.673297335334004,113.22337418032716,81.69868760605776,-5.915728918921016,49.618505479114525,28.865152842528015,24.561675511666227,-0.6899608689756747
12.033741299319505,126.1251740383196,92.2043781090635,-6.962005984596751,55.1522590603432,29.880925955046536,24.896892363056168,-0.5475827790882355
12.574913007371618,132.52596915437567,97.53394007907701,-8.7515246821937,57.67671667745553,27.545894853928033,22.749016781326738,-1.2638113105245186
10.60276595881593,120.9895161445898,89.37545869873144,-10.513616502171365,52.02321137575263,20.787116258405575,17.325240103359228,-2.608658188420112
6.425568757411559,83.66090945353179,62.56900420802146,-10.94600741249167,34.821903180671626,9.71085435766714,8.732355464118367,-3.890639425771945
1.3200784115306363,21.790879675985583,18.85271474807464,-8.871236087532608,6.919579096621011,-4.091130026910508,-1.7473119092976581,-4.31172546707672
-3.024006119284118,-52.963945564295734,-32.73114462762604,-3.960856009661581,-26.20451361630009,-17.89677147152242,-11.941637815491747,-3.389904842011265
-5.30457209419808,-122.94465888450425,-79.48610119433326,2.926995844676624,-56.58886612941606,-28.84632580185517,-19.62483978872318,-1.225447213159041
-5.197549902970233,-172.43331643395155,-110.86212676698666,10.054818572288308,-77.41493491307972,-35.118924731691244,-23.49378930764305,1.5396625073130001
-3.3974842905438507,-194.55203466619858,-123.02644091311068,15.619163766139197,-85.99764488276283,-36.64096910491516,-23.705424613519433,4.050396945968597
-1.1177936660758827,-193.16356848625907,-119.61991813568818,18.59550322254476,-84.42817314526208,-34.90901110246826,-21.63773472858461,5.664239268875561
0.5947461236055027,-179.15363825893655,-108.66933995636556,19.10990352440673,-77.73032958357994,-32.06616286955643,-19.05371648981916,6.2218346716234745
1.2961359458297699,-164.06062565831394,-98.03858397985381,18.156960483427113,-70.97426238685529,-29.843583188096947,-17.239994880718772,6.019711797349158
1.1393169779371664,-155.14537855632682,-92.26007284818343,16.930775691895054,-67.18074015524056,-28.984617729108194,-16.627201562913008,5.550774983799285
0.575350564605722,-154.08175282699838,-91.98485964535863,16.24851647905881,-66.8862491998455,-29.326745706576652,-16.95844956357718,5.221192688443167
0.04964858264862207,-158.55825776535758,-95.29434308244885,16.36636154517401,-68.94241831443672,-30.25109095253359,-17.689289955050562,5.2150525899864055
-0.15167378445561214,-164.74775721003186,-99.41967175355714,17.126782260426825,-71.615519322525,-31.112313256508106,-18.299973987967462,5.519275567258231
0.05686912356806841,-169.2950111860985,-102.06402203652547,18.18870572282952,-73.43807697142798,-31.491191781542046,-18.455538714397598,6.008991250689838
0.5572967416267386,-170.58724298779674,-102.25316893680633,19.189980422068988,-73.75445644558526,-31.313779904615505,-18.099291353473838,6.516400318672869
1.0801393630877543,-169.25206691488458,-100.63756612435431,19.86216720842625,-72.926844305038,-30.856966891928757,-17.480299510049996,6.887218327868944
1.3526890078588993,-167.52379599245972,-98.9508126978066,20.1330811982284,-72.01671446237815,-30.576065064088635,-17.01790355843308,7.046113922691192
1.2803301823659545,-167.52603515203398,-98.71852691868338,20.154025327218346,-71.97858887698253,-30.777613973919465,-17.012969543783072,7.0401569458296995
1.0136483656712332,-169.57157972401103,-100.0820344495703,20.183473326988842,-72.90042301873848,-31.356427368482475,-17.413923407953614,7.007830335563641
0.8342326952901705,-171.90525271458472,-101.71628201296444,20.398618688629096,-73.93465572919385,-31.839205730088814,-17.849944393458568,7.083102532831386
0.9599747412570222,-172.17427008179834,-101.91495740425502,20.804106730971593,-73.99992101973551,-31.73180740327597,-17.90479677872734,7.314304649062876
1.4253112224489242,-169.39059130564726,-99.91224019664152,21.30705175266002,-72.6572601915989,-30.901972352171047,-17.395188817771995,7.659093587076172
2.0808936142158974,-164.86947826096338,-96.47792792222381,21.839508062707,-70.49954958745619,-29.726143675198212,-16.47092491149967,8.030472859800145
2.6443527493302335,-161.69802755414122,-93.6158126745552,22.375028867856525,-68.90736195819935,-28.94755810149269,-15.558549967844776,8.328446591739308
2.7650911038589574,-163.29320652753566,-93.74586836833082,22.847772437842764,-69.43605621313182,-29.353348482389183,-15.24096163846026,8.446178624939344
2.161292983701174,-171.6000770658686,-98.57647192793533,23.119823277472136,-73.03378003820279,-31.357821802250808,-16.053162514650616,8.302047477695167
0.8558860720861343,-185.1613395136445,-107.67903681797594,23.06713653031292,-79.14859379534654,-34.55599591098841,-18.13031657922032,7.917905737092445
-0.6340440471166418,-197.75128495708933,-117.29588450862266,22.670024494130455,-85.05605070753887,-37.454053022689095,-20.83952262911505,7.470090966190548
-1.3930902037135464,-199.09281499144566,-120.62005479786117,21.95856246954829,-86.15255029030111,-37.728840933316235,-22.75311427448299,7.216277590167771
-0.5604688824384487,-178.72556270608732,-110.40572214648152,20.841400155298754,-77.71964813031406,-33.184980146668984,-22.216819453524582,7.307600413727457
2.1036093167611325,-131.82029884603992,-83.03399293000928,19.019721122527702,-57.57139563933772,-23.041915856655415,-18.29946015859938,7.629380982045015
5.940714763567156,-63.44577416654302,-41.51520331329758,16.1374999761,-27.952511857484716,-8.738801677452354,-11.49450692057089,7.8264984947562635
9.640910638583849,12.048313470544837,4.9070236066423085,12.093058659929433,4.811875534505065,6.416437269834166,-3.6120100604421816,7.533998382432246
11.885962525325912,76.8871564549974,44.73547711098017,7.269827275846184,33.00093568204564,18.704014797204486,3.1495845621078646,6.665170022775005
11.991512604696606,117.76849923609308,69.51232428049808,2.4846677752207094,50.9969571950395,25.729830955266113,7.363306417235464,5.544758007353001
10.163087161920748,131.23798572957162,77.28739721252553,-1.3503893476798416,57.53053031151688,27.393375338602603,9.001916004767137,4.764158609238522
7.251012039410015,123.71582416263195,72.41697325537064,-3.655581091824005,55.48332531206367,25.541826938683812,9.155334342833426,4.822206673356561
4.219400119196615,106.79569672018181,62.27168168167851,-4.432580577488642,49.66863423945309,22.639475037721613,9.112557741785563,5.77572859501572
1.6995525397979356,91.13082243764832,53.23439510727358,-4.181487907430549,44.18849614990225,20.389472167539953,9.510116378686138,7.139725510745161
-0.12439361925866715,82.43029588409001,48.36131505547971,-3.5565956608354847,40.93812057609144,19.1568235957353,10.123069187162711,8.12305498804451
-1.3305664549939074,81.0211175359421,47.50113062058348,-3.0004370485029987,39.760665171338815,18.369967819195974,10.324471286318756,8.065709427204801
-2.005943699659311,83.96148058257056,48.931166458888065,-2.5791963872954584,39.590868602459295,17.38557769216902,9.74341779507226,6.815017853886234
-2.1305013230630045,87.66014935127112,50.98423520362488,-2.0740759703493308,39.54055247985132,16.107274248194418,8.598320843598612,4.822476608678157
-1.63623684393596,89.61189228019005,52.79463474740099,-1.218073756565942,39.33690307725734,14.998925474907274,7.530568370402085,2.9138467597061
-0.5437731895562662,89.00884527948907,54.234807648688204,0.07984490569642978,39.185021934776266,14.641319949786524,7.15207968821567,1.8667269899151624
0.9384065697624738,86.53867936913083,55.51088677888382,1.6309908077215176,39.41244678216172,15.24833046567048,7.65527644828071,2.0268034243463697
2.4194152902334225,83.65883450900601,56.75850211951276,3.023865356313865,40.16198346734265,16.48959419719347,8.715438836817995,3.1684398228527995
3.4534517633451545,81.6548245406023,57.81037255826418,3.8225542283357914,41.25457511113879,17.714783703282386,9.712898462095154,4.6698813498854435
3.7480234843203184,80.97558637645322,58.259008428260465,3.8134822535437474,42.28068939720468,18.414249949893847,10.133710529204135,5.889561166696345
3.335760023279665,81.24103195954451,57.79314480640565,3.144215416988972,42.87297371733077,18.588401808000953,9.903710170103373,6.503468746059985
2.566626757430996,81.77153258611945,56.5058104304078,2.230959232725656,42.93815298271598,18.723159903205243,9.419175691457742,6.591264097041397
1.8787410672103189,82.03988515445262,54.806693425628005,1.46894562592389,42.60161444934491,19.3270489001984,9.21579990489063,6.440080079855295
1.4894641364324528,81.65924315949971,52.952246401666486,0.9488271618705383,41.88608088729986,20.348613604786497,9.497243519386535,6.240492842213998
1.245749794995838,80.15654150688479,50.67900798380265,0.3991767144225635,40.467244013724645,20.963934060066347,9.897426080550678,5.915600898228782
0.7653798208684448,77.04011966139564,47.39996861734063,-0.5943623071391148,37.829855229197506,19.994830164493802,9.697246368705141,5.201036988373505
-0.23273567961956562,72.23064710720601,42.85018597667385,-2.2545363282206936,33.74976847380612,16.7258980805281,8.35319828401042,3.8913836594423445
-1.660691190210518,66.37359034642955,37.5729150044821,-4.39884950548364,28.671764442419384,11.541015008762967,5.94016701440036,2.053405832673316
-3.046987758207406,60.61157755481449,32.781376975446726,-6.480393192428147,23.631492601751994,5.900962656959575,3.18717534966498,0.05290756984108866
-3.771132361757088,55.979920115927584,29.727076052595816,-7.846413927250218,19.77939222677989,1.6444822289710288,1.1002200290457373,-1.614146435155446
-3.3904140741084627,52.950503648158886,29.08039226404471,-8.066714361785086,17.8564838733888,0.038644818179201075,0.43394701113120304,-2.573133441154695
-1.8824843791517822,51.385281993269736,30.6620712673825,-7.167283480912045,17.903243660857303,1.1276405109522611,1.3151682902362758,-2.758864151538841
0.3020289686315229,50.70143213784098,33.503286666163035,-5.651685558760153,19.24957935289164,3.7220973299251394,3.1891499502771716,-2.443325679941302
2.398479155558706,50.00794218332538,36.11635916260342,-4.281796971034377,20.7336241903289,6.021885612822674,5.095141920754279,-2.095170121783471
3.6431575133280445,48.29628894534588,36.9833469809555,-3.7090506004159214,21.128339073230393,6.555751216124487,6.144616182681168,-2.1482110664999507
3.6123651932606715,44.86961216009807,35.226211634888756,-4.1470759013181775,19.69683207158914,4.957555104531924,5.975975541372706,-2.7984135023832644
2.4122644401643867,39.83876007728702,31.12865358593802,-5.276922134908556,16.608147743118266,2.1533549581972418,4.934036972805858,-3.926812286507072
0.599446597516124,34.190844125804176,26.048689473903664,-6.449910831978873,12.882538839976283,-0.17309219639587053,3.841992205260604,-5.175461725952427
-1.1377278003366604,29.194982834149577,21.630628831388627,-7.074708789293448,9.805823106876037,-0.5546600873416582,3.477248225255387,-6.129801142903476
-2.3530186589957123,25.557729392224328,18.820254911390055,-6.965224038168541,8.172854631930356,1.4069854348178163,4.070260408356677,-6.520486018933822
-3.046959506639807,23.029220822095,17.384383261058332,-6.451521907574396,7.875918108713954,4.806613817511394,5.144036918642896,-6.355810341705495
-3.58464820025855,20.735756711402907,16.21635284400577,-6.188996671078629,8.080467645248408,7.929685361450347,5.7899512217707025,-5.920350225791177
-4.385711952254575,17.86411768935243,14.114854844470077,-6.7608755732855945,7.801964007140766,9.156837523861185,5.202387410527916,-5.623421377592925
-5.576860668325864,14.146467452327826,10.505801552232352,-8.282600433538784,6.49356901825359,7.766471342159477,3.161424690335371,-5.753533461504134
-6.817518301203264,9.947648086198637,5.780803096801268,-10.236665382979554,4.352442073439224,4.243755538162306,0.21193203753285872,-6.267089734550982
-7.420625141790022,6.090376854108625,1.1809987028076927,-11.66949908589608,2.241229583770683,-0.002460078867089195,-2.546021057099461,-6.755266912707315
-6.734451608346148,3.520571119418732,-1.7503181447871003,-11.688062142042257,1.2451438794393925,-3.337405226309298,-3.967219863010256,-6.651143324151012
-4.5885772524646855,2.7946105404840766,-2.017356922268671,-9.994483766753577,2.0084352356758184,-4.673084192048015,-3.444348020808498,-5.586718725853877
-1.5266839827594927,3.5489331371492043,0.07295927480684086,-7.129010461744797,4.181897311243705,-3.9458267536340963,-1.2626838756162206,-3.6850404348483
1.3653080632920547,4.406735622828218,2.82083299669383,-4.237349898538364,6.39698902352665,-2.051787725459982,1.5071245358198144,-1.580753498047764
2.985325299798272,3.636910549465726,3.967728843845434,-2.4701190563648923,6.927923731969137,-0.27059302567355276,3.5641079729858065,-0.12080857567174019
2.799401593766167,0.23476191685151804,2.0114291513756353,-2.361898069931401,4.6975480332754005,0.48446689074828914,4.066684467911157,0.09610490271170749
1.1316501134126822,-5.393075459000061,-2.891050858041172,-3.5515958181724776,-0.03299376496400413,0.13317494527764254,3.0349680688520526,-0.9266907562207948
-1.0059634994267872,-11.675460446717016,-9.03140848421027,-4.991691859925929,-5.744617933393539,-0.6538991450177749,1.2393070967587168,-2.5462033433824036
-2.4254298451145186,-16.79924255443672,-14.099877745375935,-5.511252935209374,-10.41409843283802,-0.9855271595809199,-0.3064307168489198,-3.789239672585618
-2.3224703197962535,-19.592575900454083,-16.30430815206714,-4.423920704975089,-12.45083736522024,-0.36056428748943425,-0.9105807405285774,-3.854414807684936
-0.6128911578430374,-19.921580245786856,-15.105914280295984,-1.8775121213694907,-11.35847500593193,1.003086882957064,-0.5276561405518819,-2.551324359497884
2.076179373493844,-18.66439907968123,-11.418276592231269,1.213967754801775,-7.9282591583986735,2.2709261747329177,0.2752786439507851,-0.44320352332207286
4.719487548813686,-17.446654182970637,-7.3066829568477685,3.6133312608676906,-3.9533542223578384,2.4359649603573135,0.6542409599498274,1.4037937102027647
6.353404427551197,-18.108383761815492,-5.215626296059737,4.355280748418229,-1.5264938456054384,0.8655493140287954,-0.03681940314992493,1.9574657166699132
6.467016735719801,-21.886452413245312,-6.898366500050471,3.189581328345634,-2.1332563443012384,-2.330085102115516,-1.863151142756381,0.7608857971901687
5.139259624882944,-28.689539788120978,-12.558127178004407,0.64554387309758,-5.972347889490968,-6.3171032335193456,-4.247251459218748,-1.8309253527450142
2.873863359344709,-37.058858796302516,-20.783767087322076,-2.293662487205509,-11.930984003009687,-9.955490305113525,-6.304932596696142,-4.8587722832543205
0.26730012232434475,-44.96644774841142,-29.367835939399303,-4.691561444163421,-18.24880330571797,-12.370813640971935,-7.388157888897005,-7.277051342389097
-2.2610504408808363,-50.86971887481879,-36.41728102607961,-6.0371169456865825,-23.4075544139442,-13.314324218593546,-7.463423573522287,-8.458656591511678
-4.529055548170377,-54.25208876797079,-41.01047449962852,-6.3235776268536386,-26.672512302956736,-13.094875619479115,-7.057834820391617,-8.400715284400453
-6.481792783655729,-55.46251827573176,-43.1732714069609,-5.865579417438023,-28.09023241894238,-12.196099298629298,-6.840192643552867,-7.570167343382954
-8.070140486921417,-55.31212411549375,-43.532904530253774,-5.037741411469575,-28.19418223614311,-10.921231521240987,-7.180884944207461,-6.559933374941599
-9.229730230897989,-54.85286165208555,-43.04360112980495,-4.104567033037466,-27.73808727716495,-9.333338346177491,-8.0064848115433,-5.79674543147204
-9.934492233544866,-55.2302764056968,-42.78205511401197,-3.1935870366835024,-27.513794194611297,-7.469989242295667,-8.986191316277926,-5.436798526066606
-10.227759980376085,-57.28569155028433,-43.61276216905299,-2.359405699254451,-28.136449969643277,-5.593479481855399,-9.839584464684163,-5.430050138594664
-10.187986484304597,-61.00550150582278,-45.7865553159287,-1.659449052248586,-29.809021503611852,-4.262928637845954,-10.536546050032804,-5.651565735576064
-9.877002102531035,-65.36828143890398,-48.83057844206215,-1.1898268852536362,-32.26259286630338,-4.188111932080023,-11.305493531440778,-6.008153961801977
-9.336026866551896,-68.932574735451,-51.928186347242104,-1.0650713871671529,-34.987115157295285,-5.952359775581367,-12.491804682903144,-6.477457192027728
-8.635599238864303,-70.82130749364987,-54.525344831574884,-1.3544551224361832,-37.59131589539929,-9.719131370359053,-14.347802934974595,-7.082794142898847
-7.93206535340297,-71.40332006664713,-56.712664616580525,-2.0146303211665963,-40.01827670311658,-15.04454485354683,-16.852315612377797,-7.840250103947883
-7.483756145071911,-72.29918430374957,-59.21344845566149,-2.8705602432609747,-42.526732520598884,-20.92916474273638,-19.674844953090812,-8.724950135008228
-7.604255101151087,-75.8202485548194,-63.117298687088024,-3.6716265242735715,-45.550217403643444,-26.162434254404207,-22.339254873187294,-9.677680812508802
-8.541439846800461,-84.00033848121126,-69.4255094846113,-4.194840903499716,-49.490988805035826,-29.80624078369521,-24.476807471222855,-10.625472541272622
