FZ,C3,CZ,C4,PZ,PO7,OZ,PO8
-1.4583029847888256,-10.125839116794436,-4.378455451438068,-0.7100613342605379,-3.0804290152140528,-4.190381743383884,-3.2307338703130695,-11.48716222739703
-0.7200345204141164,-91.65176516609807,-55.48879071917965,5.4220583204716615,-38.278404579028106,-13.765005087651911,-15.851090424485179,-13.718403311052315
-0.1903896320598897,-154.2580428796247,-94.91843172680622,9.866642341223521,-65.80077565173285,-20.867471335750253,-25.12040213267543,-15.655994733082771
0.02115702214169668,-187.0838493642754,-116.07468035324762,11.643009425345266,-81.28728770997238,-24.117629975289702,-29.20359538870174,-17.058838664328952
0.002486191089144999,-190.87005188464468,-119.53744096016989,10.87068913553154,-85.07173509046605,-23.662727300776112,-28.428036326469233,-17.78776792637541
0.061995040981062656,-175.43399657692422,-111.28908564061646,8.637736012124607,-81.03137775180146,-20.776674477148358,-24.783910106665555,-17.861459739240154
0.6031802575399028,-153.40694328539143,-98.8018518114702,6.410572124959608,-73.98579173382242,-17.016228798780034,-20.702881351074307,-17.44500900868179
1.8904056186448641,-134.40278110393834,-87.66537368640459,5.322640187723517,-67.42608016435425,-13.517182708535664,-17.88345147118726,-16.73141935232934
3.8689915712983787,-122.53334252384127,-80.33698363811894,5.748107108169152,-62.69864041559357,-10.740117416108331,-16.72654165838645,-15.76710833733744
6.176057265053099,-117.30859825677302,-76.74927500057997,7.334712333537677,-59.51743653069806,-8.573592115008388,-16.473969800377883,-14.362489991528378
8.309206468817369,-116.01445454247697,-75.57291046614687,9.331825988219448,-56.9557080832109,-6.560115852409825,-15.809414547231022,-12.215619544802617
9.792066027237754,-115.79899657816712,-75.28092780780047,10.915655280660701,-54.24352325523292,-4.157251407159405,-13.618742529918057,-9.224191914363098
10.230061944115665,-114.89216839091182,-74.8520738353983,11.367918203930461,-51.20732552750558,-1.0785749265964457,-9.646656163571718,-5.770927746599914
9.310972221233337,-113.06070575516739,-74.12159982255201,10.182341949531267,-48.38323834949654,2.3491431779302703,-4.784500004381799,-2.7215512329475464
6.874194285645564,-111.30098409294958,-73.62075238164356,7.204013976141823,-46.742883868178694,5.081663695052947,-0.7737191279064476,-1.0557886009523734
3.0717844446511178,-110.79428656790242,-73.89918495389351,2.7649431769634023,-47.04344495552838,5.749001815579609,0.634873201268293,-1.328996524922026
-1.4998623545750582,-111.71537051433008,-74.81477353278571,-2.3146342309357415,-49.155536841900904,3.4411728442724496,-1.3450186651538458,-3.300599057564147
-5.8404382452445995,-112.8510305267632,-75.42485724810848,-6.914615572159489,-51.89554200315328,-1.58245184387424,-6.0051579019398025,-5.9582596987498935
-8.787842979308593,-112.38529260863663,-74.57106212083423,-9.916172557841648,-53.55076128323587,-7.7573085855726545,-11.394332874780108,-7.9230593403697425
-9.36928531797518,-109.11856380790067,-71.58478290278757,-10.506102990739025,-52.72363434272308,-12.790879534332305,-15.210098039235579,-8.029684272382699
-7.130625037925192,-103.04641204898958,-66.53163626070459,-8.427706686327243,-48.92739494737634,-14.652271841106913,-15.839024478171261,-5.825412567697939
-2.3350239189326474,-95.01519118967802,-60.014661345169515,-4.131547155130784,-42.69081758167227,-12.466817459267087,-13.039921097207724,-1.7865237464940296
4.051481451097252,-86.10127951898578,-52.964427612584245,1.2735926270430555,-35.32600264561857,-6.900086186970016,-7.997669484482782,2.8446536787184233
10.624322829239523,-77.34818004190365,-46.58284001913366,6.35135129393425,-28.55229070129667,0.12691821248563728,-2.7597098260194066,6.5565944566616015
15.986549268340944,-69.75119050256505,-42.14451025009298,9.863083969621156,-23.98035822119036,6.2580299169348,0.6929539430819653,8.195892093529771
19.188740094238423,-64.02070239382786,-40.42714874945276,11.217839535842927,-22.469844384292667,9.678450348545054,1.320873759040327,7.435172662474413
19.95863616958454,-60.142149300765695,-41.10383209114024,10.594335118885686,-23.647000841383157,9.776905353893852,-0.5805745136649031,4.8660742936018835
18.649964332336673,-57.298131177174014,-42.715870963626905,8.714928313308729,-25.99171231600459,7.193406258216839,-3.658853636539697,1.707689590638921
16.009707675145155,-54.454027147973534,-43.40275793019937,6.472322817423391,-27.572360363519167,3.3231581345492565,-6.253026089386556,-0.6918378633697538
12.914635414891908,-51.12157466749295,-41.87934112635934,4.617030515883293,-26.997363681178005,-0.3509801921905927,-7.157955570174847,-1.3374340478913926
10.14986212414587,-47.55948644015352,-37.998272502072076,3.5672375849683147,-24.0005217893343,-2.7286240083197564,-6.023082994580045,0.09695677676818529
8.2294855975524,-44.30563757034102,-32.692989494020985,3.3172151849747085,-19.410690892673774,-3.2531759275780687,-3.305348581746353,3.1862866531545717
7.284601955749719,-41.64028315276448,-27.531731864690947,3.4686974624436515,-14.671947162534765,-1.8842480952746212,0.06108131024717684,6.930207941030646
7.09443037985995,-39.483731541736965,-24.104343490571054,3.444300516619381,-11.199219223093255,0.9856027327651229,3.0791323422364343,10.15420201849287
7.28601030413493,-37.57447529767801,-23.308525462279178,2.831640705031075,-9.761620828154113,4.656788137504618,5.05948125823667,11.994832057494477
7.589098543863903,-35.50903649577752,-24.746987458371805,1.6470709658449607,-10.082348114661011,8.323157326119592,5.846081469616385,12.235899587955412
7.961090076901268,-32.662779620487804,-26.719496537481536,0.3119071793994912,-10.924677801258547,11.294378762126334,5.787750538803538,11.30514709560254
8.497736655342237,-28.405773406737637,-27.100686627933857,-0.6513237110568775,-10.781759181703832,13.123592294155374,5.43741487120919,9.938883421900362
9.232216474704886,-22.68487866722478,-24.65332244621964,-0.969730230226881,-8.82070482734562,13.605799356292025,5.161673725922312,8.739841859191566
10.01041107035241,-16.377199731285927,-19.78903399715027,-0.7695840256317932,-5.389413030113105,12.749032720697508,4.959167444726763,7.9134480501643445
10.53976759180828,-10.832961041815928,-14.170437348823,-0.4638273368407575,-1.6623681756382291,10.817657225608745,4.632422771163187,7.314990921466532
10.553497022983366,-6.882965041431006,-9.556312224757287,-0.5043703513057415,1.2689322752983048,8.387022708514886,4.13361207703054,6.702661860862603
9.962634977866124,-4.27373605624779,-6.878495225232786,-1.159389201262267,3.085613635019677,6.243208462642346,3.7383441766173813,5.968846917782021
8.913798246972057,-2.102149998022296,-6.1333216709525615,-2.396186800645825,4.211937435608023,5.082970889743538,3.8816212400097854,5.200331577634987
7.744211770479334,0.239638749185905,-6.82108799312647,-3.8851449532267686,5.26996872247528,5.201625029632346,4.825929024316395,4.590298052801552
6.860645960819624,2.5889850469515228,-8.318197040272636,-5.1248784601681,6.608336545650429,6.42014864385319,6.468603297331012,4.318422942246663
6.582147471533703,4.398614206156962,-9.93209858174117,-5.6584296223440615,8.2556041527016,8.30680325075413,8.428544411768495,4.481048555097822
7.009546975663545,5.501360822058263,-10.845096191237387,-5.284537605935539,10.177385782171497,10.507427517080421,10.308120889546409,5.081208861356198
7.990214142796906,6.593428406245064,-10.165890382198203,-4.148493620086436,12.53068535218801,12.952797461069178,11.941075150766418,6.055799118421718
9.19133349998564,9.225035893419586,-7.076720480945825,-2.682449448330883,15.73835666144991,15.843648906501135,13.495497451054552,7.310040553037764
10.213870433930072,15.353809798874357,-1.0600976562140778,-1.4712457541281245,20.325037532073488,19.435027210278722,15.36165001120049,8.721440673879952
10.668776093816165,26.350846918972472,7.641355436919458,-1.1129620380452667,26.457372171771436,23.681074233081315,17.80774385260155,10.09533361509869
10.223704447960664,41.42876205251232,17.333254736167046,-2.0395102246589634,33.26230437596924,27.8647872766882,20.529839408218894,11.12025163393207
8.70501444699931,56.247261968896545,24.50760125847258,-4.238269296287869,38.36305540985527,30.466496585541083,22.414230556373383,11.419246452826105
6.2831525133569865,63.18990897655438,24.647795391266985,-6.971944080173813,38.28652308738263,29.546557906613938,21.838910405761755,10.73833391397512
3.612448305160937,54.24055223700195,14.367209276743177,-8.775646321546406,29.980412920580125,23.64861620389476,17.515819194138395,9.175535941697557
1.7221301712977013,25.44915981090931,-6.211702151295354,-7.951736149665466,12.764007662524032,12.786362789435024,9.412702185691966,7.2646652039408215
1.5945031940561996,-19.75484866463426,-32.57746363147899,-3.4330676941358065,-10.586873110522882,-1.1498878172445046,-0.8934785360684993,5.794877116674234
3.629667949535863,-70.93284241700431,-57.42285620379931,4.480819507297607,-34.571545592659525,-14.96234195178978,-10.767653931695731,5.4353369449617
7.3471174370869115,-114.96205315080786,-73.99659845521037,14.042921700249172,-53.29882274075235,-25.469412279247805,-17.706064420591947,6.3921842318086
11.559643814302694,-141.94090438610147,-79.22209246500505,22.77974647122544,-63.108126410498436,-30.854807818280413,-20.46331350569807,8.319751118004408
14.946086934132044,-149.24053729602076,-74.72023249285385,28.63040816879465,-63.954324662117735,-31.288731663519226,-19.46668186655628,10.538933656818596
16.677380285264814,-141.53826200458306,-65.29456137656531,30.83447693993958,-58.85908639224624,-28.53581400895511,-16.347771480737197,12.41035811763611
16.72051906132074,-127.30589967369427,-56.083231785311256,30.07199780311019,-51.97407176108968,-24.886288774119855,-12.97547208987958,13.622049525852264
15.681019092949105,-114.30040956398325,-50.24370338289997,27.865291685232528,-46.56182896574864,-22.09258150868273,-10.612581812136256,14.240324219900039
14.36083117646145,-106.6868200949881,-48.3102660173483,25.710581459522817,-43.98201622228781,-20.8539389567336,-9.60902193429775,14.555464991544065
13.355108237358067,-104.74879655551717,-49.00395301026445,24.479976164002785,-43.879021159367575,-20.936475988497673,-9.611334377884312,14.875892447912973
12.894962123437296,-106.32864311731443,-50.47479771806818,24.319668069558332,-45.00951193500696,-21.635081786891558,-9.9807802935829,15.401914121771439
12.912713317572479,-108.58403157193415,-51.190279397389226,24.893583123666133,-46.0535122938063,-22.228145557577577,-10.140536576390593,16.201385454615416
13.18417325735357,-109.27151342604866,-50.354783764392955,25.69653942043034,-46.12709261111674,-22.2590287703521,-9.765657524898526,17.236953163399964
13.451249338065033,-107.45852392574137,-48.03770053588184,26.287788949193445,-45.012696546749495,-21.641964906042176,-8.844707562138751,18.40588387789942
13.519130963803798,-103.66345478481263,-45.02214694522319,26.437109258429828,-43.1252212451471,-20.61733031459389,-7.6263930426578925,19.59027514049981
13.330166855899922,-99.32458291417386,-42.308202030919,26.18182693604259,-41.19111939551777,-19.57172101098134,-6.452520377267467,20.712096124456597
12.972833385261632,-95.79250736475807,-40.48871141621787,25.75478368685577,-39.7729487939605,-18.799610228497706,-5.552485137941987,21.760304946386253
12.599808601735065,-93.51645243032907,-39.46274936101992,25.402094229611702,-38.96035383494845,-18.35448697888098,-4.937622773837216,22.767130307471557
12.314418457358194,-92.03036987443396,-38.70399564461555,25.224063714240827,-38.451715781798384,-18.086445442962745,-4.463176690031786,23.762468492027107
12.126496381769808,-90.61710969405634,-37.763349100613986,25.17227370596216,-37.89542501836384,-17.80362046173025,-3.9723109930186404,24.762290070695922
12.004230927666507,-88.92110128845152,-36.50497457409291,25.179161738901545,-37.141335404627604,-17.39841468104226,-3.3784041475414526,25.803571508047074
11.94047871065854,-86.99552088476483,-34.970331849717816,25.25800895410041,-36.2240199139425,-16.85558915067486,-2.646618270411529,26.972000098789895
11.946510477557343,-84.99224079763606,-33.21038417515009,25.462033026139572,-35.22602642246661,-16.2044150482168,-1.7633996393094664,28.36488755439902
11.989866678825786,-83.00910346334759,-31.353023566077265,25.768269077530555,-34.2387885942736,-15.508338042287244,-0.7688168679826795,30.002188404942586
11.970671920671162,-81.1925072225406,-29.730198342636662,26.035904996854658,-33.40672168016369,-14.882261522967882,0.19816642258467787,31.76323767253264
11.783761834427017,-79.73225713118916,-28.726966117080096,26.088754613925207,-32.87097690202694,-14.45197373326732,0.9461500926460238,33.413813355018036
11.408215776238844,-78.5672369725754,-28.38320736617979,25.83266410902122,-32.58016536031364,-14.240193078134187,1.3742190816546824,34.71842611120252
10.937788792277342,-77.17526370503778,-28.182151180121526,25.31377564211456,-32.19421255362053,-14.088080900676896,1.5876155826757803,35.58167082480958
10.538942065158698,-74.90262934530396,-27.333681249238403,24.722604087262322,-31.28637129180352,-13.723535189516857,1.8713341209248997,36.159027023512586
10.387332792532312,-71.67448207986479,-25.3403894045364,24.38226521319373,-29.72603610622911,-12.947757501960037,2.538898274657089,36.88372123456581
10.608145710050387,-68.36964990267926,-22.366422903809443,24.678039138004664,-27.892081897786035,-11.794070385930512,3.7645380736949425,38.34896096716569
11.19388762307902,-66.38139907279265,-19.196190097908605,25.843368651153135,-26.51004713601402,-10.547971788897458,5.471157419357612,41.011285355160744
11.903956894738467,-66.65521401165559,-16.94554703572441,27.64755855194262,-26.238865604678562,-9.63687003005263,7.281427192988284,44.79284225566105
12.244477866851527,-68.89095674578522,-16.68031795692845,29.223767058821753,-27.264484343076195,-9.448149048256724,8.562612548799997,48.8072785063989
11.640771623869973,-71.2719429288497,-18.858448364845863,29.28174016230629,-29.022226496669163,-10.0980466947775,8.652068183713912,51.469771915904296
9.771274173628347,-70.6330865993304,-22.596421465295247,26.68939028734556,-30.06832475824308,-11.182778998377184,7.277098684709492,51.07869346010114
6.84831369941976,-63.01886311368365,-25.2492842025127,21.097111872920213,-28.23698981575823,-11.658269222486044,4.962174869502605,46.64857931353926
3.6059375539105782,-44.847439060927634,-23.03762874385386,13.203774285835292,-21.309528836244226,-10.070815577596873,3.0657684106628533,38.541776375995624
0.9442275318752166,-14.671599736006073,-12.873612266090618,4.486299548749225,-8.15397141020612,-5.211312655109242,3.236945117615597,28.476443174158412
-0.5659388976444729,25.230293845961196,5.5364042781041745,-3.4497541795546165,10.220697701599073,3.0717456699471235,6.487468695491181,18.808022549038178
-0.9992381102970272,68.64715351019164,28.79315044868063,-9.526173156033597,30.48574081327433,13.411323495314072,12.428591910469612,11.424184958041744
-1.0062473874631757,107.26813006765099,50.99565650105999,-13.506440060343582,48.08248921157908,23.226388781435478,19.219932782875173,6.8775535335478795
-1.4069748165633016,133.93905701907377,66.53156538915192,-15.85400161197629,59.170602812504086,29.778287791837716,24.37803435902779,4.279942578748507
-2.7172640778833697,145.67515129112005,72.83474745063073,-17.302978069084514,62.39504080515717,31.47329680098412,26.03881510783752,2.018924737428216
-4.902390245436717,144.7023659133124,71.42570862195174,-18.439336222793457,59.43637446804309,28.67748777947834,23.932074838798872,-1.164224457684782
-7.468671580358133,136.88392945103152,66.67328754187459,-19.49636514425203,53.997761614882975,23.53453834950096,19.46589171944325,-5.411277400439408
-9.774266463358867,128.52445146125999,63.2221698647395,-20.386039988821675,49.84230563131092,18.85499255378334,14.872779402511203,-9.745167541928147
-11.350611950778093,123.56640465672245,63.77167382089678,-20.88896682920452,49.054251992273656,16.70365232442758,11.956061277141174,-12.782934235503797
-12.098966655338067,122.71800565380548,68.33954738081565,-20.915570528766352,51.43194050422589,17.46506140782187,11.181721701073766,-13.691594890728377
-12.327128120617738,124.46572749368532,74.9259334010652,-20.72182063835214,55.08555659228895,19.839886545962784,11.589943396505776,-12.795366383729716
-12.619196597247258,126.68652796543405,80.74554052672283,-20.909860549495875,57.63437575037079,21.692397089506052,11.505746458880632,-11.459476654282485
-13.540564122871633,127.7062786822308,83.3685918956688,-22.10763970186909,57.33532661880702,21.271543300790604,9.629898962918027,-11.297500049946272
-15.267736293782677,126.6592202156291,81.60915679072578,-24.46379551443312,53.80475434110496,18.204323322474675,5.931898446826051,-13.161117697004203
-17.356066382445185,123.60457875581336,76.08805106149124,-27.326800084840624,48.22173706302865,13.774866204974964,1.8492634843633207,-16.538598266238107
-18.85364952247823,119.57487969237198,69.15670582205051,-29.42846393193633,42.91942555125211,10.31271359405059,-0.38598139875152754,-19.77209805606785
-18.764213849893988,116.30768436590829,63.95623014680827,-29.538800830486817,40.39729410335317,9.96509540640199,1.0099292079224065,-21.004082039500997
-16.60606609071358,115.59659921457887,62.988632339654394,-27.200684853957515,42.15990668437852,13.517664101462106,6.261606217370289,-19.303204329390777
-12.736221526736484,118.67071199370457,67.04311402191877,-23.096577566470714,48.03791881975795,19.951416134823603,13.74491848638134,-15.307731361242302
-8.265404977872262,125.9427348977853,75.01983278964175,-18.845960811587318,56.36104686049777,26.975171689581646,20.71337432456068,-11.011032634300268
-4.623322471860594,136.84289817828773,84.42346299224738,-16.33235454275977,64.7059898461927,32.14706908039204,24.58945267700632,-8.78901995108549
-2.972580351595027,149.23516483688806,91.95548171322461,-16.829978101396975,70.59360876082872,33.877675559870454,24.05912649038291,-10.157776182627108
-3.6932756039109713,158.67709921011155,94.05493131164167,-20.265550498970942,71.82268375947895,31.81802255188778,19.437037786653566,-14.881596009651162
-6.139455510193694,158.72923567604244,87.753258315458,-24.970509725359094,66.70209311064086,26.6415890990582,12.292583063159181,-20.897239121490614
-8.814693570306236,143.26505758888524,72.01008928816249,-28.17825101642109,54.573628891323466,19.580532435766713,4.70984532550679,-25.145263369527246
-9.969748940271538,110.07156568355309,48.89716213099883,-27.19681210041014,36.529565565254536,12.04338812517872,-1.4185201504015938,-24.946262987938493
-8.398095043919081,63.417741145040715,23.5455293202607,-20.747425539939183,15.68395032119112,5.378282044631148,-4.863206639782549,-19.244735608032514
-4.035519085885962,13.381737911764215,2.347070145643404,-9.731462437485092,-3.5887976122730367,0.6636230637630257,-5.274267648857698,-9.074963431547383
1.9803004701126088,-28.25750136146084,-9.85295591366366,3.073112656052141,-17.331342661348412,-1.5447470613019774,-3.167787094014901,2.9848385927146133
7.851188384960983,-53.34761712773812,-11.95388532423599,14.275490878653569,-23.71169825372547,-1.4094544852667277,0.3089386827599628,14.043108100058047
11.97429292720786,-60.73677437288667,-6.811591382967186,21.40627140648879,-23.701732226768147,0.2382269246464463,3.807037539693835,22.12880009028944
13.641658803445063,-55.763590058829585,0.657183445219062,23.878217477995562,-20.276282424845856,2.2702613705233987,6.282689742813494,26.809262535202834
13.21764066322953,-46.48898777466559,6.2202032861077,22.904988024451395,-16.659012022084422,3.791581831684061,7.365922247052369,28.977643776288858
11.75816406791235,-39.29458141742915,8.196153172055853,20.559301394569047,-14.74462705536014,4.509527300863919,7.3953106765397765,30.071315829119584
10.367673297161794,-36.48176225846456,7.4984392006973275,18.631524677019204,-14.594622978901539,4.721828907170806,7.105216924731571,31.251114487141813
9.693001368835365,-36.73758341368007,6.251805900383201,17.944695649738843,-15.073312790707371,4.979452934479075,7.17574994530529,32.99954837213642
9.780515013734265,-37.4032587880247,6.14909003188133,18.359740428239945,-14.98413126030175,5.685743283957252,7.917968945788918,35.262398214525405
10.252031367287929,-36.80945951093063,7.477406687544104,19.244620871733293,-13.971470931394553,6.86254923084043,9.215948092993786,37.896795806866734
10.610678543138109,-35.50371021492551,9.0575207108038,20.0137052836009,-12.80467449397958,8.14306591706787,10.654290030047795,41.03053119367414
10.521309544934931,-35.9841600142695,8.951067725522408,20.46806360458987,-12.989396823046942,8.945003483548769,11.713944402179408,45.05089048060782
9.992139279365777,-41.01152943690189,5.734110534226788,20.84988303918692,-15.806956820673092,8.782332515556837,11.999687224875926,50.21305277665233
9.403407425265637,-51.05372009083847,-0.07248952377394927,21.618198026466384,-21.09642155736739,7.650676901951319,11.489111247257295,56.11026608339821
9.329085213529062,-62.21227882167417,-5.268886823605793,23.025297426971942,-26.45245142896737,6.292552461582665,10.690708113720154,61.36119851475275
10.182914524601554,-66.41236672721483,-4.844633045410757,24.707379836661193,-27.632779556141774,6.061799946240882,10.51772607788606,63.804262679628806
11.870410507476157,-54.70894406167286,5.505549411889301,25.596972728465424,-20.420050762309188,8.269582324191171,11.806366216780958,61.25154251987684
13.689138876492056,-22.407654384017665,26.49945242243116,24.331408486688733,-3.139790686433769,13.278291541686023,14.689066574217037,52.51586720342403
14.586528958774666,27.076100234414127,53.92923350219059,19.982128333820526,21.69386207407682,19.91051131609619,18.226753623354437,38.16289265581973
13.645174110669235,82.42715850655982,80.00930678081544,12.64336114343305,47.84256466576161,25.664926059932554,20.615477484842806,20.486619278802305
10.517402542786789,129.11397405671553,96.86329750590735,3.4761438258101562,67.92728007811557,27.780402824340605,19.95986539560206,2.6326853067826104
5.584029101302283,156.0571393331306,100.21493843758199,-5.814773263597055,76.80024297047522,24.651473558392205,15.259906103145967,-12.654567892241507
-0.19870662693012364,160.46760130918318,91.21765623980284,-13.700746276644363,73.84504378477449,16.82242674493093,7.08961125281684,-23.940007539508116
-5.632814998429482,148.215305554708,75.53234496226275,-19.289134686729845,62.98151806536286,6.961116882438232,-2.444153107097966,-31.21471408368656
-9.62668943892869,129.93202308853688,60.40747135249996,-22.336081233312637,50.518240372861584,-1.2466143542428243,-10.518546376703092,-35.34091158580766
-11.472323601941536,115.52957360827884,51.50261510766856,-22.998980227276334,42.16394682489045,-4.754294470345137,-14.821562375027183,-37.33645078641903
-11.046845974639236,110.23822557938773,50.955351946011355,-21.661800129806785,40.747212896978915,-2.5527429736756297,-14.587320393508243,-37.96428675117849
-8.917712069687228,113.67561319570584,57.16626710310398,-18.970833335472513,45.52223315868668,3.8484888149376233,-10.93139959680669,-37.73067276268325
-6.254579940557317,121.4488695700883,65.92653104728342,-15.902060727393074,53.02103191855583,11.064595052810589,-6.326515256988155,-37.06385260161163
-4.456449100952178,127.87822357518215,72.29645940970605,-13.589843349657002,58.85539234282585,15.322353614190352,-3.462725652665562,-36.39405594662279
-4.569091356993838,128.6561699006526,72.68893964566534,-12.88836846945381,59.72302894209152,14.154740254791754,-4.021389843302494,-36.058903649633244
-6.7806995228491695,122.66791128181598,66.45869874086297,-13.955911976978692,54.8648954632027,7.540934947187317,-7.953667786291362,-36.17856535823004
-10.320888355388767,112.33020117746581,56.17159161223603,-16.19916314305324,46.32466584078615,-2.084884697313839,-13.631187691191013,-36.66907649397963
-13.859123747904603,102.15296062971223,46.21514575042272,-18.632460310039697,37.81526648936788,-11.008757574285768,-18.772185297414598,-37.39388373126458
-16.170387310549856,96.17749725336897,40.46629103207856,-20.38398946508494,32.7724968366761,-15.99698445045967,-21.58751937248802,-38.291174045790896
-16.680882361435685,95.83392254593109,40.44745628549253,-21.023489107309288,32.720163078132295,-15.694172866605522,-21.482318096170527,-39.337365379600655
-15.629933490686645,99.5457267588142,45.01088743267764,-20.592434460012523,36.83790229515182,-10.96951198805479,-19.007874287505203,-40.387862774795295
-13.84092113237052,104.098929021438,51.43733351499332,-19.435081324999636,42.763443865506,-4.2030044208653985,-15.29111662842336,-41.07764063216495
-12.276155588707747,106.61521831999538,57.00870953046379,-17.978360446470163,47.93129431825871,1.9267052259306374,-11.426474950406496,-40.92104008555276
-11.594434559401995,105.94138326312789,60.19221284198629,-16.55283324851398,50.684777179345,5.506130285181576,-8.147154588069013,-39.57859152011479
-11.901191593089816,103.0420445030967,61.094007673110134,-15.320049935269639,50.791390751877195,5.94436850273772,-5.770538192581598,-37.12866509805743
-12.815044573000925,100.48433071417249,61.112228381612,-14.361538774805716,49.30257435057531,3.9607957797398,-4.278554686488124,-34.183300158964514
-13.833065266160702,101.03711420518964,61.76751779162791,-13.887293849803237,47.7819975476299,1.0657277318633742,-3.4816709122097875,-31.77258837540321
-14.777742679680504,105.53281466910904,63.03954420423057,-14.367062892809379,47.094220616743996,-1.3096116365946082,-3.2825912568540123,-31.012863117516368
-16.00283764440777,110.95126911619072,62.20697313667492,-16.370813000817687,46.348471641002796,-2.6797226783859456,-3.9465117918495163,-32.65503113573339
-18.170328401125282,110.38748057666396,54.38766108104144,-20.13289240844491,42.831257228235216,-3.8609894759632755,-6.141192187992481,-36.687814195945926
-21.72839678961785,95.89019346091679,35.05173746579045,-25.151032540163587,33.32707013634719,-6.491495985430826,-10.582966077496737,-42.20307393829708
-26.46655308322976,63.096952368623484,3.2126558043115296,-30.19100010213403,16.229369532068098,-11.922434073102409,-17.43552732752743,-47.64802531069201
-31.484450786284743,14.798709617902132,-36.86581948624947,-33.794092388136505,-6.919294682695305,-20.183873587668206,-25.884045594573607,-51.39590599687776
-35.614480966385955,-39.202951919861995,-76.87151967455486,-35.001397532679185,-31.613441468152637,-29.73621568244061,-34.26137732814729,-52.37548641137629
-38.01949476721281,-86.26400482656652,-108.07917967025493,-33.832523456289124,-52.34034023088413,-38.19217230120022,-40.73322048719077,-50.4483918434915
-38.58034727897116,-116.72000123539065,-125.29281771538999,-31.216577087534848,-65.15356730180548,-43.53540232169527,-44.141708907888706,-46.356071075568984
-37.85519219490347,-127.92688308518862,-128.78401808226147,-28.440486620588377,-69.32046136162411,-45.06240638578029,-44.483836387914316,-41.29300108448423
-36.69432601966048,-124.3646752443118,-123.29873646719558,-26.488075821664154,-67.17037883412219,-43.52252426513509,-42.757053942108904,-36.35520997072818
-35.8001802925124,-114.26271553657631,-115.1020086460801,-25.673932701315564,-62.47453833113408,-40.50152355972859,-40.336451756142424,-32.15093917948115
-35.490593167906,-105.22696195207384,-109.04625029124777,-25.719254250291485,-58.525873093081735,-37.54787810988244,-38.319212410291016,-28.728862643611823
-35.720351427574926,-101.41442100761614,-107.16871165398048,-26.096312921061834,-57.00332780079613,-35.573595349264394,-37.194947709371796,-25.77517606832329
-36.241258440353086,-103.1868358263196,-108.98426662370623,-26.349591090173185,-57.92928649318625,-34.73755563098765,-36.896277702291236,-22.897190327100507
-36.76417308682525,-108.45361498438879,-112.65081254961585,-26.236680662582064,-60.306046753701764,-34.672557437466686,-37.04529839745532,-19.824698746152514
-37.07331566945847,-114.38174205327772,-116.14768116878234,-25.727240414238427,-62.86297954749725,-34.80982855463846,-37.20188182063601,-16.472148879030588
-37.098084890457514,-118.703808825131,-118.10179658062427,-24.954470994231126,-64.62102793196058,-34.65455110337794,-37.04230843538907,-12.901123558579005
-36.9293255117695,-120.47281627891853,-118.20506702780789,-24.142813445662437,-65.2187798437947,-33.96911275808373,-36.46623849949207,-9.243168068540976
-36.75332989473824,-120.21566987024822,-117.15162126741072,-23.495246590507588,-64.9569869818426,-32.83006317431105,-35.608089526486786,-5.619948118608374
-36.727985170352845,-119.39680749814325,-116.08160438304512,-23.08057410185188,-64.52018539090625,-31.527164099414136,-34.72708848963094,-2.0865490601384016
-36.88752392286441,-119.41537330350586,-115.83430057587611,-22.811114224695977,-64.51004960848874,-30.355702340890616,-34.03139483543812,1.3741888746151092
-37.14458109388797,-120.78990478203245,-116.52689588135115,-22.53761312596823,-65.10797711533604,-29.446216534880982,-33.563897932692825,4.800671296065748
-37.3683689145955,-123.0932719870959,-117.71242801337503,-22.169991771949892,-66.09264215572937,-28.746028245608105,-33.227032531310215,8.188299415504714
-37.46009797657408,-125.52953414885864,-118.84711742645554,-21.711279075798007,-67.1139512569633,-28.122249554021117,-32.89096112837239,11.478236154223636
-37.38326310422366,-127.51711785330514,-119.60062606203999,-21.200626110082933,-67.92747490049184,-27.45796459591798,-32.46870864029854,14.62144037346006
-37.17394636868005,-128.84497776341175,-119.86510376970159,-20.661545977670063,-68.43622086879859,-26.670403636226542,-31.91858261039878,17.664135117416176
-36.95673263639825,-129.56817220559643,-119.70018996453675,-20.117942890719988,-68.6523445955731,-25.702560889944735,-31.235683983787617,20.770936867076372
-36.930867549567225,-130.00658797414215,-119.39965155404629,-19.628518365900444,-68.72694152582345,-24.56082622577834,-30.483251795633393,24.149178086943667
-37.272374243998776,-130.8141487258562,-119.51405473846417,-19.258236954755137,-68.98761394823187,-23.370657470714498,-29.815982356452476,27.913497639979745
-37.976552131664135,-132.74639962344128,-120.56790441590275,-18.99800806568866,-69.80335132353002,-22.35022999054545,-29.41221498050408,31.968005296556516
-38.762543520575015,-136.0406527495599,-122.56655035168954,-18.731702921377266,-71.27465117854042,-21.671179570521687,-29.32697753597219,35.97385971630267
-39.15638113008052,-139.91376552135407,-124.7509198591038,-18.308891990093915,-73.0123811831005,-21.307276933347655,-29.390400924609683,39.44513691155528
-38.74850094704676,-142.78175382248324,-125.93034279040444,-17.661891993658113,-74.26657569854333,-21.002378431686388,-29.26120967183281,41.98343642219983
-37.49416136220587,-143.20764117903602,-125.2198454222846,-16.860325932662324,-74.37022077508487,-20.386025811665625,-28.615488874628575,43.59189508725678
-35.88732546175297,-140.94440122133616,-122.68952724482611,-16.074115968771405,-73.20340829611358,-19.158727775517303,-27.35229080675689,44.902885763469186
-34.88310890754039,-137.40945249461447,-119.57138677275049,-15.501937257511427,-71.40816009558336,-17.264732093111537,-25.713289422473643,47.09459429065252
-35.51862244075737,-135.36296394677058,-117.95761421505995,-15.306529461451989,-70.2687719355649,-15.013398032952981,-24.273153841752972,51.368188316757646
-38.28920128350583,-137.86844119437922,-120.00637233136035,-15.530601683553462,-71.26054234475805,-13.092328101339701,-23.768060203447387,58.1164868244369
-42.50635622424496,-146.6579507604626,-126.68297750850513,-15.979179390368316,-75.27393637617331,-12.362624468425311,-24.731601290966147,66.19225851641404
-46.027999345504014,-160.26807877846582,-136.38527466379782,-16.157048986681144,-81.68336712167427,-13.388198962900256,-27.01299638875299,72.77558080355244
-45.72570053544679,-172.9417601711965,-144.3380067509103,-15.394868562310032,-87.77716269506021,-15.877561195079698,-29.443995852869776,74.1327595643392
-38.712428507924116,-175.61693237824812,-143.70577091173405,-13.17134176748232,-89.21042320744412,-18.426782802786693,-29.99570492183682,67.11427880116058
-23.83323293034176,-159.47189012817245,-128.47871204859047,-9.437391675444719,-81.69138004582159,-18.893479361693764,-26.548532595470444,50.76563347445392
-2.592768198382972,-120.65508956676435,-96.80199757662669,-4.6900769796401995,-63.22353913308887,-15.362461202999638,-17.975668087648078,27.20052992803304
21.118790554610605,-63.43103957636914,-52.71670734917878,0.27838844608127966,-35.60470444095372,-7.232299123858475,-4.93545311702402,1.1282018836597003
42.46872728125689,0.5616941690240826,-5.025733237978737,4.763628635466384,-4.143834795897383,4.212119430200349,10.14429721656414,-21.892497537443607
57.54093983821578,56.94634454003237,36.2142770505718,8.358650039093327,24.381436915854774,16.130037387851583,23.94707846405391,-37.65514489392135
64.62093021165612,94.5970875750857,63.55577256938342,10.846401296628482,44.391191452459196,25.236674390501832,33.550344744868454,-44.8522791756486
64.34708079415786,109.55687636122545,74.28222609876522,11.9514118911487,53.327780271475916,29.132803100041986,37.43773562915411,-45.227722237508125
58.92272527301136,104.97229321581801,70.11834782334631,11.316104378805006,51.873131673063384,27.207268249121313,35.814623924992866,-42.36417383865493
51.06893423804063,87.93179826885135,55.58670116550962,8.894183032045124,42.94643142719929,20.773607026107804,30.28387058604263,-39.807716914167436
43.29553141136464,65.96166312483291,36.6088651519232,5.501948025663473,30.509961880025987,12.52814071478437,23.251616510948818,-39.47896641528731
37.59053004718654,45.39385363715255,19.92288320165953,2.956111160297487,18.85198316437563,5.653120947794202,17.358565917588642,-41.09378816455918
35.271075839942576,31.56045878997705,12.49011359030602,3.4312044024226354,12.148413879446492,2.869555446565716,14.95518373644004,-42.75998764061924
36.78609767295453,29.04983690383138,19.864810980479525,8.295442360997592,13.705883554640785,5.649025942868304,17.527508798149736,-42.30508196209443
41.55291183713913,40.65409094045037,43.75701381435194,17.188657520099117,24.775702396897888,13.77189322793307,25.1616673166423,-38.54966549970199
48.07731661417489,65.5003255088925,80.39228869493253,28.01938221667416,43.62708393634633,25.410578389418323,36.36146044034215,-31.864212766789347
54.466889516638894,98.17724752333018,121.26793045745771,37.936711024306796,65.77396959594873,37.78023122253886,48.48495312103261,-23.83277999921762
59.14517677889203,130.18982429881285,156.40132644184067,44.67830915032782,85.58787339133835,48.141713131612185,58.71703208980145,-16.360847819809237
61.39246858394042,153.3340447717814,178.42043861916366,47.49028920711832,98.56117799636554,54.73746350682201,65.1280790685203,-10.796998722281984
61.43412413083761,163.11308365522294,185.24863640848474,47.157320605759196,103.00382187558843,57.25517276877372,67.28599417128751,-7.507560033695437
60.094254219683904,160.24662046571257,180.08344251083707,45.2815666131984,100.31290089129864,56.66211787825323,66.1577023930377,-5.997075846891036
58.29920197839945,149.6260420046586,169.09439084607686,43.373497014993454,93.8597256137205,54.59073513885281,63.46191460701358,-5.349105222361995
56.74867183705026,137.6793834498598,158.49143214522707,42.300624682947365,87.31972689120273,52.66377711212097,60.9112494632299,-4.658444716398759
55.86632362137861,129.78528847773114,152.5260879447321,42.267095504391264,83.37760047608285,52.07504353573731,59.72031475223222,-3.2593688367559803
55.893205626418684,128.75275317719297,152.87443040718804,43.109729968771994,83.19594769553552,53.45593105834571,60.4483193357731,-0.7771542821830004
56.912689612925405,134.31493691643348,158.8262850361324,44.57967833904265,86.41799666826844,56.82641532659614,62.99157609834499,2.85069664868378
58.72912558047118,143.2059695226127,167.6194213666985,46.42973857286892,91.34427521318145,61.47592001911856,66.56587595679304,7.296953410539448
60.70901960366663,149.8505530140474,174.89494252592323,48.3321757828531,95.25300724445039,65.88091598556424,69.74135686217264,11.772152544605774
61.765511019113895,148.06503445156721,175.6862041707162,49.74937032413681,95.09432714734596,67.93892080455119,70.72739539155904,15.1019844622929
60.593663157961956,133.6490966361657,166.03971052142057,49.88348645400101,88.59008842543481,65.65822604870203,67.97616704192744,16.044747949750292
56.12531782120353,106.71904012103475,144.67353185349495,47.809482978404766,75.30713255782685,58.08029218330262,60.89216005485656,13.788227361755252
48.04350564743081,72.25132821255697,113.76873521716082,42.83077459384018,57.06384792702573,45.93911489834409,50.262849450614816,8.415319082974282
37.1160402620365,38.19303925622076,78.38077036709217,34.943036002273885,37.3426436120305,31.617979747663263,38.117458047237896,1.0683882657241877
25.12518832859887,12.074257089741556,44.728228164078196,25.124565125074636,19.985298004903846,18.33160025161022,27.019613906745068,-6.365998770429542
14.32982691717777,-1.9083866845751165,18.20695778037425,15.168358777328912,7.877114934927073,8.904371791707751,19.114429679310984,-11.992749193700806
6.644074040666804,-3.735399082971517,1.9980838066187547,7.009845794922632,2.255052408866759,4.738328936299991,15.37802084590904,-14.73944217329952
2.896338285275555,3.6905249905199433,-3.4068118496424704,1.8503484386600162,2.7536347060976785,5.412440949043733,15.36827933398597,-14.849108654459611
2.527295758169814,16.373477575666534,-0.062248710100378996,-0.4101193276022412,7.7702749034128376,8.960002018629947,17.473263810494625,-13.746379295461377
3.903801692513443,29.980822228559607,7.820065726949684,-1.0113454898645622,14.700726238018348,12.56316289547605,19.45490156121176,-13.30853425998221
5.145988725280983,39.38841444795492,14.624895770589214,-1.4370648812287294,20.101538057836567,13.383880238642117,19.110322158665344,-14.88431774107228
5.084092723116898,38.52266446086128,14.862271720914718,-2.30283636883929,20.279794890618565,9.385910470657919,14.96478737884073,-18.551401622717066
3.82881165233184,21.984294371383992,5.339760009862591,-2.7960384155822706,12.575188084759349,0.028523300828661197,6.861706479823799,-23.012429348394466
2.603910645697697,-11.892876704930202,-13.09835532920435,-1.1338343833627995,-3.18288727168516,-13.408211217784116,-3.825816894344192,-26.21675463011051
2.9231068767940633,-58.734683895056044,-35.58232960372119,4.203136487789416,-24.078011129705665,-28.138551126799765,-14.611782735274105,-26.398488100339325
5.616849490802568,-108.73562482208477,-55.342033733969636,13.283022707088849,-45.04016015613661,-40.85057252113573,-22.87802683181301,-22.97208935435634
10.307324265671287,-150.40003982452458,-66.8779782772232,24.38808805207646,-60.97296060966388,-48.96902733130374,-26.964588375561593,-16.8028206080932
15.619044784563295,-175.41065315215155,-68.38089871995246,34.75161037962934,-68.91215479601587,-51.5899045256662,-26.792097724042815,-9.738116808603877
19.935512310759577,-181.86874414513161,-62.1162209063039,41.88452209332957,-69.04101328484946,-49.629780182491714,-23.70656383869055,-3.7051963450679044
22.205383391994516,-174.30996992903562,-52.80828072568287,44.69129415776843,-64.15114183916029,-45.180959340705066,-19.70231454860933,0.11687731030344835
22.3424922540002,-160.96784963637816,-45.217912826945195,43.797703778319786,-58.08080910779496,-40.498237247278624,-16.51345741890063,1.6534897595240616
21.07793100195158,-150.16805314843964,-42.324408828430705,41.04895003539843,-54.114986148272706,-37.1742474381332,-15.053039068688616,1.7341754602161659
19.464605047777184,-147.59369939606856,-44.76108441844635,38.58280895548747,-54.04461411752785,-35.82285550059763,-15.363496527323704,1.54785438142167
18.374788960980286,-154.95399709589577,-51.1678097186031,37.97192921834888,-57.930752574847986,-36.202670884144425,-16.889924036388454,2.0780430687355795
18.22134419176661,-169.66270171367137,-58.789187536035584,39.71455919659984,-64.24158970077428,-37.498952208645335,-18.7772008475755,3.7504528451485357
18.926097400342503,-185.27430429041,-64.0884069386157,43.10978844074435,-70.18773243026722,-38.57262479995226,-20.059747702679243,6.351553715701461
20.043235037390108,-193.04890200653222,-63.64257976603541,46.481020085688606,-72.40808303252307,-38.20333831646046,-19.828859275512773,9.164027910893791
20.962787202251043,-184.93952761699438,-55.43488068661401,47.74207178942723,-68.12320185863031,-35.42644521512826,-17.486201692858753,11.24884463107573
21.159926854174685,-157.21518716993768,-40.01169225292791,45.231416664745886,-56.41889084465282,-29.92355850869624,-13.026392472147222,11.808621157840888
20.425424870511883,-112.85866803112438,-20.63648192426418,38.52566702596312,-38.93907396366625,-22.25998011133686,-7.152339204519219,10.526549876350508
18.953767656184144,-61.057974995990605,-2.0658751847331263,28.788868871927956,-19.436764893442454,-13.777880767387126,-1.0842474496325858,7.727014293426996
17.193442229405115,-13.713008866867819,11.445538215876251,18.358749908081133,-2.3150760495765104,-6.157282887781169,3.8710512371186656,4.245587310868686
15.512527393004769,19.215732197916864,17.689625999043038,9.707863920469345,9.037849942784014,-0.8692092043600533,6.75863359239769,1.0556243907699758
13.898152558876635,32.965996699956676,16.70616364898764,4.350737567744824,13.205195390369836,1.21156015016729,7.2056041164373665,-1.1288417728750324
11.937368809272806,28.398157848879205,9.832221285009517,2.3426186416876864,10.648461341215315,-0.07560305561610751,5.403960405190348,-2.0287252109601908
9.151348865609437,10.260064475376867,-1.2621454621542134,2.619698955842179,3.032353914843475,-4.219066331618543,1.9879149122749582,-1.6886991503330957
5.471327088363202,-14.713460995761809,-14.525569916446472,3.834280992962259,-7.246633894178273,-10.059208488220568,-2.043909091410642,-0.26428499695832314
1.4785242975918047,-38.55813479513941,-26.647419132508873,5.020256860111076,-17.043314605586595,-15.79046314279135,-5.389281953941738,2.0252298922103518
-1.837584151138193,-52.331558804600554,-32.710721045306165,5.66445472876155,-22.49366886371734,-19.170214768608258,-6.672123038838963,4.706737297688653
-3.6785911171447316,-47.55730024233826,-27.576704281703712,5.342211024718405,-19.845643435821728,-18.14555743581253,-4.934378442422233,6.861473558744328
-3.964497155688341,-19.441307741890924,-8.652564685317682,3.455316254899108,-7.113717316244253,-11.755688521996923,-0.17935451081606005,7.265832785118082
-3.3954133294919915,29.816065824806,21.8328791193934,-0.5592135717010632,14.427031183314066,-0.7884111088717272,6.439945059290601,4.944745596405721
-3.006994082896559,90.33638392446173,56.93944668991377,-6.701847932537807,40.14457629520699,12.330005226387657,13.030388192272058,-0.1830184497235698
-3.5458683929283805,147.85180908325768,87.82166920792504,-14.068281101518497,63.75825043700408,24.483509706341952,17.79644471715095,-7.053978059939208
-5.085250355516108,189.56832776867572,107.65659033313005,-21.066985942038034,80.00901147497899,33.171681965012155,19.827565931700548,-13.845925583353509
-7.089972332346678,209.33422877531999,114.38435087161616,-26.119289238358725,86.77297096658491,37.45585902957879,19.390974706848912,-18.795186979436302
-8.820000451182,209.2714110591829,110.82213767050824,-28.39334858702579,85.48147039752419,38.072491550319526,17.61086648629183,-20.957148614381317
-9.766006345236711,197.35061547078024,102.45350176229388,-28.110543598455344,79.82254690749593,36.76753593719756,15.78924708390588,-20.49537524860004
-9.85165334640073,182.8449870655631,94.52362716099124,-26.28080202804535,73.71123138475318,35.342735373863306,14.800781042045932,-18.41078184191476
-9.348881568917703,172.4522121712747,90.11278094668944,-24.107680413917755,69.7371793223229,34.964972035907955,14.870577938397185,-15.95005349316007
-8.650898368373273,168.7705259130246,89.80574720531618,-22.465209082593958,68.69590827134395,35.98652788882083,15.734602866968284,-14.05908708578749
-8.084747080812221,170.94170220013442,92.44654886391342,-21.698241115416245,69.99423507688444,38.147160398591865,16.944404619987928,-13.131622371610886
-7.836117802528391,176.20167732382322,96.1283971562815,-21.71409245481557,72.34867555213134,40.875799988064195,18.084466409836207,-13.068967372971306
-7.945691225007033,181.31015893614705,98.96770050622725,-22.176206169732684,74.3794364605342,43.52058775017477,18.850596972591575,-13.496860938857749
-8.323306136385076,183.59244365084345,99.65593963596442,-22.665610839943835,75.03453174901233,45.510203115058744,19.07497723004416,-13.9756304641265
-8.779270310528307,181.68279714205926,97.83092432181299,-22.803643204557584,73.88336143060783,46.50149663305237,18.763618763688797,-14.13702031331074
-9.092753808982941,175.91934074269912,94.16458112065114,-22.366277318651083,71.23638483347585,46.50892498719176,18.121346037519835,-13.765226064274504
-9.100335196359199,168.24056455685349,90.10543299912237,-21.36719560547925,68.0321777668396,45.962800965848075,17.5142465204137,-12.849875056977973
-8.759229748144588,161.61361655561362,87.40696809792536,-20.060273611604707,65.54018173300513,45.65253240921518,17.36780758400365,-11.607346828955512
-8.166043406997339,159.16046991142937,87.59665442962891,-18.859398546714857,64.9750029692188,46.52296811226022,18.027140280161127,-10.447845776108398
-7.549132246952686,163.01285067406386,91.36101797285342,-18.21610406166398,67.03122892385655,49.29085166552466,19.584416339842484,-9.86892910779885
-7.236936312359536,172.8819738882271,97.81579505845868,-18.468644840780016,71.32752994532261,53.919248607977096,21.690854101960728,-10.266893683550293
-7.559420014608875,184.80705034997115,104.00855809171463,-19.64399990026848,75.97274433915669,59.17538604296465,23.46559905048078,-11.68597509574604
-8.65655004873884,191.20605174098566,105.3525599879716,-21.258773140082145,77.73192924819608,62.65560477572203,23.683829394608928,-13.593703144239882
-10.27359551392751,183.20912092760264,97.37391123766629,-22.288470622562212,73.13937125202625,61.54682427078134,21.31088090556356,-14.84638579648026
-11.714397009850574,154.85580159674976,78.14875754702452,-21.480077972076177,60.257237590529,53.950490488058165,16.161560521905855,-13.994629152194191
-12.071222883231718,106.98058365719375,49.93877074760198,-17.96727992677081,40.08698551181235,40.09975843433512,9.245072174942662,-9.910368289377185
-10.655719268689337,48.106628884200624,18.71686926666477,-11.8505874949748,16.58470805111483,22.673600324921825,2.456047636642882,-2.467525319389075
-7.3747166653670435,-8.78895072493034,-8.419465516255139,-4.308158479815571,-4.9742048544231245,5.849702929820888,-2.3131426131772965,7.131397843407894
-2.794886242728727,-52.06664860991859,-26.446654265086835,2.9407822454237174,-20.402896468619932,-6.490696387757375,-4.1261948066377325,16.667515741722934
2.151232585805473,-76.31245284466443,-34.219401050092586,8.532026452924027,-28.298792249900572,-12.420414447967717,-3.406173094766695,23.78676395574053
6.596225629517295,-83.36466944333156,-33.8748525579052,12.099818140029395,-30.003672618485304,-12.570958417384778,-1.5298373645701702,27.013287817917302
9.97747426801177,-79.24276948013639,-28.64183518274246,14.174338721752667,-28.062305167932994,-9.45942884404082,0.06583569436336287,26.338537373464483
11.931320238464815,-69.64583243063078,-20.994707831484526,15.388448914792743,-24.490740147277034,-6.104219132689659,0.60444960307544,23.06688967396795
12.018306116658437,-57.406435257728205,-12.516409228698825,15.628602235867232,-20.146685264083906,-4.795883464498129,0.05406443535354051,19.049616621492742
9.641218545737326,-43.247104333336154,-5.061848356038911,13.866873740099514,-15.400154328805465,-6.555485400626058,-1.3296616635251794,15.790613889368352
4.354979667719472,-28.278503492330426,-1.5424708635885966,8.887186847892849,-11.145934139123806,-11.23782750998973,-3.4848944049225645,13.917811768790632
-3.6176642606428606,-15.484914820629278,-5.102990635405716,0.3827549585638822,-9.023739511062864,-17.917555311266455,-6.608481935646736,13.21289906327551
-13.102388199608887,-8.775677879839723,-17.125014249704922,-10.421481535581641,-10.577029359357912,-25.270958088133927,-10.80775137955677,13.034131533449159
-22.236327927266426,-10.523614271473768,-35.725393625308904,-21.11817005326225,-16.093101810259267,-31.89730860496053,-15.718835449339288,12.795629728168795
-29.195738396453706,-19.747764258149644,-56.12775404576335,-29.226399773850716,-24.134017252160437,-36.63544352641414,-20.471205532144047,12.236741179030323
-32.963677700383215,-32.43006785691897,-72.84741347138043,-33.340946122142014,-32.1782835873164,-38.868536738835324,-24.06315215954609,11.415457366709758
-33.683550452626484,-43.71497677247206,-82.2986174103724,-33.63540418908549,-37.930777835403255,-38.69988746724153,-25.878823884850622,10.536065086293796
-32.426081233882805,-50.38705638565321,-84.19716755794008,-31.513804590626155,-40.40546914226248,-36.86727519358181,-25.980266021646624,9.774582067843669
-30.56727690961493,-52.01302578158025,-81.05827575572603,-28.748743490658995,-40.12998421703506,-34.38873102788872,-24.994774343615337,9.198078483617907
-29.171833754492365,-50.31982978206651,-76.40182950887755,-26.67464800479671,-38.5080439172213,-32.11491747438689,-23.720741093213295,8.771886012886206
-28.690039204377438,-47.67140674119875,-72.97128635429863,-25.82483864629187,-36.92665615699093,-30.441571628091236,-22.74641416176829,8.401609487283624
-29.017101430280775,-45.84143577996473,-71.91911369992566,-26.030895254877397,-36.1961715199855,-29.317736983406267,-22.29581830022802,7.977285830420726
-29.752749036010496,-45.60530034516099,-72.99961296950752,-26.75517190424531,-36.48124059869496,-28.466349985979253,-22.297670642675342,7.417381508730441
-30.466907252183034,-46.885271759531875,-75.21101350853284,-27.42553294661666,-37.50338665371379,-27.614785627142176,-22.535413761276438,6.70615336994958
-30.8723868163905,-49.03704677175315,-77.40536781703797,-27.664646031775472,-38.7775505979822,-26.60483895617893,-22.770239138775484,5.899704608643669
-30.89338809293463,-51.19338082130338,-78.74294359486176,-27.388194783036937,-39.829845520072034,-25.399447525234365,-22.82704754247904,5.0876545347500235
-30.641671011731706,-52.71169360044625,-78.98746066124873,-26.76430627790579,-40.407209281131365,-24.05892204161587,-22.65713493787751,4.33604117155288
-30.318405593118797,-53.52278550700357,-78.52413177458978,-26.062021809066362,-40.5861641263867,-22.703849782905547,-22.34699017183106,3.6548531858641793
-30.093335160316762,-54.04346012404762,-78.01759598470319,-25.486877165588314,-40.660964222069424,-21.44028195873793,-22.041423434008763,3.0054993922632764
-30.037123333717627,-54.6725246973472,-77.92271359315653,-25.116691410664313,-40.87290830880409,-20.27233751948819,-21.82760966459166,2.325157298056047
-30.140744829232673,-55.370132572092906,-78.25047318694901,-24.95462690178945,-41.22803726448153,-19.08826724394734,-21.68388492770828,1.5445151987801882
-30.373033436946226,-55.77417735511158,-78.75432397714866,-24.998575180214484,-41.5732487395337,-17.762742106532432,-21.538791868577754,0.6066801174157631
-30.69799776441023,-55.71498532398827,-79.26770850717706,-25.225395692074823,-41.82051462124321,-16.295458417027735,-21.36757821717496,-0.49440635032644886
-31.037830815754415,-55.54864055827337,-79.81161840882844,-25.51162047470769,-42.06028988874491,-14.850880127014548,-21.218450293920824,-1.6717817154791519
-31.249880175065996,-55.960703392638614,-80.42656474138364,-25.611414333219205,-42.46266821205272,-13.652283997590684,-21.15127501658857,-2.751168383453235
-31.183744146531307,-57.46985900286708,-81.0219219771478,-25.26760830252991,-43.113287148174564,-12.817051990223892,-21.170458646767422,-3.5574397150883343
-30.797811753624426,-60.07308574609235,-81.45362065299778,-24.396670199926948,-43.9589787370953,-12.253948368087745,-21.221353542138683,-4.04648469028719
-30.24328151894885,-63.17038284913912,-81.6923986770837,-23.21474616327211,-44.85156744442676,-11.667967417524505,-21.228795442080504,-4.394667040773916
-29.841573534762016,-65.63288013661847,-81.82670079680294,-22.21714297367547,-45.56850373832047,-10.652698455071398,-21.11864183435048,-4.970638533258423
-29.952881953885267,-66.03208735976064,-81.90358827991855,-22.004851596262476,-45.807872355826866,-8.859358516723049,-20.82123776326476,-6.175030419862504
-30.781028086411904,-63.276656855436826,-81.85111973960038,-22.989135799215124,-45.29507531006279,-6.2370842065771,-20.306317132286832,-8.194471391069987
-32.171145772874745,-57.61858872579215,-81.58087498519437,-25.036571661530495,-44.033769333104004,-3.251624588023863,-19.646321559021807,-10.758664376454215
-33.48176921572004,-51.318176382389524,-81.04234752942854,-27.21020604228994,-42.46929109375267,-0.8798709186491018,-19.011593417680785,-13.02137392537234
-33.65413281488653,-48.0550928147167,-80.0014240012173,-27.854596379481674,-41.27785892903672,-0.22695479753981174,-18.516589835674164,-13.69081049090366
-31.572505316991464,-50.9885805949327,-77.73965048131424,-25.190052069527074,-40.82079524067438,-1.878345466168204,-17.993650355595847,-11.460352691468447
-26.644537391587722,-60.635092824321035,-73.20844560882404,-18.26231867827253,-40.71659321225283,-5.390127340342079,-16.91638344574045,-5.6239920663748855
-19.31188799858319,-74.24058540861628,-65.90995742372017,-7.736724974218495,-40.025900957791066,-9.35307033582184,-14.650967818994738,3.4080370227433097
-11.120975091250088,-87.43005985942719,-57.02347308991782,4.048537439320303,-38.0829412464616,-12.137061892073312,-10.969968170548944,14.008738200113205
-4.164460378623573,-97.16107164937422,-49.70813528358753,14.000935076580829,-35.375243026678085,-12.921582094620419,-6.4907735373636175,23.79555688535777
-0.07516330993115088,-103.73249814462007,-47.72202382490769,19.791423070091632,-33.607818374155336,-12.307545225036856,-2.624561787679771,30.51240966531443
0.9080325775577225,-109.99161143164739,-52.62212811649359,21.135933551821854,-34.538571461764484,-11.977327416773841,-0.8730459456499802,32.944578059508636
0.21616187151739652,-117.98373161409556,-61.22391959856008,20.02583452373121,-38.17216515979915,-13.501496639659502,-1.7968755147938318,31.411633583121912
0.2922197847521649,-125.6088107572457,-65.53105323909315,19.660167946286368,-41.7039791121215,-17.067793745528313,-4.356212612361658,27.558656047475584
3.2752571090930767,-126.32222971808939,-56.15200723405644,22.63031174263637,-40.392957684762045,-21.074912825524585,-6.216652520090648,23.524895280122607
9.749618378809389,-112.81522634786997,-27.809516878062375,29.405671897977903,-30.244275438181194,-22.97832296980966,-4.9960989658680255,20.920396007977253
18.29824113881699,-82.48820881324784,16.30899504549201,38.009685813351794,-10.939670611852994,-20.88475840328114,0.2632472909046356,20.156204044797462
26.144590967732668,-40.92101610052217,64.34999602004619,45.0631581796863,12.961422241654502,-14.851912559153181,8.333675112788036,20.46285746490244
30.533946478548398,-0.6931049967641536,100.38957714699619,47.58018364550184,33.55035012646265,-7.054240268378534,16.260711823346675,20.529491117195374
30.089518391594993,24.11992294551276,111.61512837355234,44.50931375015502,43.15467593106694,-0.7313022784040276,20.793518722928034,19.35865564626729
25.41784798464905,24.725563003551745,94.30946021103708,37.208448476621676,38.04572869366247,1.4138808374975231,19.964997801974707,16.85249637443235
18.684104658644873,1.8098371181932913,55.447711163950885,28.670893811174846,20.22407450177664,-1.5734916099298208,13.948836221171499,13.841707021262579
12.45901192146785,-35.222955320005646,9.09226284485937,22.00908750229276,-3.693189519380179,-8.701688992495225,4.780605952817675,11.599106782672667
8.521122384448564,-73.45123783178235,-30.3921397833844,19.067381702109852,-25.830394674544515,-17.81806717155536,-4.801894120668676,11.148952687244103
7.267800494881486,-102.93903501746601,-54.55703309755397,19.88119224042187,-40.73261782957514,-26.778051801562977,-12.662357261157927,12.754968229553729
7.971235657849342,-120.61772028589515,-63.19672603016659,23.1308997537301,-47.282684008427466,-34.24212745032933,-17.95509313978918,15.829760368217615
9.573804287477612,-129.30769466254935,-61.87368340042192,27.11947772109494,-47.88385905061354,-39.684499642547415,-20.88971365426243,19.253246653597696
11.40811594546382,-132.92387430773482,-56.72186859478196,30.553834478160425,-45.69732694263551,-42.80300970285147,-21.90212070085572,21.871524947628377
13.368604630132621,-131.62712024032908,-50.188041494323365,32.704108706307096,-41.980032942246666,-42.96577844200884,-20.953914293552632,22.895643836536813
15.54034857683417,-120.7208817458257,-40.39955761906093,33.09536654474018,-35.385763895515325,-39.265047409148195,-17.52178165493643,22.04443737217563
17.717465096212276,-94.21333547112732,-24.05315954584552,31.24699038577457,-23.56343399185303,-31.20561344936872,-11.243504607578412,19.463665381538032
19.274717540579502,-50.34654317480891,-0.2516790582206528,26.820061636049626,-5.681881905553615,-19.47830622994568,-2.6435208983818717,15.562155751437782
19.50306501474154,5.104319722347807,27.63681016880748,20.055013483526395,16.06989066055496,-6.144089051548543,6.693854199538341,10.882453247740171
18.118762964473213,60.26583729398513,53.265841894771256,12.051727558909516,37.075252221538754,6.024496738843837,14.692633075337776,6.030390643440689
15.53483626204642,102.45201101890106,70.60627334848175,4.543573918077218,52.501958886119745,14.68808756489458,19.73031355387021,1.6184304810077146
12.691389778451349,123.93071528339975,76.93693233471011,-0.7835513398174037,59.630030358479466,18.88672789113308,21.350021022495646,-1.8255987432727145
10.569804137751719,124.82784706890037,73.76609978636702,-3.0290827061194934,58.902852359448914,19.265594702151347,20.328569884836533,-3.9881741767275503
9.713938566895864,112.00823347763516,65.52577722864939,-2.4364117663492455,53.30970110959592,17.54824414921916,18.140438391874948,-4.894302010262864
10.033079789150866,95.29645661845376,57.25047238978462,-0.2010708145247373,46.765733880770405,15.665337030647498,16.21547946758533,-4.9659034275858245
10.941460572819269,83.46467614574368,52.66418328860849,2.1021192048706245,42.522722634691895,15.037018236402734,15.414591295382051,-4.968743839810772
11.688358187637457,81.62095882257589,53.29511252877522,3.145667302054161,42.23396191949829,16.253506210126954,15.890156151058271,-5.822570931657261
11.691079815280574,90.1692289064618,58.38357036907855,2.297664252608831,45.67898348767475,19.083602614091305,17.225799004018647,-8.268213267428607
10.769262843139844,104.85535556390835,65.2054774063075,-0.16226249058799752,50.92567222072784,22.63768195864818,18.679659019599796,-12.439719382165315
9.251501412157094,117.81537712330321,69.8143068149931,-3.0589624873816676,54.88897660673698,25.621204503682684,19.450400504558726,-17.503447027257188
7.91452477619282,119.95434877601843,68.34807510962396,-4.635752627768503,54.36425410064216,26.71275743177401,18.95077003845589,-21.63018592531019
7.7024612007381,104.45410620523303,58.62035464628197,-3.218528798971807,47.348416694312114,25.02729741730625,17.01820284740708,-22.516970300483564
9.267386043226834,70.05742479301459,41.19573938038584,1.9361253490316,34.05035893888802,20.467751092020467,13.928193766773274,-18.39788369047967
12.539321382794984,22.234696598749377,19.211985183167638,10.044562380448514,16.9366012141168,13.736941085188882,10.151250438440576,-9.103399463716904
16.607634379764555,-28.80395900028275,-3.0681317308003804,18.906989786951524,-0.35317593230983385,5.961167910887497,5.98780037770406,3.47168601330789
20.056634668418305,-72.46260755109333,-22.16472617103018,25.822599521164356,-14.672522995825593,-1.8593420612345632,1.3519241433184042,15.923607174371519
21.613669610457862,-102.15162003776685,-36.628995976414416,28.87502784445643,-24.656525074600896,-9.22056397857625,-4.093554940578257,24.7779189701714
20.74610441487858,-117.2844358440312,-46.96259821642702,27.845207245261843,-30.89303309837548,-16.069328846957248,-10.504264894734114,28.08071089255942
17.862049608025565,-121.99037494898232,-54.471609300043504,24.193246301466218,-34.989304789819116,-22.41825830830992,-17.442055590312698,26.238706759659127
14.03235384438516,-121.80009312038696,-60.03947463926765,20.145808898284894,-38.29148390089622,-27.964882074000823,-23.845688273657753,21.623063611971773
10.466565228992817,-120.64430388467967,-63.69006007461964,17.50798972725654,-41.14886177579062,-32.04131309811716,-28.481842827874964,17.201303280185012
8.091019991134804,-119.75990233019868,-64.99308502981953,16.938376209098085,-43.05386998535498,-33.92933331191543,-30.591490933201438,15.022859107708866
7.405974605627522,-118.4482809337158,-63.70353349192232,18.005658878013815,-43.30772847420975,-33.29599231100755,-30.289845117302725,15.392686585291012
8.525855957296972,-115.63359221222969,-60.139113519236155,19.772698741007467,-41.67002900454758,-30.480098338004304,-28.49033529670585,17.08046372685095
11.212111340993447,-111.27889045322158,-55.304950558806375,21.407162231480065,-38.71735454934473,-26.521512780130163,-26.477383416441224,18.303744871694377
14.858589075510531,-107.1126145236002,-50.87627961817431,22.499418814878307,-35.85423649499191,-22.934720209386136,-25.40814551202893,17.8628155619978
18.563261906034512,-106.16493746536482,-48.7916502000555,23.071633485865473,-34.86906025173995,-21.225610111131797,-25.912764211371872,15.824918559347108
21.380531795411052,-110.81224125666424,-50.16661570844641,23.382071759878517,-36.95913097452068,-22.209866024203357,-27.826571075345615,13.452319758581218
22.639531363773028,-120.05536559333929,-53.953436122644696,23.595890160716362,-41.58419635318073,-25.4095658628263,-30.120965300772994,12.45769092684766
22.1035237892481,-128.02041123855162,-56.53747626253045,23.429539406016417,-46.006931639505815,-28.974080082786767,-31.186405668397907,13.99781813038147
19.882966763076972,-125.59688307142557,-53.16972890877735,22.010130597680416,-46.23357719168355,-30.390337365028937,-29.512158236802247,17.957188864014718
16.244685974003698,-105.09257270625665,-40.72443073147382,18.188798919155115,-39.1175148691995,-27.727881034176658,-24.49591980176022,22.930455044207918
11.52206039351732,-65.23988852459247,-19.985543105033173,11.253276337373594,-24.3762526759807,-20.710621847804994,-16.898412848760174,26.917811322983887
6.173772640825233,-13.118572436242001,4.2327513960189105,1.6050950698730646,-5.137632977058875,-10.936524178658892,-8.599591161222111,28.324028078287387
0.8520550802331766,38.58577792114493,25.357363404147737,-9.117916269313044,13.439516153010025,-1.0932229357765941,-1.746622862400284,26.686670158624064
-3.680919286073301,77.4766371526395,38.30713858596604,-18.65146419519314,26.650257945847216,6.351849337028733,2.222593122144095,22.76034675544739
-6.804213273716069,96.97550824796485,41.729717181564965,-25.119068499560093,32.33833548988366,10.220422816772189,3.129917428819954,17.99210628086064
-8.306420276918466,98.39719797368234,38.028774243545804,-27.847205966172396,31.457126497089597,10.902974148935874,1.920541431729939,13.756697687450005
-8.4772894366126,88.87518360124717,31.492787496496412,-27.520944689448353,27.00861396466161,9.831574580960753,0.01008480453729688,10.788747555394947
-7.9433166325379165,76.98856238766592,25.94539933284854,-25.657055943409755,22.248926724297544,8.592711997607806,-1.4376374296432664,9.055148037525502
-7.350852073764407,68.89927972483376,23.315321510417885,-23.784715295387283,19.287455657864875,8.228863736214826,-1.9056524754958284,8.016791132719636
-7.101850206565132,66.7854211963151,23.57374069661004,-22.830705876940844,18.66671388205646,9.016136091664158,-1.4909428209857365,7.03343016619448
-7.283003202889363,69.50910658024455,25.526638340746793,-22.969639784799334,19.75722440389844,10.64689823740404,-0.6210078820320438,5.668674179708834
-7.766667683737331,74.31980578627284,27.709385635677695,-23.852468525637455,21.443237621473028,12.56859894115615,0.24099599106297648,3.79498878739208
-8.35718691500854,78.48309485625336,29.00700161077859,-24.950651977637573,22.710820506899427,14.281634655300984,0.7823670686153442,1.538231092915365
-8.88646130263919,80.35932079490537,28.987074564050246,-25.820541550117238,23.01770822695047,15.522847037132381,0.9172466382652126,-0.8512111579259655
-9.254906056448954,79.82193881090903,27.952645648636405,-26.242672627820088,22.418633502356293,16.31865121311951,0.7721489920831499,-3.1349116658772314
-9.451304506819953,77.96206354969199,26.654646889678663,-26.25517852515095,21.40989583584874,16.902518752112634,0.5832193267344293,-5.1882072750188755
-9.551011641350774,76.22110098969382,25.76851598354648,-26.084666008722326,20.555613581057024,17.538663832889014,0.5439257137318286,-7.032762734391481
-9.668954843992756,75.48274645680475,25.494823576152218,-25.991839280441365,20.13701128387691,18.364449963238567,0.6998563541697593,-8.789007872575544
-9.882809125578452,75.74568879150176,25.589366161647714,-26.117265612651536,20.076591963957405,19.358716768111506,0.966619526162031,-10.585772760078068
-10.188536463438655,76.50206101359409,25.724660100155585,-26.435251801482675,20.14275719332855,20.432102301975814,1.238157602308467,-12.493100921154111
-10.527963979839713,77.31990133887683,25.779115518383325,-26.834477240540814,20.187106267998978,21.527808061200847,1.4728086382865002,-14.514652171692038
-10.852444141907048,78.06214319108823,25.80479083017517,-27.227294710038954,20.193609304823994,22.637029031785367,1.6876373338278574,-16.616614197913567
-11.15217456166864,78.70258121686375,25.82870639524009,-27.582364129412518,20.173549040219804,23.746617683265633,1.901656267803213,-18.74771545597989
-11.431945887858417,79.14295784531605,25.78643249069228,-27.883350990887052,20.09700059157466,24.807103113584738,2.109968474925567,-20.840355307950574
-11.682791970237977,79.28869285824463,25.632339306304093,-28.10135612312124,19.939250858643337,25.762192081810127,2.3054580402996057,-22.823131378391306
-11.895324936237202,79.20027129811332,25.409956492254597,-28.228552513982848,19.731706459984142,26.59534041876436,2.4946626294375585,-24.663871543137063
-12.093803487249687,79.0440171349283,25.160010819073158,-28.320931517830807,19.513938401873798,27.340255375371772,2.6763182240586296,-26.414182181116253
-12.334434742673103,78.91286183608977,24.82895590196402,-28.47795583765233,19.26005924923401,28.065519103708407,2.8237748494016977,-28.206148276151048
-12.656646958975248,78.82333030236758,24.375821750531625,-28.769553370027598,18.922371730405484,28.872636196690507,2.92076897762425,-30.18801295051026
-13.040223762864578,78.93508683633459,23.978658513321918,-29.18861735562824,18.573365654064716,29.894841392715755,3.0216117927370854,-32.436447308833614
-13.41720476249337,79.63729702067602,24.025311855765377,-29.66894932191056,18.4495737542761,31.236380427962153,3.2492978913610413,-34.89503905156116
-13.722179617734364,81.21356554683895,24.77664440649072,-30.124866559580486,18.772561494977793,32.8451145215938,3.699039412393486,-37.36503868492528
-13.926786056121049,83.33277662382093,25.996380834045596,-30.461366829110233,19.48461784350993,34.42416313136621,4.325176503632512,-39.557829109336204
-14.040079013720588,84.95168789868902,26.94417995253715,-30.579600528717783,20.168920143233628,35.517247033451035,4.922649735647038,-41.21882829324624
-14.106884448907415,84.8910180019112,26.794394257232064,-30.440161625451577,20.261144022440575,35.78197662074294,5.230990137664564,-42.30875245401224
-14.22334341800223,82.7072076840252,25.17229000784131,-30.169786763833855,19.399765227412598,35.29812687964687,5.0892130404062845,-43.158157674830285
-14.530218814411738,79.22947730052564,22.48090733072448,-30.093080433020198,17.691116075037748,34.69734989690847,4.555194333769017,-44.45167483994999
-15.133514915178141,76.43647546333098,19.917061114570686,-30.586663434117714,15.787624995089589,34.9842968420121,3.949216160100228,-46.94071193926766
-15.976368347931693,76.7316350518189,19.172406520823653,-31.80019212130682,14.763638277234248,37.062306316999376,3.7981279423443146,-50.94481407459411
-16.765588773980713,81.77292447793302,21.739525739136838,-33.41939727811555,15.732078497777827,41.10606055482391,4.638159416495447,-55.882992718809994
-17.038432545517036,91.06659117228685,27.848875212282863,-34.63214310886532,19.174340247752085,46.039511273902924,6.676508533533539,-60.13992149188052
-16.34717835267329,100.9137559408105,35.52064791657477,-34.333791694565285,24.22530514373138,49.461441581655315,9.4563842864114,-61.4553596453831
-14.450787081544105,104.71799693105837,40.590052714574625,-31.499817033287798,28.461282022865174,48.292687197452295,11.792983947339387,-57.77613272504884
-11.415619175621902,95.32795185526346,38.22650266460765,-25.614477066984442,28.650666053780114,40.08552000522802,12.167526328596342,-48.243369487310424
-7.608868193590897,68.74982413756356,25.410644104769762,-17.02472540954583,22.312633412120526,24.445698633320713,9.46616705195833,-33.83788220855282
-3.6294561523503037,27.1391713019763,2.8757447142457897,-7.059592300798077,9.21614280236358,3.729809650533379,3.6464683982787487,-17.28853364251909
-0.21394108574529735,-21.15413251394205,-24.91093047842527,2.2263481823368987,-8.217125786044159,-17.57487989148768,-4.121604653212051,-2.177866830278227
1.8985646170628803,-65.07942222118434,-51.906932772659026,8.70570090454714,-26.00696150729052,-34.64406779538511,-11.978207049113143,8.402471277686097
2.192875839185009,-96.09590529535886,-73.40284852154387,11.051092072743929,-40.562183401169705,-44.370639464865384,-18.235378418211777,13.043334532899035
0.6893672031891879,-111.85794928262686,-87.64112650236788,9.463937847875696,-50.17193035364155,-46.52366813532342,-22.00292162271108,12.51500969708343
-1.813930909007122,-115.94697519500698,-95.05454644770272,5.825650260697523,-55.03787707261423,-43.36816052850137,-23.19568774662754,9.339297585419553
-3.825478498426479,-113.9468792449002,-95.97449688046989,3.0170875213618324,-55.984631693656816,-38.062092296814754,-22.04509053094142,6.612896673145919
-3.7051202451498555,-108.85293609311428,-88.99294655829183,3.6021453127206615,-53.06024070194153,-32.89619467532187,-18.627031871301714,6.612353210271324
-0.4713533514990401,-99.26281685674488,-71.62935140821303,8.543627397932102,-45.29696131716676,-28.443780682139977,-12.845636191038107,9.850851039555304
5.602322938409163,-81.53246363759763,-42.91935563142366,16.712298374176086,-31.85499669554412,-23.966940613498327,-4.856201639316394,15.04723824313051
13.016198896785076,-53.94928603820103,-5.781602977568626,25.50371847944892,-13.54328370518843,-18.555686471691136,4.502832745165885,19.96945351594678
19.72745264511994,-19.553688006153234,32.93543417649735,32.18972070840175,6.628689986837383,-12.095099857841628,13.714996257309307,22.633758334533916
24.09693046000482,14.499894433632452,65.07257748393032,35.20539565325683,24.436831049913586,-5.451476119898319,21.114510640257727,22.19865471259876
25.560595270499924,40.47267112250865,84.82503843152715,34.68241644094998,36.35561016501331,0.08890979450781127,25.61304046308538,19.151108723051227
24.691750555472662,53.929618498955946,91.14655280186508,32.05611646751757,41.13986283490034,3.6089032623169324,27.15156116660298,14.82629374426839
22.711933017127777,55.48751876795154,87.55115459615165,29.123216521114276,40.114029662450164,5.019044335729522,26.605484245504076,10.639923406066846
20.813657320775803,49.66060094726946,79.74732526645019,27.164977363602066,36.1411704546812,4.967997152887403,25.24843858298302,7.477108463979131
19.688372284584236,42.03151307093594,72.79615087442801,26.5719696241354,32.082291422866525,4.394542771959626,24.147188168361648,5.492374760798956
19.432964407670873,36.74557805639483,69.40382029259726,27.001992281796948,29.70395921593169,4.081358652852581,23.831417351503983,4.291874997494619
19.743068278697997,35.5277414826044,69.8326749556952,27.797867848217216,29.45127595085343,4.440332819270173,24.32093191512326,3.281268867201763
20.188321062146695,38.0428950105561,72.81395536279317,28.36911730419102,30.83610772420181,5.519984234702268,25.346778603358825,1.9621485303497506
20.424718657362003,42.73536727566572,76.58202105957656,28.40649296459601,32.95402175557811,7.107877750819014,26.561250464227022,0.08363214020781373
20.304062756135956,47.58901727492456,79.59160632313971,27.935210922594624,34.86733268468997,8.847351036427138,27.65613906386087,-2.3317797345347784
19.88471570481615,50.79030368226472,80.92020306642705,27.2349452954702,35.8682246896386,10.364095037564942,28.42019945156144,-5.04119076299437
19.35113579492429,51.34062031512277,80.41475712861126,26.65153773715374,35.66635950144428,11.395808727041048,28.769797060026992,-7.688248355774543
18.879709532386613,49.40383829875217,78.5636440829566,26.38107624201129,34.444205621280965,11.878282038429813,28.74786104513901,-9.944846452524732
18.53622977759491,46.178925871514394,76.18665524922748,26.36180763148041,32.745469227794196,11.956204507218711,28.496680581423114,-11.648098622430833
18.278890151245584,43.43464360868702,74.20043503596176,26.35291448638418,31.29561410419557,11.945663380021452,28.24373653015551,-12.884949900679628
18.049000377846752,43.01016312878924,73.5792290133655,26.13121281621613,30.861016282445803,12.280796834575574,28.308452428102203,-13.995885465488197
17.849225172023303,46.29745720962876,75.25190790237441,25.648083280064203,32.07642581364015,13.407878962682942,29.05221287803106,-15.486945745867985
17.731055871201946,53.46163354108903,79.57970720021022,25.050728103038534,35.08070009302245,15.560537574012317,30.683242645416442,-17.840322728925496
17.713981345379956,62.51115755482585,85.53431050421314,24.596277934425398,39.03261639563913,18.459862927771844,32.966018560873096,-21.23527757028069
17.720301823354937,69.03595784143094,90.29331115631828,24.528020176170404,41.93378731642183,21.151361405229757,35.05575156544236,-25.269491436663312
17.570605937481197,67.50902150481843,89.94557697163503,24.93159597722979,41.19458016090198,22.211868706993492,35.68046035005443,-28.86073280659249
17.013415386739972,54.01168883089994,81.21103970932896,25.572930937861113,34.873488791608324,20.342381954676963,33.67280123465095,-30.496734337711434
15.755265683109974,28.868615692138384,63.212034063073396,25.8031138326913,22.90171278617487,15.059251568137512,28.582448127701454,-28.82798827433281
13.509446744437048,-2.70447711415649,38.17195621511124,24.684076181273902,7.452917450175009,7.063212049374972,21.003011545180957,-23.353332910501013
10.102299272300295,-32.7101661331713,10.579385521830517,21.392424700391445,-7.890329242658964,-1.9754692244110907,12.398044931838447,-14.819804084068258
5.621144472149472,-54.15889097072436,-14.693692924481786,15.728116948554792,-19.747167807004196,-10.129429625931158,4.500153576789057,-5.072977957267851
0.5165241611418643,-64.26229922089799,-34.23296964522701,8.400269220812312,-26.391516677601008,-16.028718164304443,-1.3932678866799992,3.6032710247126016
-4.4379309661970945,-65.09706834683057,-46.90435380834934,0.8511491697845229,-28.219196627527044,-19.318558350874678,-4.845493190284977,9.333868967882411
-8.359378341403945,-61.51687204383965,-53.42627437101868,-5.334120417409783,-27.066415049131983,-20.545663668093233,-6.229705532605859,11.287541849673653
-10.576013290593135,-57.95380135639739,-55.30723030833699,-9.108485205582623,-24.974588707662306,-20.64622380489496,-6.317507734552823,9.856295393436914
-10.909498163586065,-56.31174220649746,-54.02396377389291,-10.348769307494358,-23.258646573262716,-20.434639542667146,-5.824564562140313,6.37665006045207
-9.77659916354486,-56.0051201738462,-50.833038283305896,-9.767407250203616,-22.326975207490946,-20.382111706416648,-5.174464866291512,2.5586664866742486
-8.062342743831412,-55.477983751950696,-46.975882770768784,-8.490967968009045,-22.066744619825794,-20.674080911039052,-4.52199716191076,-0.15447738141329959
-6.8344980516385085,-53.78989387759008,-43.872065393171134,-7.610604936079919,-22.331328842482584,-21.348476919160834,-3.910469721772477,-1.0778741774525495
-7.007543382091443,-51.393402925167194,-43.113313145820506,-7.890005436888703,-23.2337333943598,-22.367138902767085,-3.416652120545151,-0.44163778610921284
-9.021852088281618,-50.03902952591874,-46.179150618208546,-9.584741973736547,-25.177282887647618,-23.61439736405031,-3.1864295149526214,0.877868525452879
-12.586425283193309,-51.95222197109464,-53.72459977028631,-12.275157169245173,-28.586566834937123,-24.86797306230455,-3.3133606683912595,1.9540973423664407
-16.597610430448327,-58.34178066989921,-64.48744560484484,-14.799188491286342,-33.326684445418074,-25.752569977925038,-3.592406684900266,2.4209975448698384
-19.390924915532814,-67.69330965308136,-74.48188675918853,-15.523102306886672,-38.0666968812809,-25.69182082420557,-3.313772713166924,2.7160909926695838
-19.363484760241533,-75.0380443461021,-77.54816108737451,-13.03519278896194,-40.16523042524513,-23.94847382245233,-1.3382985462055454,3.769104857652436
-15.7401382984931,-73.38682342490905,-67.73910937095783,-6.966770381016646,-36.54432368016517,-19.86039013590208,3.4303762813443055,6.318528329047243
-9.063001578902048,-57.19168171425369,-42.60536900382937,1.5915622807871015,-25.332041219674977,-13.241129200377937,11.363758582578873,10.310933183554456
-1.0685998922591766,-25.94964155914241,-5.370178263623171,10.431153680294289,-7.312404417232697,-4.7132952351709285,21.64159650171792,14.791972350744645
6.038141704366999,14.492537739092484,35.66169564348891,17.19321939104466,13.872109829472608,4.308881411989256,32.365785727214714,18.362096494255617
10.535951300948229,54.074874369955495,70.44982908560934,20.42000720620523,33.08893976119375,12.081478109916134,41.27416822836585,19.897124286189932
11.856086798654834,83.0188196844783,91.54100720497459,20.105851394793802,45.951044161227436,17.230923824407952,46.69017388624244,19.08668517545122
10.647277854059084,96.0942492402247,97.0006010916883,17.504518462112088,50.65430351470174,19.308430405285687,48.199194777785266,16.498221135433678
8.286669230911155,94.34065852015259,90.5402970620008,14.407596926628713,48.446974391315614,18.900015573016507,46.725928526695434,13.191208186132766
6.181099695747648,83.68896464261687,79.18094174212749,12.357971249345251,42.66812130908511,17.278650821203303,44.05110945653159,10.15734365959947
5.2322303174426485,71.81645146807813,70.0479751961232,12.158383264437328,37.11518031384807,15.848964211883844,42.08054751561224,7.90111131802388
5.633433236118488,65.16691606089132,67.86305188480812,13.736420579241152,34.64918721759293,15.675404721855507,42.18867693084872,6.328190407654449
6.939823229031134,67.1769350506677,73.72386269050833,16.237658971517714,36.451302879511616,17.21203293715722,44.778122517046505,4.923195300288886
8.28672676570536,77.54788301825255,84.95566469879579,18.269075100612408,41.81172699178257,20.182852160830773,49.066308980253964,3.0939017821868666
8.700020956543018,92.16228021394325,95.82822265618572,18.335564163426348,48.27865446149367,23.576958828056974,53.158083062809794,0.5403253239576522
7.476836388035979,103.89979451452928,99.30069955633478,15.460450105407388,52.28254716349632,25.85331507239243,54.54748834954655,-2.488564097293547
4.533904312041501,104.92452471611114,89.7725829462256,9.75500208954667,50.4019386348046,25.459788694960217,51.072032046892936,-5.177615470814445
0.5298506270975806,90.16204618898742,65.92893867299536,2.5606838349781045,40.98261728573625,21.55558144808207,42.000184133330094,-6.429445908481251
-3.3747802805909424,60.326272727915175,32.06514813155104,-4.047313762825204,25.271200471877368,14.563314590149998,28.65374177118322,-5.3653038667812964
-6.041846670240922,22.451465707135853,-3.2806750106982556,-8.206645027307879,7.218399179147955,6.149970706915815,14.07434806688563,-1.8080398807357443
-6.88135313939727,-12.886977373312059,-31.020970501342735,-9.14565692001361,-8.181644254023437,-1.4632777238292323,1.7625438110049088,3.5170572503431186
-6.076561861952339,-36.396442033177685,-45.62085523271242,-7.480880102236693,-17.20206953278691,-6.528187376395329,-5.886151858816685,9.188648575339137
-4.400093943467266,-44.256822518759826,-47.315926173071354,-4.782250322486317,-19.049918036191585,-8.549341168640993,-8.585705155088796,13.608094159847578
-2.7772935619640644,-39.32132183944908,-41.287723678535414,-2.714973590201373,-15.955422923398704,-8.363406814230116,-8.057557820350892,15.582631639198699
-1.888829403796446,-28.859044084699153,-34.50596856002392,-2.2911206631141203,-11.724423258440131,-7.502449898164932,-6.940470749691173,14.723467317834418
-2.011941449710204,-20.464535403354073,-32.21322911906054,-3.5991232394481645,-9.693109094769365,-7.2635923913007945,-7.3866482710676875,11.528447138927653
-3.0773420864182777,-18.54643512707,-35.86643940545732,-6.003044415506751,-11.222041035405223,-8.034219873477978,-10.103731940977752,7.162716618360824
-4.784694936465367,-22.927790840007177,-43.13933015924653,-8.555153732385776,-15.336525279666777,-9.189969849563328,-14.233074562530874,3.0450621909099516
-6.687589490686886,-29.623435064100274,-49.47937490716157,-10.398839470599492,-19.425618621108196,-9.527673651011881,-17.96938998821654,0.3821632979838463
-8.30638358237054,-33.077051998643434,-50.41174191556228,-11.090076788447544,-20.580721008307833,-7.976568495277348,-19.545683541664527,-0.2068697231718862
-9.34053940646562,-29.138265989489014,-43.94311386736834,-10.798795177044314,-17.151984001128152,-4.293139143396347,-18.17344429341022,1.1453638912665864
-9.895234026936869,-17.967261199499767,-32.33614082625076,-10.269627855563199,-10.041443897920972,0.530286088780419,-14.590297448922465,3.667509698277811
-10.508465380419745,-5.509771043681882,-22.22967766100624,-10.440876060792505,-3.057222329094655,4.378425252851185,-10.950583317120511,6.305358412090499
-11.859455977493846,-2.055820940098345,-22.359427440626355,-11.849021522976026,-1.749306987574877,4.744266877788858,-9.988061707934765,8.169253057416851
-14.304195386613555,-17.67006768250477,-39.41728575487603,-14.193210622642694,-10.88520953982994,-0.13345129651263946,-13.736769411041731,8.859335766229307
-17.56475658208446,-56.512282771206046,-74.11095047109595,-16.409419312800402,-31.750296185419348,-10.268216321491792,-22.434454908071512,8.514491120755695
-20.81297828078548,-113.42860376178186,-119.86843854850713,-17.263487697350616,-60.897171280538075,-23.659454693995134,-34.2472695613416,7.594516933087255
-23.106544916599983,-175.2470550749025,-165.27223929343796,-16.088717836362658,-91.28288599289064,-37.00882954280973,-46.03456364704508,6.560199302831844
-23.891069726839323,-226.39316702540953,-199.04835405085808,-13.184944563749191,-115.30419178653455,-47.09351416401314,-54.762548984689445,5.649537134197296
-23.2566766858689,-255.7490767160857,-214.87819354061403,-9.638829264161611,-128.07723684848713,-52.072934718757494,-58.793097288119014,4.8474189759974005
-21.830306316774664,-261.01330796087,-213.52384212328366,-6.722910083954612,-129.2213911410487,-52.06243263565112,-58.38195947869221,3.9983247394997274
-20.433540332340968,-248.55572852791914,-201.52501738323903,-5.286699810608526,-122.40979641040569,-48.7732432351867,-55.23349968285136,2.9283461502478962
-19.745518717190073,-229.5466679469523,-187.7055465201471,-5.487202672606324,-113.27772853135698,-44.558111520844754,-51.50895130534013,1.4812282316916285
-20.11551903292073,-214.94429702313718,-179.53786604519374,-6.898976866843868,-106.99300203624858,-41.44246335564159,-48.897323355391926,-0.505864935695977
-21.498537010304116,-211.68131342128504,-180.75927591804782,-8.782441327799411,-106.52821676402337,-40.543906268031215,-48.143552262477904,-3.173836769957442
-23.4318335454972,-220.8541434583791,-190.47589660002686,-10.299031798796237,-111.91860698312665,-41.91642522788751,-49.04332500588486,-6.489850558868813
-25.06948781913957,-237.59030120576506,-203.48125527611327,-10.669580993265273,-120.33175490045325,-44.6467238860363,-50.698250106915694,-10.046376062418
-25.384135340748525,-252.36387338222565,-211.77107415536165,-9.393390194815035,-126.86930936315318,-47.09839295297409,-51.87332045291683,-12.992702581988294
-23.56755808819153,-253.98964042113275,-207.35205383717502,-6.52481105808812,-126.18140634778011,-47.34599926085614,-51.41800464163442,-14.234797070172796
-19.459044042974266,-234.05729812589288,-185.74454994561987,-2.801824759163552,-114.65959790480109,-43.813018588315614,-48.69903832503424,-12.864024054515575
-13.716119827046095,-191.18042325954204,-148.57095051324717,0.586016250866038,-92.32298553732937,-35.92344319086629,-43.880301623148235,-8.606476197911398
-7.563819884418266,-132.59068606299786,-103.49745891921346,2.5532502412094473,-63.24969199752494,-24.43745143161156,-37.87078175803391,-2.045442233778429
-2.2410555148646036,-71.59638525637243,-61.102859308807105,2.6760781368245983,-34.033893004329066,-11.259994777043326,-31.936635246217904,5.518049733112896
1.517292169388097,-21.882594252158842,-30.203435030917266,1.375642771488905,-10.95485181863626,1.183799735575899,-27.201476411081813,12.509891425187142
3.6446320655531377,8.240447786467257,-14.284977621304026,-0.4110365259140429,2.570723344791641,10.676881196482745,-24.328365242645543,17.618552063460275
4.493796055554066,18.423396423382172,-11.031618914953224,-1.851518192490213,6.840740304338334,15.731935370132122,-23.51766196725884,20.177077084412414
4.419881968927938,14.5758484157653,-14.885654559567346,-2.6980615436981807,4.75206300367063,15.819786514642866,-24.698893315190592,20.25281141002754
3.5417431193131517,4.542424559247606,-20.629106003227484,-3.3080969278354586,-0.27316323424658484,11.416782731895367,-27.660967224976424,18.464766351793585
1.8390664899573668,-5.778553902938479,-25.61166006180105,-4.245926455892278,-5.858341862326261,3.971805514874238,-31.975775299440254,15.659628156113984
-0.5656152523677845,-13.75922439287021,-29.631399906445765,-5.813666146026001,-10.94543107343196,-4.278308093832244,-36.82773748686485,12.606921651842477
-3.233616802798435,-18.976412768830436,-33.318888129121774,-7.85310406702219,-15.098615421970495,-10.800794480704324,-41.01360653431647,9.840622801686056
-5.5104321904096745,-21.507075663433007,-36.66533821599996,-9.886095489793334,-17.77336538711847,-13.549100095983269,-43.259536367775056,7.690988910463517
-6.82347256424663,-21.1232311639806,-38.71847442488928,-11.411369120173843,-18.205324461772676,-11.717412067663181,-42.724400591352534,6.429237500100909
-6.972947333923805,-17.624026390732148,-38.34444559940645,-12.153016551944594,-15.880122391765378,-6.042268460514915,-39.39154824553481,6.35527769574189
-6.252104185775921,-11.596697396153168,-35.311512300546276,-12.17566018377507,-11.115572041122661,1.5356887766994651,-34.135563358374874,7.693638071089671
-5.332740715035959,-4.874018087524194,-30.944745183761103,-11.846383216845053,-5.310256273007453,8.65279378437813,-28.457937677807212,10.341491360229934
-4.92979821340872,-0.31186675656289586,-27.83624103069305,-11.612321037169169,-0.6214455601795846,13.356431984617592,-24.004055206528957,13.699722653431666
-5.3496828452694425,-0.7212750707998621,-28.440364085879615,-11.626015885009735,0.9578082902890237,14.705751382781818,-21.972161558440444,16.82108845321911
-6.152167904495071,-7.08051754293401,-33.03679342440566,-11.43253570833,-1.1478494058399575,13.048047488858165,-22.55000400536898,18.875554674405592
-6.201065582716433,-16.85320327065401,-38.335415580011556,-10.030774877520999,-5.18773321791537,9.943399020409718,-24.631461435549234,19.63957348616053
-4.202089320232267,-23.84172678792476,-38.12544080597261,-6.420580158893591,-7.334216171308109,7.677814964937233,-26.105665233267796,19.63347720362022
0.5203881122699264,-20.510884448480333,-26.23942181212354,-0.33840208186467274,-3.35900044914221,8.390187517517214,-24.770555793249365,19.765508242423394
7.499660764092567,-1.9949344145448886,-0.2971989996038472,7.361390923318531,9.02712796788029,13.105217637391915,-19.475489002496857,20.71429449067387
15.24354285010103,30.638750734084372,36.27015633096511,15.02897951943776,28.63385238402838,21.185393357864665,-10.811427093934515,22.48109390003576
21.962947134364015,70.26340930299608,75.5142910592029,21.07970202636186,51.168044737048724,30.59994101255319,-0.8572381180154199,24.40511552524909
26.457541520800433,107.13509604516878,108.93221526490679,24.80171307127306,71.395758930337,38.93979051041475,7.91552092925945,25.587262883260298
28.586498836279816,133.8330217453577,131.5322819479162,26.53167115670883,85.71479700113828,44.60174712707197,13.903638414203796,25.398655406516493
29.037613384706606,148.4701081950758,143.3209110114856,27.08037431905764,93.46218009112778,47.41318474896283,17.000499601694276,23.752359383929985
28.60149512291216,154.07719131036256,147.36419710377254,26.865270194981896,96.17604310852619,48.31857080548452,18.225844019402263,21.043124146411472
27.504554978096262,154.79261741927075,146.07952466459184,25.44885570240208,95.51222314505148,48.38265816842085,18.683658953504988,17.897980678076472
25.292630005009727,151.84968788437217,138.71075615278022,21.876890366327363,91.49781497783931,47.8366490538175,18.631416707873395,14.947750464161805
21.330725566657204,142.48181545219416,121.98817394737529,15.581409875300698,82.50934148719614,45.850348024796034,17.329838488105143,12.718799350294635
15.52453198543433,122.56992333917073,93.46886169928685,7.161883526891035,66.98764134160226,41.18170161972817,13.749791038823247,11.599764065943711
8.722806703898577,90.94445531408462,54.96074781110533,-1.5618368497713826,45.52883775619662,33.235923744665754,7.59372267560345,11.796897447437663
2.5094011523253155,52.02515029381158,13.364458143504715,-8.302000196976108,21.6986629353377,22.807871243636207,-0.11092905284973661,13.261072689486827
-1.477943748102083,14.777738267114248,-21.827730150635706,-11.380273877991284,0.8776715286123269,12.026794968463635,-7.265840761665874,15.651274593534236
-2.275528561934714,-11.3695127644292,-42.79930897852353,-10.466613801055686,-12.147807733755409,3.546119464987747,-11.646252412514071,18.405845480014225
0.02980786241952591,-21.00229164705189,-46.80926234324991,-6.603664977477601,-15.335487905573725,-0.5505783279079882,-11.955894039419805,20.91965300606139
4.397226032696595,-14.932514355949017,-36.91803264098377,-1.6377967071024897,-10.073847783765563,0.4298018157620126,-8.403792593020098,22.739129523191455
9.24196450729466,0.7416895110789132,-20.11444018751395,2.513820033231184,-0.2665004918787892,5.55988159003597,-2.5695972378152807,23.66623626393902
12.92120639706465,17.58388600697061,-4.3289310479612375,4.409548405096819,9.380900690066413,12.635062676444806,3.2608843940472725,23.732625686461727
14.1712308826606,27.90897085227658,4.168671286196879,3.384738718533383,14.918833213279793,18.884168255647957,6.9283059287766084,23.106991145083875
12.47985238640258,26.968195410818815,2.439915579969198,-0.29048353982756997,14.154860596464161,21.838926998178433,7.122032653105863,22.032157686834005
8.33574554854965,14.276577601874152,-8.24974965560517,-5.401946742141943,7.212975799500816,20.17773185891437,3.8459808824171744,20.818108283226206
3.184289789114876,-5.791426086802874,-22.447504513096813,-10.0904791096237,-3.2927461406136507,14.288191604885212,-1.4986211382599661,19.821825448863073
-1.0495787387085893,-24.734234374650445,-31.980135647307524,-12.534924661305919,-12.79513478486726,6.23333158329812,-6.544971063949921,19.33918828108202
-2.7622589529700847,-32.70246091824363,-29.074659919764454,-11.777000696287502,-16.327578309602522,-1.0286671744354672,-8.878044906544785,19.43613783551514
-1.4056219686888152,-22.810994890967578,-10.07443777729348,-8.210370195732375,-10.719892337276459,-4.915173295779062,-7.095706958214404,19.847954883196863
2.27851514097672,5.146570143983845,22.305502433581346,-3.3828772916882643,3.6928573461444962,-4.358189817836466,-1.4689215588460591,20.060142762719018
6.679395951924324,44.00354895247008,59.799682929578445,0.8087763441380026,22.986874203046874,-0.19127965230020577,6.197182999425565,19.554748662253537
10.144727934187905,82.34120217616243,92.3076287308494,3.052944338407683,41.41904142443461,5.415908809770587,13.45209019860541,18.076018800039744
11.72712806892062,109.80122676986332,112.46606184423645,3.1397234786569594,54.09640091827101,10.115979506870424,18.344114676801166,15.747478637832653
11.453289021708379,121.55365580090957,118.50986100720537,1.8180466512928568,59.0239299565358,12.456393348876484,20.19113564227999,12.973385883671833
10.057785523885103,119.49963727744341,114.02404258194686,0.1912014709026314,57.458262873322425,12.310787792344298,19.61292605877061,10.203570206752964
8.451254181513917,109.96948447773342,105.18850467001691,-0.899196101396069,52.61939458152186,10.56864206187452,17.933831345102945,7.722541749158755
7.280132178787859,99.8252777771505,97.49683164462327,-1.1523496261541752,47.784333324161544,8.432007144731783,16.412283179759996,5.581376544370906
6.766675392890413,93.45475524398248,93.78864899382165,-0.722033395175407,44.93017144624293,6.802373592575507,15.746258847733445,3.668528681595492
6.785907920911873,91.93833753754703,94.13768136621995,0.02741194509223769,44.43697590019883,6.029539739029838,16.007469021633433,1.8257345093825108
7.035646053597174,93.95343026112191,96.90854689304078,0.7276402262239973,45.571699809157046,5.9852837745598855,16.858971371059273,-0.07396462763613044
7.201983211932449,97.20613373324561,100.01016308442857,1.1288954434682525,47.18391850906867,6.279377295442654,17.832204459098218,-2.098583558655399
7.089091910094869,99.58788896530908,101.83068765751275,1.168526538977404,48.26580510378574,6.484511563356021,18.542881040975203,-4.252035089793423
6.686404581050554,99.91584363965545,101.76096626548733,0.9752844733695836,48.30774179028588,6.320148670130474,18.823615865717333,-6.481194358440188
6.136495774086536,98.2547653313698,100.25616694605877,0.7741530107483926,47.42191296422299,5.752945779260748,18.756177149495898,-8.707694726317797
5.616073771379907,95.6639628267452,98.38285007575485,0.7312720690239574,46.16528522086998,4.961692812519611,18.57951938143212,-10.878170362886024
5.218399896620803,93.3978600433537,97.0726842987853,0.8601433077703479,45.125418095025246,4.1814859837962475,18.51631892333211,-12.99366243136343
4.927657100767156,92.08499104339582,96.59982693986886,1.0655507422582755,44.55367564905162,3.5443747992785926,18.641418647569157,-15.089323289296148
4.683031020111938,91.52803448302336,96.64685817740835,1.261028610855444,44.322843404702354,3.0395256320361157,18.888467990328362,-17.18819419401789
4.445541459362831,91.18824698161114,96.77632564914116,1.4286751424232986,44.179569645535864,2.5941462059155365,19.15898870042165,-19.28227203791205
4.202121670004474,90.75247135308396,96.78393741013552,1.5792480251746137,43.98867089964997,2.16136369892347,19.407873103867892,-21.35917179757898
3.9329974405391086,90.22031796538498,96.66143870650667,1.6968574173068982,43.74527909911514,1.7257790489755556,19.634666520796788,-23.435955651616162
3.608509364996257,89.60862365183354,96.39425002584237,1.7537178756624063,43.442845356891745,1.2585872866106482,19.832883006243478,-25.555014896459873
3.2251965122422037,88.79126265978903,95.93448647267839,1.766869745026159,43.0275586916065,0.7112150764034844,19.98313051474781,-27.746173736946798
2.825144155660136,87.68094538026592,95.340604913064,1.8037539834182554,42.489116179995264,0.06462832607412919,20.091136966140446,-29.998311326375912
2.4617256597600763,86.41791386348345,94.79625888316697,1.9160126126986738,41.917190432333044,-0.638088623374556,20.19852767777131,-32.26529634188169
2.1503776551403577,85.2306292720291,94.40838530182333,2.0855247727841886,41.406931220895466,-1.3280997572027693,20.336310177842034,-34.487961396758756
1.866197972941845,84.1480369861955,94.0512333164894,2.2540203928074143,40.93666386073717,-1.9707403376505448,20.483684747902505,-36.60854801663341
1.5863089509342545,83.00547838741863,93.51701328150236,2.3939460938085704,40.40877067042421,-2.570976686396205,20.599150013654857,-38.58763789913343
1.3133226395739217,81.78610279844345,92.82623809989933,2.5230579685652033,39.82444326952989,-3.127744139081405,20.692412373028716,-40.44501968252576
1.045309563078755,80.81909584505851,92.29453997142397,2.64761535181214,39.3536743011792,-3.619730624747887,20.838978674509193,-42.30357646879964
0.7393265735288623,80.46985096406142,92.222997457864,2.724863414186256,39.16795593131714,-4.063169901577791,21.102990341929623,-44.3716522193406
0.3348649299202523,80.61119200954029,92.54423060815643,2.713931297788903,39.20579554957979,-4.568464943031264,21.450681161295908,-46.827185739989275
-0.1724942584549021,80.50931770721354,92.8159257441953,2.6589824876837964,39.146971074660215,-5.294711452036679,21.754844746035776,-49.65821422395817
-0.6906021223554252,79.32581125283042,92.54480271421417,2.6895549189964836,38.64056016334165,-6.310970447453322,21.88742690628005,-52.579260955847225
-1.0796743979943004,76.77052024421062,91.49307825263047,2.915592653581612,37.562430459878954,-7.490239932307174,21.807544301786542,-55.11302253860637
-1.2517584642621293,73.35379927957504,89.76253298573774,3.3212885233607023,36.097293544500275,-8.543226165348345,21.58243867166752,-56.82828341412509
-1.2366912422654335,70.18510838088339,87.78590834808392,3.7611933631399204,34.66987406366524,-9.172315137482975,21.366789969891272,-57.635295517351786
-1.1793955936661762,68.60525944509929,86.35369257919396,4.04507850413204,33.84313154684503,-9.243085071613887,21.378286409857417,-57.99667853714621
-1.295097242148748,69.72439053747824,86.47665293247444,4.024788440724573,34.15473521030268,-8.899284123063648,21.836994512161382,-58.90451671209797
-1.80115032153471,73.6813333393597,88.79588629046474,3.6490080828919,35.76869602046992,-8.596882178537196,22.815627799993287,-61.51302062810592
-2.804051582119712,78.78089553754174,92.71313710096047,3.024060464478151,38.031947974493015,-9.011965019058948,24.054417896637307,-66.45222246856181
-4.147491409956977,81.31834665064837,95.95606519903292,2.478121740101475,39.34028521292655,-10.750288894689556,24.915116008733033,-73.08310459857213
-5.323956407900191,76.87538894852355,95.19498641288347,2.5213869197640495,37.67556760285046,-13.88977447067417,24.607070915922623,-79.15138996818096
-5.590479992819268,62.78531209239147,87.54122069195242,3.6064806062357913,31.668358692578423,-17.603399713480858,22.60678535555098,-81.24640137753742
-4.309017347581891,40.224514655083674,72.02184594795276,5.779243603401567,21.51823920982236,-20.217342386095645,19.005624542275502,-76.08935771771583
-1.331277032505975,14.287564156281272,50.12882028527995,8.488688530948467,9.099142491310882,-19.864537901632982,14.541647903695967,-62.14018445458445
2.839839204028749,-8.293676591560654,25.206191018457996,10.77329737868051,-2.874164929069703,-15.478832003625607,10.280623515013954,-40.68085485853302
7.251456380035421,-22.455214138607804,1.1492108768926776,11.763168703636913,-12.100126632183047,-7.558359599135487,7.131620584620565,-15.691016935987822
10.954247323986877,-27.06974264137911,-18.836334872560926,11.174378554487673,-17.59654681306475,1.8180132340820618,5.464217864571367,7.54514007601701
13.424680511760105,-24.848578794933317,-32.88763877344142,9.454431765390915,-19.77630352737861,9.813253311174467,5.009837063917969,24.441415390530178
14.702689537869741,-20.189744392145162,-40.51643717300571,7.480514678503098,-19.805948328403364,14.06665596780134,5.051169661117104,32.72510580394511
15.194945786360217,-16.63489984224556,-42.36825675701183,6.025813312607284,-18.827140337255898,13.65344158332778,4.753411449396798,32.9383135629961
15.31664981646126,-15.61171228247144,-40.011300818695034,5.356617025171268,-17.590645442724192,9.27233820963884,3.4682793816377218,27.752519187231506
15.222639782334566,-16.8572690186773,-35.68214952431689,5.193935218618167,-16.574112276355574,2.6694070619248413,0.9294972240612664,20.602824584140322
14.768343676456439,-19.56673126827707,-31.737622554934703,4.9834788501410445,-16.212785056463538,-4.250716613518625,-2.663851275232262,14.342108483367806
13.660607375809796,-23.112104192221537,-29.873332444690085,4.226786667130646,-16.892717018129478,-10.102325520567549,-6.683259833757238,10.445339693805963
11.667940459557851,-27.054658268763646,-30.577280329089415,2.6849913571193342,-18.729471696920665,-14.233092422076409,-10.250181648796822,8.96246620840548
8.794483345426165,-30.962604048084646,-33.20914123365528,0.45271162807968673,-21.4070525900962,-16.555175366338208,-12.52338712014537,9.087845021931754
5.378275426425298,-34.44999968894268,-36.57219764428437,-2.02892483917523,-24.24397739625661,-17.23001035395392,-12.966022120353667,9.966743754572493
2.0694747624345227,-37.30515494341437,-39.50443131784274,-4.047054410699432,-26.420672998327166,-16.42224266470349,-11.468613238864275,11.274109083560607
-0.3656307677717104,-39.447709612159926,-41.22179560811815,-4.872193284885694,-27.251653807379338,-14.246236846112842,-8.32805345420745,13.254619491856083
-1.381760293128744,-40.82222466245221,-41.51945545132144,-4.153454398600322,-26.470384003107867,-10.911063730076643,-4.18010549365822,16.26631576838613
-0.9499308564669083,-41.50617772924647,-40.924619906204825,-2.2008564139061693,-24.462135798221425,-6.92542059094141,0.07083965127094004,20.207793225292686
0.41085554655384765,-41.9394476153784,-40.584716959189336,0.10913959625283795,-22.233646044951374,-3.131899649853379,3.4037367392120887,24.278735048176756
1.9161424151511413,-42.83422826217636,-41.666453756425184,1.7964514266986347,-20.952382991544063,-0.4330677712725972,4.987748252537765,27.267504875194113
2.918077624991356,-44.63036904510417,-44.53655647959919,2.2977454175615133,-21.249928110644397,0.6603860076472748,4.542698823029023,28.18426730796072
3.15453438959677,-47.01581391644924,-48.40645851615679,1.7049012963749077,-22.811449010549428,0.31920650534029427,2.5090148622541286,26.84729974980352
2.7329337528573476,-49.12120596831707,-51.821778562693304,0.6326890392117436,-24.61998593005155,-0.731213158114466,-0.1292117381544505,24.094813173787486
1.9546750885425466,-50.27374337940421,-53.59234577283865,-0.11955778046150126,-25.660222149025056,-1.6713229339319218,-2.270047465280087,21.52041766836054
1.1501897159612913,-50.515629812900244,-53.36960210882496,0.0919874005253992,-25.493558894542343,-2.031391306670225,-3.1106902319512857,20.841904222906823
0.5936196391223706,-50.34259611634377,-51.520581673258945,1.5076735296025432,-24.31091492004951,-1.824709141075341,-2.37637924742312,23.138247159520635
0.45943673400607327,-50.027500394868305,-48.665823994652754,3.8376108060719583,-22.601615403391165,-1.3700910316684463,-0.36531834445931444,28.251603125171567
0.7812752209395103,-49.3514257668635,-45.41673775208019,6.312162914372095,-20.84938280938207,-1.0290514208048187,2.1181640661936867,34.649464938912594
1.4275866454652115,-48.03707122930586,-42.3948838495156,7.954166047473529,-19.458206274802208,-1.058457383293626,3.9448816967826867,39.91355063681071
2.1237052945380763,-46.36243197287834,-40.222188023154544,7.99257760912589,-18.77920813397501,-1.6057886808483341,4.005149665454786,41.74043878579423
2.5214218608727927,-45.303542857008914,-39.31435732921423,6.215413494843072,-19.06745561810621,-2.7557567801680554,1.6608091624057524,39.0243826068448
2.3058973823188342,-46.13093694033787,-39.67673874006313,3.0905378857656474,-20.396011380416546,-4.543204625613889,-2.9046496832419324,32.467230664607065
1.3394705578468957,-49.83087999303492,-40.919624042999565,-0.36663201077583835,-22.636563417275816,-6.898895117708004,-8.655111049214042,24.36093733199108
-0.1918002033466264,-56.570762841726015,-42.38917425793903,-2.9014912063856557,-25.470002839235182,-9.53052632405331,-14.028747521804913,17.61880102142675
-1.7472429491528816,-65.17148835844647,-43.20281176249804,-3.4497150073548193,-28.304357182779565,-11.796035304580407,-17.4674727881183,14.520789976701057
-2.6532092071351396,-72.80180756383608,-42.32000973710165,-1.6431844733277365,-30.178323421397074,-12.71557262487358,-17.948073645692887,15.758182019847556
-2.5567997062648784,-75.55874270823496,-39.055683005824235,1.778077361135116,-29.97276277093358,-11.280578198822612,-15.379513626805101,20.187365325978096
-1.839176669458905,-70.32449996183884,-34.06234671814008,4.966727268118436,-27.10038783177179,-7.031838756657592,-10.760653542557018,25.36701391210616
-1.621874293607239,-57.11816029753452,-30.019559904612098,5.609014348408659,-22.299950946859333,-0.5833758294355925,-5.970923797710714,28.617951677567586
-3.229077773067009,-40.19096642587676,-31.03287327426271,2.032249578861067,-17.796422240085672,6.344462505581239,-3.1365198689634672,28.13243114939749
-7.383302316954192,-26.574374746905004,-40.58834290656792,-5.816772796063254,-16.407089520093116,11.562780681411944,-3.749255508117073,23.649331790987844
-13.663736317097992,-22.564402057481313,-59.19867604152961,-16.164483022307998,-19.992534163103095,13.431574102009089,-7.957619407715285,16.41829468935417
-20.615158203963432,-30.263976311631048,-83.41277693019991,-26.179576643152302,-28.25512722992707,11.658253814062052,-14.45320141911508,8.514363016735825
-26.45957602487468,-46.4313571858878,-107.08247431030587,-33.30167548320546,-38.73874594778228,7.38823867406121,-21.07047536377147,1.8723372174046884
-29.963711554126412,-64.3820028491609,-124.2579210881047,-36.35818941228708,-48.08575331867112,2.5458002031970337,-25.794955215806223,-2.4758001536890415
-30.94003467663106,-77.66875947386379,-131.9599468354336,-35.86169320835711,-53.7575484712648,-1.1520354459212847,-27.626547822237622,-4.623804101191494
-30.140180096681167,-83.16727192788714,-131.17514860635703,-33.433064073094656,-55.139986039894765,-2.9194738343645423,-26.845049452540042,-5.459744615236708
-28.70841518079232,-81.80347661643887,-125.66434329409815,-30.827336645956237,-53.439926017142675,-3.0061471210506867,-24.60951707010733,-6.060102600986248
-27.593818703602068,-76.96757130500717,-119.6239005315874,-29.17475656848414,-50.65149502232488,-2.263763302261824,-22.22584639646631,-7.174688556347514
-27.237212970872307,-72.16667529553312,-115.78055768081312,-28.754879980276584,-48.42607889539251,-1.5645470223717513,-20.551773528810802,-9.022522469871857
-27.585840475930638,-69.50485445673942,-114.82066155269193,-29.211091362591354,-47.51277753084118,-1.4282447157398883,-19.806735073297457,-11.38947989845588
-28.293866801800725,-69.42847377440343,-115.92823133245258,-29.924554457786957,-47.82768605036972,-1.950199270099083,-19.728379535182608,-13.877641833502548
-28.954834658340925,-71.17305827962986,-117.66555579196306,-30.345541569329697,-48.79874435536421,-2.911791262839603,-19.850031567533716,-16.154335398689454
-29.29195759043083,-73.33657950184985,-118.70076589297933,-30.21535473553811,-49.70477380966357,-3.945849601243793,-19.736753153038602,-18.110634450599676
-29.269788889971508,-74.51175811825904,-118.3253715694862,-29.643255496062313,-49.980531626225,-4.716535900210069,-19.146929290802337,-19.885884148748197
-29.081453146969842,-74.00808985948781,-116.73953675614905,-28.993175201648153,-49.49035165387002,-5.086693277353491,-18.11702674699361,-21.749855494298618
-28.999346046417507,-72.29835077799467,-114.9003275876201,-28.615090317945636,-48.6124908290327,-5.187604993169439,-16.92702956143219,-23.895879843332395
-29.17410912683758,-70.70318372126897,-113.8583684717808,-28.59144721326072,-47.978550156037,-5.316569158705065,-15.927022561647494,-26.26814139087051
-29.525724537513113,-70.40547333525005,-113.97141456410804,-28.68852769447854,-47.99664891058713,-5.716170886334996,-15.313785489741303,-28.550464931388067
-29.804832785451175,-71.5602988817396,-114.61013980627638,-28.54253714669505,-48.533041419818815,-6.40215021885234,-15.010110251754563,-30.349514588133847
-29.767543554950294,-73.19416937514528,-114.59424832283115,-27.92481305956577,-49.00515029501161,-7.162839698373311,-14.721855303676387,-31.475916703018694
-29.338976781588762,-73.84095617681355,-112.99050969163582,-26.905165008357535,-48.77118115745414,-7.6990790211951055,-14.107855758303517,-32.159228561927364
-28.68553107010587,-72.33531586875615,-109.71501713327362,-25.852701444035787,-47.506696807490215,-7.785900763628894,-12.948923240870865,-33.05883696807911
-28.18516573322997,-68.38620457951072,-105.69678056275248,-25.30733368906741,-45.3992118517083,-7.3885628482285926,-11.26659655626672,-35.013012104575715
-28.294692814978486,-62.96778164628267,-102.66039665579206,-25.741934562166243,-43.18757637620327,-6.739013304787059,-9.39262370934366,-38.56694179571166
-29.30478476357212,-58.4687112017559,-102.53107175446704,-27.228688680479888,-42.03406847198256,-6.35021949601862,-7.943987764680181,-43.44044822496271
-31.042078227195972,-58.115787475556715,-106.38121559511166,-29.13845319950683,-43.080217891396224,-6.874190367386882,-7.610663528826912,-48.215454605832996
-32.703230230711,-64.32800318115278,-113.19489705830414,-30.138959048521325,-46.671356359951545,-8.762083389123504,-8.759074852126306,-50.53967045896049
-33.032258606879964,-76.657770403238,-119.32166522870574,-28.685738116467427,-51.664060096165066,-11.884837572290682,-11.062444832020407,-47.945729767753285
-30.870207262612038,-90.88966746510228,-119.51918581193358,-23.862536993643126,-55.48048601998319,-15.417429449459007,-13.470237656369184,-39.010583221965454
-25.814952033531082,-100.49565833811438,-109.52187092671511,-16.078392063457617,-55.2073831411286,-18.170622881934143,-14.655904238810416,-24.264510556045106
-18.573401194925868,-99.9922248912378,-88.75620730473284,-7.1023635160207395,-49.23295349972267,-19.218129748215226,-13.730512937975346,-6.28027145978529
-10.729819535898656,-88.15432904416126,-61.33645839499935,0.7011582603054962,-38.36060542348821,-18.40149772953527,-10.76854345238733,11.205426020406417
-4.019983274596661,-68.90924466142215,-34.40442221802576,5.538035573403364,-25.570568052137364,-16.35251202618972,-6.780186255520585,24.719693152871812
0.46261087813672547,-49.24717736402856,-14.642397756993454,7.0502218544847794,-14.501464831549127,-14.031482002183669,-3.1384241952246428,32.29818506390707
2.6451263342863984,-35.518796619358675,-5.090837054126034,6.3463923753228935,-7.623433946379099,-12.151840461625849,-0.8514573323357945,33.96527107114298
3.2370369979435565,-30.502868624640588,-4.220060436764013,5.201449899407607,-5.272544503399417,-10.927982089823187,-0.16143417445382557,31.341727103246427
3.096927624712521,-32.853132600770735,-7.6134165784649905,4.963994429431888,-6.037258109808076,-10.273606856349959,-0.6734204879316117,26.717961005148346
2.6691797722426496,-38.673528303704984,-10.839188185191603,5.851360394611843,-7.979026546022071,-10.165553653812818,-1.8088400555823714,22.091306692233125
1.8419963613442691,-43.67535822158836,-11.539910146292382,6.9863069373859075,-9.687861298098785,-10.765791422273589,-3.186047740832507,18.54407062635327
0.2363523546090015,-44.66475553605933,-9.772750230273282,7.041664538905413,-10.588138978688285,-12.183804806772464,-4.693995382961918,16.113386334504106
-2.337065533001166,-40.32082395213163,-7.098486917270917,5.080865621282831,-10.708889113710175,-14.162527870412191,-6.336927765673331,14.12287812675175
-5.54172778333593,-31.79143810079615,-5.481574936247204,1.2100724200428103,-10.470547768514104,-16.06227613215891,-8.072091753668857,11.819556469438863
-8.444265749949114,-22.987435703111316,-6.516663204297054,-3.188745213054942,-10.66915850839661,-17.21104660015063,-9.753316142601873,9.037304473622362
-9.718494366080199,-19.68871853396705,-10.813988556091264,-5.758844202411323,-12.338927179792744,-17.319209421880675,-11.13035377385306,6.528305520972993
-8.073879913285321,-27.020196225630386,-17.422079427205574,-3.998422718021204,-16.20840618098206,-16.59951826358684,-11.841035388596312,5.701354439613074
-2.7984816976403475,-46.35422715263109,-23.693614814347068,3.6184582515565014,-21.992354233446047,-15.516805566152135,-11.437786190538239,7.835531588265408
5.79413792119584,-73.70685354725934,-26.1141288479021,16.731782675098547,-28.136323461679755,-14.410615280402448,-9.529861504806277,13.215836595276192
16.27490813805104,-101.0332174917481,-21.969263864929246,32.94002466104966,-32.394084658453274,-13.300765743607117,-6.022185654463062,20.752921470064145
26.507359020427167,-119.91823942703923,-10.92761442401507,48.60975378198288,-32.9745657412684,-11.990156676113035,-1.3013187008516702,28.365858428783916
34.426218773907934,-125.5259730373974,4.527154240794801,60.315056671652485,-29.52753153747677,-10.329072301961606,3.7970357861456634,33.91871676373332
38.819281849974374,-118.52976627666071,20.186590476448945,66.18467640306748,-23.32677444789314,-8.405010763898996,8.279133712652476,36.16429538901909
39.71968582352902,-104.13242668668184,32.09583465141348,66.48782112672649,-16.56920289754308,-6.524578042607219,11.406561218988534,35.18101928998179
38.23760589614031,-89.14605634147898,38.22229442036193,63.24967080595222,-11.301372933206643,-5.047757355888233,12.996551541618643,32.1314987501921
35.980145344696496,-79.05628033536136,38.926646470651946,59.22805196615336,-8.648427942307299,-4.236521840863629,13.437843344368256,28.56870685577882
34.40079383798095,-76.42467866942712,36.27935284405426,56.82888242547128,-8.645070868630757,-4.199949526734236,13.444171875771369,25.715457227784654
34.362560908325406,-80.6311604957739,33.00519983781795,57.37267874894902,-10.447004486955674,-4.868223227245613,13.73217290749155,24.059649280498135
35.98179732080797,-88.23185433437439,31.743048781510694,60.78575243781625,-12.56410160125952,-5.907320990272482,14.80006123954918,23.358756126206064
38.66133610603309,-93.65692757086518,34.61023799004569,65.62241752616815,-13.080195542020887,-6.6344734990332075,16.831362863682344,22.93351729987772
41.2441148849055,-90.68864302978956,42.64398376685783,69.4124162056469,-10.128303967217585,-6.119440434602751,19.64243419726633,22.065074973979275
42.322297900853854,-74.92867184128403,55.062986683784544,69.42049712888611,-2.7166607956342106,-3.560644942887579,22.65214184238121,20.349312982014347
40.729800454705476,-46.3118846635313,68.96607606515245,63.74091709002045,8.505589268286094,1.237978081829383,24.974833462573248,17.90557840169524
36.082042007890166,-9.955665985871146,80.15695248842131,52.300212383410305,21.194288339800227,7.627133769151272,25.72638850166177,15.356675196909988
29.072273475712826,25.672664448363104,85.00283116986786,37.16917427833042,32.23296339862826,14.323770009159068,24.448925870141043,13.550657387036713
21.286615717280426,52.50808500258866,82.29636039374168,21.859729607297318,39.17440986847503,19.96946067964518,21.3867111277685,13.118100387037396
14.572190079046637,66.39416748320177,73.89878789511364,9.882491164215917,41.31797515613447,23.684279130229548,17.38778893810192,14.08648176390748
10.287982220966708,68.325617470315,63.73475011306126,3.3315878491950497,39.78540210494766,25.286182609661964,13.461870396202256,15.790650983142589
8.851832935000163,63.014148926836455,55.868600464674955,2.256584828213996,36.68094665413222,25.1097318688322,10.286534922126416,17.17395479200941
9.791010043777176,56.15679265174424,52.96400340494524,5.056822204538542,34.03181298463679,23.65146707452875,7.996569531045092,17.338554969988923
12.156838852255392,52.324580561208414,55.91035583515863,9.476913837070281,33.197729203162254,21.35202301371704,6.365325456575854,16.02539203534324
14.94841977824346,54.32221350180374,64.26542756104712,13.49256282842962,34.85471586356135,18.62809907231113,5.166045496764077,13.716378460936657
17.28072800896416,63.34592138903313,76.54163835635977,15.64936559228185,39.10119795918349,15.98189999196467,4.359778401547294,11.275074083731
18.334867420714023,78.84254928655795,89.91247076132436,14.96841530502944,45.285434647885275,13.934148952134338,3.937550152050083,9.349750031035278
17.350888105598003,97.95621607825233,100.02073158093033,10.85538915044439,51.72555626059808,12.741256547560642,3.599525369892521,7.940546905873289
13.853889652971386,115.57786829785697,101.9285644994677,3.2907739922943295,55.90155935299802,12.142728208459772,2.6486680693890845,6.431872272475782
8.018788127176435,125.91135845029626,92.32176581847531,-6.848524171868224,55.424997868670694,11.431918050847429,0.3089324135415166,4.0651300164324216
0.8614879812374243,125.16769026701951,71.73289251063584,-17.743900323468345,49.368530337594024,9.88890209470595,-3.7088790387660824,0.5145773498976514
-5.994254573348512,113.793467506176,45.12422988960215,-27.12211932695232,39.074131023997026,7.2973591240082785,-8.823628819713598,-3.831580859511232
-10.931007980504791,96.66780967720285,20.124756921052892,-33.11438604061611,27.797926143438616,4.17240290882153,-13.710334267257908,-8.057136110641888
-13.006917237482003,80.95036879774622,3.768753680868698,-35.01012993059187,19.296597123877635,1.525035770263001,-16.902412772171374,-11.221401079099284
-12.3065909314898,72.78477773051563,-0.44906811900473187,-33.47391310277872,16.14649488370068,0.3147795553223122,-17.506713688792157,-12.853530229929179
-9.813283918894648,74.7691734804185,6.349212607563396,-30.15339659239538,18.735401784627495,0.9461759205521951,-15.607700450316027,-13.171425950476934
-6.933209108800939,85.47794405841155,19.53434381257449,-26.968846813247584,25.390419607368997,3.101214506909144,-12.163402895245888,-12.957934274808093
-4.945896289313819,100.8347885827262,33.31186996622477,-25.452130826277614,33.36707371980479,5.938541645762,-8.519818376847239,-13.194747910168724
-4.582913351589938,116.04124816520535,42.93505320553406,-26.30641238093736,40.00168200428557,8.467164159356825,-5.846988683093798,-14.610156809668403
-5.790523905902355,126.96608290943095,46.02327388183427,-29.16682919420643,43.51298770295661,9.895024676331596,-4.7339792085313634,-17.288444873737713
-7.684430306319616,130.96781614335399,43.05595975734434,-32.57216408202134,43.42418649115765,9.894524608299713,-5.005477454934429,-20.48894622922946
-8.761186753103466,127.70786917283218,37.32859121501743,-34.29854555656315,40.78289335689349,8.796732072357607,-5.742505702451103,-22.81504232538628
-7.430547859368274,119.93019048778925,34.24575837142236,-32.165258441582516,38.10630138961716,7.634071953355036,-5.536794974206197,-22.772218732996723
-2.7644308988572663,113.26726026761904,39.59462507598395,-25.10342720288601,38.71324378491712,7.864365608976964,-3.0181967179358176,-19.538048809234667
4.8758013826380395,114.243075347245,56.99899253319903,-13.938919195432993,45.33877176468017,10.738522784890908,2.4655843194002824,-13.558569798642718
13.738323442237014,127.01241109765564,85.71220167695873,-1.3390715920932106,58.585445502388694,16.583474940749795,10.363237356962161,-6.5724812463722095
21.28292639965875,150.75922032038358,120.24443432464214,9.2013809997422,76.2049197460666,24.46964492229636,19.004474185897386,-0.9296612979351163
25.255431051350246,179.6548195296498,152.4567047928472,14.875521730366222,93.88051058176065,32.56889740659617,26.333671402788916,1.5081460995847698
24.688285305785573,205.6647329337278,175.17626394568427,14.781894989559557,107.22231782375815,39.04876838634335,30.91776458065231,0.28956145451817894
20.287670938231145,222.512107448008,185.2827580709813,10.194522711785236,113.81157822373017,42.94378315461572,32.60551593432266,-3.4296580077318954
14.016401626259606,228.3472761165487,184.51334551820705,3.7886072744279966,114.06421168438374,44.44464908969561,32.4174589799548,-7.5474884350268905
8.15065618149317,225.76766775980488,177.8023399273235,-1.6818725428151429,110.53203331685002,44.486258601125684,31.788577691743875,-10.139685630531408
4.354209526260582,219.82347801766858,170.58017230913708,-4.5221340357939805,106.3507009077799,44.043045140668234,31.74586156604752,-10.379593647959856
3.2058840526658177,215.76390392809182,166.78768102502485,-4.554522404262478,103.95833210624426,43.69631716270181,32.586104582461466,-8.755619699470312
4.265010337695176,217.66213321544154,168.27411822857766,-2.862009294053939,104.65341501620334,43.69263381501188,34.138889240996235,-6.562480471487653
6.468604889371564,227.65392338567804,174.95412821634204,-1.1067060369588573,108.68000670005338,44.215008884224034,36.19978809016998,-5.073300593149713
