FZ,C3,CZ,C4,PZ,PO7,OZ,PO8
1.9069309056097632,-8.890134893749568,-5.515095122788001,2.2506165064328982,-3.636098780820405,-4.905957853411068,-3.8504772485216123,-1.8945016801846377
16.06804190633544,30.323403484657774,44.051144975881805,16.69408885397158,20.538824230764128,14.446067709983788,16.884359599835648,13.641938019454075
26.9155254683304,72.72206606975146,86.86170316530207,26.150791157017906,43.445421087022375,31.891406076810974,34.902853139763536,25.436900242988607
32.56836908213117,117.00641955340937,117.54422479661338,28.186348720240076,63.124508039692884,45.528111574245024,47.9879864745397,31.279220853045572
33.2240694969227,156.12062373087588,133.135292706551,23.973626624827542,76.95190986589157,53.73137628117506,54.85862548770695,31.248533150564796
30.733871494111916,180.1204750293438,133.5010065172561,17.33922458256334,82.52205407769725,55.67505248728572,55.44551252441245,27.39217795571029
27.484385167843055,181.4117090835841,121.18725055349039,12.560570908910023,78.90747955633464,51.79899464688955,50.905460284727454,22.61527206105656
25.297327028171956,159.20900013509495,100.86258232033973,12.30410501889805,67.52696873868092,43.87646185973722,43.338459932335134,19.439639523635137
24.886769873115345,120.71284747833478,78.41643297789612,16.75099602371307,52.0457392889958,34.55586253019029,35.257982588713766,19.2013185518615
25.951466270309556,78.4277533319617,59.63509305287433,24.052606662116,37.217197646817326,26.544373181752015,28.930365964503377,21.876627247420004
27.626665820865632,45.02654259564011,48.56001871484623,31.531907183017733,27.117471540419473,21.77577524461778,25.755158722618642,26.384512657599736
28.973223696056525,28.300441776615685,46.127764797129004,36.89164208769495,23.59471230553553,20.893908381038685,25.89896028474855,31.106951997128636
29.3214763856562,28.608923344182262,49.937162410232474,38.94802917094039,25.727079584749013,23.22396958832497,28.351423460335432,34.438376271521435
28.410698181489796,39.860155915648235,55.468886071126896,37.74266999265821,30.551412430701863,27.173067389585224,31.39222309415908,35.252316318936245
26.33224582026876,53.06624129256076,58.09530856659448,34.15261954410931,34.5598191742527,30.812564098454764,33.23486569286273,33.192993495247954
23.366688666774706,60.24839016545435,54.74642691662611,29.318866041561446,35.067348155425016,32.38338231653292,32.54956037190878,28.7202261251685
19.8785101417466,56.90173513533527,44.66029757170068,24.264615004540747,30.895134462396197,30.65173071888275,28.743242113830348,22.910566017278867
16.371339922459423,42.81336802983665,29.547428762838262,19.865579518838206,22.509563139453114,25.227396259576526,22.09831334171173,17.10756150473279
13.602624408636352,22.044592231752198,13.616327942508375,16.97906899568287,12.02554909156981,16.895553591787955,13.869405687863358,12.545818749434943
12.514225998196533,2.3947605422271097,3.156067631714462,16.37791905320693,3.065713087155239,7.739983841046782,6.208467561844972,10.039272708685326
13.856863954981641,-6.35052303741178,4.8982820239225004,18.371305472128732,-0.004042585053961871,0.6991577817512735,1.6568662221353103,9.786303962451807
17.696215891146032,4.089051015277454,23.12683306720694,22.404553207292235,6.291924179815496,-1.5233039064039313,2.1790264909597594,11.340786013278214
23.178864994069098,36.34216751377771,56.92539392831518,27.073354558120727,22.655146665420208,2.2646131782970857,8.164565514791335,13.787149200566217
28.79892442857991,85.06869508579356,99.53426743077125,30.69209442280486,46.10300478499616,11.041723676858535,18.04198162215961,16.087227290733598
33.051293216616195,138.4389576697453,140.7127434947836,32.099292474311426,70.87612136564178,21.950198443268647,28.853639644736045,17.465361531292686
35.08449531250676,183.06169492466853,171.03120793818655,31.180936015710024,90.850859233171,31.59023638626674,37.534565023363655,17.654775744484663
34.978036166632705,209.70812278084793,185.70953515214123,28.79545248106574,102.1293479154661,37.503336199894214,42.18657938447637,16.894480568512456
33.53086014335154,216.66337978562925,185.93952829292985,26.199337609070415,104.37581819451452,39.04135046194411,42.67030598380746,15.704867827710217
31.75350400093937,209.12658140458169,177.2680026432161,24.37770900151708,100.3095293934735,37.2545050927613,40.29650669583225,14.588820180397036
30.396047908336865,195.5571441304997,166.36110578772943,23.67758588618489,93.90735359321533,34.0377327396079,36.93768300900222,13.825118269509758
29.745819514103935,183.47365461076294,158.14302537461992,23.86876394107683,88.51098771677631,31.135000194084597,34.13696506239034,13.434854552806852
29.703851540622527,176.95776756152554,154.6032519304892,24.45894920527919,85.80426708872844,29.522898859584895,32.64294984106539,13.28070826916813
29.98710112175573,176.486751405675,155.23765201847576,24.99522958901883,85.84266868373751,29.32521277830615,32.43243337806926,13.195246805827368
30.302947089301252,180.18933793053162,158.21795108216725,25.209870547857943,87.67010843757234,30.078453514586652,33.00636422933222,13.059998470593833
30.4411732507075,185.28057684872266,161.44343072281652,25.035593993317327,89.97426046887341,31.08604597313744,33.7156164275871,12.8230699097753
30.30275752445047,189.0849702450903,163.19270448847664,24.56484564295531,91.5477511764543,31.710432807617433,34.00222568994755,12.482214975163881
29.89028602737224,189.71125939558587,162.47715850305087,23.979765966133645,91.58998645514069,31.568367199646303,33.54778772011353,12.057491918543391
29.27319213152653,186.51792789677552,159.2004435830768,23.45718030087285,89.89791980901389,30.622312347608496,32.337309312035174,11.566914840172341
28.55463284811183,180.2988932201715,154.1396831488619,23.092675898004856,86.91584694027927,29.158151531423773,30.639028117169378,11.021336565797355
27.872952453531887,173.10998285922693,148.79257598956661,22.902283827617396,83.63124842655348,27.671773901598673,28.9212860371785,10.450800589359712
27.42507670611946,167.80106319685254,145.13173663469524,22.88778876362173,81.35555355358343,26.718589796046214,27.73785655034279,9.942818618716013
27.438173363653085,167.26392049445067,145.13372242660938,23.069451140052053,81.37423754176982,26.74976147051272,27.572868339964998,9.639495075332377
28.03064342918336,173.22535297099364,149.8557207217068,23.41909765913133,84.3740295320573,27.90888626116538,28.60604260975083,9.655845676351268
29.015470821367277,184.6373252591894,158.1859790726421,23.75527278550709,89.70068646161742,29.802663837265346,30.43504815450038,9.951871131108996
29.80508107104915,196.48473683285505,166.05354822643866,23.738032265205153,94.8730048877397,31.393688204099924,31.94461836697448,10.25453555665539
29.552711387194112,200.37829106808323,167.1289587053108,23.01903338476013,95.97923485065216,31.23070233414036,31.562025219304008,10.116256939270153
27.508179181191974,187.65547657637353,155.32821189660498,21.444801724721408,89.2059978112626,28.07396366420944,27.946592682203896,9.114852599720521
23.403647323684936,153.94243781151818,128.09337183797797,19.150883402903393,72.91697481094955,21.65360129125696,20.819649599069262,7.109651304978489
17.64607734671399,102.57617510152896,88.52293794003421,16.480782582543934,49.06154682523585,13.085628188259648,11.42696176887602,4.427069414944363
11.198028358699515,44.411871478466416,44.801908033870454,13.806654185277877,22.863141423794396,4.588778224523828,2.2507181919275316,1.865504984319828
5.2027291380713,-6.442100088907327,6.922594533115623,11.385147147896257,0.7176237305337808,-1.4423502664739023,-3.9903992354720708,0.4679283163964465
0.5508977306655525,-38.81387364220281,-17.605123359051944,9.325893063944084,-12.617988924454407,-3.5290325624183585,-5.568109998840253,1.1002602277247862
-2.391467660599559,-49.11657380892128,-26.686570745397105,7.64529680757349,-15.975516106654345,-1.7643952640446434,-2.5509875802810824,3.976552178531645
-3.7955648971030596,-41.99976003366872,-23.76611422675852,6.306973997695862,-11.861289561058449,2.286767495415879,3.211318667926322,8.345053255399664
-4.190129717176658,-27.176741066052987,-15.521072791440178,5.182874559615147,-4.8930479807516765,6.297683976771435,8.854165350105331,12.544655956121646
-4.220377996767499,-14.789611918672392,-8.78147637543336,4.0026362205423585,0.2928147279554356,8.071490239173238,11.598984919479948,14.532451460433693
-4.411350754858024,-11.783851834124146,-8.143611127767278,2.4501331427026956,0.6206483220956158,6.272816728876038,9.764475738260426,12.771278436463277
-4.947310343907401,-20.171072516715892,-14.678764162245153,0.450470835594169,-4.649426766950601,0.9028539539296727,3.441516697853019,7.110552593810142
-5.537035572024434,-36.68964802802842,-25.53344241082861,-1.5699422468968471,-13.72509910685093,-6.505169933288587,-5.323479978341559,-0.8469957867113683
-5.505881334443927,-53.49173981518532,-34.532067777772546,-2.7714532111575876,-22.60672998044252,-13.128146022729013,-13.01360903902335,-8.2405984858345
-4.168826207424119,-60.30297543684801,-34.22471117197144,-2.4092455183427512,-26.22370674597479,-15.71772565330934,-15.854796851730281,-12.188338541538254
-1.3086350885411608,-48.32740412273883,-19.19188274316407,-0.42673948839463555,-20.440540171241217,-11.948157574507285,-11.420060436777717,-11.145945103471503
2.567197729019318,-14.659211304453457,10.845983254170598,2.351362527559179,-4.187627933244815,-1.6332948602764135,0.13318655882675312,-5.6221764471851055
6.406018370223361,35.34040358993115,50.10314575022377,4.629314397740877,19.567035385235478,12.945897960036671,15.94948502595685,2.1537549449286013
9.137808121766168,89.66155640157696,88.93970783691755,5.386800942105335,44.84461104961655,27.929582267487802,31.672167951519803,9.38663128169626
10.215328085831045,134.83896910223274,118.18274752587577,4.442968056872776,65.29512644964122,39.56685477351882,43.354237380413146,14.004226369976895
9.82956329174867,161.9125586575011,133.11891163868228,2.4712074919335976,76.9912720953189,45.78182911944825,49.05429553331761,15.394385627978954
8.695745743554555,169.79247832958768,134.9356980815814,0.5037099352358098,79.81139138955484,46.78952167544561,49.30936134673043,14.312536180384496
7.591582563194842,164.34978361124746,129.05483790078853,-0.6939418149056972,76.77293592472876,44.53880440759875,46.37771096780126,12.183099485076843
6.964375542254758,154.25032546463638,121.71182499315265,-0.9621001728061827,71.95791149868036,41.45011645112758,42.84161563226714,10.290250825080863
6.8248193187958295,146.3572063595927,116.97089883358805,-0.648298614498901,68.41143772143327,39.240477109163926,40.413659932814,9.283119553400438
6.915267299542612,143.28641540979348,115.67952027314426,-0.24228185541491812,67.14840648944362,38.42484469051298,39.504398690156066,9.136598884607977
6.973970988303029,143.86596109342022,116.38902221262637,-0.04103867056078498,67.49650528613485,38.569407318337156,39.561914316467934,9.439433767573874
6.918930413498409,145.40502399583963,117.18128800643937,-0.022855974200314835,68.1973960785734,38.94466912954745,39.7854615079722,9.769212771349169
6.8807893865360805,146.05846461824893,117.21541799984017,0.07165159138314225,68.47735347940812,39.12390711100634,39.74540261683608,9.949623692980127
7.098980322813487,146.08819314449536,117.2948993840342,0.5330079960413151,68.5666801087712,39.23335576696213,39.61720297769662,10.085638370274449
7.725832627923589,147.5971517276523,119.26543427835264,1.430202836399962,69.49290964554082,39.78123407708245,39.963494785304604,10.384410704775275
8.617928862992112,152.86460406888094,124.46285718383093,2.4187594995860424,72.23208563222774,41.16852987666324,41.189590431505145,10.879818064309532
9.250529490981068,161.97062681842877,131.9336352348784,2.768388014773153,76.5909926094138,43.135337731313506,42.9657307083863,11.251499190583823
8.88492901347956,171.07350564142584,137.6029794262539,1.7093890480693437,80.50273820678515,44.502941332724895,44.004829335526324,10.898150100533366
6.974454954672854,172.87696905739844,135.38264916923828,-1.0306500180793305,80.42161135869706,43.50189321907299,42.47026589309917,9.268698018275185
3.5854440316869507,159.78357658842154,120.09820905572359,-4.856214762386561,72.9275846374464,38.64876789684348,36.92011196623388,6.262168834733951
-0.4752687617648714,128.3153728125318,90.70436915921728,-8.434993296969932,56.757909296999635,29.71099776719223,27.275575511866165,2.4246553067202674
-3.9778422046547735,82.06032720007317,51.718026686109035,-10.344788090724816,33.98376580096672,18.121280957874838,15.171487472377079,-1.2209932111292785
-5.874943964795248,30.971555586730034,11.750953618420999,-9.857179112942488,9.456563206602407,6.484539456634007,3.375780882118245,-3.6423582782911734
-5.8135731845055165,-12.8714282977273,-20.116908726423436,-7.33352010968913,-11.248884170012305,-2.5883775355717678,-5.4355169602383535,-4.289875504713641
-4.221083375439738,-40.55822626116178,-37.984593532934625,-3.955613636317107,-24.172266356102465,-7.61662430310276,-9.823394643271802,-3.3229720390798367
-1.9455083769957402,-49.55259455783058,-40.792380270639384,-0.998854029968582,-28.237402015318544,-8.676618648532894,-9.992977501104027,-1.4636408705932384
0.22936037705195553,-43.251533712505655,-31.55384432229949,0.7922500844574675,-24.94835750327182,-6.960753178645292,-7.337641772544456,0.3787613570018414
1.8008711905957449,-27.97851118453006,-15.41286415922063,1.2680700911918132,-17.143189454504267,-3.9176911258236786,-3.577429730699138,1.4569386167146772
2.3847959299348367,-10.039937829772393,1.817316504197221,0.4278252565757096,-7.919616468999635,-0.6403494183883642,-0.11970998581783306,1.3566837066865685
1.4476182241234845,5.309525301681988,14.122365362078005,-2.0195637520497676,-0.3055166355276595,2.16453993660104,2.068476819558306,0.016084637909481007
-1.6763969821045217,13.388607280237636,15.67928775681856,-6.594457010033209,2.7219576918450485,3.8519348801665103,2.285263940999135,-2.309656527662111
-7.373019815401015,9.956779571961842,2.2550111118344613,-13.488840844866516,-1.3440019699136978,3.667911147429684,0.026896772287482384,-5.105649187152355
-15.242253186723476,-7.40286426923061,-26.602072727518166,-22.0109683633725,-13.470638725117693,1.0170355498883386,-4.791911073328049,-7.71805783918305
-23.95704877442783,-37.20789471324426,-66.17854263300367,-30.572223475817466,-32.07693134472639,-4.032955332547277,-11.54100015570742,-9.556839037827167
-31.701614106780166,-73.34151653768932,-107.60279260292855,-37.32856607962489,-53.0937423795552,-10.489869468414009,-18.87184125437468,-10.313230505052497
-36.969536198927784,-106.94295857998247,-141.27195814159458,-41.07413285718988,-71.44254639331807,-16.734800897979838,-25.170382703900984,-10.075205483410482
-39.22756168681257,-130.20748515419348,-160.9261004605787,-41.79137215021799,-83.22708949754238,-21.252304502426036,-29.24939677177245,-9.262672751898954
-39.040732398537926,-139.83710165096886,-166.00587584296704,-40.5147780366278,-87.35013890951201,-23.326502910660402,-30.84457019020605,-8.405359258702932
-37.62496150223833,-138.0081285062548,-161.00102083686252,-38.64960257918339,-85.60741497046162,-23.26103826944398,-30.597217627858427,-7.884324245020652
-36.15759115684205,-130.39789773985407,-152.42350423262545,-37.230155918624995,-81.31115330904662,-22.030505701243925,-29.566553538406154,-7.785079993027729
-35.27485675084262,-122.75674669231293,-145.42083232438475,-36.563314241148,-77.41452564148547,-20.658823106320103,-28.62783027094405,-7.936932598164406
-34.98585479831646,-118.25156354343866,-141.9497547385498,-36.3649974623003,-75.28450945051122,-19.746667365246346,-28.137557818144067,-8.086769407340203
-34.935485341114614,-116.89760716612223,-141.1113197254671,-36.172933781296535,-74.65347692755188,-19.37522931354969,-27.996067480873897,-8.076297350978296
-34.78176291024434,-116.79388993901523,-140.85874001756915,-35.73752832976782,-74.45013829661785,-19.31231450533916,-27.95225645767255,-7.918746858445356
-34.47136267101202,-115.95196339715122,-139.79147906446133,-35.20855438039664,-73.81023392693054,-19.29823359081359,-27.89720173309101,-7.761109214455883
-34.2958132935993,-113.68213500132869,-138.12504613251807,-35.0614829090968,-72.71359456522983,-19.243494029721997,-27.983858114575245,-7.780330802719343
-34.697415382240344,-111.08561026666436,-137.51372818833966,-35.77413749961373,-72.02335538562991,-19.28004042542984,-28.536370296180674,-8.063694063307215
-35.88664390694899,-110.50115993870564,-139.81166806588507,-37.35921677017612,-72.9192250667137,-19.65484176877712,-29.785332048470238,-8.510917870608633
-37.463404246533564,-113.92851367336102,-145.2591036838362,-39.01494138646736,-75.90046851957268,-20.484724565523262,-31.53282725587999,-8.808215981305981
-38.322495896338935,-121.00716800276294,-151.10035902151552,-39.22014186676634,-79.84093230530156,-21.488127468104228,-32.95103370484317,-8.528797642203953
-37.02717023648575,-127.86700626450974,-151.83055124114665,-36.39319602063186,-81.815216495685,-21.91120485671088,-32.74781298738887,-7.351684574480145
-32.54010770322464,-128.14227881261107,-141.54055666389306,-29.82374260953716,-78.16417398079828,-20.806811043595097,-29.754839125719275,-5.280443868073779
-24.90525937168982,-116.14948970809513,-117.36155613814262,-20.29614098878572,-66.46223634648773,-17.568097695164717,-23.660556301059053,-2.6928504169643332
-15.429902493848711,-90.48730262783698,-81.89564754008812,-9.937463870444383,-47.2447994644307,-12.365200755958284,-15.394993326303725,-0.14571712779729856
-6.197275704509293,-55.63140233349422,-42.82327540751961,-1.3019155969395062,-24.280280802988784,-6.141307504410159,-6.8224414583315225,1.95009951212557
0.8371680684891565,-20.215247279592628,-9.587588632660031,3.7904337373806247,-3.0213742434875837,-0.13181525225144958,0.13946171505447974,3.53730855072622
4.647751489821319,7.119657356816268,10.998949571227325,4.978256054856684,11.922759512195153,4.76112229312412,4.4243252063477865,4.816382642705935
5.403112523689945,21.75422843626745,17.620657824848383,3.266320083682279,18.773131399561834,8.285182357234502,6.153575043792495,5.9012620000622995
4.124751185478725,24.570104715292484,14.215766622939807,0.28427530131654766,18.882865579056872,10.63713540547384,6.225704147825732,6.519175919238247
2.0464755560017585,20.298127101518396,7.1294153838309935,-2.553020610959517,15.387153362471196,11.96860518456583,5.53567801471059,6.057091308628819
0.09143220309882871,14.318784355122032,1.7469981910810755,-4.497297229121464,11.310777068376336,12.07912298368016,4.448318051324121,3.986084757550403
-1.311844506727518,10.21899654967416,0.5993383328813465,-5.438738897203018,8.383945765653504,10.604270843803867,2.8746339967101786,0.35876942899575825
-2.1354188986322997,9.242137532156136,3.4538908759082934,-5.640628826187384,7.005490483425664,7.526913271052345,0.7526380481528849,-4.017159659070045
-2.564465185548307,11.02479261003917,8.492058003009287,-5.493592049647771,6.853599854599531,3.502754377364935,-1.5855534673195908,-7.882095723007524
-2.8306083183261914,14.38280774167098,13.451534412634922,-5.3505085769097,7.405747220423194,-0.3536079549772583,-3.496834706149834,-10.099405182995266
-3.07944041201573,17.660411452790466,16.341291363611326,-5.387810702469277,8.101162941525452,-3.071558248330576,-4.434099223250633,-10.132618689103117
-3.2827169663783735,19.057225750202033,15.934995197311801,-5.506803635524293,8.37790471165681,-4.318464884031526,-4.277395557938484,-8.183464415000818
-3.2486372627873195,17.31282891932802,12.161918433085244,-5.37233378701149,7.829338315183991,-4.423247415375373,-3.329278699811492,-5.005637125236429
-2.751382075577959,12.459798911553516,6.196982819795774,-4.617643542220623,6.429363420095304,-3.998343967954964,-2.047879339444092,-1.5670222194586967
-1.6996357572127379,6.087236873277693,0.11549189551922862,-3.0930692701212603,4.64467768359259,-3.507321479981286,-0.7628259710895346,1.2768908977971125
-0.22250093948778957,0.9657298670593844,-3.694264476056167,-0.9981546883121681,3.3798236991513493,-3.0545232241452127,0.46004227831485894,3.011526503107745
1.3686813281669479,0.25662015570031255,-3.1329202089153574,1.151069055048191,3.7797931040667327,-2.4424367490739023,1.7800751485479323,3.5479500797097474
2.684113164016905,6.370860842948441,2.91310579792965,2.66939650244416,6.808204897408625,-1.4070522223411557,3.395989519378396,3.141393392319383
3.3671298024083507,19.38665759660831,13.653600770466333,2.93816597716863,12.518586051761547,0.07574909325300276,5.261939114865019,2.1849896859826505
3.2243053204007426,35.49413621888711,25.67604355908255,1.7384164829471387,19.29629892963599,1.5458257838890541,6.846117236673587,1.0016631436900978
2.3860111401811377,46.811208862697924,33.37208059129477,-0.4130889685135465,23.766876007366523,2.058747357014059,7.156566586456554,-0.23453252091246196
1.4097243311925747,43.79995167160066,31.047206645290686,-2.185317485234,21.924392767556927,0.547734815753577,5.158711187877488,-1.4198101770523675
1.1730587340628063,19.84315210479679,15.932280321834341,-1.8476409415208976,11.184146005139066,-3.573169445802663,0.4150764842857081,-2.3921138977341823
2.5059601985622244,-24.489498806271353,-9.76392162526047,1.9007302446416232,-7.833425781375353,-9.926206029154685,-6.468245826919363,-2.8997255411228733
5.727150788086553,-80.41903027367711,-39.33269077313646,9.135957354170113,-31.063223829946086,-17.16696564531727,-13.945756173165085,-2.7175810232572384
10.377632226768695,-134.30445827393348,-64.55862944185104,18.477329278516383,-52.65283196439634,-23.531631319282926,-20.19092968414022,-1.8193367774029474
15.351421756327538,-173.66101356332902,-79.52799646188235,27.62397937580468,-67.61498516340514,-27.637410147619516,-23.932490772931484,-0.4547262488651933
19.375078768883427,-192.40698311040867,-83.02310119471885,34.3790288090515,-73.92408628967523,-29.06626324676257,-24.97117312880102,0.9450949254089716
21.568803973522535,-192.47896535365328,-78.25171861029428,37.58115046393802,-72.91496032073775,-28.406565359885292,-24.0985617042909,1.9753618772351191
21.783856904332694,-181.3868540964014,-70.41043593009842,37.45446993465089,-67.98334952493116,-26.78749333886332,-22.53515696699161,2.4378146894814825
20.57129726560253,-167.76746034496134,-63.83712391435149,35.285077613496185,-62.61892551126451,-25.256739942786535,-21.289298068485973,2.388303489174812
18.870925305750667,-157.776540483651,-60.42044983898021,32.7350859865979,-59.000225640455355,-24.390314705583286,-20.8128249227898,2.057802308813521
17.636018786882435,-153.89303719524656,-59.754815800826854,31.218220069872416,-57.71702944902021,-24.277900311225473,-21.049278935534353,1.7312146279171312
17.54750250441679,-155.71857928784277,-60.34652200438013,31.548527671659777,-58.316863695647,-24.735512651950796,-21.696429458753354,1.6526398716085848
18.825011799903447,-161.33271826284002,-60.85550059804748,33.79624695854013,-60.00037116273264,-25.506916327809922,-22.4477179700685,1.9599544584594322
21.09271945420469,-168.19295211651237,-60.789018766771406,37.227836078210885,-62.02416587762631,-26.3422414294273,-23.10580010205705,2.6256755514980723
23.351274199466307,-173.52510443061203,-60.54586089491411,40.37311148569016,-63.77064566370526,-26.995216247404247,-23.58763781941442,3.420110002692987
24.195223426395028,-174.57573823186925,-60.87815505218703,41.38457203433813,-64.62209586631143,-27.208405927605536,-23.85967474219061,3.951523589225727
22.33119843824363,-168.91285851448984,-61.95519280159005,38.72178629991111,-63.770038997644406,-26.701751378275727,-23.822326015576614,3.809773023260068
17.21938783187825,-154.77037210475658,-62.53824151421287,31.901401464223436,-60.12305138867869,-25.167257895810117,-23.19903894414518,2.7620424591958814
9.48578609713011,-131.49940519964719,-60.00373966869313,21.89035330704679,-52.53158956832326,-22.313655171716263,-21.538282312352287,0.9000893149104678
0.8173576663643978,-100.16992921232529,-51.567386046396045,10.862984054089873,-40.40239713151501,-17.998818457626726,-18.394170199811544,-1.3372411329958067
-6.659109458455995,-64.02417555168192,-36.126868834660634,1.4023419809301918,-24.403870696905898,-12.393840807338947,-13.605063113013049,-3.2746315651841904
-11.198466767231173,-28.178800670105254,-15.431239244058277,-4.4506262214155905,-6.696956110831765,-6.0390461947307745,-7.474776198744945,-4.198305206661605
-12.028177768139862,1.807365471891074,6.462691963675942,-5.8319252860726385,9.702036226860523,0.3072939935128632,-0.7027344994103015,-3.579155911934794
-9.454276002098949,22.14895675711911,25.312398269312187,-3.1469006143968588,22.24811597136218,5.972314438865232,5.910960350409327,-1.2660461972995993
-4.562233447679393,32.700049967016014,38.98106970068385,2.247141787361253,30.11814861378739,10.619823488591813,11.77530690118674,2.3960788439363436
1.1901876410027752,37.08575059739434,48.13814417883466,8.462886931638534,34.47281629248629,14.231244730164033,16.58116723273065,6.567965401985022
6.264277065190375,40.452416111673756,54.66811017505438,13.447063682636243,37.357683970883336,16.775886409076566,20.05910763700285,10.082453622217441
9.240739276147607,45.8187138489567,58.9491777430717,15.369671689617896,39.872361233349025,17.81263447399952,21.642534205702184,11.787668071803157
9.087486433282232,51.44233636173385,58.31856483633942,13.143277983287614,40.95820734252428,16.41554639259252,20.420306366380675,10.986363900597647
5.523969681075761,51.39326319185618,48.30493908002597,6.928015189867564,37.86701307511114,11.631875973900524,15.580063689850654,7.778485806841134
-0.7254363560778464,39.37364364681036,26.00058631462653,-1.7410830138355422,28.140350718844065,3.2471011383618893,7.112681750184575,3.0926144071351005
-8.060890174815142,13.331859056190464,-6.896526745546417,-10.456112007689683,11.722260027515098,-7.689215154248878,-3.752883005622243,-1.667906454086379
-14.580974891954698,-22.320578695315163,-43.737997408039604,-16.91763311830758,-8.335636813874423,-19.024877767815944,-14.792851707948635,-5.209434040264439
-18.8449280697319,-58.441074590014864,-75.70903372441299,-19.88584857306124,-27.115786900516923,-28.342847126049485,-23.655226373132617,-6.859595269596974
-20.407094468298254,-85.69528008817538,-95.98354588335785,-19.573782625386396,-40.215236863135495,-34.00261348004868,-28.858334561413304,-6.746265051638429
-19.837643243762905,-99.00647170366625,-102.6638460376399,-17.299361752946798,-45.75742367737365,-35.781502775528196,-30.3403034715247,-5.586402183385311
-18.268622955308764,-99.31276534187242,-98.90140957528537,-14.672026708003699,-44.8901489294071,-34.77905678821645,-29.277340102649433,-4.248048582482345
-16.782588773114096,-91.9885674025733,-90.5242478733287,-12.833113734882975,-40.69317517260346,-32.70975641259994,-27.34847985950218,-3.348374601137204
-15.995179567491807,-83.42159825413444,-82.93748610787851,-12.137888745034628,-36.39223103895788,-31.05158085181971,-25.92514475524578,-3.079173594390663
-15.981589870033071,-78.04353544665673,-79.09417836457634,-12.30478116686971,-33.99777645512718,-30.522133713099645,-25.6181303219797,-3.2794546712978843
-16.45576068233691,-77.22525436064434,-79.20892778986341,-12.780427737839004,-33.93325459567164,-31.058451153916153,-26.3050504943502,-3.63641245001263
-17.018148573224885,-79.89094018451084,-81.70239276008103,-13.062343944297334,-35.46853341635181,-32.14292444836449,-27.459957398302407,-3.875063818848164
-17.351973133032086,-83.8392517225614,-84.47844223609962,-12.883254207143716,-37.433142381463824,-33.19318949317055,-28.52310944457,-3.864681395712505
-17.336782772866684,-86.96340932769257,-85.95890878048098,-12.272524879848106,-38.8290930642237,-33.83311453371095,-29.155328870751646,-3.638211188742271
-17.070322445572742,-88.10996199638845,-85.67504453388177,-11.50133812608693,-39.21803619181507,-34.00643803639299,-29.34205208251484,-3.342833751270829
-16.784923474585312,-87.47743837168277,-84.30380850484693,-10.906052161562139,-38.83084728373546,-33.94619933152776,-29.347719751124416,-3.142637767037119
-16.687350902688813,-86.35566731629584,-83.10024431509393,-10.660415587590794,-38.34020326264275,-34.01027059848198,-29.531081766858204,-3.1140126739823883
-16.82011054708471,-86.20834946501981,-82.98994945653573,-10.650214097089355,-38.37341379961784,-34.439013186923205,-30.096733439335463,-3.194794971597987
-17.04399669799757,-87.63257347891549,-83.91418215773675,-10.555813241316805,-39.068590583451474,-35.17383159320049,-30.93460534951947,-3.2265996330614435
-17.148283570174407,-89.95673417678594,-84.90695100188528,-10.083819681116426,-40.00111288757566,-35.87615498467175,-31.672910709018964,-3.066412429508934
-16.99722707270004,-91.7589397877596,-84.82322405052948,-9.176393678947704,-40.5232823707946,-36.15434043288391,-31.92493407559365,-2.6935575605603286
-16.617192527319222,-91.85109762604762,-83.16627003746312,-8.073401015764432,-40.237246336079224,-35.85030726781172,-31.57122369120488,-2.2463903483813503
-16.199125830121208,-90.04146666379582,-80.50647742414837,-7.224969655794869,-39.2803991531542,-35.20267135598069,-30.90632218452314,-1.971356629871531
-16.036732896613955,-87.36412645991878,-78.35546424849719,-7.104181514544136,-38.31694307417231,-34.79652924074027,-30.571507576920094,-2.105344397608695
-16.40415972140672,-85.83313824281336,-78.580903244282,-7.946820775097149,-38.29792656969632,-35.31635072716631,-31.28412679012288,-2.7262840982715026
-17.370496327068604,-87.72862897249757,-82.43369022446784,-9.470954041115775,-40.03272328484,-37.167531835865034,-33.423155575896885,-3.625236644314505
-18.61668480617588,-94.32518217922822,-89.37659556971128,-10.742547999769805,-43.60305112793716,-40.077004807300646,-36.601571692927244,-4.284239702810988
-19.40234046778849,-104.38727120012479,-96.31657383976527,-10.403492358285572,-47.84492564421314,-42.87458347901406,-39.46572303012305,-4.039263222647872
-18.79544455257681,-113.455887444576,-98.08847752397764,-7.301860578866717,-50.35263624414653,-43.702272983027356,-39.98338708712773,-2.415770722794007
-16.09936341480649,-114.99740761512167,-89.51894765032206,-1.2309358509644281,-48.32717706786982,-40.738824295440374,-36.269824048410335,0.5216443606377061
-11.22973774567187,-103.38260131105464,-68.236894002923,6.716258343592294,-40.01058218861151,-33.166188650331826,-27.611984291684244,4.045722769230927
-4.783760000653266,-77.14453364465828,-36.53018784234333,14.508526402262422,-25.862431993189915,-21.804699480590415,-15.078543902990278,7.024528958387213
2.262714163870056,-40.38883605364957,-0.8632821017232973,20.134582023069225,-8.623149888052907,-8.916851382290949,-1.2353548841776516,8.485398912969965
9.042608178444427,-1.2544061210034696,30.89635179285335,22.61980261001912,7.908593316768744,2.8270921230432555,10.984417452383575,8.180155815682667
15.161357052900895,31.731061465526142,52.96319048333708,22.492887202086383,20.663445454624426,11.634726993547424,19.62812483421383,6.794777414143601
20.727086638685382,53.146689219558475,63.77776908081647,21.437147839357305,28.522009994717287,17.310269440628815,24.476174232898046,5.6378555124033225
26.076058979995945,62.011034308634876,65.73382664346113,21.375755037833997,32.2607483216288,20.94954061279837,26.769151436779136,5.9621242722508105
31.413045252681318,60.68476899963336,63.10429923639189,23.542528964840816,33.47757109009029,23.87917556770484,28.17233997068065,8.296902619956539
36.58609456734063,52.881795808468326,59.841375717047335,27.977555484515626,33.47409146939852,26.6457445264813,29.724562028838136,12.141818921528351
41.06069171584872,42.5810868847613,58.531921704824,33.528842679977416,32.929330388688996,28.776322937112152,31.433070352259243,16.13796875103929
44.02693875588968,34.160647921187255,60.46387876628025,38.195719553160934,32.342739284903146,29.393978219788757,32.626960151483246,18.580140291555473
44.5816842106395,32.46942968588415,65.87556715006602,39.67499870875895,32.49556654696962,28.11121326120748,32.64150293940793,18.02125114016889
41.999764028916736,41.55269258591638,73.80166456113153,36.07889049480408,34.27659692157743,25.47424818324803,31.287952758036003,13.759634520314156
36.08820443039067,62.352029126362105,81.89422349857169,26.725342781938938,37.975728200413116,22.663433989277678,28.871688678845896,6.091597411663041
27.48399656155674,91.19395665847699,86.97853078487191,12.68000906891408,42.75706916836032,20.75613458647783,25.912553158836257,-3.7286803746107466
17.666762653352915,120.69520618616033,86.47547885808646,-3.351950252994102,46.904131637434304,20.134894330771484,22.87093649628183,-13.838140967939879
8.559604228889933,142.98195196924482,79.89264101678252,-17.917421114631416,48.760487348743816,20.42171382324344,20.054542595764957,-22.351106873576004
1.8448248462878085,153.35802316535688,69.3055314861064,-28.143039400709416,47.70540435985165,20.88074258739572,17.666841913782562,-27.98182359849832
-1.6668887634762786,152.17604006071556,58.37723944809498,-32.82722605605542,44.4727430068412,20.924195231810586,15.855471823991117,-30.43423491316935
-2.2730083231824905,143.9015470900801,50.48111853746126,-32.72223304666452,40.62269234107135,20.37567737661024,14.679603943380288,-30.37591472111029
-1.1014803758903462,134.24218291880985,47.11742556302162,-29.90414043560695,37.595483324767486,19.407072540163817,14.045769743154963,-29.024966137472756
0.49999625905649864,127.325977490218,47.570017527768215,-26.65685558865829,36.025259902369925,18.314110855708357,13.717834262129186,-27.58057103229051
1.5488536908572987,124.48571772326989,49.81683332918422,-24.51961811493263,35.69104196756696,17.33698153282193,13.430173821367282,-26.786106356843675
1.6947748656356985,124.77872376694297,51.858414896057006,-23.93412150751658,35.938577127140064,16.596898337172806,13.01559531086984,-26.798648520145257
1.122741988255652,126.27374222567423,52.56087338460858,-24.48274217341602,36.132639616455286,16.095931585078116,12.442408872093347,-27.34340758803917
0.26466633661331496,127.15491811197045,51.75154294891957,-25.394125461298252,35.876661579542,15.732954203851344,11.75681672359131,-27.99507538007223
-0.4710173126098657,126.36979781145601,49.91467083169742,-25.991706771196462,35.05591717033261,15.35280667310899,11.018684032799618,-28.421656808506004
-0.8542509983809435,123.93056343356356,47.85931610385747,-25.948529818011572,33.83769552922881,14.840421926631793,10.291314489869341,-28.508158481884724
-0.8814397391405931,120.82112363705225,46.394473750427764,-25.350003366773354,32.60601814006481,14.19840132438622,9.649805677338302,-28.356673966595565
-0.7399969292502179,118.36205397899327,45.93469472822063,-24.583196090487185,31.742269621927175,13.527092072420198,9.145308304467845,-28.193020421907367
-0.6928267692392256,117.26992431720501,46.20570950155993,-24.08204324217938,31.33561525664574,12.917212231308408,8.739929947800084,-28.22297022230649
-0.9167095063832993,117.09498727906195,46.36997454410263,-24.042877934271417,31.07796685305308,12.363601120295728,8.296500461270556,-28.501758608396532
-1.3878284950938877,116.54206801829737,45.59978933371469,-24.29245460433341,30.483983587685774,11.785642702974913,7.664560115030431,-28.890279161055485
-1.9006382297039428,114.43097140540041,43.680091972942975,-24.41152354890308,29.26670789133247,11.11870027895961,6.796916461261888,-29.134488837206682
-2.209039393986324,110.54048014966986,41.17544534541263,-24.028287791999123,27.557303445725754,10.371798028614005,5.795380057770514,-29.030085587950083
-2.186428425714502,105.82101220189813,39.10667737524555,-23.07954445706521,25.838052000829055,9.607964371530183,4.859549921680531,-28.578604839478402
-1.9076405994683205,102.03596197331096,38.44316572882685,-21.893625729064123,24.709869635321386,8.900545021060701,4.194794574574999,-28.04467268479138
-1.6329276691400878,101.07941830238022,39.651785485554804,-21.079962824662324,24.639752087417687,8.319783301803735,3.9274554596233036,-27.871794437481558
-1.7185905524468506,104.01046384398441,42.30859803244949,-21.268985176839514,25.693122250737826,7.923802278687286,4.020972347706448,-28.46670922375116
-2.460890685268344,109.89676608682754,44.84487514766609,-22.742146513698653,27.25895669848028,7.70302861437212,4.199375963474848,-29.910703403435523
-3.8809217192719934,115.12149039026642,44.80426423195365,-25.05127968607957,27.988374729938876,7.51423752523877,3.9672411146575635,-31.71315224114171
-5.538839908388737,114.15747871132311,39.94659796938261,-26.862684049307422,26.257367999667732,7.122313214005857,2.8321868891261723,-32.76615398670835
-6.5479374563004145,102.10956661947074,29.858163133833337,-26.289688928052325,21.134347952895453,6.403431322464742,0.6934875027792372,-31.621597445631313
-5.900376660379845,77.83685003279437,16.97556878093866,-21.731938255582463,13.289101407066395,5.5874688929965615,-1.8404298035116882,-27.055931189917338
-3.00003775134364,45.53729250959009,5.9787148299352415,-12.833706530861985,5.08521233884746,5.317934355127659,-3.492199123584809,-18.68713278784558
1.907351926914308,13.36573435025953,1.5501564746616776,-0.9551271946894957,-0.44332425165868383,6.407101987547811,-2.8093771665544334,-7.317911789158321
7.713026421045083,-10.392848729097187,5.755353263887958,11.232546814277965,-1.227048129519635,9.38579050391275,1.0943160010697142,5.203404228475273
12.897928147999393,-21.331142511779944,16.74023846834078,20.875685602034192,2.610188551022736,14.11077795832064,7.952214731265763,16.55560298763108
16.21626587762056,-20.647897015820345,29.67012893335328,26.166176150635494,8.75549784105284,19.681525356373125,16.271129163915123,24.689942325807568
17.21736770335248,-13.674772962979562,39.35715655293605,26.987740189862915,13.979130654196975,24.74112689173868,23.866722967158573,28.453336128753147
16.32989980647843,-6.444354843446916,42.894202873538795,24.695498498180758,15.86210398359178,28.004871288511392,28.765026831304144,27.908665153530617
14.52497438690426,-2.6894574253507595,40.691713577611175,21.287271113219504,13.89410923885018,28.730854210493483,30.015327175587153,24.298394761309495
12.819576118315533,-2.9443253559123232,35.543687171355565,18.515476695972755,9.373090873965715,26.915858078553093,28.011256926106714,19.657867252937542
11.902934480561449,-5.608865658643585,30.695601698755027,17.358122984461094,4.3978043134312745,23.19508690348306,24.190657444529705,16.130552633033034
11.994937431278947,-8.616313019048363,28.257181107274363,17.91658018066233,0.7261412102649499,18.56816849145378,20.29581222844949,15.155718166969143
12.874644635321774,-10.571506759448477,28.618931086676053,19.582421146575346,-0.9098663134527736,14.07762533054815,17.55982231975973,16.8550249023634
13.995667411431818,-11.177515592329174,30.6961126316859,21.344391915573844,-0.9117239004804449,10.512989868783896,16.19907744476009,19.97302433238156
14.67697619332207,-11.23033350676114,32.59541633840721,22.206136141307102,-0.4823068556775294,8.211785321876757,15.459433312692115,22.502864943740658
14.364384070703638,-12.228245047077046,32.49961037454126,21.639388895297955,-0.9933804390146925,7.047344057364675,14.205864308991332,22.736072410233056
12.865732730852097,-15.507322701830105,29.574958361465846,19.853268585947635,-3.241088270235911,6.623107055777683,11.732256473066847,20.17770154430057
10.409729073318102,-21.247384170156796,24.450997114129486,17.661707499006027,-6.957155069103628,6.541317649473714,8.287154099148669,15.803061156897646
7.480053960471988,-28.1191297648637,18.845032598169887,15.979719459238225,-10.948677363336156,6.545968130852973,4.957277584589549,11.51039855733977
4.554329859266617,-33.997526758030325,14.476845816711958,15.270492370607029,-13.85105447922449,6.470464212520941,2.9877701575797233,9.104491170063143
1.9431348679597553,-37.26231337517065,12.020632066244826,15.31205958028342,-14.986005846119232,6.128436467137531,3.0196910213026,9.407485214788373
-0.19020788144791262,-37.74236220744619,10.78475516086779,15.412094725024156,-14.735472923226771,5.330108004922723,4.749839359899354,11.970437891100714
-1.71051559709346,-36.808202554174635,9.168366305424438,14.90319980835266,-14.264710128823126,4.029420028582848,7.161280274020461,15.463108275150255
-2.4197602653646495,-36.813048868051524,5.4689071541548255,13.625879215873166,-14.885998652388842,2.4291918622566913,9.079398692698213,18.437059969481943
-2.046499918667228,-40.179965453031606,-1.2610120293785205,12.159535980951853,-17.40568869440035,0.921664659403921,9.702401755231081,20.01431642513064
-0.29837224216134545,-48.08862168331959,-10.318989439158523,11.671119079105509,-21.563149822258758,-0.043966581278201106,8.91947375959031,20.171692010876345
3.031713207066467,-58.83319166595845,-18.611937133341346,13.37527380975842,-25.612593656500394,0.016259467843245487,7.398459507592917,19.543760221427274
7.897197304932129,-66.75368609229488,-20.76717113136518,17.78859372766263,-26.341725974143255,1.721260085199896,6.438213317185432,18.91577407799072
13.818128385756697,-63.18282052873216,-10.783099854462577,24.171125397703847,-19.940099508821177,5.826795102936457,7.545254970963643,18.719286853723183
19.8359305532901,-39.99000856231463,15.057175374634667,30.581856741928412,-3.7117878300442637,12.919677089574577,11.786560915430984,18.813459262047203
24.742563157708485,5.658356999693083,55.51010236350203,34.682802061972616,22.11957000978181,22.88738011013688,19.173897603826152,18.64875098792813
27.558114787318488,68.11794191789973,103.72296520520175,34.93925746203893,53.643717347959914,34.535543858406506,28.441432916190138,17.68345336294866
28.0166875054844,133.94876060222046,149.31251620057748,31.533375833911556,84.21939619389038,45.71595271810713,37.42385327532001,15.79589549227049
26.742388334867407,186.53816534090225,182.1764441729139,26.4044165777825,106.82671729631906,54.00590212263861,43.894477914334466,13.460216568921382
24.945485724135892,212.41277316658318,196.00771606152898,22.317207379998553,116.64470714538584,57.60442757723906,46.42983093872449,11.589495839439381
23.764821237965045,206.10036406857742,189.81508219331533,21.440347734420463,112.58427690765554,55.96521004099846,44.8481958961846,11.119671938283467
23.631017626405267,171.4074003818939,167.12185469100052,24.22644695139514,97.17643937586382,49.85990524959121,40.04179579773005,12.538004845298369
24.040414338442176,119.03654309730624,133.85449592469146,29.222837136958322,75.14419611437495,40.9115619202876,33.38675700306382,15.59267153768685
23.877160273088837,62.176586571484975,96.30139414680399,33.89189389319825,51.545804350574876,30.904249606716213,26.115131352327413,19.33601958707268
22.069441060154137,12.16577717552686,59.87882159292883,35.93457042787564,30.30978265270484,21.211678561838642,18.96246248632792,22.493168369489457
18.169254098138754,-24.289478250095158,28.58409840971683,34.3625402850209,13.535087130626126,12.539436272237728,12.170582654700242,23.98918267689405
12.53519102300503,-45.855360762683354,4.701297304950066,29.786882649346513,1.5069662736226814,4.985048613853039,5.7153382872052925,23.38704052451035
6.086938146876662,-55.6143330811787,-11.40834585617353,23.904123107976048,-6.8275243040586355,-1.7101221888038256,-0.44669712315906884,21.02863792697598
-0.13121070656234285,-59.152330734200305,-21.205911384153005,18.611244016144298,-13.182586544388709,-7.8732928569949285,-6.251193812324065,17.82366495278589
-5.279240943247174,-62.321340379322756,-27.227391046302014,15.280453385985505,-19.192282733438,-13.668068880275298,-11.512888295110264,14.816113279205654
-8.816190211004471,-69.00706571643275,-31.6920713929474,14.450071951975266,-25.66061248021204,-18.924936691698473,-15.925658529768798,12.756292264519029
-10.477154155245763,-79.30447654864612,-35.11762502821266,15.82044633456211,-31.985102435036858,-23.046999351353037,-19.03057508258406,11.860179211709287
-10.32862434292602,-88.97898607807252,-35.98807627556285,18.329262016247885,-36.156211944325314,-25.08905446059803,-20.247916549197086,11.809901896205336
-8.929820118090683,-91.12677518953726,-32.03937431254728,20.281233039246864,-35.65134491681515,-24.1146370646583,-19.101061142754613,11.945036688322904
-7.3900948272308,-79.84171728285423,-22.483385703428063,19.72371721030514,-28.97206849570941,-19.755863834208924,-15.59206285823101,11.552937484245307
-7.085631174836712,-54.05227950966806,-9.528747568433436,15.168144762954054,-16.93082714249506,-12.663936800785681,-10.474717202612647,10.158046775582543
-9.058441936662184,-19.05417729499482,2.1186397681361577,6.394147920683981,-2.7409613024715838,-4.498006840966743,-5.151315710758935,7.7122758297919685
-13.437840127493274,15.512254534805503,7.62599379305336,-5.185343532943594,9.3167622024206,2.648040895354208,-1.1540822232823829,4.6122830810951605
-19.292836141526323,40.204855074041745,4.723620017315652,-16.96195440586283,15.914872508590173,7.110878863916591,0.5218244342659074,1.5285343534777853
-25.061463019494234,50.166600609338616,-5.0659414475770035,-26.23533175252794,16.18234173488673,8.334404933482663,-0.16350012033087435,-0.8856671090198872
-29.314707192535497,46.83815920688864,-17.404745598250845,-31.38401461954163,11.8335857804786,6.979974559165294,-2.375610972304045,-2.2686705081382335
-31.395816583678776,36.25899936587942,-27.591330850164272,-32.44210967163834,5.9588329489326,4.440792852712972,-4.9166690195867915,-2.6695225706816728
-31.58206630205828,25.364402621587484,-32.873203749460664,-30.806262303330374,1.3270401119028166,2.0897139940583798,-6.832194163635618,-2.4573839834568845
-30.751040833116477,18.707543082566037,-33.28257701119604,-28.348310018401452,-0.7607767553061474,0.7106212264985663,-7.7577285197132175,-2.0932741618311215
-29.838675860510772,17.29447595711265,-30.82167978047595,-26.521840109073874,-0.5638524895306832,0.3717664014789764,-7.875838084598537,-1.9114082068790528
-29.43553571478817,19.48565333704593,-27.9197153306365,-25.92614236048066,0.7850462564860818,0.6696079493728642,-7.630215026576079,-2.024316033172229
-29.682790062733474,22.7032501591561,-26.268390405972454,-26.39430777338484,2.0870924331190746,1.0785478863014237,-7.444044805135598,-2.3615897768182497
-30.398395822007437,24.788995966524283,-26.46908417230075,-27.360449688672265,2.5620065529089526,1.1986810336724807,-7.5770881201129905,-2.7720433862213865
-31.274317228641205,24.695801085541607,-28.214393209561056,-28.233090502382968,1.9936475886918528,0.8635207132263606,-8.097133194976731,-3.118091766320738
-32.041823049029176,22.684912129701367,-30.61867453514991,-28.64882792413903,0.6905848163567737,0.15448285279200202,-8.899253531228396,-3.3355307094328817
-32.575134005673775,20.067176823553307,-32.616491033092984,-28.583706771645783,-0.6977167188198975,-0.6626541005159772,-9.76299332534435,-3.4567050300217894
-32.91580582773664,18.41224452978345,-33.46358009932884,-28.303736794539812,-1.5322631318036142,-1.2867168530971327,-10.461677722571952,-3.5880945479182755
-33.2004633573381,18.514345141398103,-33.146014106464335,-28.15758393158555,-1.5727123731995063,-1.5609139286263642,-10.882211742720727,-3.8373732686816973
-33.52851145647693,19.821428466095107,-32.3651143634308,-28.31855187388872,-1.1278138198964862,-1.5652669225380997,-11.071204731959721,-4.223395430995033
-33.87398067220011,20.81813377000364,-32.051982045053045,-28.66019024319422,-0.8301061498295068,-1.551294339194046,-11.178382882460872,-4.636353588300194
-34.126576771567535,20.08374247605127,-32.788346839190964,-28.86784647301784,-1.2122829435901177,-1.776661110501409,-11.36376051191825,-4.892659953376626
-34.2303970610347,17.240163871601524,-34.545526949340776,-28.69630926922846,-2.398928428667505,-2.362952945534126,-11.747356245859418,-4.858661293717884
-34.29049406990319,13.254203445611003,-36.7748065889902,-28.17374317911862,-4.051998366444767,-3.239895322446651,-12.39622959407379,-4.564014106639747
-34.54389291912216,10.121138454220864,-38.603461088987416,-27.623201913190567,-5.484882474010259,-4.1535699608469265,-13.285822978863205,-4.233528807652854
-35.20900594343427,10.133050132307245,-39.04311684511041,-27.51661808408778,-5.866939769772268,-4.720364976249319,-14.230333008943425,-4.213348192163036
-36.31033951886075,14.757536651407731,-37.382590614993006,-28.23683164960244,-4.577730638370939,-4.567119795532066,-14.874857956011953,-4.808104246583464
-37.56520145502642,23.272313453029334,-33.803756610157976,-29.80402056352261,-1.7142575446979453,-3.5751490904794765,-14.83378931941264,-6.0752858293464485
-38.3762627026083,31.91252852969698,-29.790054651953277,-31.647947359222528,1.539308174415616,-2.1115318417290134,-13.925905352162596,-7.665950562590817
-37.96405646811038,34.62220647081956,-27.735655922578488,-32.599452933956755,3.126104774780497,-1.0367433415719305,-12.341967613442307,-8.841718921891133
-35.66152493265234,25.722579364761767,-29.70964173752696,-31.275769334889706,1.0416382225082892,-1.3813078421617364,-10.618970605608881,-8.763891098115941
-31.303820698140438,3.227611804125568,-36.15645536995315,-26.809774215312814,-5.5203808866876525,-3.840127530123428,-9.448686261630952,-6.99491215537344
-25.50980475074374,-29.446561872373525,-45.57483678834245,-19.54091799988566,-15.621730692390699,-8.413643579861864,-9.459319625102802,-3.947708846134145
-19.610122456480426,-64.88154218284903,-55.54449916289531,-11.15334865328664,-27.107918884750628,-14.446477420180223,-11.07819827433727,-0.93396456660259
-15.131529115570164,-95.50514283305509,-64.35092494206005,-4.008685349307422,-37.870163165638004,-21.01559492534968,-14.456581027243049,0.3740534863952081
-13.031643161989827,-117.27347148349016,-71.82657815099446,0.05071824365841823,-46.86350857692077,-27.336472549560195,-19.350524928445115,-1.113376444493817
-13.102703231411427,-130.4916776323183,-78.52803129170593,0.7228793795016479,-54.02682491195709,-32.83986798080943,-24.917146197435713,-5.081914321105637
-13.951830516146726,-137.19985204166176,-83.78625840032835,-0.6014988760770535,-59.150402114457684,-36.88153391667029,-29.58325114838687,-9.689765574592693
-13.671303119084646,-137.3641894009876,-84.38603854446951,-1.7277063843962992,-60.73208606023352,-38.44122123776745,-31.278002603645593,-12.357305636370352
-10.87720032508066,-127.26778165146574,-75.4468328658817,-1.044537723579663,-56.046224945224935,-36.26400179577346,-28.171340606650137,-11.096230013254562
-5.509577235529486,-101.81607809683538,-53.39664981211354,1.5076031038628657,-42.72628058516387,-29.54243479523919,-19.650709437770523,-5.601044234258191
1.1063546442295802,-59.22150944696896,-19.08218648383954,4.519296359651131,-20.84444496630169,-18.71332537103475,-6.939226554248941,2.5647938251443825
6.978200952864454,-4.42854784789608,21.343102521426953,6.13030897453722,6.104773440311536,-5.727185275853713,7.1451463613058,10.78492751656935
10.491825552840897,51.57243583338172,58.66848784942067,5.241850796502298,32.22861416026127,6.540417228479678,19.27898513277283,16.685322760649562
11.156299612520835,96.41991102425298,84.77366079815783,2.1258926595556717,51.781812140137525,15.470646121435115,27.011144094241573,19.149364002400368
9.65856785453438,122.12007009457469,96.1834255720021,-1.8744402281694672,61.70725573912662,19.794942504518243,29.682146071122013,18.557254203463863
7.297100600378315,128.30617294122482,95.01799411171196,-5.230360770138331,62.68609060251885,19.97781411234173,28.429425292587897,16.27473878499905
5.22564915408584,121.29738393221301,87.08944568710893,-7.051079274745936,58.23464874469924,17.732143518882953,25.373985547897036,13.822048570804888
3.978662753404884,110.02525451273627,78.63199554066142,-7.355404489963187,52.6136470281859,15.03829284801022,22.52703983011894,12.21891178774189
3.4800413272048374,101.61759853391302,73.67377411672503,-6.762816363494566,48.886082634789624,13.26780127092258,21.018344088361598,11.76521710412456
3.3863475274154835,99.03192387509742,73.18552090569294,-5.960574420623375,48.07201558775136,12.827467685921139,20.93935170503752,12.20455356253231
3.445062086295756,101.30754905982174,75.79794237284273,-5.342391757235687,49.46427677057657,13.34233881876602,21.68521562577666,13.044420006088961
3.634769167068064,105.4211391139809,79.16469066378575,-4.966684217861779,51.54554262501695,14.110795685703737,22.46763051067772,13.826866660442533
4.0593158452237965,108.39786288259529,81.22185797133712,-4.72938150848697,52.92030768180643,14.543885402372448,22.727703866651623,14.261446809999331
4.715798978540821,108.85775370977265,81.04899147061984,-4.57650572037991,52.96044527091672,14.434248879298254,22.341602752007173,14.233986312680454
5.2990470190142105,107.62048541185041,79.19387889151912,-4.638662186061879,52.039107882129805,14.005463247911102,21.60901372329396,13.752269920994864
5.195201055947079,107.11305563773422,77.29346900597704,-5.21286034419228,51.25606318878447,13.73398950889248,21.04246134486862,12.900527487126427
3.765957257889553,109.64816240362256,77.0436670977508,-6.54279257721437,51.6980755526685,14.003628640699255,21.03195912622445,11.852352580585443
0.879149873336732,115.39648034019928,79.0383056313786,-8.45892670561865,53.594851744892274,14.771319558433222,21.55416317098625,10.925183438223206
-2.585241097835938,121.40791671633347,82.19578599059939,-10.12188469394865,55.914912484050625,15.474658395391677,22.114239440948385,10.580618602981387
-4.6621318521305355,122.56161003390757,84.10050980049343,-10.16992304175037,56.70830744029384,15.284903016344431,21.97639026938786,11.267120607302381
-2.9224983495806183,114.02455233370755,81.96113221473163,-7.345270539880673,53.99524858480435,13.571932150152232,20.545141870955256,13.113839631652683
4.373488800391876,93.75711427027043,73.63048116403826,-1.2858097143946938,46.67039421553083,10.29581946445773,17.669968997092642,15.647453124016296
17.178470125311954,63.64455866294952,58.34792034898016,7.047739253988723,34.977021629222676,6.089120908887451,13.716682605443964,17.770075423332404
33.293574344602376,28.755423779583253,37.12628230382518,15.660111730281336,20.419986087229702,1.9795693878276879,9.389247873291364,18.116015818305165
49.054562851949846,-4.75142401578401,12.710139015535836,22.410896409808434,5.238769077937258,-1.1123147752844842,5.3938672504855605,15.661854805560225
60.776112869041725,-31.975317248932278,-11.02880425383833,25.983671354312243,-8.32666151867931,-2.8567963331732154,2.0978322009363453,10.27144029428209
66.20698698662136,-50.79216018982823,-30.224988641598134,26.365566476365405,-18.709207446511872,-3.721420969313096,-0.6408089495249955,2.863315970067717
65.26355026153584,-61.97912860702574,-42.30337523708964,24.61286693711403,-25.38886587334408,-4.745838865556437,-3.34584212768878,-4.900865835389797
59.7716497700921,-68.1092908700959,-46.811530703136654,22.151546416719277,-28.83865986764479,-6.944889820042017,-6.519533011683154,-11.240264202325827
52.50116882861155,-71.85537643914884,-45.30353847450718,20.096118458563737,-30.06282125219893,-10.628877529622995,-10.170683969666307,-14.886242249394623
46.04172778421258,-74.43541772065763,-40.275969356139285,18.915911995886727,-29.920483253885212,-15.032432781826849,-13.58098173473889,-15.47381210796588
41.964160928508484,-74.92380070619988,-33.849047775693414,18.448388826916972,-28.62343633603403,-18.53624697822699,-15.539594698845764,-13.599151732459783
40.46563825894962,-71.07596674035791,-27.218968519059406,18.095669805617668,-25.854967283962726,-19.472090625424713,-15.02250218828518,-10.563251363329554
40.52905848043329,-61.70418899483632,-21.346457880279523,17.1267278458148,-21.62028091591088,-17.145035300785175,-11.976184650945383,-7.8730673759987715
40.53521609238962,-49.37500482991559,-18.156057516988376,15.103066260197567,-17.275225584222586,-12.488481601188282,-7.693882051399295,-6.633858102992402
39.12641546933081,-41.25985510109905,-20.819016049750115,12.32990002896193,-15.765231775735579,-7.876979308006059,-4.430069319093222,-7.064212766558276
35.94385148722746,-46.66126909658973,-32.34791653552397,10.024347231142889,-20.503017667469443,-6.075526366553537,-4.3565167947989325,-8.398326470100752
31.834144788970754,-72.03522435900892,-53.286359492765264,9.91231764140502,-33.36219288501074,-8.851244299248286,-8.425610930744915,-9.291364571869114
28.374812126553618,-116.49372740226428,-80.29515958447385,13.3314544982978,-53.09894637643841,-16.0319713368829,-15.818501854344271,-8.55103574308069
26.979551685820713,-170.88967889464533,-106.95108415525496,20.346823460496346,-75.37905871848776,-25.557355210612286,-24.312477503336176,-5.790224382630312
28.11223628203269,-221.4081442910821,-126.50221704634586,29.477070008329655,-94.55414149131593,-34.48186597355446,-31.346169107266917,-1.6261943444097977
31.06053855819255,-255.71654509468186,-134.95416345012785,38.26678426363881,-106.19041354696766,-40.34745345539844,-35.172965804876526,2.6670347744103946
34.35903338557201,-268.20475381681024,-132.68313730843457,44.39589768421468,-108.91558379983881,-42.18368415546052,-35.50128323583642,5.818581591257496
36.565303902311705,-261.621435144019,-123.80547950961193,46.690072714985334,-104.65946186044766,-40.68154766818007,-33.376998666287776,7.144518146447372
36.93164640035412,-244.77781397556166,-113.95439557632253,45.50266395265568,-97.39652445219669,-37.60140326213269,-30.509868116170885,6.764253701679356
35.65266787687229,-228.17557591154912,-107.88509455877093,42.368849059403644,-91.2927692577312,-34.86316229276724,-28.48855100252886,5.409529170420988
33.66194926848006,-219.95317894127487,-107.98779745470647,39.24695106130271,-89.19978671775014,-33.79721626639644,-28.243099992429183,4.0095179878945775
32.16492540835989,-223.46312985871714,-113.85502109602947,37.7677345298217,-91.88550704743191,-34.77672391045986,-29.842097311648253,3.29501058583995
32.11505270346983,-236.48527267254795,-122.51093990684436,38.716792835756976,-97.89271473944368,-37.19241219448145,-32.52837350205624,3.5653187026956576
33.76024812417185,-251.78301120841047,-129.1518035990505,41.75836597312537,-103.90658411085874,-39.67699602341703,-34.92907500971869,4.628460413532701
36.366806433990234,-259.18094448038846,-128.64334228898866,45.402870036880046,-105.74774896656793,-40.563842326664066,-35.47970482594592,5.873310824485923
38.27969340460335,-249.3143513617947,-117.75143585314346,47.34261539123505,-100.01858639015464,-38.548836775228644,-33.05547130656557,6.4566379252245225
37.445901870121546,-218.0723231755142,-97.20658039849242,45.249623586143876,-85.87855079952789,-33.34375517797649,-27.58952082434211,5.59427135535653
32.303125707342666,-169.4841525553892,-72.18220433864182,37.835295583833776,-65.93899576440204,-25.951908785494545,-20.30151477573073,2.8823786787253702
22.639501605575827,-114.91252567693722,-50.391826734162,25.6481731073222,-45.47993104368211,-18.296726974575893,-13.28111331818236,-1.496664920377278
9.926764891725758,-68.33707243456068,-38.50525016172506,11.081283627321744,-30.13389957708321,-12.299629922430823,-8.54288307981468,-6.80809607647951
-3.1348642047116035,-40.013974161931216,-38.832496541520705,-2.5311895059200986,-23.21321578194485,-8.887388520489093,-7.034797699712051,-12.033709187085313
-13.676140072818137,-32.02618969480874,-48.236993655898125,-12.294282035407232,-24.199091097306418,-7.517632470657203,-8.168375906171672,-16.233827746773102
-19.787906392769795,-38.19167193852807,-59.926741500868935,-16.87756973694394,-29.262519354621592,-6.534875252960551,-10.158576568315809,-18.82651527658165
-21.165334508572144,-48.120454356445066,-67.01779409403555,-16.824733895223734,-33.457102331751756,-4.169160850307837,-10.98349897036369,-19.691877882311573
-19.02025133703381,-52.790158027041926,-65.8071303324626,-13.998637030726284,-33.26571203679816,0.40070031757114005,-9.417677992964391,-19.121400346326617
-15.421560402540786,-48.52126375348994,-57.15024655135009,-10.59348777402684,-28.14277707157051,6.510427946800177,-5.5965220446812785,-17.680783244247916
-12.457303244296302,-37.74070806266169,-45.66275705392347,-8.271170419417976,-20.4699369509913,12.248499277755636,-0.8907111033913344,-16.031630888788197
-11.566443051421047,-26.912970428551,-37.49891884700376,-7.739131783706184,-14.219960779878067,15.30177180282453,2.764123501683971,-14.728909551228076
-13.192281729627858,-23.006655600868502,-37.639274606116096,-8.765394392743195,-13.0198897164016,14.01487163837386,3.753001714261178,-14.034449377078516
-16.76699301290314,-29.798608264688028,-47.41994009062937,-10.488955237889334,-18.286646361524106,8.254417659450738,1.5474306646249663,-13.838955335653612
-21.007154740135363,-45.1583772628842,-63.11288413775879,-11.915551631032999,-28.076018938043283,-0.2636840088860428,-2.934812560386239,-13.779804318494513
-24.469258826961976,-60.597579225733654,-76.53514811586294,-12.483022242652753,-37.28931029413435,-8.408089571995525,-7.579410004387213,-13.530321969661722
-26.19066531018091,-64.04766681919538,-78.12441351322514,-12.46221624875679,-39.536197636250634,-12.789175063770301,-9.928925062145192,-13.087481005483578
-26.115913559306502,-45.32558106997314,-61.474595885191114,-12.908787937656209,-30.081788785822788,-11.206603041454361,-8.306001966018982,-12.841791075020366
-25.057917789892553,-1.7472948027087,-26.986419361746492,-15.087963523792792,-8.426270293556707,-3.6794969876701584,-2.641004923453944,-13.348078567630406
-24.20170491358323,59.41132574019014,17.635135243522154,-19.667005331373485,21.010849607630956,7.519143987497834,5.462287985244014,-14.938870559770068
-24.444663705947963,123.411384393796,60.578761420346176,-26.188331689253083,50.644543717260326,18.87748391732667,13.473246935917755,-17.44996543234266
-25.95985467511042,174.39463506266642,91.14276970872957,-33.18461924684311,73.03067162769236,27.18064221405614,19.084729415149994,-20.2529383135949
-28.205296575261887,202.1559495953229,104.13834280597091,-38.8781636032159,83.95354720907423,30.779976295614947,21.158946968413915,-22.57400362311359
-30.310319468022318,205.81050202352966,101.30884214307771,-42.03110593373577,83.7567681070298,30.015826812272437,20.02946443977521,-23.888002304207152
-31.55498021580069,192.88247963380906,89.51157135882723,-42.44328068541552,76.51417882147945,26.725488239238224,17.12420268840486,-24.14048919388644
-31.660237951723616,175.03731828021424,77.18101719489248,-40.867154496491935,67.84733868991188,23.244434906011964,14.23307122521429,-23.68242439128475
-30.79979281564251,163.11236852380415,71.04095286265886,-38.51072426214519,62.662154450900225,21.454246286408328,12.822289343908892,-22.999827926826484
-29.448535993312426,163.5378624645932,74.15165067987084,-36.512915039969826,63.64015446350023,22.21364716246352,13.600979013807013,-22.440946348234167
-28.221042298993886,176.68819431892146,85.2672632773566,-35.65289720751233,70.58615025552224,25.188781546507116,16.31960248472217,-22.105739625532077
-27.73431739965801,196.81028127687443,99.17412784714125,-36.266539684295445,80.43933226458142,28.971095896415978,19.753596744243133,-21.917599519859618
-28.430897072697334,213.46216811919365,108.08270512034142,-38.20638639320108,87.98783185477849,31.46353829195815,21.956548627901604,-21.77645636766574
-30.35620162009175,214.80250241725975,104.26818519721357,-40.80810954820021,87.49352442426525,30.581857482953104,20.897091663709045,-21.678487043082747
-33.02481174743866,192.3903089791606,83.4153049413473,-43.00852898367939,75.02413349219158,25.155114787730845,15.370273732874153,-21.748092105444503
-35.54256921076403,145.63630548565556,47.12410356739018,-43.7322108907388,50.54409544493572,15.628409074727037,5.7601982606368995,-22.18131875477814
-36.99538806198609,83.27060184134791,2.928472939360425,-42.419837335283724,18.512738211969697,4.093714739102341,-5.8489957163077,-23.119749432824943
-36.89756195751224,20.36015540802434,-38.591884230499616,-39.365499740944784,-13.631986092582506,-6.515983210623176,-16.41104026670968,-24.495572356649415
-35.41101948284267,-27.98533455325127,-68.23637156042274,-35.589195159047115,-38.488210040798165,-13.708436234640446,-23.189322079194913,-25.928448463767186
-33.18511413088348,-52.90010481548419,-81.75449596327252,-32.27444712167042,-51.625577632036766,-16.479265618935205,-24.891544546036688,-26.76879556947945
-30.928813312466907,-54.64355661546871,-80.72250925821378,-30.11847837550512,-52.906875146250954,-15.531599569836205,-22.06323845287504,-26.324418067020304
-29.018209959893095,-40.85116278751355,-70.6454329864288,-29.02511558750331,-45.708439873624634,-12.608209904474435,-16.596769112645028,-24.19775045931988
-27.40770699315566,-21.802496051380093,-57.86933325595835,-28.333921574306007,-34.83756039436375,-9.442181271883015,-10.742685094454048,-20.56927641142897
-25.867331370162194,-5.820059808400367,-47.224972645277354,-27.385889728725303,-24.518932619465577,-7.003493047322408,-6.2246647844666345,-16.250864049836068
-24.309740998516965,2.9512535192907383,-41.24965166138723,-25.990862831967508,-17.35554258749733,-5.38877646557502,-3.8390375358276723,-12.425238798444083
-22.921740255472617,4.269156393423883,-40.4919593399532,-24.481938587497364,-14.240928856336739,-4.192660501238225,-3.5200874765554473,-10.15776083293504
-22.010557596523988,0.3559715464085814,-43.995539582678525,-23.39484573556138,-14.687009356573418,-2.952510727884414,-4.632052124742311,-9.921117594073019
-21.723706124614115,-5.514769419130974,-49.6444531940764,-23.07129069680002,-17.21652118502165,-1.4011622507483927,-6.304241090490996,-11.39368009646957
-21.88478299080397,-10.130855413233421,-54.67796760020588,-23.462979190839892,-19.862381835525248,0.46655653516649487,-7.755399771944866,-13.642096453612085
-22.07029235438309,-11.28040315836212,-56.60110744483138,-24.210056892383847,-20.85632779327573,2.4071864820874755,-8.565355563428703,-15.581654602617528
-21.872954889283108,-8.362607261740031,-54.191244202163155,-24.89985787852331,-19.308925817908346,3.9924596411670956,-8.794601295291255,-16.47505821120395
-21.189352606464887,-2.366588358977638,-48.070178744262755,-25.353774254262955,-15.542961767872605,4.742317094564712,-8.887874329689152,-16.239533087912115
-20.354142294037672,4.6709071594510885,-40.579730524340384,-25.77374909045012,-10.947425667030878,4.278341258890226,-9.432612021929982,-15.430076146797981
-19.990390131781606,10.239245154641585,-35.01164700928629,-26.58973806916061,-7.479487698048792,2.4067537055576715,-10.909540295489073,-14.889379980753219
-20.570550699164833,11.779528506365006,-34.29306121457324,-27.984627339333752,-6.957496774073634,-0.8603366054550385,-13.485998847467906,-15.192330106368711
-21.891653065390877,7.38095622378214,-39.325772334827114,-29.355645020172368,-10.207820726481586,-5.224888854081488,-16.813092692529338,-16.152574230068396
-22.83864303870683,-2.950852421531007,-47.64819161126974,-29.180964833564207,-16.284622866922966,-9.926274899225477,-19.87139342729596,-16.710729780395727
-21.73552388307319,-16.12366624123181,-53.520077455662474,-25.603481280285692,-22.292899386525708,-13.661366644564124,-21.077584784133958,-15.372893065191578
-17.213922764761964,-26.23608748075788,-50.09710024399658,-17.524309041598332,-24.304104882164758,-14.875540574703122,-18.833100576210974,-11.032390619239532
-9.109137561096007,-26.950295387439855,-32.96693740382101,-5.5194970509082,-19.20189702213462,-12.447201250958658,-12.368912556775996,-3.705564938401367
1.2156230683731928,-14.908697510114983,-3.0230640773263016,8.099916605852002,-6.48560162647183,-6.398103084570783,-2.3909029210329784,5.296992557681166
11.384174580240042,8.000019835037147,33.290603418332225,20.22582256897549,11.14515239042226,1.8838668567991872,8.972253401480032,13.907962782620546
19.087038418851183,35.1939993256927,66.76613399781843,28.361938796004146,28.918527662761473,10.151778045391817,19.00396834600783,20.244868928496793
23.09476554819732,58.599409363731354,89.70000205649517,31.673517717917502,42.23399714455076,16.292893294878418,25.58133815490956,23.410400314237073
23.645113351087826,72.56242522398549,99.17086802495714,31.11049053079951,48.716357343906736,19.235572117303974,28.032216708700876,23.730144571052094
22.06935969959349,76.1163845069982,97.57605136695209,28.651856279370936,48.936785390535725,19.260479673031952,27.210920350619112,22.380721843025388
19.986315998391188,72.46163308616977,90.48743701907941,26.23563969194638,45.55711345441469,17.605231935290686,24.83625054033109,20.711942699984114
18.577432984624725,66.43797568619475,83.48224518861727,25.008475963608763,41.64279104342232,15.693350086800688,22.566098064385724,19.671072106417665
18.28116770569146,61.91190390664009,79.88284059927759,25.174220903907322,39.258125875088325,14.487056290598153,21.35215323322002,19.576096400878075
18.90760370650244,60.55922904975055,80.28735840416623,26.29046344407353,39.0049503110408,14.267814855383673,21.322730814680693,20.226290676871205
19.954672632622383,62.13535144020923,83.4373316590179,27.68880042151344,40.38339044018157,14.799251368527164,22.06211228039646,21.177153880418228
20.91313248099204,65.37062536731729,87.42698511720457,28.802840787480008,42.42954725214412,15.627850589304566,22.99000960473276,22.006317398377355
21.46574895632324,68.75924492123056,90.61936573132917,29.35215651540164,44.226236234629916,16.328828941765448,23.640115911682624,22.479532188249635
21.56370189469485,71.12037664028605,92.16604704597172,29.383776460803215,45.21248124386861,16.65176233074504,23.799331337485643,22.594060546362915
21.37872141299933,72.01070006039313,92.16253591973182,29.16718895880906,45.32588286965513,16.579936042590134,23.528985073158875,22.51201394715515
21.158623501374983,71.8225848152677,91.3885987227369,28.992637498685774,44.93219108054869,16.290691890059815,23.073346853728964,22.430642038925793
21.075394624647203,71.37317495309917,90.72118671606209,29.008734475690474,44.52797840269526,16.016097884018798,22.687012678720475,22.46953118550649
21.16914940859862,71.23883755415208,90.61731820917375,29.21648049577271,44.404707764646176,15.886977368695748,22.486368830151168,22.642274685796327
21.405845755099456,71.4412209421263,91.06627978840615,29.585396094733078,44.55119951510309,15.883413981846479,22.43434698363894,22.909736522270073
21.758197903920284,71.7604170034283,91.94869000651163,30.13382712101402,44.848425961774254,15.922454232336175,22.450167173495466,23.244090002226972
22.212236363849144,72.24400518100022,93.31093571236657,30.872482889762402,45.29786727497431,15.975215784028487,22.51379208748803,23.638341622867085
22.7060652669797,73.2664643981755,95.20667505791323,31.685739431392225,46.00629160832059,16.085397507508954,22.65512013345191,24.066678280513386
23.096760201891048,75.05514411027741,97.31955195738243,32.31018697629442,46.9588489294186,16.284854233118885,22.8596156975192,24.455228128479796
23.22139711204153,77.2396068422745,98.87986424404224,32.46988862197783,47.87036900674509,16.51743147240077,23.01522380945221,24.704925410284943
23.013504428240353,78.93091371170846,99.07637521211234,32.07204284882628,48.307800157900054,16.65627968420962,22.967012705952367,24.751055200725265
22.5831185602751,79.23755198690836,97.65016223171163,31.327549707730945,47.975886595107156,16.584834962614817,22.624437453072712,24.61709397930336
22.210141568033833,77.7686289183684,95.2308611948696,30.737955477618765,46.93057219816472,16.261673153357194,22.031841676414786,24.438092012951664
22.25867467477863,74.90516127723602,93.2564417211297,30.94898619393125,45.626333773099255,15.747703069099034,21.37871727191904,24.444974364917602
23.02510303836662,71.92402485415623,93.53679761778268,32.46252910025668,44.84410710321639,15.226860976926828,20.971295781537005,24.890170779553333
24.527613218125115,70.9010605227613,97.46781952085848,35.23264513378044,45.481365785179015,15.006448330453377,21.14768019087917,25.89723492121393
26.307269675901967,73.99903206706557,104.92971676488439,38.32445929676284,48.095407894999646,15.415781142397545,22.088999602942256,27.276951186051864
27.405331559910675,82.01195713305557,113.328989686464,39.95215974334836,52.27081384532488,16.573938783141863,23.569433815505583,28.433042733574272
26.664210230183418,92.9388320678007,117.69699328899402,38.09985364487949,56.250864093029264,18.162372560169164,24.8366909851686,28.48291225778571
23.298980671870897,101.9350644395966,112.48270826869886,31.538061866476305,57.36639104794679,19.43117737885144,24.82668550293329,26.59766314472792
17.4355538743502,103.33622933990353,94.51853127668666,20.667444848675572,53.32393216496395,19.541200685292537,22.703281259429502,22.401856259682408
10.245908011092382,93.8747243534991,65.46062558194346,7.607655731421956,43.686829914644306,18.07744730073111,18.4315709322727,16.207563942569497
3.531343996922326,75.04188960477057,31.934091663917357,-4.618328609575591,30.549226302912444,15.397263700907233,12.997033990552913,8.953957299515597
-1.0358988621251388,52.850551213021525,2.914821900756111,-13.368754216484122,17.815728950583278,12.553069854463255,8.075034502007586,1.908880272820786
-2.578761912759987,34.895997131395745,-14.326249658994731,-17.3968932564689,9.392005229521365,10.798632491774859,5.298603571661799,-3.6866877569964935
-1.2380674913660705,26.44109740378118,-17.406760255747987,-17.06486475590527,7.323293532754504,10.958119071401722,5.5228097870460156,-6.882809710302486
2.082213014846494,27.93986652827029,-9.386024179598802,-13.791399910499653,10.961532739116173,13.024847011536542,8.474011885172834,-7.185810577142132
6.1849176050244425,35.40889726325454,3.3703714384205723,-9.239118077533814,17.555554763694985,16.199916794219096,12.920018430579972,-4.7062834814175325
9.953278709464351,43.09948832131652,14.471391432311131,-4.770680242479686,23.751654386217126,19.295203164612314,17.19595566232643,-0.29827299480888686
12.511720074468796,46.573870347364824,20.027912111884117,-1.3325341199348006,27.05537611719802,21.234126103647156,19.79179915344724,4.460059171963185
13.27339064919648,44.511634224766816,19.469184494066468,0.44485928754000076,26.595130243202416,21.415492604689227,19.798170395125133,7.629202894029471
11.999578246851422,38.795550006106176,14.890639434340292,0.19067825924008885,23.122349495533857,19.86107530621339,17.14991805400985,7.602934284104265
8.857531754213642,33.30580073724309,9.638843143545502,-2.1624805550926935,18.48464145151061,17.155034530204336,12.633610141579155,3.8326673644609537
4.372745523838364,31.89184236393076,6.62551270872704,-6.328392869157212,14.73544375315611,14.16899920365254,7.585693711600775,-2.8341685829433216
-0.7448079206362322,35.939480086901106,6.749521745397742,-11.654456801937123,13.025563347785464,11.597695154658219,3.292960374871762,-10.420141515728783
-5.779115338742318,42.48282100403615,8.098088001214798,-17.10257302884007,12.711009106474908,9.491122723327807,0.34736994529262505,-16.548593628697745
-10.067686377845162,44.343466601348716,6.681575758859466,-21.248327468066808,11.348613778904161,7.109164832734803,-1.6350885974120248,-19.269172228275476
-12.974715310639407,33.11958370478194,-1.3004200442509757,-22.470730162504083,5.9063232423622924,3.311194928831596,-3.690500475283798,-17.644813579756583
-13.935134657516857,3.9054056899313028,-16.879674204065648,-19.47148972494701,-5.3504248229276525,-2.676619164729486,-6.75951873830002,-11.956942014244316
-12.658986162901867,-41.073714412658816,-37.170864793809876,-11.972239049455322,-21.491409354618703,-10.605935166680675,-11.02033794538936,-3.5418877468680074
-9.386954912272651,-92.48863716177485,-56.57466605701406,-1.1493423338043842,-39.05704397700854,-19.134975800013827,-15.748979020898453,5.659681717795717
-4.967809631088927,-137.92338927642322,-69.65046121250332,10.596807842361164,-53.69587803396988,-26.42961350207546,-19.770182825361676,13.711940151706779
-0.6145055009774674,-167.5930299546929,-73.84403969885182,20.54529484165719,-62.29731508766016,-31.06695141789957,-22.159554875761216,19.265368395785217
2.5782771702464866,-178.41776834113156,-70.41694680087978,26.77927689742695,-64.323260552451,-32.68065565323617,-22.72459678463494,21.905772110221193
4.086118677099121,-174.31436111023262,-63.204281290743886,28.9081018358374,-61.64332265454277,-31.989373156105657,-21.996975293716034,22.14175314147273
4.106870177919475,-163.0847042850714,-56.265169079013404,28.007841317111577,-57.19712360464379,-30.277941110480594,-20.83234219375794,21.055442418517003
3.337796535874161,-152.2598129583389,-52.03733822872268,25.889599405830314,-53.48441121693774,-28.72961656863377,-19.951304463406476,19.794969584853458
2.5492834590504834,-146.3456530775972,-50.928662437440835,24.18807882675683,-51.75618750781681,-28.007085102946984,-19.70197763919321,19.14999680846738
2.2309015528332385,-146.35525957550837,-52.06233492977974,23.77413894849695,-52.07211925639993,-28.207888967936803,-20.080712277776726,19.37880082117931
2.476844862464277,-150.84367164463376,-54.22516056300433,24.674549470604127,-53.78703908673009,-29.05100540590056,-20.866055679385685,20.29270293051439
3.080149888825612,-157.20897599023198,-56.37020229667712,26.338630508122623,-55.992284723174166,-30.096944597977853,-21.739638770526224,21.469957858114128
3.704730506709061,-162.6815735444751,-57.71542715012724,27.995557827414956,-57.7866123402266,-30.919678374157144,-22.386065251887278,22.459672430835997
4.048658994514726,-165.09550257685564,-57.7657101684746,28.97308201124769,-58.48872490132666,-31.241992666880453,-22.60456458768079,22.923860384542788
3.9839037833973165,-163.53941766760474,-56.36952251465165,28.963591179324833,-57.832263738406766,-31.026846255147547,-22.40122083622837,22.740874000481323
3.647988697105027,-158.68473965159197,-53.72250676417022,28.191819131446884,-56.04994285701519,-30.476399459287865,-21.98910523583458,22.081002270900683
3.4130981463561074,-152.61095400725029,-50.34337352103384,27.36773228200982,-53.8036849806104,-29.929740792486957,-21.685308806287427,21.40378327082938
3.686934905701069,-148.23873176214073,-47.15905077430733,27.36582197051926,-52.04313452073317,-29.727232044514864,-21.77830310942879,21.311707259019045
4.624275830238189,-148.51966538347708,-45.59482533822861,28.744850657208346,-51.82746580323987,-30.10911021537618,-22.43040273437336,22.263232335344515
5.925569441775784,-155.27755804498295,-47.236544969998825,31.33800209397778,-53.97716482938455,-31.136611072609302,-23.603583204160277,24.24519247618513
6.85909299875013,-167.6770153572976,-52.82240435930637,34.103061168235676,-58.46875294376864,-32.59415857171856,-24.98565589396072,26.5577840517961
6.50513588860947,-181.0368534822757,-61.08443439747402,35.30735118882548,-63.8634830879505,-33.922349910690514,-25.985768531274015,27.851308740218244
4.1129959499043,-187.3669322274777,-68.52145609193894,33.04308531759906,-67.38237194102418,-34.32738660179826,-25.924177813657288,26.484884055898515
-0.558067912337915,-178.4511883617745,-70.77165050614036,25.996259106935685,-66.00238721426332,-33.13979932856341,-24.420173930392394,21.156397092896704
-7.026005551810521,-150.45103348252934,-65.03371563795507,14.236330082999455,-58.17323754605228,-30.26190202212175,-21.753626316108097,11.592021144770255
-14.105316882834865,-107.27726560499111,-51.98698045639906,-0.3831507676945959,-45.07482645519458,-26.372725447204218,-18.88130055254395,-1.039525228000454
-20.225096023727215,-60.04858615392855,-35.77997413993014,-14.600312869253404,-30.40865108832685,-22.657383943085602,-16.979205251591836,-14.28522422262852
-23.997917534896594,-22.15378745752386,-21.88140910269158,-24.939002733849996,-18.60085925449479,-20.155274743030798,-16.736590829048193,-25.19061125197815
-24.83734902372493,-2.3752617845744735,-14.05853324537793,-29.256897586420433,-12.391513463564424,-19.120706255406454,-17.856559036195176,-31.42004222896923
-23.32484142408128,-0.13519910366657314,-12.402317151553637,-27.85378220988663,-11.298923167094244,-18.81830736446831,-19.123680527375658,-32.20185053880551
-21.069120620395626,-5.917974724695513,-13.634317447314256,-23.450607169240886,-11.964329400209794,-17.90498250906,-19.036139888818347,-28.626866873983147
-20.012595087289284,-6.80053314628576,-13.37510663761982,-19.903816293033124,-10.190935987236076,-15.176293257090201,-16.629658061076018,-23.133507719130098
-21.458370508815904,6.151882009751498,-8.807727040448249,-20.25416701981309,-3.4230223807553832,-10.244244049123896,-12.008635072479372,-18.424754897975912
-25.332681633969944,32.924539755784856,-0.13217385066048815,-25.169728065313546,7.790679806363703,-3.7968611584803194,-6.313363077162744,-16.35222341433518
-30.144898954258792,64.66312981260245,9.783840942307426,-32.672082269918555,20.079619784046294,2.6342976137775866,-1.2078808866310027,-17.296704591900703
-33.723290381848734,88.43634282988073,17.036119811485126,-39.28738299526017,28.962587166676865,7.2294338198585955,1.7962199853271668,-20.275007312370946
-34.32670254005559,93.80252225549803,18.584882844955604,-41.92377130719025,30.98449505613337,8.510550544405431,1.8735172672189253,-23.60390942035322
-31.503228177122146,77.73600594327816,13.550894773900223,-39.40240271908418,25.218086940055287,5.8396831681988575,-0.8828510353414821,-25.709833218049138
-26.244960353406015,45.65518032794178,3.431870904894217,-32.86820506390317,13.49772812573751,-0.35703727014890896,-5.55460113506768,-25.710020273687096
-20.419505631089088,8.415691320490772,-8.768351953725555,-25.007785057945355,-0.602254148657412,-8.710395909011703,-10.757541490058523,-23.61033093202048
-15.834501013641704,-22.870183494102516,-19.989902736865673,-18.621132900437775,-13.424329023496979,-17.326986302169562,-15.123741651017045,-20.166569240227073
-13.41402591023786,-41.375538961893454,-28.278949557434355,-15.318833683004573,-22.599232465369347,-24.321695992818753,-17.694777641550782,-16.533975984077546
-12.853805964412796,-46.25080611547786,-32.98443864320743,-14.94798736048041,-27.445342813563943,-28.240719589811647,-18.058357282838156,-13.829165462445205
-12.887492389801219,-41.1347883858877,-34.09943552652559,-15.948125688245526,-28.411818737626383,-28.280616296910676,-16.25098272022133,-12.73367289213599
-12.02067901037187,-31.118821131391893,-31.599537652518116,-16.37366943369818,-26.25936008007814,-24.393584890883844,-12.634414057214196,-13.281223390227515
-9.354667734354223,-20.39833205565606,-25.54097671955628,-14.986634473634298,-21.73272596089675,-17.399622882932828,-7.923098273096642,-14.928203003847889
-5.061075031857593,-11.678047991020275,-16.77980611354138,-11.823512411019324,-15.847321221674065,-9.044089744233803,-3.2868689697595124,-16.878466855449293
-0.2656400785312196,-6.664269324571221,-7.408511285998449,-8.002382848117165,-10.21444405765359,-1.7531570173976938,-0.2416523885028931,-18.483797708039955
3.550523255009669,-6.347868729696939,-0.21733536515567842,-5.006673290258866,-6.779366456674465,2.0815218597631944,-0.13975531300465643,-19.487572474855913
5.269124313147956,-10.631237272345022,2.5670349873841403,-3.917769429380282,-6.96893230021317,1.1023527995374507,-3.439112284939412,-19.984381754193656
4.611705328241545,-17.966178295333833,0.3501906886382642,-4.9612054295335986,-10.866643442733473,-4.250248972053281,-9.225337891282692,-20.16725424658826
2.2115590003705634,-25.76254890079326,-5.644504666617611,-7.470949114982258,-17.046582362495432,-11.718743760504365,-15.38517119130438,-20.076915824896883
-0.6741187472040229,-31.489164703434408,-13.044997148511833,-10.192897056390299,-23.181971961753263,-18.07818248477975,-19.433055067222845,-19.545818346936482
-2.6499146517490964,-33.73646191072809,-19.363957929089096,-11.77691709137163,-27.049169703315762,-20.493435738465607,-19.592486392993585,-18.36335896913015
-2.6653626408282056,-32.68227770648829,-22.919768807539263,-11.26064157929156,-27.424927570611413,-17.749588180337,-15.594065519196466,-16.50608395536947
-0.3099036284223137,-29.909760847691818,-23.322502005193055,-8.333455502168821,-24.512411503265856,-10.773837440069963,-8.796316648757216,-14.221895771785656
4.174203269366296,-27.67339973405736,-21.292248782606475,-3.2859823281796716,-19.704589504286556,-2.1745897012112705,-1.5448132814454134,-11.883225042066636
10.092011136494886,-27.632030975407755,-17.818088833850823,3.218499891523319,-14.717483301875854,5.0319940128009675,3.954309228591278,-9.733130672947285
16.51673853161286,-29.394010282943462,-13.184380871966544,10.28459254375504,-10.496671939147546,8.900643017115973,6.68334531939779,-7.753456601846312
22.38530841076223,-29.879339729635902,-6.739946676560607,16.72477909638899,-6.615447362228039,9.440293228764444,7.1932136126915225,-5.778346882949014
26.518559725890526,-24.52420169654962,2.147620899476555,21.002069710852467,-1.7124943923729756,8.3771134788012,7.07393630965486,-3.751282577194688
27.764026679364925,-10.138073701187245,12.601132166100463,21.505842868359036,5.226487267125509,7.949996271054702,7.847961482379629,-1.891134572155121
25.37636944030607,12.365533425026863,21.594933585473008,17.233671925565673,13.689094803532607,9.52200527555049,10.008595539563311,-0.6134196190031918
19.48427722842139,37.49829695706738,25.069103232875392,8.51563667655643,21.531197944726237,12.88225283684254,12.810218716244028,-0.26253433405572124
11.298489557289235,57.66126891059635,20.277229240840857,-2.775147798082793,26.119185319264393,16.591940601011007,14.875598039319772,-0.8594004791351489
2.8049140289995615,67.09083764096978,7.740176792388254,-13.815300870550553,25.933336275901144,19.016517182700117,15.138957558477937,-2.0467006969835504
-3.983872916016476,64.76578387925692,-8.648787409297801,-21.981928403546554,21.51297121827658,19.30609859259508,13.48233630521812,-3.2635825507384104
-7.831136661428752,54.51320205162528,-23.528865454379417,-25.92438113272179,15.129321750461152,17.743897873915206,10.709928956706488,-4.027292773590478
-8.687214457653969,42.47618424651563,-32.759081465111315,-25.960017092431887,9.477504043000094,15.381533453672445,7.984268912667324,-4.142480805469602
-7.506474537304172,33.774781308812436,-35.191865053508636,-23.632914842980817,6.306773197957314,13.335990612373466,6.17006746412283,-3.7256868127122527
-5.6343306849206645,30.4485578618642,-32.5829793485253,-20.788812730802718,5.830290170397278,12.242767425779943,5.498989952978566,-3.0661656520803153
-4.159430965742524,31.55072619828817,-28.03079555693812,-18.747807333787442,7.092373408630909,12.126687113587222,5.661794288480563,-2.4427031356197793
-3.569731432610492,34.672959478880585,-24.207175970760012,-17.96901218319005,8.801741369773422,12.610881860420257,6.132074146296144,-2.0107977204394083
-3.788318914227346,37.52279837764151,-22.42588288983481,-18.204986808861616,9.994618392546084,13.216009521393936,6.4568693943207185,-1.7907066319852145
-4.428574025723151,38.73682077420868,-22.690544275900493,-18.87734589163273,10.261450888306348,13.573008153799638,6.393473199166344,-1.713258841492558
-5.062065604236836,38.00885576500945,-24.20950929961023,-19.41875441519938,9.676954402341508,13.52150891936377,5.925391868048685,-1.6736960309168494
-5.394959908051216,35.91208335244361,-25.91823136838723,-19.485131411245234,8.640708922808319,13.12362901926871,5.215209655221947,-1.5777935360316342
-5.345709518335585,33.52765356370092,-26.919250834490768,-19.038726569559515,7.672235597611538,12.596437374020146,4.504847453078496,-1.3803790566922813
-5.033361556002733,31.853536376206907,-26.85067043947217,-18.301010382909414,7.149267888186367,12.171308909976496,3.978496435993258,-1.10231396013866
-4.6800601607737,31.238010802889814,-26.015599188030436,-17.58632236377693,7.106602372684543,11.954576028100654,3.6631944650341826,-0.8077906877057692
-4.469872965078005,31.280888881029142,-25.0993647552908,-17.10471180900197,7.271448220373118,11.892074594134384,3.44649321131778,-0.553220474049161
-4.453190649447621,31.308666599402105,-24.639632277693714,-16.868550058044576,7.326936579997402,11.857722545371416,3.1938827236009337,-0.3498572046995618
-4.559530518104971,30.962237307017848,-24.694793954003913,-16.7563462062913,7.160625678734968,11.770509298818926,2.8532417034174924,-0.1705158693394155
-4.686174007204003,30.346634798008232,-24.965800148355584,-16.644837692033466,6.876577753005388,11.631668285758433,2.4588369592016868,0.014969795947204718
-4.769221962394045,29.71855066730425,-25.15361731868656,-16.47766591046688,6.618274801212145,11.477145015089455,2.063872554883715,0.2162189934249651
-4.786948567161442,29.17541871601865,-25.150174822498812,-16.24050683891176,6.434297569117489,11.32838350590263,1.6941836363455545,0.42772323317128663
-4.733146236760853,28.675409224679843,-24.961593272190154,-15.924107216719342,6.3045659836651025,11.194664898275672,1.3577898426185862,0.642430739479517
-4.618718685857991,28.21163135832075,-24.613646424308754,-15.541322158177149,6.214078466299322,11.09106907631938,1.0591907893315249,0.8507957856220218
-4.496391848457762,27.799884076469894,-24.22457684643083,-15.160415751833094,6.132608319161272,11.018587121065709,0.7750315425183604,1.0340424805922874
-4.452249090930184,27.30725484314587,-24.083775787172073,-14.877870414033744,5.950150962240071,10.927438947262273,0.4304126357267763,1.1758128252015771
-4.543791073577813,26.474610973504248,-24.478006048567295,-14.735153375482014,5.53145355743929,10.735699268853637,-0.05668651846597421,1.2901095644408593
-4.73934412715567,25.25670183196948,-25.337527220430346,-14.670136905124773,4.901496663325794,10.416724655066648,-0.6769394520324991,1.430985209379378
-4.9249681224523325,24.104290502663098,-26.096605387358792,-14.562608357226194,4.352220637168031,10.069350016547371,-1.2805954913135984,1.6592959769198237
-4.975921808173299,23.749242013946137,-26.01628094317812,-14.324604983426926,4.285634096602052,9.87900816462812,-1.6540472817328535,1.9879293246232839
-4.829685593078885,24.578588550483545,-24.746390413283326,-13.945143763693125,4.88224626944681,9.984189967911552,-1.6762375699432397,2.3543421683700583
-4.5166659388182095,26.16761694571169,-22.667803930851907,-13.473123286246242,5.881959300322669,10.356921281784949,-1.4326194889147716,2.6458817617588957
-4.160346630819813,27.401786501086686,-20.791560501611222,-12.998770490075808,6.660642053713389,10.785057708122114,-1.2097237466580169,2.7595655534890065
-3.9634761691110674,27.066591856758492,-20.342550463786594,-12.66211963471731,6.532461597477512,10.953812478206787,-1.384882483306597,2.6622302635373694
-4.150310478712324,24.495654256964833,-22.21381590967686,-12.628474868004359,5.10244329421282,10.579858569966321,-2.256577358752336,2.431459584527273
-4.828797556584992,20.0474633669006,-26.351381975860185,-12.970604419059404,2.5703464691841016,9.57321703561488,-3.843876140137117,2.2643215013311684
-5.8206480348443055,15.362808569838363,-31.223074887133972,-13.515793279843791,-0.08430731680612263,8.198129204419493,-5.7135791159262554,2.426509561967322
-6.599664555196433,13.174903025132531,-33.846653945092314,-13.810252424321035,-1.2256101038867344,7.128931660581645,-6.9771818757045505,3.1184544573513615
-6.453455353803647,16.270858938806757,-30.869057770358584,-13.28769687928327,0.7884877975174662,7.253043051439314,-6.6024661749408375,4.292938621434648
-4.8294595951420485,25.653803932829607,-20.51872346524509,-11.554380775400638,6.5319673324026395,9.19236718187615,-4.0000935669153,5.535596247350605
-1.6732508842633436,38.90363829080178,-4.320375598715493,-8.600513421683981,14.625412101807687,12.760390587568436,0.42499072037780694,6.129900268048513
2.4506829073638454,50.19903276135262,12.80472510139178,-4.812793827019262,21.82438026743225,16.72915666499785,5.171905319044501,5.330363571983248
6.539225188558026,52.6607743962423,24.56480359570473,-0.8110006052057651,24.366744653170148,19.165174466862503,8.191772563682948,2.7218246051157826
9.544146368930647,42.007909426887686,26.499259983864565,2.774916914249104,19.970332998779497,18.25099277166021,7.866306730599402,-1.5367389290735873
10.78049604562085,19.310374380410817,18.446480082068057,5.4783753038921175,9.275594921129734,13.179728120970493,3.874811629354374,-6.729157836695484
10.156312640123996,-9.06086713913841,4.6880116867745665,7.0768693663295315,-4.252446149355846,4.628247939646453,-2.571701691011936,-11.846511172889794
8.140600805761066,-34.44486014549145,-8.362810963681085,7.598911356890565,-15.996154603777546,-5.457211223955161,-9.276117592182974,-15.939434687649367
5.5243765152731585,-50.06664314213393,-15.476677502115958,7.287468746410444,-22.43514495351533,-14.637264105961092,-14.05235776020837,-18.375775023664552
3.0977471590332044,-53.87222974414128,-14.953070533893973,6.507651940531672,-22.64344511281799,-20.89776260573188,-15.611666607743775,-18.930977324466973
1.3522825203264304,-48.621719248195525,-8.90377006523079,5.5732932977128256,-18.319678112744498,-23.28604018578085,-13.932277363582735,-17.766937188011166
0.30202269758428646,-39.81764268882934,-1.8098481484599263,4.56464933247752,-12.657590582049952,-22.078787007724365,-10.073700061337668,-15.374482848355372
-0.4696914541141576,-33.173220219599244,1.5837331753299806,3.3310828263286085,-8.915959499674528,-18.536555292803932,-5.649071124562983,-12.468815275133059
-1.4790094199987953,-32.8022863676509,-1.7552046819516551,1.8059163248133157,-9.299105212161919,-14.375509105405671,-2.1759774088817934,-9.771955134621612
-2.8518043209511634,-40.10796117456801,-11.622629770468194,0.4604686258659296,-14.23141588747294,-11.076774025951488,-0.4509832356900367,-7.697765852460623
-4.002273672005792,-53.01003033583487,-23.920313700795468,0.46665154238597717,-21.99218789219728,-9.22879923564299,-0.12825031753133972,-6.109899687733059
-3.790292939776244,-65.9091180929701,-31.581371398317128,3.2546738591044586,-28.976565275859468,-8.228596231172833,0.2353299877893524,-4.369561771945156
-1.1586118187101182,-71.30439010862325,-27.38241530950992,9.628881703284438,-30.92055651244575,-6.615328616559464,2.5205027423008337,-1.7261015717863666
4.1316012636635975,-63.12279533291924,-7.644537910820064,19.035209009656917,-24.863447933438174,-2.9559821008905165,8.001716665977227,2.163309273554981
11.175584004496164,-40.17494090983579,25.278831515757023,29.55402147135225,-10.850642294238149,3.21813466885906,16.509065356692066,6.9347162785803675
18.263711266338753,-7.4435660919549695,63.501761020969596,38.71069616434577,7.764318245808224,11.026439588035384,26.358475271530022,11.656962809344263
23.68953755187864,25.947571538017588,97.09196878655146,44.62981679400457,25.779864433348955,18.659150251250537,35.14400190514329,15.322409898433005
26.527142059581063,51.06261852723615,118.60804951804347,46.83251102260012,38.58717226549816,24.320864200264403,40.91957345324508,17.36410687986056
26.92660065859891,63.234193445609876,126.09725620940803,46.2359933245927,44.17654682991177,27.097367568644422,43.05898660581603,17.880248937846694
25.821278486759095,63.56788125172893,123.02046590782457,44.448909820568396,43.61588313229864,27.249143259690264,42.329335983431925,17.46915665176149
24.31601944727222,57.28772757757245,115.53952996016832,42.87406095668577,39.91996095212967,25.85121980893331,40.24255864029068,16.834638759394025
23.16691799172146,50.332365206621034,109.09397740741352,42.15459510585769,36.199573474177065,24.113878322264327,38.17921214905915,16.431390769210854
22.609398269838938,46.4421804235582,106.25278110140849,42.17496367055424,34.24798130674769,22.84623481559351,36.82726949114416,16.338218102992407
22.511407243042367,46.19638865570326,106.62998963938553,42.45357502724733,34.200929618043794,22.31654280390528,36.16831121494756,16.373115014137785
22.65013871451105,47.92411312269744,108.28224360368732,42.60586935327278,35.11831521256513,22.434988616954858,35.85606735916045,16.33256968195158
22.9169313474292,49.4222172026186,109.42637268317827,42.62867217602169,35.89919366038106,23.009232675735657,35.648474993026426,16.20335048474625
23.359456481612458,49.449903084214114,109.58285943256108,42.897597623679246,36.01171465190348,23.882246144997666,35.62504317872382,16.22857011090154
24.064073626672528,48.47296838334287,109.76234302287327,43.876849290483726,35.78377662717747,24.920197141973013,36.09850702219407,16.773296994059336
24.94776695560568,48.43551105240107,111.66297225826709,45.65348039510335,36.16974687998604,25.916429065204156,37.27924988656179,18.027447563960898
25.59503885689251,51.50723786118205,116.17578641097397,47.55341979287249,38.039128817014564,26.49566730823608,38.86400330115717,19.69761535206551
25.302749251923746,58.234386048176056,121.96931243879799,48.15711403658665,41.29288883621396,26.105017452373925,39.812346394584395,20.907761999931203
23.40035432916015,66.2043060492779,125.20394737806072,45.855794398619565,44.38449032371787,24.16713515214678,38.56398096649234,20.461708821931314
19.700550038216733,70.43449852621413,120.96711575951495,39.71791124473139,44.74460306881699,20.380391643006206,33.73269438154785,17.41069197746882
14.767114599638823,65.71246460764628,105.8675896301494,30.147085882391302,40.04915870053605,14.993128420010324,24.956943355099803,11.639648782315572
9.747583790134795,49.62644753415487,80.23201560241084,18.879965706702993,29.606683218837336,8.807465523161417,13.364689779987975,4.110538537889243
5.81497952024235,24.28996568567507,48.41871993618349,8.289367390093668,14.948860906038682,2.818757713697651,1.26644348455381,-3.434508854601124
3.57617838154356,-4.494917511764978,16.971971684385203,0.4207426505700433,-0.795932566205505,-2.3089916962459163,-8.824378651270118,-9.187437187165987
2.8625814657926885,-30.134415515679652,-8.202079505391943,-3.6637492464602825,-14.336112893532567,-6.551114030943269,-15.277639261119312,-12.02057916196851
3.0385123970700922,-48.22403581740985,-23.868983124401307,-3.950022056327324,-23.511769225268537,-10.352174486391222,-17.88841886415704,-11.867068218580103
3.550388321487419,-57.6217496532044,-29.686848750109185,-1.1429183408266326,-27.683684344700215,-14.068948714643767,-17.60212193311593,-9.58550465724731
4.24491232143788,-59.196576971844074,-27.067787493947947,3.6211364539963204,-27.213882996555224,-17.442176319184654,-15.715524876600064,-6.473349386631034
5.198249919633494,-53.7735423077347,-18.073942204459378,8.80588900827936,-22.750811396551143,-19.547579614228848,-13.169823929495882,-3.7419277889559637
6.25036081658272,-41.362161160992336,-5.310731805101938,12.474891999238944,-15.056255686398789,-19.35106737021197,-10.38736297016549,-2.182960422287318
6.722817816490836,-22.357592314041092,7.5641491048489415,12.648022533702836,-5.422530943184219,-16.518416766314047,-7.606350773921584,-2.0714393282886596
5.648435655094166,0.6458819393773845,15.960592660122286,8.083975107549657,3.9835026444237123,-11.88231966010967,-5.271356367317069,-3.2285722865161413
2.391327154953563,22.500825525643414,15.816655168879004,-0.9437891942994874,10.524226010254809,-7.179736811802179,-4.064735636099486,-5.161881653877476
-2.811420694799297,37.411832410997924,5.710283176189466,-12.485214696891239,12.21786230775997,-4.19194375128274,-4.54193702801575,-7.242616616636286
-8.812320719481066,41.90462571922548,-11.945859396963824,-23.624681738076855,8.838715676333182,-3.838654845337302,-6.6977837955703,-8.899192143092913
-14.074501395868722,36.725209076749486,-31.718631851584192,-31.730842181967176,2.153856141497764,-5.787566219742552,-9.843990796682904,-9.787107328849938
-17.415171910833948,26.321142039401508,-47.66939100566789,-35.5415584322369,-4.946813766508656,-8.77189367718073,-12.920674987435925,-9.875902132131804
-18.50943913617512,16.303149206256634,-56.07675159081021,-35.495185246641874,-9.896489861770714,-11.352860752087011,-15.03218253775159,-9.408987114972096
-17.88978436357489,10.623595585592302,-56.768932219178424,-33.212050911429934,-11.572468838118667,-12.62945861983352,-15.846714264488591,-8.750697029986306
-16.524681603352175,10.197238415429792,-52.461095197837544,-30.538464313745212,-10.473711121094665,-12.510518021852732,-15.627003474018363,-8.203251091972195
-15.29783537722008,13.454708477095249,-46.81352024648915,-28.742977232097058,-8.02871845378011,-11.50615755851584,-14.943823151352024,-7.89620223596557
-14.687662661473636,17.94830775271586,-42.58444525700211,-28.224743720003303,-5.651546635692367,-10.29612244537165,-14.324287569395544,-7.794843312210782
-14.736037200290442,21.728702133616476,-40.8383908154091,-28.696775715967735,-4.153973619971708,-9.382859007845752,-14.054825371888139,-7.7866300390645735
-15.20163702168224,23.87632094410661,-41.208964374298304,-29.567726707542604,-3.676828502485613,-8.964423646866155,-14.173711837098761,-7.765191161766042
-15.751892064823474,24.406899485164953,-42.60561325368812,-30.278457735582755,-3.9114511288292757,-8.974489743170592,-14.554328172598932,-7.6672011116734335
-16.116473697527432,23.972537028135513,-43.85594143813624,-30.50436394382806,-4.357368825153106,-9.189342529566463,-14.996275444699714,-7.475104075540374
-16.18167433846587,23.477694449821936,-44.162168424159354,-30.22256253873915,-4.551184834544297,-9.35531449627241,-15.316318250033643,-7.213355766034121
-16.006654427787694,23.59367086469834,-43.37645841354219,-29.646993072982067,-4.2731888875450545,-9.314478260190155,-15.437814708747602,-6.938511724571375
-15.750021362290488,24.393031856639436,-41.978273180606124,-29.05901682444071,-3.6399433813634428,-9.072461204486524,-15.426142561452785,-6.708657807363937
-15.55037482332849,25.45037548382058,-40.67670282623847,-28.634793458462752,-2.9674960134920716,-8.752327397744033,-15.421138275453899,-6.542350416475491
-15.451239614351168,26.38258040093394,-39.8770277836504,-28.391718289350553,-2.477290038260113,-8.465626500627451,-15.509968620243075,-6.403932784499678
-15.423125656442489,27.29763354916131,-39.450347149242724,-28.272876725445386,-2.1084423586569567,-8.218609013891264,-15.656839124058035,-6.234820858199573
-15.437947855562347,28.660404687247066,-38.98629106947797,-28.253583141419536,-1.6196723801279858,-7.940221482351127,-15.754316193293487,-6.003183012591834
-15.50404335057932,30.705704513019185,-38.23246669784623,-28.345786531637213,-0.8666055287351642,-7.589749014695862,-15.735183675365361,-5.725748707279114
-15.629231686531586,33.01967951034073,-37.28437314565263,-28.509344955209354,0.030458057713505383,-7.2234787052279925,-15.632200114833834,-5.448832602366627
-15.769794398707841,34.70629154291125,-36.42901434935871,-28.59467420240289,0.7662518084938248,-6.9586640103270145,-15.548631770161421,-5.217204599556772
-15.834801893863364,34.95560434530274,-35.91002741095043,-28.40447969365176,1.0569198349119093,-6.88575535946182,-15.596478005246686,-5.057822197285173
-15.743627007825513,33.56069133294087,-35.83511211306549,-27.829843471045795,0.7963248923750404,-7.008536099921486,-15.85469300177585,-4.97158929052956
-15.478854877089624,31.174536748729107,-36.14341262945845,-26.95037977354544,0.13650450823117952,-7.227065344658692,-16.32950604639852,-4.915785376738913
-15.101040115731573,29.33749031526488,-36.48487975144989,-26.042900302814417,-0.454417583096667,-7.33685299756392,-16.890411898846423,-4.791686896114825
-14.742876156902454,30.155308721343996,-36.143662372061364,-25.51200489841238,-0.22964057504682106,-7.06273959602849,-17.237430212717513,-4.477750758472388
-14.594620581012586,35.33903431366746,-34.310944112726595,-25.74711457237132,1.5282821342090758,-6.188169952250107,-17.002529273218393,-3.9181378619061937
-14.844538996425198,44.727023197767686,-30.705538711310233,-26.886616828273358,4.9442606499299675,-4.767103225484213,-15.99087388497118,-3.211395224716913
-15.544595693249692,55.230110981119225,-26.03773370063595,-28.547687902218335,9.113052478962887,-3.263353820052377,-14.400435222261844,-2.6193970560962914
-16.46625873919258,61.413543559305005,-21.756262192534265,-29.724371970869164,12.271620708694142,-2.4307435204090075,-12.81230449025789,-2.467719832358454
-17.091853595817714,58.008801494760036,-19.09518787035236,-29.071397943068476,12.677293925091309,-2.919015518121504,-11.898090907026765,-2.988087817161626
-16.829069454014487,43.098597192820336,-18.10736194579128,-25.559368632255847,9.697224176803719,-4.833861906412106,-12.014967128488719,-4.189179892731562
-15.35601430277813,19.87005087866758,-17.474429329992066,-19.1563399989221,4.3526479245252245,-7.566646066182663,-12.957381019370024,-5.816010975083507
-12.861294557671682,-4.478213678565741,-15.320422020930158,-11.062359941488438,-1.1222151563749865,-10.047319104432514,-14.034920721039475,-7.408008162705096
-9.98107576636227,-22.249599440948753,-10.493686752092,-3.2558354139403094,-4.475447640030965,-11.282510031182294,-14.430443482779571,-8.428547972397928
-7.442355749895197,-29.067950707956378,-3.3981299362425545,2.4370475262406726,-4.617422324307684,-10.838449568051576,-13.609918716905225,-8.423851280515331
-5.645836112546918,-25.627009925220534,4.239418194196562,5.1942678101984585,-2.0246454443499706,-8.970466401621524,-11.534793962060343,-7.174129566816224
-4.484618554427076,-16.469970301324725,10.455836673007598,5.447949110821519,1.8051548611311246,-6.366959014979555,-8.593762627550118,-4.809958479740141
-3.526824545078287,-6.9952403190357915,14.107310046569403,4.421279783099811,5.315662469106779,-3.7547787087855267,-5.381496095603742,-1.8546393311492186
-2.408667876148467,-0.8730536306961504,15.134536408494583,3.3321700907701333,7.5440407097690985,-1.655939643593451,-2.502391408564432,0.8753936171318015
-1.1272765114818457,0.7890694417126213,14.093996449036513,2.8201651838588733,8.187343654264833,-0.3628744014268192,-0.43911262712053617,2.5584715357275742
-0.03207534430521051,-1.1729448570152252,11.639114735360828,2.8869342143261076,7.379927942669756,0.030766303854190796,0.5938550594327187,2.7701814219272034
0.4228670844741354,-4.978025436255731,8.424057797026911,3.2079697640933675,5.56343741974553,-0.3185897527645674,0.8127103872098466,1.7810079258277862
-0.05604976549094531,-8.680800868215588,5.229376662004358,3.472271557872275,3.46172883823936,-0.9535135283984485,0.8748642561686651,0.5113798021410091
-1.4729630989105094,-10.820258592007454,2.8706008421795537,3.543567548803372,1.921693080411279,-1.2478468090371848,1.5821704336311346,0.08402184870369914
-3.5408165949391415,-10.962751965023399,1.8849754910433727,3.4648960136941813,1.5760397401440422,-0.7310985151357947,3.3800465092122955,1.179736755188724
-5.741460309059255,-9.741290850393268,2.39997587050711,3.394162785325543,2.5960129013760818,0.6193175811136682,5.994256262082046,3.5636985343518877
-7.447857317341935,-8.162864632777062,4.348039089290981,3.4906053475531986,4.745481475182399,2.3389112663789224,8.485404237582507,6.087315858790672
-8.13772413654968,-6.7301631091585765,7.6514941746102485,3.765557319496368,7.585926749622439,3.6856720511666627,9.691497217489358,7.219559382193551
-7.630756970676332,-5.255255115427082,11.989275539562463,4.005673988069477,10.53619420121437,3.930480647619512,8.782302718775206,5.862551864311235
-6.179574651674858,-3.517940565896832,16.383999478779273,3.896859334383319,12.786970631349906,2.6135756895691897,5.653400473874167,2.019183426177605
-4.309531131791574,-1.936847519774553,19.28375214561363,3.306967300980203,13.391905794475107,-0.23843856771873384,1.030333709758136,-3.084955543579114
-2.509716437383548,-1.4069126472768583,19.391025668372194,2.4825221884600532,11.715310112064234,-3.979423713338541,-3.7497159328855676,-7.553524061810531
-1.011088606320591,-2.443814542534417,16.643625062530354,1.937569465347548,7.943610459985339,-7.452338752753122,-7.250285718318106,-9.784639300219549
0.1981007766322669,-4.539505653124909,12.486674935437264,2.077919861172079,3.1711155072564425,-9.434682487629178,-8.572000987706645,-9.308228858972313
1.1769549585699686,-6.300742423934384,9.191401610801117,2.841407267917409,-1.0733942337643079,-9.235238316143628,-7.774705016238332,-6.995618819770333
1.835134803340607,-6.087912345333739,8.73455456025928,3.613438484549577,-3.5043432503051326,-7.0486490125339465,-5.784804410811519,-4.517357655806519
1.8750837434261913,-2.6380661825472957,11.876506738729413,3.468533850926634,-3.542329534067567,-3.81552578953942,-3.818363396433151,-3.3879012438530536
0.9148523276900752,4.336216840649552,17.693317127393144,1.6267798624949437,-1.4817164491163013,-0.7213087618253307,-2.7153760322346367,-4.1569910024935215
-1.2374540360268689,13.334815102459402,23.604022269781943,-2.0232038716164036,1.4928156930746606,1.2910044829691911,-2.6206172704451522,-6.156900927213903
-4.25526990928718,20.430264084055484,26.07139971901544,-6.517204883879884,3.4595086125049628,1.7409414357500634,-3.12107218793764,-7.854121730373304
-7.10639140387638,19.875104996004268,22.104351812327113,-9.790705539305822,2.315239608651495,0.6068091052332459,-3.595099217957584,-7.557516011156217
-8.23443282490599,6.54409343049325,11.078418897895668,-9.270550754547015,-3.2320933702396295,-1.7287683589838814,-3.4745961271712567,-4.143149501110539
-6.171194992474502,-20.81804471145744,-4.273663398883756,-3.0036021352866875,-12.722365517161876,-4.532627920645749,-2.3409766627524555,2.479185065523361
-0.3231381035450494,-57.77696025705374,-18.68095761812111,9.206640285444905,-23.789548293392194,-6.871089339805687,0.02825696124325829,11.31121360256701
8.542267410867524,-95.46853315803702,-26.799697930261754,25.368091692054183,-33.11786014741744,-7.917834864693105,3.5665793797263023,20.63409115526439
18.4701218631323,-124.52921158626484,-25.937472334026072,41.950145294511394,-38.045531729291305,-7.310993968698609,7.831595921281097,28.650037749404106
27.111479318989037,-139.40647800725586,-17.375464884382883,55.33152618821205,-37.85855916865237,-5.344187177084265,12.052959044533205,34.1238153282935
32.70628591750835,-140.49323254033825,-5.513736298668358,63.260058227611474,-33.99759365761853,-2.843219546771417,15.37160233056135,36.74450456981928
34.72544318917427,-133.00119644335527,4.567620952484408,65.55607353796553,-29.103904046541164,-0.769448937749337,17.18120179826274,37.06869597907041
33.87997324918445,-123.58960230521367,9.625449259017156,63.792181302264474,-25.552938973445915,0.23232973071180452,17.385749349121074,36.12248803925495
31.596674296883197,-117.01579958143131,9.450198579628308,60.29881730982227,-24.37543277025178,0.08746941769087922,16.421662633275332,34.907922602620985
29.334707311242713,-114.6709282771628,6.324353554059474,57.15634177562549,-25.098957178386488,-0.7673168575146548,15.044622272088594,34.078288338895504
28.107948267578884,-115.29673887006582,3.404396522643474,55.66298295746213,-26.384438849537954,-1.6624929244111728,14.026092398219584,33.901774395011486
28.335716150632088,-116.79237080980279,3.0842914303676574,56.30874981019527,-26.91529281236958,-2.0034943771551585,13.912012221855933,34.42296584804119
29.898205134045526,-117.76495084348552,6.018107162119019,58.94133669455625,-26.061173384846764,-1.4867060441135302,14.880601379167556,35.61208769253918
32.22322264429355,-118.1340184695128,10.921614789202586,62.83606769643729,-24.142010256900466,-0.21701150967401794,16.65292210614768,37.35053163578469
34.367268518966966,-118.78847745289778,15.075614317876934,66.67069130562984,-22.293543124568256,1.2666265885825045,18.464785594747003,39.27748355801974
35.187639359421304,-120.5711933631495,15.497439902457014,68.63209480724453,-21.93932297257628,2.1214720665838795,19.213202683195608,40.66342737257792
33.677038162726376,-123.0132644569046,10.553561871089217,66.83746029412083,-23.957665136194066,1.5497998586539965,17.862707005940745,40.47598532904956
29.378173077971265,-123.5370606690189,1.2912253577520878,60.00889372734915,-27.904717833690626,-0.7233485868544178,13.995342250853435,37.681231745154555
22.67174402628486,-117.9625718114492,-8.474571439574847,48.11763373089694,-31.849074943720204,-4.113576135393337,8.189426605087498,31.677672167153922
14.754682214045744,-102.55694949083264,-13.746083129447232,32.665252608157274,-33.14401981473579,-7.260310449874196,1.9321428585379732,22.67601706357341
7.282499235166889,-76.6995443627199,-10.913728031747816,16.41038211967488,-29.843131302150415,-8.584055801036179,-2.9608441965426002,11.845609743480285
1.8308022834536974,-44.39649722112914,0.22062437487211692,2.5972828370632537,-21.91010399432148,-7.05904966482514,-5.119431124593391,1.1291418218293006
-0.5863322306315226,-13.212904620713333,16.32835832517842,-6.042970604086182,-11.367027928334434,-2.7640985276396077,-4.151150038726812,-7.264721384012022
0.22533610770635035,9.29164557758399,32.48801082937559,-8.185064108378787,-1.1691830640049505,3.128830733224116,-0.6604046526973374,-11.578853555050705
3.6185025936325066,19.71650175459859,44.8473327851688,-4.43172113287955,6.499576883878302,8.93038532688827,4.166236837339785,-11.219740882947194
8.248652655348828,20.832152993818426,52.13517234888079,2.7190432279960617,11.322502677422815,13.21336980444866,9.067304722310459,-7.154677581502157
12.360207076852815,19.81147870613647,55.079006473140744,9.575705640400875,14.549232974493941,15.323987176270274,12.999471964418163,-1.70304932956447
14.246244455655354,23.610836273254353,54.530909196002895,12.540145896934245,17.592127051679952,15.38841739319395,15.184515126901942,2.3288368438454987
12.830602199727831,34.58985137790069,50.130402723016445,9.540175491158362,20.688048676487565,13.956275400251188,15.110135916606643,2.831207010256636
8.14077572302673,49.338706956373315,40.69715747511197,0.9152397588435929,22.68478737184636,11.621897850207258,12.651345461431637,-0.7059604140273106
1.372614290653591,61.302751722192625,25.89250697137115,-10.770448267631442,22.035187695985606,8.860621109817261,8.249797568585844,-7.061051900150228
-5.574213490159022,65.13188151401286,7.572728656011245,-21.940896722969125,18.128596448866297,6.0673720828348,2.929449203325631,-13.975268045905759
-10.893739032528366,59.78106631379895,-10.415374944736206,-29.61009196427661,11.926590018340647,3.627575534592259,-1.9932613070881577,-19.261001092096976
-13.593382238369953,48.63295362080191,-23.9365416007245,-32.53969694974811,5.498535775557605,1.8839635178149852,-5.409312768488683,-21.721256978489002
-13.771725403738817,37.071761328240015,-30.578587015686026,-31.428632166676778,0.8739883824955925,1.0101326843543454,-6.851045643473484,-21.45486372824393
-12.360339826289957,29.424162518263568,-30.644538208487003,-28.190916976999695,-0.9659673360950427,0.9155048966263191,-6.605336853715177,-19.51244132599066
-10.542274950612718,27.168349334184402,-26.60713568098223,-24.853455914126886,-0.3562035630439038,1.2895381484202364,-5.455464694361474,-17.21044584166589
-9.203507274188867,29.090252785200416,-21.57380027804741,-22.702138016067344,1.535014029396277,1.769059960866725,-4.235988275744015,-15.516482707491091
-8.679350305984364,32.704808379060616,-17.833153094605457,-22.01990683047117,3.466849527982767,2.105275307414182,-3.4761360936907004,-14.774889468952848
-8.826209368646257,35.74378379351592,-16.23786680536243,-22.347813952051798,4.658200500021865,2.2211255598120943,-3.2969955172961773,-14.790352354670892
-9.266386271921352,36.96197270695936,-16.436909882485217,-22.95659927256564,4.910619195466553,2.159650617997981,-3.528408262647725,-15.106978951341306
-9.628442195178181,36.24042924268208,-17.48406633640972,-23.243335664006274,4.458896692632083,2.0061486938098816,-3.896269688857238,-15.292078407293817
-9.692619928327009,34.29093328860091,-18.397147297229736,-22.934077329974553,3.746408764674218,1.845956731098165,-4.1637996134246595,-15.110774311066669
-9.434220084345196,32.17310945729211,-18.531282756265444,-22.10030630296072,3.2091452559050153,1.748587767776894,-4.203855126805599,-14.5654324530408
-8.984081737647676,30.745139944680155,-17.765761565480926,-21.03653002565036,3.0906585380834506,1.7460061859990943,-4.0214251031318495,-13.825767256655086
-8.530224158771075,30.26468903743408,-16.461221086745113,-20.064439392232245,3.3530946741438004,1.8124410342717272,-3.7281619413247618,-13.102333579640106
-8.207308915370566,30.386393479813826,-15.171539447669765,-19.361410174043645,3.755143224834208,1.8806332197466358,-3.4666340306840406,-12.53148589089432
-8.037668125495138,30.545098430886245,-14.27489805539077,-18.90760026701176,4.051407837850242,1.8951284859668394,-3.321556918035069,-12.129409576514119
-7.955643732416614,30.38391560754307,-13.795326844925562,-18.565102375577172,4.149965656932576,1.8530951017665362,-3.28259383712203,-11.825896665708063
-7.880346472666794,29.879930446749285,-13.52353672566554,-18.20272336333646,4.107832980033359,1.7911665031873458,-3.2835245656363936,-11.534507465873
-7.76860312897808,29.166610244435198,-13.262327187305235,-17.762757933115704,4.014351589599702,1.7385299890073007,-3.2702539020073527,-11.20190061918889
-7.6154625735108645,28.342153862958263,-12.942908985423733,-17.246156204454536,3.9101143118506503,1.6928473283285255,-3.230278837883619,-10.814487210191068
-7.428897305976506,27.46397914457589,-12.561121181353217,-16.67338305221339,3.8069366178805377,1.6404917545202076,-3.171051316271727,-10.382764104076042
-7.2192164637989436,26.630736467492593,-12.095577379710528,-16.073206100922196,3.7348791264011445,1.5847961741217165,-3.092967407277555,-9.929683396259739
-7.006294008972552,25.95576064607596,-11.535433566118575,-15.488324366283244,3.7274410266666425,1.5416795335936269,-2.9941846890574078,-9.485208638162819
-6.817449752719379,25.43902563051469,-10.94907784019152,-14.959776030268479,3.7669633017021065,1.5122380679067617,-2.8901905021255714,-9.074840939500652
-6.666143018122868,24.930527608916265,-10.455136839806032,-14.49290955880602,3.7818671657741145,1.4748490357403878,-2.809265139473652,-8.703402297679347
-6.536756749865943,24.272907026927154,-10.103912607091273,-14.04900994283893,3.7173684578562227,1.4106537571310636,-2.762960371412771,-8.351801157707644
-6.399724012261436,23.46291031420946,-9.821583149160661,-13.582957903024873,3.5938966763799405,1.3281137583884983,-2.7311019265442535,-7.995183809466768
-6.242905465411439,22.63177741769931,-9.499856909092708,-13.088015942989838,3.4765279477606215,1.2524384891672693,-2.684764140791806,-7.625474558690747
-6.082192082046206,21.875541211966574,-9.122076597266142,-12.596261785750837,3.3945257405392284,1.1935318375032753,-2.6197471193188746,-7.254510425318981
-5.939461346955877,21.15555753242669,-8.766998332249115,-12.137110701198523,3.3144319299908687,1.1352126130530584,-2.558011677233801,-6.896657476573386
-5.816473758718559,20.38411472952967,-8.493039539099138,-11.706246330360019,3.196101036771095,1.05912066211626,-2.516572640775063,-6.553210677966529
-5.695864188515349,19.559820695306545,-8.259842334985382,-11.278734470132553,3.0509312958828723,0.9698906836616892,-2.4855085833161956,-6.21542723456596
-5.563604564037705,18.763216043699796,-7.985721646656463,-10.8413645705889,2.924019749845886,0.8878056771737699,-2.4426475902111244,-5.877811546976578
-5.421773200725409,18.02857326483421,-7.655147058004691,-10.40004766037756,2.8292163383275875,0.8204031888311264,-2.382910333861499,-5.542499460060328
-5.278690522569214,17.28195677443234,-7.331808986726537,-9.960121052905945,2.7288614658693917,0.7525616666615027,-2.322914435431223,-5.211767662350412
-5.136848002458797,16.439609781570706,-7.071283031914062,-9.517638629589216,2.584835670166903,0.6678690375945384,-2.277742391655741,-4.8839096226887015
-4.9996558235550115,15.533212505178154,-6.863547675619841,-9.080439389601427,2.408250522070548,0.5708055174776855,-2.2445680355777227,-4.561597372395399
-4.8858279965417175,14.686382544376663,-6.681956651431852,-8.687048379391886,2.2393000569444963,0.4792056511843821,-2.215131526271564,-4.260423134368934
-4.822554042991869,13.966849430266299,-6.55377759802327,-8.383472631820363,2.0880081829199666,0.3985211541186183,-2.1955198207993867,-4.000109959000359
-4.813742036892336,13.305275412042665,-6.530356276539704,-8.169495148786092,1.9213181490761924,0.3146013638906299,-2.1998293855788678,-3.7817419456692387
-4.816532787757031,12.580049388991124,-6.579417166168257,-7.971845953803222,1.7163623660672833,0.2154171524505421,-2.2218526859221552,-3.575101830777666
-4.758660997751593,11.74895655285017,-6.549642456896494,-7.681273163737267,1.505405990292494,0.11131440076449314,-2.2242335257728882,-3.3334003161339307
-4.589168740770495,10.861975774946071,-6.2872162897695265,-7.227814502632431,1.3458028955674997,0.024606921726213055,-2.1675670525061355,-3.0258371609909096
-4.322574014526353,9.96767011231043,-5.799319074669346,-6.637053625749068,1.248366589078095,-0.03912855391421646,-2.0528831618949748,-2.662999318147444
-4.045679994934526,9.070879461187442,-5.295859957529424,-6.0363337330199425,1.154224446088332,-0.10069896405322126,-1.9327751307682182,-2.300059065280116
