FZ,C3,CZ,C4,PZ,PO7,OZ,PO8
1.3888558121673484,-41.22279940196001,-28.593853323681955,2.7771051307929686,-19.27405959753594,-4.101443958926785,-3.336127688497909,1.1825739266321698
-1.6520711999961963,-124.434702719034,-83.91873201066049,8.726599886224825,-61.46137662384609,-26.578287963457278,-21.147620074785937,-1.4100893061119004
-4.0760654852625136,-187.86688668170228,-126.27679847082733,13.299569821735474,-93.67511751743628,-43.89896835046322,-34.58673637479691,-3.130274781149417
-5.52215429356676,-220.4995989406367,-148.23973851289966,15.708617092215471,-110.18340508852798,-53.01443957653629,-41.16241742692056,-3.504837466222133
-5.993038088004701,-223.7851345839062,-150.34653155932637,16.02179341505551,-111.38442469289852,-54.02641184501351,-41.12556520139799,-2.6528316762189292
-5.793141406459711,-208.77135197575424,-139.47073868911795,14.968102030348017,-102.57453348247398,-49.745740701883825,-36.9623237296864,-1.1938741789498146
-5.370847764835926,-189.37253610384084,-124.74088659955092,13.452610514908354,-90.7877836818296,-44.16576249556704,-31.98008284454276,0.06479956054086018
-5.139930964545386,-176.1563487717253,-113.58642741998923,12.12209948734497,-81.69656259256347,-40.7017652914449,-28.82870280270009,0.5002416679561358
-5.314392444965586,-173.42315601652177,-109.5718356941536,11.229269548872564,-77.93517932075181,-40.95730684423895,-28.611069435109552,-0.07115502033816404
-5.80145800481662,-179.6190986711716,-112.20023529051929,10.765990597013348,-79.0394262190287,-44.38622096353877,-30.78932321883744,-1.3686687526138215
-6.232632546653968,-189.63242490376007,-118.1026474903371,10.64003067164618,-82.48983348768874,-48.84158781171849,-33.74548940515449,-2.84769683987674
-6.1685016917318585,-197.6574509178116,-123.01079161660894,10.729460390205299,-85.26404300150234,-51.73314203486044,-35.69211317432067,-3.996611286080465
-5.379874476480882,-199.79409168554128,-123.88579774621779,10.85411986688075,-85.35494972843583,-51.30207882059015,-35.54810226995181,-4.550696618266126
-4.018792794384555,-195.55201971690548,-120.31480987226129,10.799130123113125,-82.65180399365485,-47.4274063455611,-33.38917653291185,-4.519444379459517
-2.563254498555849,-187.52527430780685,-114.3963409281847,10.421170446189395,-78.72819635456021,-41.571042666687894,-30.266022478081467,-4.073431123825349
-1.589981044325452,-179.42532949030198,-109.2079428971232,9.73052467172061,-75.68326024344785,-35.94522299484819,-27.544688244207816,-3.4283316405275026
-1.5297138554746323,-173.84567756990612,-106.95155211123121,8.85924601965567,-74.84102337089892,-32.430229259046534,-26.206844172425377,-2.8119280694879207
-2.5128955808150146,-171.26004652325466,-107.9843074794979,7.963628068138878,-76.15444191212616,-31.832691291820602,-26.500156412257994,-2.470079684967165
-4.316213718375363,-170.55201691932567,-111.05476286347616,7.173874693718525,-78.50651803082664,-33.74631380499985,-28.011682069011368,-2.6115623301343454
-6.397183777162073,-170.1196348116793,-114.1553786535064,6.613487139880577,-80.43104866121318,-36.89189273510658,-29.967885801057456,-3.2768191830420066
-8.042749827044107,-168.58058655102903,-115.33662683247113,6.399494394378051,-80.72105814164449,-39.670092344786596,-31.553788397504196,-4.242130488724448
-8.642961778614497,-165.03274049561205,-113.34908980662694,6.559926165858696,-78.80239774173297,-40.73314159272404,-32.182048303055225,-5.084936327367192
-7.992379628649894,-159.3413644395107,-108.20277862710988,6.933099569636484,-74.98163484458537,-39.450592594472994,-31.69792301857659,-5.409648209682172
-6.433792971400232,-152.45525083817975,-101.40731992928092,7.170594769768816,-70.49026670262279,-36.12497526660118,-30.44032555114317,-5.092547452678883
-4.721740529494436,-146.19278283165116,-95.45641996373175,6.874547893450268,-67.07639339187959,-31.837822121525438,-29.067041216283158,-4.382283131321844
-3.669283839439623,-142.28335702993058,-92.6013644839114,5.775502790832787,-66.16768703703818,-27.97785618343994,-28.19839356012385,-3.792265672058223
-3.7817453255272655,-141.3450338850411,-93.6795363176919,3.8451383992123747,-68.10359598278279,-25.6960273876121,-28.09822642370478,-3.8432883997805787
-5.057710165008678,-142.694644058086,-97.81832755890967,1.3248379426069163,-71.99094410200959,-25.54065380788213,-28.587955483224256,-4.780200329207636
-7.006849565820875,-145.04163006240353,-103.07736258099172,-1.2980169356849567,-76.22806958559859,-27.35147803956225,-29.191837840721025,-6.393660351047218
-8.834071499690722,-147.24918924221123,-107.37133408909216,-3.373781748954651,-79.22580464986004,-30.34939641467607,-29.36300367808277,-8.048508862707704
-9.71802097725176,-148.5209013009188,-109.08456546428148,-4.273365132443339,-79.8784961392092,-33.37802758609454,-28.677023822265813,-8.943961709099826
-9.106220205666558,-148.25289029753512,-107.36961363426128,-3.636447359055173,-77.75543860521847,-35.30283850088056,-26.985049903576048,-8.503657898151724
-6.921313070517945,-146.1458803825627,-102.37398604484058,-1.5442372747459494,-73.20108336324505,-35.480515974656825,-24.516512410803305,-6.686412186484115
-3.5820226653984855,-142.57633077613468,-95.32685291235343,1.5090428921583392,-67.3372131590923,-34.054463632731334,-21.845225943138665,-4.030584748847658
0.16053854863730482,-138.61599391743772,-88.16598847054242,4.815489249893882,-61.75991466259617,-31.859179445998585,-19.662784878265516,-1.4114197159934598
3.457748991265821,-135.4048856061762,-82.71167022249374,7.666652313545313,-57.91576559785586,-29.981437937101887,-18.470759608603114,0.3292876334416594
5.552322635263205,-133.43075864015265,-79.92690332133662,9.473419347461377,-56.51956551139806,-29.270920371833263,-18.40759667354911,0.6794348680194732
5.911395278194722,-132.46263072471032,-79.7895217986509,9.836075494659994,-57.4125205354895,-30.059510915167216,-19.30512833230446,-0.4189652897374042
4.366263719429028,-132.10856169006578,-81.68678921978659,8.653319235691935,-59.85574036117037,-32.112534413440855,-20.84805672424498,-2.595982755728734
1.2491056006843795,-132.2357580459258,-84.79044809677117,6.236358571914826,-62.89948770051732,-34.700262891992125,-22.658409079191706,-5.182869385663544
-2.6089924840678647,-132.7715449227742,-88.12992376610529,3.2753455684267014,-65.5806042790875,-36.76839976388496,-24.301013515297893,-7.4265425496474995
-6.140306783097191,-133.28981515604914,-90.63612872370163,0.5767550109393603,-67.05725001671998,-37.28989975449016,-25.358134225520566,-8.755493219378241
-8.486245953902946,-133.0663215665184,-91.4795365781927,-1.2981431559563574,-66.85891102574848,-35.759376707146394,-25.628744825313785,-8.990598226314708
-9.358849223753332,-131.60863302050387,-90.5147519413563,-2.249293383315606,-65.12834903893044,-32.541116231877375,-25.28330503501971,-8.372938919997397
-9.082822539417604,-129.0045185857229,-88.33202421310462,-2.5796042882105192,-62.54467575937498,-28.743632664180097,-24.761827614519984,-7.383420146802374
-8.321361221289466,-125.70308955488218,-85.80360712714482,-2.7486986449191053,-59.88972499272783,-25.6125879660919,-24.439808789769565,-6.476982886506779
-7.700338316166634,-122.13129115240689,-83.60461862246862,-3.11874313068259,-57.63461104114133,-23.833298696571305,-24.340341634833315,-5.900177345889554
-7.5504389529385945,-118.71002753865181,-82.16135230338914,-3.7994205761858946,-55.90784240488278,-23.21293974501159,-24.139619680254192,-5.665963694672113
-7.840922785541775,-116.12862804703518,-81.84422554721107,-4.601773674415475,-54.73729320958699,-22.901499609484453,-23.430500375071265,-5.634012380969855
-8.261025574725252,-115.19519681721697,-82.85401677638944,-5.099305912616318,-54.13716593852383,-21.930575813694645,-21.99477934499175,-5.609175164177473
-8.391937227448562,-116.06982350281409,-84.70906802743161,-4.8140792176509395,-53.875124889224686,-19.727608226865026,-19.901253944155634,-5.423230585016892
-7.927212686753403,-117.64455793645529,-85.96443299073336,-3.491975142629797,-53.272300840786045,-16.399482240790242,-17.461639781962802,-5.009477370596031
-6.866813004300299,-117.95892025551905,-84.79204638404718,-1.3285929578310032,-51.470358877116965,-12.741705301000815,-15.166803208534107,-4.460497790256373
-5.575939410853856,-115.54853199549943,-80.21776064770332,1.0124654788190863,-48.10221100696448,-9.990251513215306,-13.63090403418382,-4.024104433827226
-4.653824568242909,-110.67007447724609,-73.09455776766904,2.627135631471524,-43.82301866566706,-9.378336995570908,-13.480690477625014,-4.011942714066797
-4.679869102410008,-105.5105565827752,-66.0847743803262,2.730175078388222,-40.25418027724205,-11.666744587215943,-15.180730723586734,-4.6588003819774135
-5.971056975562997,-103.40226857805621,-62.697087722546954,0.9865275490410834,-39.38521223709201,-16.87361719746746,-18.876753928553416,-6.003395985196691
-8.43265214918391,-107.52853747770372,-65.86639489094077,-2.285770460638182,-42.75728554201857,-24.295766405563008,-24.303704961764367,-7.831832079477014
-11.501668321031277,-119.3123802915198,-76.43597732051393,-6.093544909789065,-50.629848492098624,-32.678783034177876,-30.696077248851747,-9.68497935427175
-14.185613131238384,-136.58059181277363,-91.83324813316506,-8.987907167105142,-61.23801269834423,-40.33360920335408,-36.6664923124884,-10.93401469013704
-15.262348563351848,-152.3614364724669,-105.63661625096755,-9.553400007083923,-70.51295463497078,-45.2199581907589,-40.22079192652069,-10.947278615567466
-13.689054035974296,-155.92790978413086,-109.01136946300674,-7.037777109226201,-72.89522566380565,-45.26218335183373,-39.19217865079139,-9.338346525343354
-9.109548043652232,-136.9319841719524,-94.24166838974084,-1.8076857509057935,-63.47680172954958,-39.07339605706649,-32.14567649259626,-6.197244776912196
-2.180912362175417,-91.1317360319912,-58.946762260269686,4.689038923283616,-40.668792997099224,-26.831731250114796,-19.34067946296295,-2.1527837978929276
5.544941995012845,-24.23162641027337,-8.428835095355861,10.51726290372245,-7.783342245605878,-10.69329925229032,-3.0784151050356447,1.8236829088354585
12.209260847240559,49.18153275045187,45.75228356659524,14.115346419148715,27.761938200931983,5.744521752751909,12.97846437466075,4.807648826686567
16.423837156593734,111.66686823531684,90.62799533198248,14.950682487435433,57.49592795150249,18.82046137214835,25.27870357921191,6.304195300030043
17.813367279698195,150.6621775869933,117.48111272017783,13.61918019391922,75.5789970924558,26.31024619966222,31.855999428681027,6.413520509272749
17.030008990128078,163.47105628987325,125.12295129561532,11.379677165950222,81.03445506574138,28.197360123609325,32.97371188086604,5.695808831927964
15.275942937949486,156.87989052549418,119.14677765631265,9.447943025268412,77.37898106800655,26.316610590621075,30.635133608213945,4.835369835141369
13.664806827051288,142.2750024116878,108.08589876662853,8.477441877287948,70.17208225608086,23.19034986978151,27.364762638524468,4.316949173743647
12.798808705825198,129.72563886969058,99.11895819909101,8.46472118770104,64.18323100067126,20.822708898167704,25.04601703423957,4.287861900555085
12.721038998349702,124.40665595315294,95.67568526367072,9.001134180083392,61.75706093412578,20.08823758340589,24.402770117560166,4.6266888708362695
13.129233668357452,126.42898222744472,97.52730146065245,9.608062103110285,62.819708134938,20.828577398327152,25.17037138716791,5.106255083737412
13.6330948173637,132.82651207747563,102.33767957000188,9.951456752428395,65.87976233985044,22.330987120924153,26.597725968146765,5.52655690280357
13.92722218919241,139.85374013379166,107.34602739774382,9.906769300263631,69.13527842482846,23.80893918763734,27.914217451189884,5.774730632571291
13.875632207599503,144.62680457362725,110.53363452621414,9.540935096649376,71.2424024270352,24.71793183472899,28.621683841381667,5.8368348206849205
13.531062692183951,146.01296029457066,111.22245724160443,9.04944055896507,71.71528443798478,24.90580841549784,28.621792669215488,5.784154823410437
13.079553748323598,144.76431320386666,110.09579521486023,8.647521406531174,70.96176291975992,24.599627941152004,28.17969689435387,5.729632961080914
12.716004320636191,142.7818354946248,108.5871517439462,8.449665782317096,69.90905797743879,24.21779069229163,27.718738217456426,5.760483948556053
12.524805422432062,141.8055222666793,107.91170977143169,8.419982476281302,69.37375666586628,24.09286958899187,27.54550495934063,5.889285538869876
12.457633652864898,142.4112993443485,108.39785283230655,8.436251296292175,69.60021128774638,24.29456891638104,27.696298612653205,6.06474152381273
12.415021724640692,144.04240255416164,109.58800603160732,8.403660705680943,70.29999807882268,24.67635417113265,28.008716969376245,6.228850507538158
12.338513243517673,145.84779349252835,110.86915853808075,8.308705244450847,71.06314768826398,25.06276819911205,28.31333276505884,6.361352320781726
12.22636201550442,147.38791009223297,111.94590545126555,8.1807976989068,71.68735052015069,25.377663873696807,28.546413361437846,6.473425714532402
12.087093399792797,148.62537638695588,112.79584077965214,8.033740225674352,72.16106973748221,25.621001498658384,28.71254577611832,6.574449319445852
11.911592591990724,149.5445387401152,113.40225218611297,7.862690713867931,72.47915695779884,25.789679368539375,28.807374549256004,6.660253736158201
11.69815479623851,150.06216567239397,113.71872200394455,7.681782864640426,72.60544888284353,25.871526045709953,28.8212881868937,6.732026445813353
11.480255689420549,150.2953481359459,113.86100617902468,7.531319654849811,72.60195457050132,25.902139298035486,28.796843940342633,6.80971580673775
11.302973990994689,150.6556987102591,114.13925996024675,7.434443759287972,72.66747047474338,25.970450402343438,28.824553884389168,6.914102059996611
11.17208032893092,151.48394838502654,114.77424769949891,7.363295861177454,72.95860968784908,26.1347581902919,28.953980033951282,7.040000823495865
11.045754496263969,152.649452024791,115.63556402008999,7.267734073964929,73.4041085448061,26.352054704085795,29.132019898933887,7.159466250447491
10.885037574017119,153.6771724205144,116.37438920651344,7.134015320044055,73.77516920302607,26.52314081089531,29.26002847701854,7.254264641657989
10.698851129803732,154.29578299272026,116.82013491516553,6.996637472185656,73.9484989648711,26.606647185942133,29.306639628897457,7.336101867707253
10.524890129084499,154.72988358228753,117.15247287347312,6.8876482209364385,74.03683086909965,26.660286239437365,29.335638163459326,7.428340519430429
10.373513604938923,155.38062394426146,117.6464453032,6.791866971353821,74.22887329836385,26.760448916821666,29.417546588391428,7.534263461845634
10.211267865483453,156.3305708921686,118.33906028454051,6.668261122403245,74.55670571464846,26.90851866002581,29.54386291648551,7.6343767669327915
10.006272217448354,157.30547093404158,119.0403290767291,6.507942515110733,74.88755359472198,27.042522773385933,29.651941368312595,7.715115069752913
9.773790559578737,158.07929166816504,119.6237382577004,6.350270120995713,75.12031995303074,27.125866156723777,29.7148849136278,7.788720810327921
9.560983577580053,158.72196268744753,120.16180656900465,6.236215659815969,75.29647155539087,27.18458456223571,29.76700805403055,7.87707178525334
9.392509583012847,159.36362529669725,120.72642218007941,6.162116144575512,75.47949634920631,27.246668672348417,29.834458142367676,7.982241279279792
9.249012219270172,159.87916205430705,121.1823752904562,6.092486697747302,75.60511471982593,27.28264045111943,29.88071552154479,8.084440351544268
9.101025873102992,160.036712296872,121.33744514260746,6.006786479768678,75.55830236879959,27.24803463245173,29.858693849523362,8.169474134478618
8.943196975895056,159.9796615813981,121.30243313195226,5.910648644625266,75.40472630101321,27.179243103818674,29.806132815171754,8.24678872008308
8.777958562566136,160.35231514317414,121.55927252743454,5.7991617760921645,75.44616976678024,27.201587962286872,29.844367700523577,8.332789848836324
8.577804489120428,161.7473440038878,122.5493137469791,5.636342271877239,75.95633610554337,27.408876945266286,30.055897442868133,8.423561574733036
8.295989247856197,164.0116736896689,124.19160035336697,5.398730801212887,76.85949596376446,27.74143216808544,30.375587332939745,8.497326215787549
7.93303138627721,166.1807546170709,125.84850370934217,5.137921622360107,77.71044632651413,28.003875525004876,30.62282341743552,8.546290447931423
7.580609701523039,167.12230020404036,126.75076594480463,4.97347506977295,77.9989347159248,28.006480358807817,30.638593089138947,8.595194280519717
7.3735073970366285,166.26042109084233,126.44859010518097,4.999774156371084,77.47530289220538,27.689886309285782,30.38690819720353,8.678709374439928
7.380239431820836,163.87082147857743,125.00062463856133,5.191163119356857,76.2690284280262,27.14917506258803,29.957344076627525,8.803078019622525
7.531319840679848,161.05280569166607,123.02568866246536,5.394516962559823,74.8683621474228,26.604002020499273,29.53375327175569,8.937846186239444
7.642124672779547,159.62241825309275,121.7508570652861,5.408789896838187,74.08248001762794,26.37024986218257,29.382779606592305,9.044671191386941
7.499271468903412,161.67365027439308,122.78109098038678,5.084700654938257,74.85803412006304,26.77704550487174,29.792777418908322,9.10566408052316
6.955278568568781,168.35587353747525,127.20834375376894,4.402427410948117,77.72586238179862,27.94518475206761,30.873023258263103,9.12260626050618
6.0179708653946,178.1915351788527,134.30024542187942,3.5316593647285193,82.02501570615311,29.507832116418182,32.29437687470373,9.103475140395151
4.9305428887591685,186.2874228642224,140.7725557070978,2.8535872918603737,85.53579804622343,30.5355459301213,33.22258941868488,9.065930035758457
4.175782599242154,185.6908097997591,141.5766352343448,2.863622441526895,85.09921856435372,29.863368085524037,32.617220461494895,9.047567179021133
4.303215518054412,170.6212193720212,132.07788084558942,3.9060446468519716,78.08975546835367,26.70416597427672,29.769265212436252,9.079343374324472
5.582640790744786,139.6914643919564,110.39981124415934,5.851731263550438,63.873142483398425,21.16114719962115,24.722903023649714,9.111310257418976
7.680641181916285,97.03602818631514,78.54642337937229,7.9695465769217755,44.31484597352269,14.287757722076602,18.296985785910895,8.95187908480272
9.641936981758597,50.63835834229336,41.73498399406423,9.180370800789317,23.043194107670093,7.6466160799450416,11.710924102955024,8.306072604306731
10.30200055552589,8.922290473157455,6.429866441346474,8.621021838527758,3.9547471257520894,2.6314168766975308,6.069488796834904,6.9328158816049585
8.946842365876995,-22.404977978787297,-21.839381381422907,6.1863704329566716,-10.176501890764744,-0.07359835427836653,2.003415080845366,4.838028214708908
5.808424062660765,-41.67856567161121,-39.90648603575495,2.6793645333063973,-18.33300111274126,-0.6468959549664403,-0.3903074285332416,2.365966809813824
2.032352469653604,-50.55341340196614,-47.32032517661328,-0.5713664297693005,-21.065521776946145,0.09568873668208441,-1.3893786375109463,0.0918112827557395
-0.9219861943056881,-52.31762542087872,-45.9638737310952,-2.418204457158681,-19.930817658987934,1.0846199258830385,-1.4766838635237298,-1.4618115041686544
-2.0977959905516372,-50.52766225246328,-39.40937078381195,-2.493502626906631,-17.0165508985247,1.3152789216269742,-1.282048237128664,-2.1303695897135695
-1.5539531824853754,-48.330533185897224,-32.07072827177713,-1.3395087915889021,-14.582052722689374,0.05839277439352131,-1.5424980524964949,-2.2343937084966
-0.25611229491954773,-47.96919673382247,-27.96161621237189,-0.027554564967775346,-14.534871047643726,-2.947524181054666,-2.9048582703973183,-2.4221488367438555
0.548143861081078,-50.1581131361571,-29.260495940560194,0.4548477330440248,-17.70411647821211,-7.313683832650234,-5.574929177003967,-3.3042031051346696
0.04826307483517068,-53.80994561432417,-35.4565433384541,-0.3142642858257952,-23.355935590910942,-11.989091070988966,-9.065010361381423,-5.088702577370437
-1.7275265084615143,-56.71442471968975,-43.74179900810948,-2.044854918902599,-29.447464609057608,-15.565909870069515,-12.297751663617763,-7.417527023024375
-3.980291231646997,-56.90175225639899,-50.45937599264175,-3.9162243972626536,-33.577371134051404,-16.81353260247438,-14.056532510265015,-9.483927931286937
-5.5680692625553085,-53.669223652705455,-52.7021636959061,-4.970323399320723,-34.04814741199826,-15.154961778295695,-13.516351766816948,-10.377975980295332
-5.5633973753413715,-47.62056077497754,-49.29582189056583,-4.573870170470756,-30.481252411628642,-10.857675675154116,-10.588014700737943,-9.516249530131448
-3.7038539028482704,-40.0918743716166,-41.05594733642493,-2.7715000169930835,-23.877280632439362,-4.928229181383276,-5.984911143594743,-6.96977001211415
-0.5393650772708013,-32.71516468463251,-30.532518141139622,-0.3351530456927063,-16.298470828176097,1.1800478049222964,-1.0380500402256265,-3.5176636076116172
2.8128016433113796,-27.24230866002631,-21.257765352267562,1.5738972764440495,-10.258054555870517,5.9776517831061575,2.715601496335358,-0.35750256681714837
5.198283716201628,-25.145572371273417,-16.43747159983229,1.976796613916505,-7.819349954688543,8.425439219223827,4.106905230212266,1.41417670199201
5.949873201098955,-26.853011374662596,-17.496907922618853,0.5517472576030391,-9.668705656219029,8.346893107745538,2.850979177208166,1.2848614071238844
5.109362848966112,-31.277380966084156,-23.385241888581046,-2.258475855529638,-14.73860860776961,6.512537611243938,-0.30849171349233184,-0.4863429179689265
3.260193746177863,-36.32717716569658,-31.238691202124954,-5.521562583244195,-20.76829490867922,4.259687380636844,-3.9738677551195125,-3.054795256162051
1.1390592857394009,-40.1269028576263,-37.97926976531572,-8.265000875923022,-25.499045013106596,2.8204243684345855,-6.7824427313455775,-5.4104906110065185
-0.7140700262580479,-41.89029612342057,-41.71062807599257,-9.858551522830282,-27.68725205520705,2.746938048929621,-7.993156602578844,-6.795733494678788
-2.114262935643628,-41.80493603651432,-42.11685250209158,-10.199144094775718,-27.339756622109746,3.7338239175388277,-7.679630211976556,-6.94345480348077
-3.199908819111142,-40.386556336471365,-40.022796560033385,-9.675697120005166,-25.27625745844955,4.855112404095138,-6.541887087395489,-6.085368555470282
-4.279931238454971,-38.170773776035794,-36.773884896682354,-8.94307231748532,-22.55004511454442,5.03583205330389,-5.529033673571702,-4.775424155306373
-5.6261616176355425,-35.91148532661777,-33.78632651803361,-8.587031860790013,-20.080593111134164,3.559269207759694,-5.437521367404731,-3.6227671248611553
-7.290695619268773,-34.68595108347657,-32.16667763122762,-8.837234368287454,-18.475759410548285,0.4394477122032338,-6.5843137805827645,-3.0502358447849827
-9.0512716879487,-35.485853147457185,-32.34533860087334,-9.492697334088655,-17.942858580667853,-3.5188477326650505,-8.66959604505263,-3.1784352264977658
-10.531899224712802,-38.63404878093867,-33.965159478150426,-10.090763517994793,-18.335236981204762,-7.074591802180676,-10.930522423834862,-3.8600649962266695
-11.408292222743535,-43.57225649044246,-36.17031434083082,-10.171429234095896,-19.349942831950848,-9.166817148602235,-12.521243536733133,-4.793358933316334
-11.530516170368635,-48.98475734842998,-37.98170317681548,-9.452056113846727,-20.656195580809847,-9.389429299957143,-12.861019510100034,-5.616729996950053
-10.895227410897137,-52.847546951717284,-38.351968715588065,-7.876666110856936,-21.732986878494422,-7.992727148556998,-11.731750584509367,-5.962679770530484
-9.584493937540293,-52.51652338442067,-36.075639919103246,-5.655370837284784,-21.62544066716651,-5.496991681935667,-9.192819032139187,-5.540437614681293
-7.831649417260122,-45.62321875720256,-30.244078134068754,-3.3647220745594844,-19.193017754667654,-2.364230333152215,-5.585544610752596,-4.299953361250083
-6.193719154605912,-32.05937269610113,-21.48073333859181,-1.9850035735171045,-14.086365735544916,0.931104394432886,-1.7370172097285017,-2.5989295300552784
-5.59697792804555,-15.823624069293851,-13.036378606593487,-2.663783048806591,-7.811136448236855,3.5798228851088116,0.9012055729897563,-1.1945093891888154
-7.04418517944455,-4.689222627121067,-10.308955688210538,-6.179801989285965,-3.7622464093276964,4.3578566803520316,0.5720225260291251,-0.955312940762841
-11.05859531037578,-6.863870483111709,-18.34483992520956,-12.392814231404842,-5.722620898336388,2.095921828617983,-3.960676685251007,-2.407124245810049
-17.229411514400972,-26.274978322376175,-38.64694913049894,-20.089886592798816,-15.590526338981217,-3.5394250966303984,-12.546551153179339,-5.395409066387619
-24.229280604137315,-59.61081220052692,-67.52182243616451,-27.421964012028752,-31.88675609500177,-11.561679471576749,-23.398097384484036,-9.106320141446881
-30.367247178171855,-97.3554536828712,-97.34866783044161,-32.721983944290514,-50.17605660982162,-19.931686750803895,-33.75293796666694,-12.455143986040106
-34.363308847335745,-128.40736624554035,-120.18006221352715,-35.22402234805348,-65.23690262303775,-26.488124979956503,-41.12239065222952,-14.606284119788306
-35.87689216364889,-145.45684126030957,-131.48502087586206,-35.27046647783838,-73.62307724904299,-29.96457836704807,-44.38629585447476,-15.313975143987161
-35.50162924307625,-147.86365363744181,-131.78580971312277,-33.94514858230976,-75.04225216457019,-30.457675509533814,-44.098669908187034,-14.913572020171394
-34.305147372005926,-140.61482796862643,-125.44510681104362,-32.433933383925044,-71.86611292492582,-29.11673735749063,-41.9100144752594,-14.032330737985092
-33.260752325685715,-130.64261231859476,-117.7790021145923,-31.52129505175926,-67.38586673666266,-27.367553694924062,-39.579963680654124,-13.24348215866057
-32.90076207595514,-123.23905605764989,-112.52356202582064,-31.439492819060835,-64.11722585721729,-26.227255120830957,-38.22130046864075,-12.85982294179825
-33.2852141028198,-120.52072217952072,-110.9301335215708,-32.00505253303567,-63.07596189165491,-26.05769758592494,-38.10488140354844,-12.914819810776883
-34.162271767150074,-121.92332877486666,-112.30856513024796,-32.84736856026541,-64.006864425755,-26.70289611860045,-38.9010129504322,-13.256768158667665
-35.160400434830855,-125.48226467125329,-115.05204674707147,-33.59811537916982,-65.9802032845654,-27.749532207221172,-40.036220540754606,-13.666284345811325
-35.94436982506659,-128.94862287480393,-117.47786402433668,-34.01793686917709,-67.91774154319451,-28.742506580244793,-40.969342118137924,-13.955793468900621
-36.33185013491193,-130.6318461843842,-118.4287042210076,-34.06145330150058,-69.00168000746555,-29.3511571753799,-41.374123312121306,-14.038054878607332
-36.35031087332378,-130.04446030356968,-117.6841364684329,-33.857033194633104,-68.9926833674351,-29.494865770596284,-41.2384638711874,-13.944077710377858
-36.197544292736616,-128.03318298351476,-115.96831216871344,-33.603337152870374,-68.29528070376739,-29.35571341359351,-40.82545833843823,-13.778393347313727
-36.12190510238141,-126.09225106650057,-114.39462357627866,-33.45618689115061,-67.6267944806627,-29.228937843297867,-40.48019446088933,-13.642533069596423
-36.304813080681335,-125.26276672501709,-113.68986660688212,-33.49187127339373,-67.49118512833789,-29.311893542717016,-40.409078645919564,-13.587271223010147
-36.812306324884574,-125.53910049434388,-113.83453167359434,-33.74415131402627,-67.89830946334776,-29.611676283107897,-40.60666383829255,-13.622315415276159
-37.59725251326251,-126.22528086914342,-114.3526324470116,-34.22423036656018,-68.53061503897385,-30.02815757316809,-40.95718639421758,-13.748144143965185
-38.494712133348024,-126.6990954972765,-114.81586087245384,-34.865427663014394,-69.09360781226935,-30.480644599296777,-41.35927102117589,-13.95642543741518
-39.21729096643968,-126.7499364503131,-115.01481656141749,-35.45656240988867,-69.46338367288506,-30.928594361404148,-41.73569169729617,-14.196807789657194
-39.432956643639805,-126.36661026425666,-114.79908192874382,-35.68568026474353,-69.59015836035724,-31.305145908939032,-41.97257556932391,-14.363490535778071
-38.96739543089937,-125.56379257286387,-114.03465568453151,-35.324994517335725,-69.44260811575386,-31.506857317631177,-41.937784473455054,-14.34303782375928
-38.02903271899747,-124.60618279447507,-112.87384484214195,-34.442778916576394,-69.14716775259141,-31.49750507240745,-41.614793325284374,-14.098919883991192
-37.26101275383361,-124.20806850987714,-111.95649998545974,-33.481324982157574,-69.0974072850872,-31.40797376685258,-41.20839408623668,-13.7265141482442
-37.49669600408473,-125.11800546025778,-112.0921021441933,-33.12215758243318,-69.74063415632335,-31.488639296240844,-41.07226145869897,-13.43604675366101
-39.281292327834095,-127.25567999943954,-113.55200238881069,-33.97051627905467,-71.12529344321655,-31.930761564164275,-41.484910052175586,-13.47000791620862
-42.37523406510724,-129.25561661665003,-115.58752663244454,-36.154800806721866,-72.6278081506695,-32.70851612524015,-42.436551471013374,-13.981440997253031
-45.49417070745592,-128.93657776213792,-116.56209511416758,-38.984729376551144,-73.1226178070408,-33.53940967409004,-43.53715530321254,-14.898394112767074
-46.486383738626245,-124.24924263746456,-114.47121180250029,-40.87832803392254,-71.40927370609818,-33.919321885607765,-44.030731543513525,-15.823489779092604
-43.02104682513166,-113.87811916138386,-107.42361662263905,-39.76588784025292,-66.53602097127856,-33.17062604508573,-42.894079629488225,-16.059751931351318
-33.6358721724202,-97.31202957802762,-94.04754253420137,-33.977029203678406,-57.94229674829583,-30.562304175666547,-39.091141595881766,-14.83908816009747
-18.710831012491827,-74.95714550799467,-74.11633373954625,-23.25312122246224,-45.65798355461556,-25.611074161446446,-32.04120134844985,-11.710438989472866
-0.7908323864892624,-48.73990299069558,-49.39744070768957,-9.274573736904964,-30.69889921392087,-18.511375304452486,-22.15154429528209,-6.889739221590967
16.111596508166464,-22.747120186107257,-24.090197228015636,4.765990952204483,-15.376207411514716,-10.403309959522128,-11.046899917051471,-1.3245345152811079
28.06886325881203,-2.7747173726675185,-3.9788455859169627,15.481962421249522,-2.9678815419580626,-3.13783081631199,-1.1587170757803926,3.6427010439216363
32.94333120216197,5.988551656904462,5.993911580465799,20.853613965907872,3.5682513553229938,1.5438793626024898,5.322656847806673,6.885134243694724
31.367249843987704,2.527533469799305,4.854496915147658,21.157465737461656,3.464142253259828,3.0683317678304687,7.668808294921826,8.052608065496841
26.44305230834055,-7.371628768018132,-2.480037279061311,18.711466137767957,-0.5249975641566541,2.6658789999490895,7.269508777251575,7.74985909875052
22.26745332974018,-11.977593672865476,-6.323815873538684,16.57550352671276,-2.5699189662432635,3.023071229780128,7.163920600665305,7.204039559677588
22.02312128308384,1.3049281618204973,3.4080242372136396,16.972027917490202,3.6723191683972196,6.952570573655961,10.528240117998095,7.601951229800947
26.633289341675173,39.01986267929942,31.74193793301638,20.333774998334647,21.599465653437377,15.789331797701708,18.937221456041858,9.487944507503585
34.657258247867006,97.28947537266824,75.50619431012129,25.450092471734177,49.47702642077767,28.52855823047024,31.480072882343002,12.572765377169638
43.38244018581808,163.2139435480944,124.74383847875869,30.4758687232182,81.10553744255814,42.31230516889933,45.31537067824753,16.029471605623247
50.38292014778227,221.48444683518096,167.94330043512963,34.06628759092247,109.05726263839766,53.98471020767235,57.29690254623759,19.032879945770556
54.59705257320365,262.0045855635369,197.7312394846556,35.917171338269796,128.4097197265018,61.703659537571575,65.57752597298537,21.15854662687748
56.356870032575635,283.5579406404218,213.36663987133994,36.47528382952956,138.5458163662212,65.5584272499541,70.13840777687523,22.394417916348416
56.52150186497467,291.34970336141,218.66809028846092,36.181120747898866,141.9690119963727,66.84591444688486,71.98443468519316,22.829670516942013
55.444286979183104,290.6568905470275,217.28409553959636,34.89872151309478,141.23235061871475,66.61768392995315,71.72988453892731,22.334014407810486
52.552381513722985,281.617134724763,209.07366887946893,31.97969337691384,136.42347966615887,64.6302713510689,68.741670070423,20.53312979508936
46.821283560047675,259.19036962883956,190.37363484775273,26.883337026215756,125.14591475685883,59.510552724375934,61.55824351379588,17.12928668617169
37.757660238966025,218.24478081837597,157.84232261328503,19.845041671969668,104.96083765709274,50.01675780319916,49.29333372150823,12.318029476801929
26.145428891094994,159.73441184801072,112.80356224046302,12.062170418721639,76.3499427424373,36.441671177988184,32.945011368602025,6.949019405462977
13.995410529142067,93.1198902644337,62.675288610844724,5.231402720491165,43.88386252423643,21.0875323048774,15.562544749055553,2.2490129475879685
3.702743681963881,33.00414088570901,18.26991970708133,0.7319072223121356,14.630034706025805,7.399571615492016,1.0318049491994814,-0.7621558141570212
-3.0540910112967663,-7.881272447753687,-11.293483579886496,-1.0210989793780925,-5.193655147949777,-1.7211418273628094,-7.78756259742435,-1.803135637812792
-6.000742551292479,-24.764262152619754,-22.785845876753577,-0.6691202930265225,-13.16093485886753,-5.349725103447087,-10.397747030901064,-1.468217298340928
-6.183454768296754,-22.291847222466863,-19.717546703234312,0.5471093811716045,-11.415521570803584,-4.82894223126057,-8.671447846232182,-0.8785139297452952
-5.262446697098764,-10.9603555334909,-9.75399944424638,1.4560703291795825,-5.05708784758949,-2.813457479540073,-5.6261757405111545,-1.0608116460751718
-4.659250069463822,-1.2667232930870984,-0.6703423892576923,1.4394280246834659,0.6254050940263899,-1.7510582416497353,-3.805378898771046,-2.4183800856686033
-5.008225359188491,0.8839387907099094,2.8182116938778226,0.5367055040391725,2.438799963717663,-2.7296280064062266,-4.206988779260412,-4.572716370825818
-6.095547300985751,-4.387695388388922,0.17236208386038526,-0.7793944372439743,0.15455742455792254,-5.231928795502181,-6.195338992620734,-6.625390807435182
-7.202552590426167,-12.393929064533285,-5.742032932686477,-1.9821393418510627,-4.021303755495787,-7.730292950199536,-8.2119449651131,-7.674447821509804
-7.629852924885113,-16.959874306523023,-10.602820758243721,-2.8315942020206326,-6.887565311341019,-8.674244346445974,-8.788235348802809,-7.315639166060337
-7.13581381259729,-13.922254506590624,-11.066319121278575,-3.4970057411164546,-6.050077002595775,-7.378834769782735,-7.379776354005794,-5.8722076542225645
-6.04942653229243,-3.8728491658668522,-6.8324720959111245,-4.3437539487816785,-1.432494688150688,-4.438844924266556,-4.678067500014896,-4.213153430853764
-4.964079899182672,7.284634176837658,-1.1886112422368633,-5.455246804261208,4.327981892697524,-1.4663290919860437,-2.2344941050776383,-3.2261341981885696
-4.189306034656327,10.923358885841271,0.7104381384366266,-6.2103368866001025,7.1248759063041796,-0.22550486547515436,-1.5302274876525421,-3.2349857792166827
-3.3613342034797182,0.5784453860975796,-4.858973194327873,-5.316366785495927,3.8042038278851247,-1.5951819367943798,-2.9928317485523714,-3.7383149758491325
-1.558401175182511,-23.70660427788323,-17.409448004964066,-1.4366518307507992,-5.703110310061621,-4.982566121395781,-5.602066911518926,-3.676741138039323
2.091944020909437,-54.59548401826531,-32.034816665530755,5.911543507480142,-18.03488610110359,-8.599738187990633,-7.410863468577473,-2.087255303228413
7.719524355937192,-81.06795400977057,-42.10130103655138,15.796994672347353,-28.180412350851785,-10.469282148608341,-6.69316838258113,1.2730264291643323
14.434645310956283,-94.26668256051514,-43.094909968865444,26.095997496414746,-32.26598313269879,-9.53776208635194,-2.9850938080762743,5.7362046925852015
20.685499365060355,-91.93282830547679,-35.099026603246884,34.42397842302185,-29.56291997509284,-6.2097625655666295,2.6437462385116093,10.073607007398847
25.028035113775562,-78.8220263067232,-22.400344123983018,39.22655316778865,-22.533800018142166,-2.0099910984573985,8.22932035857912,13.142942254819793
26.818491168176152,-63.23067703443107,-10.716060997058968,40.385613540654994,-15.08571573300592,1.3493968770095874,12.011401014641041,14.426096519968175
26.419074104449166,-52.22730435526566,-4.046237756845648,39.039551557566185,-10.33177122899935,2.865293455813102,13.281859314662299,14.16558878193018
24.85576471642874,-48.64370307896117,-3.132597664018275,36.829713353055105,-9.290459595551955,2.5725751185307413,12.511778800328626,13.092844685497013
23.218168040339762,-51.14278647262752,-6.078586839615592,35.092335068301075,-11.06224886801713,1.2328101023769173,10.823749891180515,11.985025200240585
22.19241358731571,-56.34343391887289,-10.118713631406907,34.427736221287965,-13.91925214863256,-0.25341174819438883,9.285801008719627,11.3300262835537
21.93319065484986,-61.021570212485734,-13.1034832978469,34.735988786715104,-16.345817968611517,-1.2767522940115577,8.483610427343393,11.233098682418625
22.211274737313296,-63.253958839749394,-14.061471497374034,35.524646789768774,-17.523345631235095,-1.6327725905425472,8.482503507136485,11.517609928024571
22.649305141948574,-62.663561241649425,-13.124225048669576,36.25101069504739,-17.377844027027592,-1.4405492883690176,9.000565179913718,11.897311720065877
22.918392644561333,-60.26091484543199,-11.240774131705816,36.57381525174384,-16.450868374282248,-1.0182328956334354,9.609529084799235,12.131997773382102
22.86559349515852,-57.896392684652305,-9.71029506280096,36.47340604076193,-15.613188279430023,-0.736731515936171,9.926435931595933,12.129323368075353
22.559641391696353,-57.19855585953424,-9.467243050973089,36.20878287022629,-15.572034033361723,-0.8326324576584518,9.798432016266627,11.967162248862083
22.222846018398727,-58.473632381338604,-10.45902262423516,36.113173332101844,-16.397765092057984,-1.265548420516069,9.390026199929093,11.819327322731555
22.062237853452853,-60.47402187844199,-11.680263631793938,36.33657638069784,-17.475732572249974,-1.7576759819193655,9.062043841838769,11.81832855968753
22.108631731740374,-61.35833877010577,-11.952488515579283,36.71940348850862,-17.99267303088439,-2.0166211950899844,9.092221187293044,11.948464666018113
22.19419477278384,-60.07381843217584,-10.822211023456203,36.90415097266168,-17.563905800998878,-1.9563295882969123,9.458418482502553,12.05361573119057
22.08981405301873,-57.06337788456335,-8.857051947189523,36.606616073062604,-16.493496112261194,-1.7326364275894341,9.861739834698163,11.955627220963182
21.6877856058787,-53.9680599451575,-7.248461481926791,35.85190864444735,-15.556798145753758,-1.6051189334686145,9.943528685560866,11.594102576459884
21.094807961784905,-52.832651468710374,-7.184814620265247,35.030085475800284,-15.591615506145121,-1.7838228808799719,9.505695890574001,11.095387705574856
20.59557827307165,-55.273486493015696,-9.338023451770562,34.75273451203955,-17.138636551774088,-2.354621579376407,8.618080802703755,10.739611587248394
20.53024932710545,-61.543088734094745,-13.39833809864443,35.56166215412446,-20.10004050709046,-3.2318557994837964,7.6371267983918605,10.842889613788532
21.124446450263743,-69.52473222072734,-17.65624697298828,37.55660125209895,-23.408607791457182,-4.0918546358024095,7.156881487294068,11.581225812129901
22.2906954497253,-74.48584810654269,-19.132076250614094,40.070655588097424,-25.042259818911653,-4.3880797269469,7.809458730566774,12.802557507173065
23.477591605773412,-70.6602358292283,-14.8146200674979,41.62616016921572,-22.801381684448046,-3.589634183450729,9.865508929745328,13.93160954919643
23.724281338193236,-54.50505433459832,-3.693698311229304,40.38189560377377,-15.702768107804019,-1.5821552119239344,12.825954219403497,14.099937768388134
22.026388366669167,-27.679623705320804,11.797238797399265,35.01057558318167,-5.083155725997397,1.0762426591368925,15.384180519494361,12.535691842013435
17.89411336412891,2.6680383845905653,26.32275239437936,25.566572677552774,5.590193156374304,3.3260015283837685,15.975054079759492,9.04480113867988
11.762880656475494,27.058747690828067,34.231711744325004,13.758139214751706,12.359712884374558,4.1548511594588415,13.669539191144452,4.271091515174681
4.93470477210527,38.52014101514424,32.650728681062255,2.3325591416430074,12.912039604417846,3.1472399512383316,8.82345895509819,-0.5006049800466271
-0.980825092881427,36.04143448186847,23.052449983141816,-6.146104177095455,7.813998254928899,0.6489564055245887,2.989890843805894,-3.9469416339111305
-4.807695077098722,24.50508809234511,10.28027005024218,-10.42033273106833,0.05370021569788706,-2.5259891925704574,-1.8939573203657212,-5.366474048759407
-6.27366427045781,11.374098484295079,-0.2535045468653451,-10.908800023679033,-6.747645219545989,-5.569433467635425,-4.521613713307049,-4.982782146324469
-5.942976141860398,2.5323277547969076,-5.308843737880119,-9.171458601555189,-10.22669316361932,-7.96493584382161,-4.780736780876882,-3.70872265075931
-4.716114270507026,-0.060060680747094086,-4.851238284228262,-6.904137486832918,-10.110344526263892,-9.443217390481154,-3.5612596107172254,-2.5566906738047694
-3.2775325566785853,2.0768140769313286,-1.12710661512383,-5.132227432746593,-7.720160648667248,-9.79280356044914,-2.051482832405449,-2.0978758352226587
-1.8464816502135903,6.039558075493453,3.118725035779541,-4.015321323270989,-4.818236945575206,-8.823950540094694,-1.068472455124541,-2.2857428664909785
-0.30232514572217606,9.426036711349372,5.96933955933597,-3.182549195533797,-2.68200921571501,-6.569595547480125,-0.8108841606660726,-2.6643979836658422
1.521773864636385,11.074355204028915,6.729071820590501,-2.2091596201459,-1.7821654955189699,-3.499761809857143,-1.0143904083794217,-2.7362486891994604
3.6251350560323514,10.971269484529106,5.734727638096974,-0.9085704092136386,-1.8755083181140453,-0.47209202350625334,-1.2424005145537236,-2.238249298112432
5.790104709466758,9.922054490573997,3.994548930670762,0.6226594530794596,-2.2501978575478976,1.5964325282901344,-1.1202265776155211,-1.2229746881967356
7.631673695004686,9.073703730418126,2.68770792650394,2.0993026029703428,-2.091120316182485,2.079196525611461,-0.5000445377253938,0.017418185046236954
8.684116218325299,9.19017995589902,2.513174903393996,3.1874813308464613,-0.9576364226044175,0.778866069237994,0.43610455081412136,1.1091476773720805
8.534116631504673,10.030857791203823,3.2409416464259797,3.656055216440448,0.8842623261893081,-2.1197935254298748,1.2256531692283354,1.7775857615305768
6.999847373391533,10.464536799157734,3.920585118775438,3.490705722881163,2.6101585498744195,-6.107691909312698,1.3921072206572258,1.982849763398259
4.267791157836593,9.380656210734813,3.6683434600239453,2.891335845932249,3.429662897359801,-10.366369390285994,0.7904523564178761,1.9298184741978013
0.8742212290306264,6.592394853439755,2.3385415043903244,2.136699524834863,3.1309296236444717,-13.87597744497784,-0.24843449127913944,1.9287699240119085
-2.478013916301649,2.8828152225178227,0.48145938351650736,1.4218318902937364,2.1104964955404193,-15.722753334507162,-1.1171154858014567,2.194778605107282
-5.15351533180338,-0.7299365343951313,-1.2533639510148125,0.8021196026222979,0.94306212467498,-15.482716559972834,-1.3154280172349617,2.7289536023660834
-6.750271052424461,-3.6419094260114107,-2.5788706463553774,0.260434568039,-0.03082509071929239,-13.419266576286082,-0.7149144454623453,3.3516828945860953
-7.174700433214193,-5.641743983657363,-3.5048444124761056,-0.21270978312393532,-0.758691345918408,-10.359982480343506,0.4478987738750589,3.829350114003112
-6.661390558527756,-6.542788034053446,-4.035874145680077,-0.618796754792061,-1.2934198107833519,-7.356022632370371,1.751226826060743,3.9850863617429506
-5.7313467454068086,-6.129479755789547,-4.116020551680391,-0.996924568848026,-1.6890664994494462,-5.315873132632164,2.7662608754270552,3.744722876707504
-5.037002494738855,-4.4835450389065965,-3.837468992014303,-1.4194716362674198,-2.0417055521268637,-4.716356777288375,3.173776090809476,3.145696774277364
-5.101326691316033,-2.138407139507364,-3.5122906593721632,-1.922233347681614,-2.4745477791938164,-5.422180876757597,2.8555261567121892,2.3379564936643686
-6.077661038666515,0.2534848802566638,-3.414790944297574,-2.457596037304987,-2.97560916815291,-6.696515529083433,1.949503327796776,1.5555893473971556
-7.68783011922923,2.3305026921816037,-3.5114090699293743,-2.9405130679332587,-3.2998421676294973,-7.51605601187053,0.782583436402309,1.0255089209008685
-9.38041431238472,3.9527150338709043,-3.5605408483630105,-3.3406948076849186,-3.1620638675688917,-7.138607443303001,-0.3403064252697022,0.8366574770675613
-10.599043015799177,4.784313667916414,-3.4708333840541803,-3.717478835206049,-2.58746652310568,-5.598306787000023,-1.3431748405100807,0.8571408680599294
-11.005513543714518,4.232119096101002,-3.431681021957876,-4.168866432551359,-2.0173090896608867,-3.7349582384541313,-2.382278667093731,0.7793585113319315
-10.576649393169376,2.0545591659642133,-3.6068779744082202,-4.768084706029732,-1.9826470524460698,-2.6632943803337774,-3.6178444074188856,0.2881748050928865
-9.57999050175194,-0.957638397542508,-3.7597824163121825,-5.555512996416671,-2.633924927622856,-3.0285544794598227,-4.956459967163949,-0.7453068637300911
-8.455716467631671,-3.0827586198177728,-3.2945732665572773,-6.557661899541258,-3.5787846846640914,-4.570616349300139,-6.001625183602835,-2.164503111392858
-7.626588527278909,-2.6447511469741616,-1.7109431732459366,-7.755669739567861,-4.152421096144075,-6.275407693801675,-6.255843941016085,-3.5805136730729994
-7.2897898327090305,0.893703793461906,0.9754312139918322,-8.992741944785152,-3.84306121442833,-6.972318110101036,-5.410934449390978,-4.540897313288705
-7.295391375984691,6.468059683137,4.165475431382275,-9.906238481431341,-2.564344962309002,-5.991670272071464,-3.5380396916129744,-4.716430980899536
-7.20035082967416,11.680053369089823,6.866142818751584,-9.975192311653212,-0.7130506529588736,-3.534648099459114,-1.1009050285810533,-4.009745173090222
-6.479325183866848,13.578088177028375,7.974912347155729,-8.689247368423175,0.9468484815304846,-0.5832661567335796,1.2040476643385867,-2.5422337596272433
-4.766872597584744,9.970495909927838,6.798817408867466,-5.774622392221442,1.6654511185761816,1.641849446061149,2.766607531404709,-0.5512671799473359
-2.007640598866304,1.274394636346054,3.958230500853186,-1.411882379653862,1.429460053998773,2.468475288934478,3.4652658852763354,1.7104088796676438
1.511614115412401,-7.923946694598911,2.21545082769991,3.610488558131577,1.6916624454434497,2.3847806511444043,3.9289255606318934,3.985651225620006
5.20243022428564,-9.225471137165405,6.200350760277758,7.904977594649836,5.36537965335363,3.012273311087342,5.374976118324274,5.934340914118611
8.268064448372206,6.302377426774008,20.431504300107676,9.785845327291462,15.589222510973212,6.287142352893659,8.959777138413159,7.075471604299695
9.887807950238761,43.06580036992404,46.41911991442587,7.883922437783054,33.71349630921779,13.250113734079209,14.975215303880729,6.8810441142126235
9.50474026484468,97.19129743646359,80.77481299579179,1.85167804989698,57.81666152039086,23.214571050739725,22.447650907801094,5.035136179118657
7.116482344014916,156.96608837401317,115.95438257278943,-7.252549069060634,82.96721954735273,33.91461420312589,29.4914362486115,1.7041422164108375
3.385620637326685,207.823200952115,143.5738170083016,-17.22512030430977,103.34363152069993,42.60358586684928,34.259250672492946,-2.3967204109005493
-0.5591506541508515,239.1437898209904,158.41596577212252,-25.5845285093135,115.02016957326336,47.435998464989396,35.90336349096112,-6.240900451332173
-3.582227325088388,248.81683946547903,160.66950541104802,-30.613972140204208,117.70585035436157,48.2840269361203,34.93913896578018,-8.926070844928606
-5.029820959102785,242.94675289365307,155.08656647762265,-32.009036380598324,114.4008560377726,46.53840346387605,32.80743121404505,-10.059988079035037
-4.968225963313363,231.334910017347,147.8176090185168,-30.788825254672652,109.34264679104209,44.129570729701044,30.97702626889391,-9.873353057315384
-4.034693347376505,221.9949882858377,143.13677542913757,-28.579867079288917,105.70216763479765,42.47431089202943,30.205842504601765,-9.010281908214822
-3.015801524076084,218.06106757227082,142.0186273066844,-26.747433245538637,104.44149020646978,41.977094883545476,30.38437743278357,-8.148963929268191
-2.4363946831939223,218.21990670511934,142.9296467643766,-25.874651746842886,104.70743335162942,42.22196952503295,30.91183252068486,-7.690494744939818
-2.3899013437064,219.35075793557652,143.72625334826026,-25.785541580049486,105.08191923835633,42.53445824579177,31.225985231102012,-7.668727681664624
-2.6328657573790992,219.2555995370701,143.29222126938961,-25.942599086619914,104.74208638619287,42.500473147507066,31.14711257198035,-7.8654864659615145
-2.8048699712297362,218.1381368172889,142.22316976802378,-25.896633957782115,103.99776005264825,42.21744878930142,30.937818021603185,-8.00734549526216
-2.6367064674475476,218.46325412695694,142.47935951559376,-25.55816481539646,104.11206183469199,42.230737629584276,31.1302222913966,-7.93074126434448
-2.0954179392731076,223.2564662523455,146.10664951650932,-25.218916246384257,106.46567119854714,43.16884094810256,32.17500720610242,-7.666433885395014
-1.4442686988361397,233.3294517883349,153.36849822601275,-25.3401987124308,111.29275841321112,45.177423980828756,34.00377634675367,-7.427999208900435
-1.1618198637147763,244.84302745473744,161.25786309782265,-26.17867183721142,116.63303688116736,47.44783501043369,35.74658237998998,-7.493967972657784
-1.6865322964722655,249.2552212293711,163.7345356639097,-27.420621261878214,118.42130814823604,48.24924928951288,35.91380564091721,-8.009916739560145
-3.086030016541763,236.74919622817282,154.28055870233183,-28.08422210016821,112.16654753658705,45.65027281166692,33.11505824344746,-8.812530245530786
-4.874131764225294,201.77329835799202,129.66537913428778,-26.86541649010034,95.5241356895042,38.615966674711764,26.950947999217707,-9.411891450242596
-6.151586664644279,147.2717319624376,92.5524755833267,-22.81468793419588,70.15312923003428,27.795539187749565,18.46968273309095,-9.189260405536537
-6.026996970067906,84.52783577154705,51.02227289788395,-15.944119709195872,41.47982628156878,15.435632542255188,9.806565517581891,-7.715077063045887
-4.0630709222986665,28.316950427783254,15.067366805228074,-7.344195493715406,16.32289321022617,4.414663893263748,3.180011339165137,-4.991825857705697
-0.4716383534460713,-9.761626925208198,-7.843182434018907,1.3016854841434338,-0.20891852699188188,-3.023196257161847,-0.12963834645714026,-1.4678592955526062
4.0342187325904995,-25.72518349584661,-15.473720843311979,8.49847159629449,-6.660227257120393,-6.082255800279556,-0.19251654754918537,2.177132274173776
8.57797207619549,-23.080754021038278,-10.486854546490697,13.499796252726782,-4.99988083571968,-5.3831331538575435,1.9375455840944076,5.322066732603843
12.38019214489867,-9.100519243644172,2.0483814630116863,16.29917153698884,1.2276531611880164,-2.302044922823172,4.973831687404095,7.5790772920165415
14.785755246741578,9.211189461474055,17.094973037479214,17.1396972172047,8.783226112255196,1.7171830353700044,7.913052259532879,8.768303579037896
15.151245312018908,26.688913913062986,30.448556665605317,16.00208978551479,15.384641658829375,5.426631760550418,10.008787842296297,8.777478837962397
12.847444053733087,39.08726780262966,38.215799398777904,12.532167247066608,19.197927283793742,7.673204065311259,10.455006273404692,7.482135230749925
7.532525274107637,41.97357758499625,36.59139570826095,6.484793909229859,18.302378108145124,7.358437375900631,8.311100660809693,4.832937317778691
-0.43935719006297924,31.521996992768003,23.031122852898093,-1.6911691670913673,11.095526077148557,3.7587584592040657,2.9283533213909343,1.0456224236480267
-9.82162430947532,6.988058117012188,-1.8054802611463736,-10.644077114798147,-2.5267679053785863,-2.953369443464063,-5.410750134869471,-3.290345217116804
-18.756545443136748,-27.386190414645096,-33.12773079887614,-18.525966882398574,-20.317943626255722,-11.464627362260451,-15.223200570171015,-7.328079409761265
-25.470338123573868,-63.16246261607392,-63.37267127131119,-23.791183537882034,-38.14297152954741,-19.698289019547282,-24.279209635897715,-10.279886038015059
-29.0029647428397,-91.2637222183658,-85.41284426489587,-25.87778517854911,-51.727910411898016,-25.69764347180009,-30.584099487147736,-11.749696833632848
-29.540932194359154,-106.1767998129457,-95.71510301386084,-25.35250650216938,-58.63986159871485,-28.495376164536754,-33.28061267777161,-11.871989007980778
-28.17393312316868,-108.10378501211316,-95.49778933105362,-23.478198612573607,-59.22104972749756,-28.429404818361352,-32.907568622403396,-11.177767541085187
-26.265702630721364,-101.84820782584637,-89.32363971961668,-21.53344050524327,-55.95533395780199,-26.750498690932602,-30.909084617201685,-10.29163775313161
-24.841634897702118,-93.55535713821267,-82.30668794707957,-20.30663440900865,-51.8596209396344,-24.85198368843341,-28.794431848387507,-9.657864850044549
-24.307827946769144,-87.6879435076769,-77.82171699709802,-19.97414001049532,-49.051960005708985,-23.646080929976236,-27.503580912676725,-9.433591107973307
-24.536760791234627,-85.87906791115779,-76.8232063607416,-20.278567764999647,-48.250755683977076,-23.386911963171134,-27.258411841429947,-9.545325227334532
-25.13459708091549,-87.52487407706096,-78.4989118903845,-20.795020328403574,-49.1012332631959,-23.854207383441558,-27.779916641273594,-9.811625247259563
-25.692167518319323,-90.93901873710486,-81.2934740912817,-21.144215939711426,-50.75124101040429,-24.628524558788772,-28.58936787329709,-10.048391156474858
-25.941187944914397,-94.25526486742382,-83.68374305171031,-21.12412233347224,-52.29285235336603,-25.295477126239447,-29.234941853600578,-10.135428486713332
-25.822315719156983,-96.0778529064612,-84.6910674771979,-20.758546452357013,-53.074016950275286,-25.58448318317768,-29.44610822010413,-10.050532698531367
-25.46830821985383,-96.01127634260335,-84.20561954945946,-20.241543400385147,-52.939751661432815,-25.4626987555226,-29.222795160803773,-9.863132327353156
-25.098313186595583,-94.77676895774061,-82.93691269847797,-19.792128860247207,-52.26500713560081,-25.124946182760876,-28.798121625875392,-9.679551476104686
-24.872773999449,-93.609875604749,-81.86243942147776,-19.514544081423548,-51.64878414710807,-24.84004416557266,-28.456821991595046,-9.569684044855515
-24.811077977305096,-93.30670454185564,-81.52547680676534,-19.370929868588995,-51.4604253460746,-24.75504080225666,-28.33572508913015,-9.532189289571644
-24.830996688685428,-93.77107957927673,-81.78537935674531,-19.26968937579492,-51.64101141711353,-24.82942417212217,-28.377420665069668,-9.523322795715552
-24.85401186344761,-94.43490591625242,-82.19385913027969,-19.16218530364998,-51.91706854894919,-24.94430222051339,-28.456983658731232,-9.510928530661458
-24.86413943322923,-94.97448222287383,-82.51256139574353,-19.05321770063182,-52.13783528467138,-25.044337000024658,-28.52165925123856,-9.49521062755933
-24.877649994146495,-95.50364517505567,-82.81052108920778,-18.946031213106014,-52.35433911142492,-25.155322771964528,-28.59614503611874,-9.485177179406358
-24.887972257458053,-96.1737881180627,-83.16400801918151,-18.812767035565948,-52.62548126543357,-25.292299053278644,-28.689126604654366,-9.472684685807293
-24.86250529727309,-96.84617559372369,-83.45448740434888,-18.626048861801895,-52.872955619090334,-25.405025483000255,-28.750003431126423,-9.439181477413934
-24.783564776542143,-97.28262529609218,-83.53240849188225,-18.395161207946465,-52.984163207694266,-25.434489425731567,-28.730992453400688,-9.379640394645905
-24.6671074677107,-97.50518726910722,-83.45544089805931,-18.150584834103203,-52.984022280309404,-25.390566663780756,-28.653247833296305,-9.306204791231663
-24.53670193332788,-97.74449905060683,-83.41523208775462,-17.905365679829398,-53.00237629689482,-25.336717150764702,-28.576343552458606,-9.228691453119637
-24.40403112515891,-98.03963852244135,-83.45157678649582,-17.6613763124289,-53.077443117545016,-25.309158526936436,-28.51957784490483,-9.146732928280684
-24.296845861394743,-98.12543901447214,-83.40281499059006,-17.45889937017063,-53.0985180430805,-25.296521130550882,-28.46050351237883,-9.071288282809872
-24.290821072546592,-97.88242226753785,-83.22542805371592,-17.38612084846383,-53.00969641558209,-25.314534686721245,-28.422517155815825,-9.043272264497034
-24.468598432240697,-97.78415313581031,-83.25100595188346,-17.496979478008196,-53.00597744351988,-25.455408960358948,-28.515845698958998,-9.107592928467762
-24.812355846945138,-98.63673061995493,-83.94149283775633,-17.706327361042856,-53.40563985560982,-25.80135967960857,-28.833019744535033,-9.254241970257922
-25.139839683047132,-100.74013630174213,-85.32591089628004,-17.787524326087023,-54.28058049835252,-26.273864354067147,-29.292296831373672,-9.389521477903573
-25.180467902006637,-103.36159952809078,-86.75696012403944,-17.508776148813926,-55.26057302512817,-26.60760054633316,-29.620684482506793,-9.381395754232457
-24.76000264278763,-105.11469013482602,-87.30944713590189,-16.810000105748177,-55.75616461517471,-26.523921068210363,-29.533645316655736,-9.15175532429194
-23.960491963968888,-104.87810580406081,-86.45329573525126,-15.890848294882561,-55.38720331756004,-25.964072250145037,-28.961523019030867,-8.746323783008672
-23.146445741076985,-102.4718878686104,-84.42594559765921,-15.163061592723789,-54.236044760789454,-25.183854609196217,-28.138793503979024,-8.33877246813111
-22.842458546367254,-98.81389199677002,-82.16416743232948,-15.096309109932662,-52.82019978517552,-24.65579215457802,-27.521249750635203,-8.173045283938082
-23.500122033712575,-95.8144691405278,-81.04209192689083,-15.988298456296713,-51.95327547958148,-24.867477960093247,-27.612699764954495,-8.460464561611404
-25.198240568053343,-96.0329675677313,-82.48788978515707,-17.69271308011971,-52.55536733733591,-26.08986587837743,-28.74367458888231,-9.241198899966333
-27.36815179079726,-101.62862453092173,-87.23812668005823,-19.42471173426281,-55.23158287505115,-28.12266479799099,-30.789569068923445,-10.249164940819059
-28.733802434719884,-112.50707603322897,-94.26906517299417,-19.85408281015724,-59.578406673153715,-30.09252047071296,-32.920569954383055,-10.880097682469849
-27.661007067196238,-124.78319504670804,-100.19680904541097,-17.611197751107863,-63.688431184669,-30.533010992223122,-33.648017353403915,-10.365906512209378
-22.895338242027997,-131.30430430932756,-100.15156324894288,-12.036235506984013,-64.54786349469859,-27.941246291818832,-31.37974393399028,-8.140998953298377
-14.335254925354436,-124.83536114956765,-90.17676806737516,-3.7221855109616486,-59.47237313064187,-21.66098807970119,-25.32345872277383,-4.21535980523394
-3.331177091635444,-102.30963788373339,-69.78774596844386,5.573927069629416,-47.79027456365124,-12.552832090813789,-16.182620039555843,0.6989911857638735
7.7756461188467565,-67.30222577811152,-42.83848732099184,13.6976751912372,-31.569302437897456,-2.892693537369186,-6.086588761335441,5.438310259068894
16.67633972453499,-28.830539524728174,-15.881893125697088,19.11801155767468,-14.757346612161594,4.599208562114343,2.3332238384131485,8.90464978781754
22.09400605085451,2.9552182407412926,5.026812923269546,21.58031799748314,-1.2283223463185102,8.084931716487171,7.212991263277463,10.559595652543159
24.180580619272675,21.52732402177884,17.03362690946625,22.004707540973286,6.995342521763335,7.486077008405988,8.297432097514324,10.61009828329131
24.132462072866904,26.302903408377343,21.04004248803966,21.746540344405467,10.223291862216355,4.368264325421026,6.84583017101131,9.792463423761411
23.350361514736345,21.46132448499884,20.03917251849579,21.74316237765005,10.133407823641091,0.9360650639512705,4.717919306475546,8.906442289337715
22.715106085088323,12.62987839957941,16.734428268832787,22.089917760071106,8.271722618727738,-1.1807913283597702,3.285357557407762,8.389689189810477
22.383717987731725,3.9750335186053345,12.250257285380581,22.233834550388973,5.213992663072483,-1.586350395002136,2.864650679358219,8.168203166325373
22.097065498419376,-2.695354321993556,6.586836521125335,21.546934414238997,0.8809764033869709,-0.9198642252674747,2.9212499273776653,7.8271098124204315
21.668591960246772,-7.145596153327923,-0.051572563035676255,19.859375931030826,-4.53461569559837,-0.10911588861202426,2.7402182793108265,6.963271019715031
21.29886896158637,-9.628627558174678,-6.439717006435406,17.658514115326508,-9.987097834543853,0.33544733447113106,2.0317102605141577,5.511880614930899
21.560523890524177,-10.396957849485315,-10.641303022089314,15.908203243951759,-13.821599848727676,0.5849407586773716,1.128127841417739,3.880278348378465
23.11042044732536,-9.670156708254929,-10.985275230921902,15.617073704090002,-14.55737754040942,1.293504333162085,0.7648576369438104,2.8154162741946096
26.291559767973744,-7.622921472631363,-6.902396744011676,17.350606911663967,-11.615385704328578,3.152150246425326,1.636121122343585,3.0445793975257986
30.81449872553652,-4.394117750773076,0.7803570646591136,20.90072566196866,-5.628150303142246,6.435373254265422,3.9513397845403504,4.851369935531691
35.69888957406617,-0.33766091735369735,10.061576957031985,25.298226617052034,1.714293261589869,10.735920141210897,7.203677001691553,7.82810950806944
39.572041114844836,3.665129036611747,18.416226568825973,29.213337205509205,8.228470421968751,15.036909190863469,10.317023134321426,10.99243587056341
41.232233890595545,6.35046262161594,23.775787568606667,31.558808542277077,12.097528791147209,18.142803115862613,12.165301183548115,13.249324974936561
40.18843576550957,6.7841237757571795,25.451248328664985,31.955535070390148,12.685913825794302,19.259426917457557,12.183760484023955,13.94269352396132
36.861051716878954,5.005408732053305,24.36587305468746,30.799283916084402,10.788199784611804,18.356934637509553,10.65345747488132,13.159857126212072
32.33130593045018,1.9000927202976452,22.298375795966784,28.933955081277325,8.046785280567311,16.072848475970225,8.441905953983095,11.607492142250107
27.813477048542246,-1.5877630031220022,20.637548281544507,27.175265901597225,5.8991562116574645,13.26352566134185,6.406142599367459,10.160996751851602
24.17307192278011,-5.066422607248825,19.609887464179973,25.970113692871962,4.824912172554828,10.580340024893351,4.931593951916538,9.393718086959506
21.73553016925824,-8.544540910626107,18.520186634389937,25.343163383053525,4.403252941720462,8.377780449801262,3.940425660275483,9.380771734698932
20.422715370802266,-11.829738888571821,16.66820545771231,25.10858925733313,4.0079517718921105,6.933463498118176,3.2970066729709204,9.868491914944258
20.075447512172197,-14.221283106049938,14.16334622828616,25.201160889993933,3.526865401824939,6.693632068611355,3.2356949045382346,10.651702939291104
20.743317760389335,-14.77395827426387,12.148903417794921,25.915284001498954,3.622608058028361,8.267039840199942,4.45435561584216,11.863855800481886
22.739323534281347,-12.775960629996172,12.436002131809737,27.847500553226457,5.451081032084272,12.104399100347164,7.764081997321019,13.938072251275587
26.36502149057798,-8.081472147580557,16.706171944202918,31.47480638260332,9.999830907891745,18.02130662215215,13.454074300913721,17.215239020799185
31.41994481333602,-1.3567231209551938,25.428049309160926,36.56476023161226,17.280450196679094,24.849150973018098,20.716088347431473,21.44191321151245
36.83024542475739,5.6611921808351955,36.8827163572257,41.83724390298677,25.74011850393155,30.51897920751961,27.539255488924056,25.543739849079707
40.76827989831843,10.24793119571978,47.06578057826303,45.2476664194295,32.395136264475816,32.741153384080334,31.34014052428407,27.942739732797424
41.36339003265771,9.615965379225331,51.04714665352765,44.88393508191991,33.96085337815519,30.09068343026377,30.174904151847993,27.335626812246424
37.66946186816049,2.464934234918967,45.37286906360543,40.01134966145904,28.555083901021415,22.911907552641107,23.890272039159058,23.492606849178163
30.302105728079002,-9.95225378357332,30.07480857870479,31.62430349404555,16.927330371383896,13.387230848138241,14.432392605429179,17.55215458719844
21.320356357538657,-24.267344276331738,8.899425988046733,22.13050069547557,2.3103048055443005,4.578540574219941,4.99378457589566,11.572984650630445
13.392519974946383,-36.74468474539635,-12.41012687587723,14.315246606534501,-11.080359723513714,-1.036194822453525,-1.5385260934487057,7.569613180929673
8.698307358397571,-45.02290333681332,-28.623601648961134,10.143258782644136,-19.942596117542088,-2.6348030505376667,-3.88855291916054,6.573633188230827
8.110171434601073,-48.66735400549428,-36.86776418952918,10.007609852171695,-23.076958124141008,-1.1288749404663092,-2.7115049655115797,8.227142080533175
10.983460449796127,-48.499851258846704,-37.0892742963091,12.755329256768304,-21.394738949197915,1.6583356426393665,0.12439064396152913,11.088208236853875
15.56780127550388,-45.583660520992034,-31.343226954821276,16.407629320023137,-17.02753649600161,4.0940617529854615,2.7357067939750634,13.438768939083307
19.795550010026382,-40.67654919683576,-22.558380896999036,19.15783293818074,-12.174968285739732,5.466895165597201,4.17645181964499,14.14377704846578
22.07227356172782,-34.36222469312596,-13.446053330825915,20.11847926774968,-8.282834087918166,6.033161611799467,4.668444746380782,13.11478123350118
21.726745911631387,-27.66115157201186,-6.053831095008373,19.466731148430707,-5.912613200943988,6.467498800133021,5.065002250737569,11.167371532028966
18.98937479887454,-22.737363724011708,-2.055690856159455,18.024537149875115,-5.279335268945831,7.097183334791408,5.932002395840984,9.414286558277258
14.65963328169737,-23.008016627869548,-3.183181420830522,16.65747679186557,-6.917218362788355,7.433820366196961,6.897173232037954,8.60560216199084
9.780521807903325,-31.777649413253016,-10.778571899722186,15.919855849206101,-11.641033120889443,6.413074191113325,6.8268132894382525,8.8295506526873
5.5167442465242384,-49.25479762997613,-24.043234164593063,16.084327053886536,-19.404067570373257,3.334050707644395,4.853332383971553,9.705527700726206
3.141573203982883,-69.51579421213515,-38.0499024577333,17.339803478354995,-27.74057224701324,-1.0849832644012034,1.5702196836452502,10.840527240773486
3.8651798043234686,-80.23691010021011,-43.66767168337236,19.840805609943192,-31.323468404928768,-4.4046961050233975,-0.6042031661805602,12.15819246298259
8.369318269428144,-67.10596548563183,-30.847075597576097,23.506694273549602,-23.791673868800434,-3.423876588315688,1.556767883136823,13.856878959051333
16.240060401554402,-21.72963773369551,5.662218302553325,27.767872579016217,-1.4100541305308316,3.959258919978179,10.12062799136652,16.0697366192039
25.715343692134503,51.27619766134275,61.39244219379565,31.559245585340626,33.524680980992656,17.089378270987183,24.292697111692924,18.532515641889496
34.07419514347473,132.89950767091628,121.57297046356338,33.6899670298895,71.97117462263569,32.24185223203166,40.17206493916929,20.551698812381247
38.6262193064037,196.13159632412564,166.22313365866145,33.420747955803854,101.19445888675914,44.04708711976743,52.30738698762634,21.334502510100013
37.8576140752856,217.66166256008162,178.88029679389456,30.888225355514038,110.38168038622317,47.9824111018108,56.271562561973596,20.46811723159439
32.13061618047405,188.90613973238368,154.49291418325248,27.080071562660375,95.90516597605382,42.57310456427415,50.816857029303684,18.214971155460436
23.538908031250312,120.3269309708654,102.13326540323499,23.346859839816094,63.282897184296026,30.068139158273517,38.39819241745614,15.407918656114294
14.971855934516972,36.524064739133806,40.89586738570895,20.73197060196425,24.6372677424154,15.22651364229645,23.809956977776373,12.996190098648858
8.859176618586265,-35.30839285416436,-8.932231471765569,19.499814086868707,-7.039394490947905,2.928202513979782,11.75969386081063,11.520565689321279
6.21716610362328,-77.36808257206668,-34.80745670703444,19.100782826600827,-23.746446111681777,-4.049600187047926,4.744973276484216,10.837470317703138
6.434217229930653,-87.49004550978692,-36.4391808956901,18.551514167427026,-25.41633577481475,-5.928745653162771,2.3247059608550895,10.251780974814537
7.83116011895377,-76.99639691564671,-23.93139868525432,16.99440782248631,-18.627420692926986,-5.171803257381994,2.00400765929036,8.96452954711239
8.634332854115426,-62.328788549277945,-11.152690160060379,14.136802593219734,-12.176541833493388,-4.704645201694348,1.0308579362155688,6.554954838392278
7.827901775083693,-55.822847610382276,-8.323286717037911,10.373260672702012,-12.219521355667037,-6.259333778462699,-2.0215195706657116,3.215082306361977
5.486811572273557,-60.66934753483899,-17.723633288435888,6.580874441718431,-19.609708163567415,-9.741393825613843,-6.726355491539137,-0.3703410691394404
2.5126623358784084,-71.87839221614433,-34.19424672774902,3.7200167629201024,-30.501221985294602,-13.772213781744352,-11.429729633706252,-3.389585239912816
-0.007797583364468091,-81.41641574789955,-49.36291924131065,2.413881050476002,-39.37930361828836,-16.843724485548773,-14.468713297991986,-5.292661276847975
-1.4596134753682555,-83.92750043580871,-56.901772547221334,2.6659230708652686,-42.57929316836204,-18.297407907611362,-15.212216070292744,-6.008694208851303
-2.0342632210037515,-79.99294975760829,-56.062240029934905,3.848602223604136,-40.4160123978805,-18.61808751441984,-14.394882602042628,-5.908389163889843
-2.5640715443379047,-75.58021714243395,-51.803180421278775,5.015147899405004,-36.903918205287574,-18.996300153372616,-13.634264992451632,-5.5506144105270545
-3.938960386565948,-78.08798910263552,-51.45273952298376,5.404141795615932,-37.21636556910051,-20.46587031652619,-14.402966800298318,-5.351883757680878
-6.452725678157151,-90.92182701612445,-59.617471586850854,4.8246438229365305,-44.1738214492592,-23.08500361535602,-16.990442128280684,-5.3663393334553495
-9.518184494491482,-109.61485729891659,-74.29160356985992,3.6290372198245575,-55.75770331369145,-25.62184509664706,-20.060812769051356,-5.318133415070172
-11.983914540232359,-122.29924733156699,-86.84204264676542,2.2699275317097154,-65.36030724910464,-26.00447731432269,-21.174100992872795,-4.8767099987492015
-12.872828061316303,-115.15903903998907,-86.38681245443586,0.7877899954254924,-65.00933405472017,-22.395920262124825,-18.096846144876213,-3.989181792538726
-12.043804559549333,-80.22703700214377,-66.1790262463619,-1.3342955999168624,-49.87957232695705,-14.332867444771153,-10.17910409857678,-3.0225804913259253
-10.31645127256375,-20.857899077117647,-28.050496125041597,-4.795377854513967,-21.383141314578133,-3.233659730494485,1.058869580529202,-2.594108766225932
-8.978367307789808,48.755510358060626,17.93599786271739,-9.854004427660884,13.1155128647788,8.09653931067963,12.539390261286666,-3.1951287688011747
-9.021222407217802,110.02670736935434,58.42914320106132,-15.941698523897122,43.827002515030195,16.73239741424163,21.102731301430353,-4.86684084401761
-10.611901541348864,148.6559058178406,83.27678831300923,-21.823956732092515,63.19218564064723,20.95423091082817,24.978166741475725,-7.147915389211752
-13.10684996326346,160.54529427117046,89.75778443873794,-26.21560060010029,68.98943343877391,20.886289926688207,24.420087974227645,-9.323629050443104
-15.531155302598805,151.9215759746839,82.46772775947444,-28.43530971352605,64.36693999240391,18.14275047222479,21.23883653681165,-10.805140509169336
-17.15293860456513,134.41224755524055,69.6309678512867,-28.677233601260355,55.26832515644074,14.800677480752817,17.649013228054883,-11.395365230201865
-17.78494984962641,118.71324464074895,58.59564482110313,-27.773701478574964,47.16496612380049,12.388441103126663,15.204614624727558,-11.298026996803122
-17.705039838327334,110.55214709699074,53.11144234729522,-26.678885825485814,42.98267018099344,11.437221444987559,14.3745454643616,-10.915545232292471
-17.367599156640647,110.27350629565495,53.179240413161345,-26.038784740659317,42.880058776852636,11.6543248066733,14.770483555066251,-10.608353045965924
-17.152194418617093,114.8353985107456,56.515107764795836,-26.055395108163005,45.26464081920556,12.38140748387356,15.64846000906754,-10.563062711114872
-17.259692324936783,120.24701672407167,60.25787177789386,-26.593657556810786,48.05551822040761,12.985335297358656,16.323695599791563,-10.79275602378264
-17.711658254322487,123.35455111309525,62.21326308471691,-27.361293573950615,49.62476953641041,13.068147813646377,16.392393077925043,-11.201268205378614
-18.385892460578326,122.84216384408711,61.5482527007589,-28.05809982766983,49.31724152035991,12.549794328477276,15.811700138525103,-11.65020409733103
-19.08374126065481,119.44388070494514,58.895156615279575,-28.488597702902535,47.53370948595157,11.649915817649129,14.857077860263635,-12.017856870102506
-19.637324865370854,115.22051343711979,55.76679783853115,-28.63423239926724,45.33098346308247,10.73884398071859,13.937420755217488,-12.251231755994677
-20.00310257387476,112.15837917376705,53.53097966291507,-28.638822231462708,43.70652672729191,10.102777425146332,13.33981579747868,-12.385769228903488
-20.261888822054086,111.0027526078815,52.63441740325549,-28.691475018220864,43.032407532806985,9.785269224148758,13.081509707464171,-12.5070852022715
-20.5240909104847,111.16317397312744,52.62010069202445,-28.88876780410049,43.0283116647197,9.63000016670586,12.979099377311213,-12.678668744933443
-20.837851497351533,111.55567502412018,52.751401221317835,-29.19295369527296,43.17802763211407,9.458125024404538,12.84071333975248,-12.899837506894423
-21.187694103906235,111.43581895640547,52.54988988714363,-29.509038925198347,43.12192752620089,9.190979646136634,12.584429127857756,-13.12946038983026
-21.55929697628585,110.55886011969059,51.84697544519612,-29.783875983583496,42.721051436987416,8.826649707472496,12.20864315561944,-13.340855867091241
-21.97343616158427,108.93596590746829,50.61058978947014,-30.028067674851965,41.940674947612365,8.36559974868388,11.723626774485776,-13.546011101882842
-22.44770950412641,106.807050787704,48.97234920795654,-30.269779539946924,40.85245286045292,7.814973167747468,11.16336772186307,-13.772742291982015
-22.947652744988588,104.84913436083836,47.40197536767877,-30.52288104448124,39.75310329286317,7.254122135279665,10.640117600743418,-14.03385688380224
-23.400960683302284,104.03520862309972,46.592738370350624,-30.802820559548,39.113446277305314,6.8310542524001585,10.312349982050916,-14.323380320690507
-23.760220678894623,104.88607620430986,46.92179490255916,-31.136598360850613,39.234903548147976,6.642325038616937,10.24501155264857,-14.627365667679038
-24.03686085202987,106.73318164043224,47.95694165904606,-31.520225791721654,39.89973477003907,6.615211054190429,10.30341335554731,-14.919362666185542
-24.275616355038316,107.84760973412438,48.571759656438275,-31.870547169508693,40.401292378411455,6.532216789730759,10.214384332467837,-15.148245723071636
-24.52205682993571,106.50695353859949,47.650472963826026,-32.06006255232187,39.97902313900949,6.182479122681417,9.753224302117564,-15.259015968275232
-24.832985035211472,102.19257420176227,44.821608965021255,-32.03805281598261,38.30603350680288,5.49595101812176,8.894191071936529,-15.25612702378813
-25.294514991399996,96.11343545764879,40.75776157745117,-31.92690981324441,35.71418899672558,4.569977558832173,7.832171714018295,-15.25335929268058
-25.97354355691989,90.91895528432092,37.038968298668934,-31.98466024790923,33.14483244955093,3.6341064266266896,6.919854179311238,-15.439845813193466
-26.807347118940363,89.82652320600751,35.72031624783073,-32.44474126911382,31.920974267903024,3.0163620444370607,6.575550313712872,-15.957957798635595
-27.539856520600335,95.19053901187817,38.51024843293864,-33.34173994393838,33.269593051812095,3.064744993702589,7.12241805113142,-16.76793364341739
-27.800029253729775,106.56988591933451,45.49743871849853,-34.41255560070649,37.50440268287979,3.942402274642563,8.521998678758157,-17.58652875728447
-27.286798084056564,119.1506187595343,53.99556486654311,-35.09059767575382,43.18483949229846,5.36891447497242,10.13754777952883,-17.934961927824155
-25.92328762657474,124.14074475264154,58.64632624771385,-34.597273730341584,47.00238133259726,6.555786917025192,10.800020993283422,-17.280730215303702
-23.881111601870714,112.10818813419446,53.47037107620629,-32.16826365256654,44.94237751116943,6.5208125515100495,9.30818326265799,-15.241424236620206
-21.497830105814028,78.09638820055109,35.09974133059326,-27.416326613367705,34.35268382007154,4.653582517669553,5.128421274271532,-11.803335417759188
-19.177871408165792,25.437335692848468,5.1821389707069745,-20.691634864931224,15.67167433289158,1.1351137447835276,-1.187901233710792,-7.465304699829351
-17.323881647666163,-34.59543874830255,-29.83867082872529,-13.183638496902155,-7.417038728821335,-3.1282612625428725,-8.208324421303365,-3.1891933709481433
-16.26113493905702,-87.61459367439004,-61.66981287016764,-6.573376096387832,-29.626463809182756,-7.036022789484567,-14.334850643708657,-0.09061214858353867
-16.0953309622987,-122.70670465923334,-84.03182147351342,-2.3027822485256015,-46.48022242529626,-9.905823309214519,-18.53681317916317,1.054053806514425
-16.526451034784266,-136.8115392988168,-94.97926473670775,-0.8212020851346412,-55.96124982359103,-11.723050184796474,-20.611105413437823,0.25207328485027103
-16.769834069134195,-134.46776672055262,-96.40411771455177,-1.2842635268069496,-58.500899015263535,-12.886115491426816,-20.882488149647035,-1.5955599409410732
-15.76932378393721,-123.7273464852721,-91.57786548527632,-1.9799698460392159,-55.718794025219715,-13.727389377905524,-19.723414693854334,-3.071993523080029
-12.721273364985466,-111.47220469394514,-82.93431793567888,-1.3092996643632329,-49.20186309038477,-14.261522245462674,-17.385692980380334,-2.9776595045443037
-7.647457321687607,-101.13718473434115,-71.72146959313629,1.2507660679883197,-40.3004835370238,-14.370771105978735,-14.278593868702028,-1.0223783444461765
-1.6162839216234173,-93.41646119796926,-59.25750571752802,4.802023223579558,-30.759965154251837,-14.209031426252942,-11.338456725880212,1.9474293342863056
3.606595162961064,-88.26813122813799,-48.135579706221556,7.505658223161362,-23.163735564861696,-14.408765246531457,-10.002383238944622,4.344901320984003
6.315309403440696,-86.27960555631718,-42.03468092139047,7.582807473872638,-20.43403393789225,-15.88004765092951,-11.657089996903107,4.6422845560572314
5.606810371957151,-88.77263392810136,-44.216870988251664,4.267982067413379,-24.614494692074054,-19.351956366233313,-16.91303932790254,2.1334940330380503
1.7499043522197215,-97.09045078401299,-55.78365887204503,-1.742269157550526,-35.77919345025984,-24.955895522952964,-25.183827183574245,-2.714914989430707
-3.9121754599243337,-111.46362962514844,-74.61439061242572,-8.499468515751875,-51.67240955078717,-32.014489847014374,-34.7665535478453,-8.445114464245629
-9.404278680192435,-129.58095830828356,-95.28099649883062,-13.551512843258473,-68.08684478544777,-39.03356257323804,-43.280378921726694,-13.192656419229655
-12.738367137613702,-145.5017555841562,-110.00198668609077,-14.933869817046476,-79.75705285069353,-43.91364685665212,-48.25212364446575,-15.411635164829793
-12.559886968104726,-150.29366850971746,-110.76732008660382,-12.009275852387477,-81.70197173529968,-44.48611982683346,-47.768548413582266,-14.457407685734305
-8.642553039666561,-135.29754484330357,-92.3964745969796,-5.771188593233717,-70.93309605582355,-39.36549211393137,-41.14331867085427,-10.804805317481282
-2.015905028329974,-96.92275780769333,-55.36670626052686,1.57525768039533,-47.995665267847876,-28.780423708082413,-29.377671211108783,-5.814563660349543
5.403118262901975,-40.02246790142496,-6.6716315693586346,7.585223342347128,-17.40812871658113,-14.836188129389225,-15.069333799627138,-1.1493612788703025
11.569727543145143,22.858111159110884,42.34465668495636,10.61937195279117,13.648742701014893,-0.8750647632534254,-1.604103190719695,1.8954488804889444
15.120804499030072,76.5664375807191,80.48584024089708,10.437383184173584,38.05995645855885,9.850595587446549,8.105402812094171,2.841462742127004
15.83492845354331,110.04115417010362,101.2653545500649,8.075319960160398,51.60577433408915,15.503932442472436,12.71742461994251,2.069876011999562
14.52686299887101,120.7551742435756,105.06496439423579,5.144997293928405,54.370189656513475,16.261522824915147,12.804996783742368,0.48255683572573277
12.483547731817248,114.50921046791204,97.8401619278352,2.9942586755495975,50.00827183602822,13.897909881323036,10.285404262957606,-1.0024090136044634
10.801519811406084,101.21220018360015,87.42700498180051,2.187763712913543,43.45689265001245,10.690938870479533,7.325654798593812,-1.843899648650184
9.991070627446334,89.6549036488006,79.8125756649836,2.5064849059656553,38.55378675164943,8.3460779157012,5.388914140762531,-1.9875685181871743
9.978027674195511,84.31823137634322,77.33298894094307,3.3183874113196707,36.84599239846163,7.499187315532188,4.887814607629055,-1.7147083440687503
10.364266121813277,85.24031157638092,79.13673230005233,4.001065583026409,37.851990822260014,7.875164265996194,5.4342489001140395,-1.3929087493670882
10.715367411102473,89.83227450734975,82.83929830527734,4.1903422556098935,40.10569191533743,8.777993889044016,6.33437026839854,-1.2870412116376415
10.744095340787714,94.94027464187937,86.10134856757135,3.8345881775492447,42.15290507320806,9.54474179145754,6.99561728166764,-1.4851281758119566
10.38750442979665,98.2570168117644,87.56878118328169,3.1401271176538206,43.13185970959377,9.806343899274067,7.13680447470863,-1.909267317393251
9.802523980899887,99.02164506665027,87.20059896770276,2.4569518073382475,42.97460842079685,9.566797922334136,6.833781498272259,-2.3758373781072892
9.27099705112147,98.0341938676905,86.0415922353472,2.108163746698758,42.285730737990185,9.121983298479854,6.417642805599635,-2.6932020229358047
9.02559020044082,96.88687878878832,85.44074239098224,2.209415086281821,41.8843392796273,8.828159560548764,6.233154393509623,-2.772435248811585
9.089455060573394,96.71125006399001,86.04141719929247,2.588864486532875,42.181565084748456,8.82467630408228,6.370348925994941,-2.689856502574851
9.250912158643304,97.3436630808565,87.25869610570739,2.881789482819557,42.83659347071773,8.916019371864952,6.575618331485972,-2.647205789627555
9.201855996788476,97.66807420238715,87.74756301950059,2.745757687337119,43.03504663007544,8.739493525934646,6.4501048298434895,-2.844816760787619
8.740176699386794,96.85793854008558,86.55516265230517,2.058737792768071,42.21639341498582,8.103731571095162,5.798990643231335,-3.3495665138245534
7.905277753203064,95.36620790812519,84.04356309913669,1.0043975480475205,40.6568271020032,7.220552341272686,4.8544294954718605,-4.035926424529564
6.991632309505129,94.78205486453935,81.89298569087846,0.03745941491618768,39.44243425657154,6.641464466869311,4.202798036115991,-4.621838256770535
6.455591773429593,96.73117211253513,82.22944471322707,-0.2577370732735007,39.86868558184104,6.942505963373906,4.469955697817588,-4.780475235342301
6.727932098887143,101.64284215442537,86.37255100335311,0.5701481402474968,42.63125479469323,8.338986448189333,5.931922465699185,-4.305725613036149
7.940437542767652,107.94669095894693,93.64049275919788,2.4903695456445987,47.125714219326454,10.387350533962353,8.19196639957076,-3.293998658104798
9.659760220642406,111.80842911098883,100.57424967355338,4.73920819524054,51.06541603769645,11.88565643141035,10.048048817497067,-2.2475429850316115
10.837250555377219,107.60696458457002,101.16541677217654,5.9369066200352725,50.720137911131374,11.106586852074987,9.720712154099077,-1.9684966785544895
10.154377119091627,89.62068010539721,88.70370619447807,4.682633919709074,42.11023844151487,6.4597031672369045,5.556473473940395,-3.194557579461685
6.697952806166525,54.898983110009276,59.0580103217449,0.3825109975427788,23.031985012890697,-2.5700817896703474,-2.976467890795976,-6.119915673166131
0.6020233620719531,6.054569136958362,13.864775215508919,-6.203864093994586,-5.0271214880251405,-14.705091177757568,-14.556681336956574,-10.102411273422605
-6.7883665463344105,-48.04562366470968,-38.554805490830724,-13.134501531852322,-36.43908720514939,-26.962500363971625,-26.15833825236334,-13.816838668628696
-13.428015097610235,-94.91403044093722,-85.78298524926366,-18.18315899995966,-63.216431304955506,-35.748866772788624,-34.246785630487366,-15.856048760847456
-17.525967830382317,-123.59495248077073,-116.51433537377223,-19.978091586143805,-78.42975725736717,-38.51004064800485,-36.48174775154748,-15.470025533015091
-18.40436172878798,-129.69211585579606,-125.66122078199528,-18.691520535780672,-79.47622609983699,-35.028125890800666,-32.949037157038994,-12.9994883080489
-16.761067771157983,-117.33072181187178,-116.42885941407559,-15.856106646405363,-69.28251796719157,-27.564638471422214,-26.135226932772095,-9.72440386369913
-14.208388907485595,-96.76191393365055,-98.16043519031484,-13.450253673847419,-54.67034211089919,-19.710391188217866,-19.610640398209092,-7.209738819551972
-12.407354656031318,-79.00309771370279,-81.3416871368526,-12.844243941782256,-42.84662973973711,-14.603617786358214,-16.199130072417677,-6.534958434674606
-12.320480705585158,-70.74921741467652,-72.78560516529781,-14.216161512642259,-38.09518281902519,-13.555629651366417,-16.710509368035094,-7.831540971837322
-13.949897519715895,-72.32577932276563,-73.52259259253853,-16.677886679666685,-40.424482818095704,-15.796184539005754,-19.882736169826387,-10.3296334976204
-16.582543912892454,-79.12803117698007,-79.86138697051406,-18.92179887285899,-46.498115114046165,-19.28476556126261,-23.37719707111217,-12.818977476871636
-19.298444084728548,-84.87926206583553,-86.24334334756257,-19.980164291870736,-51.84525379651295,-21.93177163028852,-25.10642308489788,-14.247723172066923
-21.43750958438123,-84.73995908658206,-88.14039864588283,-19.709740318532944,-53.0388733404648,-22.531226503012977,-24.182787932829758,-14.168316886239399
-22.807083941785432,-77.34790396247803,-83.98975536166729,-18.76650342484316,-49.066557483607234,-21.089014113836324,-21.17071135771072,-12.838695307108432
-23.551721423967944,-65.63253566106764,-75.8290537586317,-18.06004673067205,-41.675442655942156,-18.604882967371918,-17.692240726911777,-10.942908732655955
-23.770091094685146,-56.087811491131895,-68.43230927987298,-17.9580931518977,-34.639201728555285,-16.494808162088745,-15.59874655724003,-9.07789473675977
-23.13015351840206,-56.11598748246201,-66.96748724631117,-17.73694412316314,-32.03062268686279,-15.850062127443081,-16.008679911459467,-7.302158715234552
-20.79887455027807,-70.08163652386067,-74.02253312358769,-15.731105117654543,-36.08270161841353,-16.80827288504105,-18.628298751200006,-5.047618729263322
-15.844392349115628,-96.18901391431432,-87.69174120397804,-10.231638302048182,-45.76937780135396,-18.38586248724257,-21.771866733636113,-1.4934107531845586
-7.926059282938625,-126.48813974402653,-102.16967399618747,-0.6400060363327859,-57.106755125657806,-18.962731989196236,-23.18719208311987,3.813245224986057
2.1879180611315645,-150.52076281551746,-110.76520382916162,11.877102012655145,-65.17814477333572,-17.207823308357188,-21.281018417334913,10.500713652671504
12.688592168148965,-160.6072798124777,-109.54899411365484,24.716393107647797,-66.7219664414518,-12.893437553469118,-16.021635149887565,17.40341793190855
21.42297926054991,-155.56086297388137,-99.35763740038571,35.00174285843111,-61.7157025411138,-7.076678689586173,-8.963751010469291,23.07967288631383
26.838866803751355,-140.63246090419867,-84.97764738018144,40.89618668809824,-53.053630111901555,-1.5291470252952033,-2.3926059497261627,26.49920692259392
28.62862292669512,-123.9855923119289,-72.20466730099932,42.30670411292986,-44.66445361108654,2.2167115285703347,1.8675753511952689,27.489340718919138
27.718770627147528,-112.1963317419877,-64.78985921382014,40.65062973833655,-39.37472515183497,3.6017455481350193,3.259348681988082,26.706742140352016
25.66815559410272,-107.60466779258225,-63.127565875687175,37.9478029782806,-37.8297694378554,3.1338409291369924,2.495260734544499,25.21067488046189
23.884087343859868,-108.64189637758496,-65.08807141496756,35.8502091681544,-38.87215618623858,1.8872435557599405,0.9013168940699237,23.936694070667947
23.107576531380186,-112.03085730085304,-67.887101503472,35.1172463152805,-40.72636887489737,0.8401266795346259,-0.36510566928696375,23.366820381688797
23.357897923342293,-114.88236947074871,-69.53498696025815,35.64711381585562,-42.00940714405944,0.4866546737394497,-0.7462495689120597,23.501964132175083
24.204738506366102,-115.61138372559233,-69.2626048833775,36.83779262498854,-42.095683967817514,0.8361083778696248,-0.2689869028790153,24.04058443213969
25.108144946686572,-113.93633264474249,-67.28633903727165,37.992253607331875,-41.02240867387212,1.6130334043996013,0.6986591386821017,24.602170911500362
25.66280817193245,-110.59443742885,-64.4317340623761,38.618679217904536,-39.27359508173252,2.4541060069624017,1.6967099186613404,24.898081940715034
25.724682990873813,-106.89445103422618,-61.7113363459782,38.59105113117032,-37.51627420573822,3.0587012530358186,2.3707064439376806,24.829007390705698
25.434262444170614,-103.97216969018314,-59.78735836477555,38.148708267094904,-36.237673482145205,3.3224896393126158,2.6252382141559543,24.50383165996503
25.121025212663255,-102.07206684458482,-58.57229596624939,37.72442259791225,-35.443321945501836,3.39969290362598,2.665506617789497,24.166700673838577
25.101771873973885,-100.53661120641544,-57.39720987067448,37.678263093920336,-34.72121250328053,3.5923560257219753,2.841568672503227,24.052251635611796
25.47915937528639,-98.63993748231707,-55.72114292177294,38.099131036078056,-33.69539001565372,4.097351986974357,3.3638643105750488,24.2474368039037
26.080562484130606,-96.45248557524745,-53.7245984101678,38.79204992266543,-32.44945791588594,4.817328565922097,4.118821409278559,24.645898580390377
26.577583139555397,-94.79683774625096,-52.16458206580305,39.42037047517304,-31.474698079217163,5.41924664050026,4.753625943389246,25.0133314331456
26.688294578166975,-94.32862894791116,-51.623729330534445,39.67837731512598,-31.183936124536473,5.596091854910679,4.954832514447929,25.109139736442966
26.33316981430343,-94.71617669264796,-51.892920805664204,39.4182311552996,-31.47316732100171,5.308294153074421,4.686623706048399,24.802867736082405
25.696080878627694,-94.70275541030021,-52.0057792073533,38.74309282482774,-31.70979716222815,4.839870991992427,4.239201381522396,24.161971360359242
25.202052992454785,-92.86483228875605,-50.76422141819898,38.06165983693741,-31.07326870428713,4.686782623847888,4.118151539255553,23.493043451186598
25.39178672257001,-88.3786735058304,-47.3188851541812,38.005621213784885,-28.95426635811976,5.363446611713029,4.851680120951065,23.279014110271145
26.6465206072411,-81.51284744685533,-41.666750827258824,39.11586226270774,-25.299348235943164,7.142400070039519,6.715991438277618,23.954222200534083
28.819255762995596,-73.99592095763305,-35.121758906152245,41.38490024336021,-20.937380741766862,9.73687997839457,9.397026287427778,25.56403689099872
31.003518132071196,-69.06698766779418,-30.45740338244701,43.94593304353872,-17.705341295665924,12.10003287330062,11.790703345549813,27.501095291522073
31.706602216932897,-70.47178820428842,-31.07025588296397,45.19393514159145,-17.934047263223533,12.640474772206412,12.25392909622095,28.546258843851717
29.473003045688564,-80.13494816732286,-39.01878728245759,43.375270250853866,-23.148811408645297,9.965704983575188,9.392335815039347,27.29616969228319
23.669558755878526,-95.73445760854742,-52.99459770206686,37.38554332496972,-32.64529951956283,3.8176949144271,3.0086798560363737,22.8204563589259
14.974848757929259,-110.34002122258556,-67.93125230025788,27.385009419626403,-43.10046737271981,-4.431963581960538,-5.433443643741558,15.22786042494469
5.255946383163239,-115.24123133771667,-77.09011298231243,14.925973191243804,-49.8701314323189,-12.166851229262301,-13.24376384665513,5.83520289168054
-3.1343666003390735,-104.64839981439967,-75.60601688086952,2.506374022325559,-49.381155511892146,-16.650630277171956,-17.66237071885727,-3.1871152328058043
-8.280017636151493,-79.21957814440438,-63.199326354241045,-7.279888546530231,-41.09085066883403,-16.242531536159987,-17.07935541204149,-9.567690135720351
-9.37830593330912,-45.931229863781674,-44.18426694058388,-12.634052818049055,-27.67650267794345,-11.005302952402324,-11.633940523058362,-11.763238166359786
-6.878230004980026,-14.288001422389122,-24.747394404845725,-13.107242932120895,-13.322793181614314,-2.4389622729933538,-2.9423770473750355,-9.511089415313934
-2.1157288553913207,8.620840368272066,-9.369441723711244,-9.624478842541771,-1.3012202555012478,7.350982436507767,6.74083569115871,-3.897600047815588
3.268369220276267,21.021855180296804,1.1824658079917236,-4.042603297512269,7.498668543065387,16.44911036073989,15.347978225659029,3.044596122893016
7.823417433372147,25.745301252614176,9.08202010459758,1.5179524793603962,14.181427552329266,23.469594319728156,21.402959581724424,9.026855796573425
10.555454214188506,26.996166305398177,16.74405536133684,5.29439377597295,20.103254378937997,27.47940186290767,24.02450525641916,12.227483462311104
10.994638487981153,27.28909775944161,24.358381623749196,6.260864634705985,25.23416936964519,27.86596866678339,22.83357032751365,11.808523136608162
9.161051707017236,26.57629812729404,29.424164329658858,4.213878252467914,27.871639835675943,24.436718991477687,18.004860936456716,8.07374792488648
5.504757332464294,23.55480934809423,28.4601997734203,-0.3451090307065136,25.84684814513656,17.69884379075622,10.420996065435945,2.252666284719586
0.8433980519841904,17.618964916094594,19.62063766123454,-6.38896497079967,18.3106602026125,9.01631047954725,1.6984719840224245,-3.967262894574003
-3.733972008770116,9.964736957230079,4.548484591915736,-12.549959782649868,6.894088377881564,0.3927288535338003,-6.090425600891489,-8.970581984748401
-7.064757712745331,3.357390624469959,-11.642167551447177,-17.380677598547102,-4.509335086073022,-6.111048856777705,-10.979839136841969,-11.64637976852782
-8.251544846178211,0.8941269413195787,-22.403381878112754,-19.762518424301593,-11.33582825297019,-9.086779682464229,-11.774731385703328,-11.642984216569426
-7.058936378561785,4.374604291129962,-22.964380976081753,-19.36357099774028,-10.610483714552615,-8.309097812014372,-8.564213499100674,-9.41768995533986
-4.146496687281185,13.02511067796067,-13.09202488768336,-16.869523779925363,-2.711045179846507,-4.839568314227568,-2.8254813009793898,-6.066285520068839
-0.9124946910742519,23.418567177798938,2.316586263039202,-13.748173133888386,8.47667606983015,-0.601162935855902,3.0474477379950904,-2.9444756679533466
1.072346450229851,31.015727120261488,15.502377794067613,-11.5901927022639,17.360047330674924,2.452976453480108,6.703077332791036,-1.1790024857417605
0.7778504459630503,32.6554172465897,19.87900302823655,-11.371364027861905,19.532336124688584,3.2028406896426853,6.863916807608385,-1.2595915105797715
-1.8159043469842635,28.383895394167816,13.456418743023109,-13.042519109543647,14.069448017242344,1.7990532046639514,3.8757181862843955,-2.9000742722907167
-5.738973177019045,21.319784846551197,-0.36997567121341385,-15.63599998741138,3.8586800376514967,-0.5600081757872966,-0.5381430891674688,-5.227349440989905
-9.50067553080466,15.724818788874204,-14.908698745358585,-17.78342841394314,-6.120186301528273,-2.341771239316981,-4.155815351723047,-7.1938171623360985
-11.755787394838034,14.729002729864566,-23.632505486746687,-18.37716167137339,-11.39149821664377,-2.452336793265177,-5.277846327263883,-8.0301231602592
-11.880880465820876,19.090466689396656,-23.045671232503746,-17.10291154155688,-9.987942803751748,-0.7013526220634937,-3.4245723982648406,-7.576003694524462
-10.24391937233378,27.288923491681008,-13.786609344667104,-14.630090947009805,-3.023879084281773,2.1595331401980133,0.5078070488552071,-6.375562149637242
-8.042512144901798,36.42303828807786,0.13920335927048327,-12.335505153518282,6.149951952587315,4.767769591099815,4.637566992063011,-5.46374238416899
-6.717978868192236,43.41225284950517,13.445620883016728,-11.60837412719183,13.676530621348325,5.751911508861681,6.921381178602879,-5.854554976749963
-7.160362350290686,46.294803438280255,22.089577048835583,-13.032652799272828,17.064200782401972,4.446898359278313,6.154264730839265,-7.908567839950437
-9.115037687363824,45.25299416937285,25.115934384466915,-15.906266783354239,16.376155295374762,1.4128227087383993,2.697297520587723,-10.92108196573693
-11.191045425331968,42.66161501513557,24.821236873119634,-18.44890819352293,14.077673254596867,-1.6213053626022433,-1.5386005683034785,-13.258579322289943
-11.560182329131624,41.78309772384602,25.060137471959276,-18.668273613904464,13.512413006149682,-2.5236183896068023,-3.980307580164985,-13.094996138100575
-8.988047978929341,44.78395966094851,28.730901615629783,-15.434249228091845,16.860490880116277,0.11901903798962732,-2.709153325986203,-9.400704516421467
-3.583612280425603,51.47737678161457,36.08624647832136,-9.147631065390465,23.8669164887781,6.21301836810507,2.5791771814073865,-2.607630381008406
3.1934156049985902,59.69427229459223,44.89407561776868,-1.6067856904250266,32.1374515675341,14.224253698573108,10.541015479733531,5.479790208089364
9.26655583662579,66.86786770186903,52.128993808675986,4.864370374253689,38.717679751338174,22.03761460839225,19.017713645499956,12.506219372908221
12.972226324279658,71.58510797375195,55.95389848610994,8.542997856453338,41.87498032380087,28.02203521404067,26.133749046773257,16.647655871110402
13.79371026345718,74.17363055930224,56.834984607665504,9.06261365336446,42.03130153027165,31.635185651849575,30.984744477954035,17.338296633978494
12.415371919432252,76.2476902330444,57.31808901142536,7.384623615591639,41.42126023386682,33.26796181107284,33.60085528095722,15.26925848337593
10.123191906880926,79.62325461137065,60.618500015097915,5.034604511159787,42.71870786199067,33.531486355010934,34.353559771588124,11.743611912264408
7.955916370035783,85.04422169029739,68.59582162295128,3.1032239507255768,47.30747442467813,32.52052179161094,33.291409904276804,7.850575391892883
6.1430523535418455,91.24910324148803,80.07760689197937,1.6587510790444173,54.08480821576366,29.593409561510917,29.911103573174973,3.988409316802908
4.160632104254254,95.10371997034608,90.67878817422606,-0.0697741324105092,59.60330953450413,23.882561993781074,23.586727608423555,-0.013657027054017223
1.3134689284618488,93.21306088996884,94.71040290967608,-2.918323631123147,59.769300569481935,15.237579542948401,14.411936239181498,-4.3518613456817095
-2.597685174696668,84.33668949090958,88.43335884988426,-6.99771248704376,52.32471476459452,4.91943931937189,3.8350600790443403,-8.73421722302318
-6.994950021970697,70.91847650160304,72.70452852235884,-11.43327049319709,38.60368478199514,-4.564744010566464,-5.503045516400818,-12.287126800542785
-10.802362947536153,58.31311780146937,53.13837321487456,-14.786906362598323,23.29712005920355,-10.536614868536741,-10.819912638137607,-13.951559373810175
-13.074220855799052,51.92101933153903,37.43493848500252,-15.87153038298559,12.180787175662726,-11.51845100353362,-10.58173186771404,-13.10725477527737
-13.558352499796351,54.06017012781556,31.386965863075137,-14.457855897939288,9.100411667760815,-8.046382779068972,-5.390069800931788,-10.034952218252027
-12.853607210021202,62.59380657918143,35.89636356003657,-11.462908745407994,13.97702679047316,-2.431554701968773,2.1976171476720427,-5.934947162734128
-12.071340253502308,72.08071693299566,46.65998906861717,-8.496133865992908,22.942342432977135,2.3706739229482636,8.847170509592999,-2.460131216481311
-12.179028723287352,76.7097305112272,56.65667690721339,-6.983021267301882,30.490738790831678,4.163501685143942,12.020865947806909,-0.9678305615639623
-13.38302529887214,73.50893263481522,60.10515879727521,-7.350631930613175,32.490944217081086,2.5144797538604537,11.166740324921214,-1.856578365924117
-14.931998291419328,64.30178386838857,55.76882533119741,-8.791766184729239,28.46986575361684,-1.0683969345588262,7.93744020932644,-4.356737851243939
-15.540927806108693,55.272785233573536,47.6676814066318,-9.82789705276205,21.881364052594613,-3.8930820560237307,5.277100125628593,-6.942447809633056
-14.272690790048904,53.866699567915646,42.530616235808125,-9.375356248325241,18.0531972238682,-3.506595281181982,5.7490059847214345,-8.186850770833898
-11.358532024532987,64.20998920298072,45.275852157647726,-7.6236096490251315,20.835721850641786,0.8519367113675811,9.938670540398945,-7.58758839146344
-8.372008153702767,83.63450843345187,55.301085806352454,-6.092850543768584,29.923141486077153,7.575605000703016,15.867342825107238,-5.86338882283007
-7.527302127203061,102.86575309812291,66.15231701510511,-6.768690681286124,40.610022911364744,13.307327969451205,19.88211943543076,-4.525409646645236
-10.455456912865486,110.42524875604641,69.05705409615022,-10.850143588457938,46.29977451519568,14.638943794432603,18.61994184196353,-4.979118223556311
-17.20084887039417,98.96075529607586,58.21162950644711,-17.922894694588,42.30056957613055,9.964231044307718,10.930206803709757,-7.707038426233507
-26.070490561706848,69.68811181642832,34.48991668778125,-26.08272986633186,28.587542223020556,0.39835115121335923,-1.3826553295458213,-12.014864263456445
-34.42977459984827,32.140811819310244,5.264997775045397,-32.90234464532727,9.87881561974318,-10.772913593504967,-14.421706565304538,-16.44848403600314
-39.95471096898402,-0.6725775319458039,-19.459036257820525,-36.61421220075305,-6.92448133911384,-19.760670675628003,-24.124632202741047,-19.57681417443621
-41.62001522854013,-18.766108389049343,-32.149847110475,-36.822151044353994,-16.30001384040637,-24.06863671696478,-28.13251870651783,-20.661215431198496
-39.94837869051386,-19.52363999702808,-31.08915225896253,-34.448386696776,-16.580586404788697,-23.442385406965332,-26.620959920126502,-19.88058342384233
-36.546966005732834,-7.759402476305897,-20.384438391558664,-31.12884446360777,-10.160527028236057,-19.607240685987236,-21.831030785689947,-18.10001278734488
-33.327360971202474,7.741977712670217,-7.289403182275212,-28.499158474909247,-1.7654722308215218,-15.173527047919432,-16.794588435889445,-16.41000427646221
-31.812266417062155,18.592674442739238,1.2409448205536475,-27.670102953297526,3.9135560280803667,-12.432513641960224,-14.026613720804303,-15.683741629183283
-32.68621699287969,19.89771639361465,1.1938045163613675,-28.925253119245237,4.079350436071264,-12.55500834522004,-14.679525452247772,-16.274019800889548
-35.56058414938161,11.596053721071804,-7.108073065134142,-31.587350805256015,-1.1989059341988777,-15.280200551299162,-18.22578537639281,-17.87313088849142
-38.963072047905584,-1.4998521074835836,-18.8077402843195,-34.11380351148806,-8.858983511603899,-18.993643266954983,-22.587110849934536,-19.56464023445761
-40.681201752365446,-10.955876698982053,-25.776319811757716,-34.550525105039874,-13.682660039180806,-21.196107325128068,-24.747600249112814,-20.117265654684324
-38.52758422821369,-7.71783786798459,-19.664854291449355,-31.312200066624325,-10.279640426576027,-19.415070290136345,-21.890555910902417,-18.49120034623633
-31.309911215647816,13.564062468801312,3.9454776331968846,-23.974787677874097,4.2178400696062575,-12.353014480092904,-12.764358598249801,-14.365074051244939
-19.52558143572375,50.98208326535687,42.38188661268741,-13.639462801926305,28.092005609754615,-0.7047001074315955,1.415925671684422,-8.396200623123091
-5.337175195661867,95.15509384090771,85.98195036487628,-2.6030228457260933,55.10283265790762,12.942295231254795,17.20067102078882,-2.0188450168987155
8.245219949251835,133.16107657148547,122.04156101292949,6.557884951691857,77.07903807921102,25.21567019013541,30.344490358891985,3.165497960492624
18.583486102728855,154.63399149440926,140.69894064153954,12.05082085244669,87.78124046002712,33.49508009198357,37.74162855178848,6.1033698980167
24.40003399090577,156.46408193746416,139.44447604059718,13.5526848925445,85.83251343261787,36.981955334017506,38.77347858696711,6.727672067735248
26.055668610492706,143.44480261200957,123.73393758698188,12.197882094615835,75.03345314549225,36.71308492523953,35.32536457166373,5.888775281693889
25.076495209767348,124.90817721171292,103.62569468972688,9.930969147009256,62.032000498319775,34.638076377493036,30.562593074078222,4.841138532245587
23.29780519950549,109.87431556077043,88.7233892360212,8.587697969294014,52.92695813743935,32.464455747996276,27.286837812285704,4.587722994840735
22.097565013197464,103.69610613071951,84.3396832920715,9.123590814978165,50.810587941957586,31.00136513627358,26.81339642415167,5.420817873281599
21.996378678558866,107.43673648699213,90.4422713063755,11.262214987662913,55.2910473953933,30.226460565819288,28.79977120589029,6.843143203083705
22.641740591196886,118.97880124825863,102.92423222874926,13.648890801332126,63.58300266246502,29.72954559012645,31.793673450790756,7.846268563340556
23.075367122716266,134.16111450831303,115.72717687198791,14.450556936072623,72.01537549853128,29.041637141875185,33.980356109974764,7.388709824475384
22.18777487180218,147.40578595295824,122.79327963995725,12.202669064010783,77.16701442208846,27.68686765689822,33.793109017233235,4.8759633619285845
19.25060571212399,152.6922704188083,119.72891924751482,6.559487446790155,76.61881555189785,25.18167859096004,30.357183154531686,0.46011115077371345
14.332421664968228,145.63886161119925,105.26144495242531,-1.4386620587740868,69.59665879805551,21.23360553028427,23.806072505289794,-4.9707812169538235
8.35792754667475,125.9655481778352,82.01732864182561,-9.788951592414639,57.4102142886478,16.071006370780893,15.35047394578397,-10.138588971806866
2.6963172049988913,98.42740671955947,55.79181815252361,-16.48056568003485,43.18679190990056,10.54979423646506,6.896576276591568,-13.931959842652407
-1.552089286083494,70.84704660169947,33.07246988817421,-20.472420214926217,30.585351703735167,5.770152106754665,0.21590070288716318,-15.917817160261032
-4.14470399520732,49.93254504495044,17.864530625930666,-22.10513626029393,21.942308628334175,2.3611776046659547,-3.9470317193950293,-16.52445860124333
-5.729308507938506,37.54773559068552,9.793717309670312,-22.653217817343624,17.015088737526845,-0.01250090613938477,-6.221951922069639,-16.744547917497403
-7.21469917600626,30.271850927387664,5.040839659833334,-23.260844643796542,13.414136913699958,-2.395346808945226,-8.032787383257851,-17.46461663423314
-8.852543323900028,22.93119542226515,-0.1662286999948313,-23.942690742775696,8.744730921355565,-5.540357241789463,-10.332159240901976,-18.779260715993885
-9.682378283194828,13.6973650165126,-5.819171333398609,-23.335549784688684,3.0900929713148133,-8.830800760608106,-12.486037476053891,-19.716085900545963
-7.816119066347153,6.821679703113302,-7.016412242981434,-19.41343388101174,-0.07957622796767669,-10.019521645923996,-12.190103935341213,-18.596403652387696
-1.4949220098669151,10.60086361736988,3.3306567012525066,-10.751529303197726,4.443440363148429,-6.20306752619257,-6.66061952281268,-13.889641227236734
9.679003741081747,31.693608656847886,29.52240474198334,2.4179936967821987,20.22858106560716,4.422730112779375,5.551083438093055,-5.118316308122068
24.081944546726213,69.66583358057851,69.11510930450402,17.96814795993083,46.26244880486463,21.09485863026377,23.259618876442953,6.676703989624692
38.411942687638984,115.56652399533759,112.7165639099857,32.57878774374993,76.43798948251693,40.28439916771349,42.73220651279042,19.175018164725593
48.91081706045086,155.62937312015092,147.8833472351827,43.00226259552904,101.98198821235736,57.01809049878523,59.19811244965524,29.62251076109391
52.87498249701151,177.88684931015467,164.9421590429009,47.28198410630271,115.52358808340307,67.06925925875538,68.968467254566,35.88579072668072
49.74009744660245,177.8179020239473,161.50923488869725,45.40897293947681,114.56238950812495,68.8516005971827,71.01449943252045,37.22674972177547
41.27254129221995,160.0793685669675,143.44033809660053,39.206399292913815,102.54360831930057,64.02672606463491,67.20734656908529,34.46373350489722
30.836189122552184,135.9376053668055,122.04762013431107,31.54754167700871,87.16232444865942,56.56175593475456,61.19778112852808,29.48702077486642
22.07148555722738,118.17823112850293,109.1478822401315,25.217609942536125,76.8720398727156,50.76075151967508,56.58384162640155,24.380916164052895
17.497595495422516,115.75022416229129,111.99247332836582,21.832126151984934,77.12493373008083,49.20800888441318,55.227268548841614,20.552791554580143
17.558178852941495,129.74470809769275,129.76047311094618,21.250294186250844,87.7139234402139,51.51225337455385,56.38859007174831,18.24793214865228
20.514953433255883,151.84642002646837,152.8766929125264,21.801687380071478,102.21871767152722,54.39048397198536,57.00604755789936,16.65710097249399
23.307172415880817,166.34381399204514,165.95749048273248,21.295736891007262,110.08772688670646,53.12115370864154,53.06244652396947,14.548211216392167
23.047290409878528,156.027130295624,154.01245938682246,18.317649730298633,100.98993966197617,43.8083201069343,41.547369161993636,11.079219504609895
18.42943559366743,110.21403410277681,109.6085864884533,13.064191992435553,69.77817600881583,25.42739836090133,22.14075254552986,6.3366895473774925
10.30490648510943,31.004875248245675,37.360241122727295,7.207358801114214,19.567289691522667,0.5981032205217157,-2.2774141424914225,1.3000095778818972
1.1301710201492665,-66.12494609145816,-47.10234761865414,2.8884110940730583,-38.9773506435778,-25.384853131847592,-26.661405748679925,-2.718226706108277
-6.353121691601934,-158.42249461223008,-123.60408341663855,1.4985360014699318,-92.0546351307632,-46.80591559590235,-45.91079541426312,-4.791752373661012
-10.431131395797708,-225.68707092285928,-176.04709144564904,2.9943514099430617,-128.6097522672582,-59.90899173763566,-56.97560369762503,-4.830336991904998
-11.029725421244315,-258.5590365102313,-198.63711440298954,6.091806432619251,-144.6061461111535,-64.20932606991842,-59.888103863448045,-3.535502518520621
-9.41376324417328,-260.9678672262668,-196.693686485119,9.101258088758417,-143.6272317412579,-62.1792453053957,-57.28488134667389,-1.9543951408381335
-7.305145286508936,-246.0387036721547,-182.27032215797718,10.81397292790944,-133.92609252879615,-57.66070830312635,-52.831592718254036,-0.941490423929739
-6.010301302578237,-228.54907073759725,-167.63621353555786,10.930356760238665,-123.96678674704847,-53.99305398878793,-49.50856796874467,-0.8359161063281679
-6.001268212518316,-218.49229439525763,-160.31692671375507,9.914153851700055,-118.98453440544225,-52.83640719894124,-48.63680969043807,-1.473134253173333
-7.014845514916789,-218.69481545296196,-161.7098008259086,8.531642243251232,-119.98786496135541,-54.08684519259985,-49.930874764374195,-2.427988496331867
-8.433718168539988,-226.36289770177387,-168.80406352897043,7.425698872625935,-124.92376028360917,-56.58686477270141,-52.23054367672157,-3.2890785012535435
-9.670349283312623,-236.38678602516558,-177.1019227309583,6.903159865325857,-130.7006480173043,-59.02023087058824,-54.327696105002566,-3.825467312822424
-10.408957319102704,-244.30211756777112,-183.05873449734523,6.915672817686535,-134.88232053211067,-60.53943038404254,-55.50400808068422,-4.025051739908732
-10.681987170094672,-248.0192853902578,-185.35872008876922,7.159230413521935,-136.56311610636521,-61.00326686026721,-55.706938162008285,-4.046126424528806
-10.789884886110842,-248.25363064464625,-185.01017577967,7.254917544748162,-136.4264069396902,-60.885243288320005,-55.43453270389931,-4.117247686830519
-11.092123233726356,-247.7029232237008,-184.41343538604247,6.9652090922118415,-136.11092668312187,-60.934366341782884,-55.40060469610886,-4.4118246344907295
-11.766191321303657,-249.2121580860548,-185.7684137632286,6.336279179156019,-137.12977105775272,-61.70809683638606,-56.09382636652554,-4.947628113214733
-12.685796149562941,-253.82363305140706,-189.62618249942952,5.6577868617787335,-139.87122212650752,-63.20475246804086,-57.45272068705842,-5.57479798605375
-13.51032280198113,-260.0063042561995,-194.5164947441322,5.2548083756392385,-143.31992849865404,-64.84083918973859,-58.882444646415344,-6.070982410087632
-13.926630429131066,-264.69771352325347,-197.9581366509659,5.2608807695445545,-145.7391421059995,-65.82545055341491,-59.63731274003708,-6.285968947520432
-13.879249787918218,-265.465582480683,-198.19134276937945,5.52298867029929,-145.88467858746012,-65.70648566225415,-59.33408759307222,-6.2452927901209945
-13.653993607864605,-262.3425260573848,-195.526968232835,5.670409350301362,-143.9745494428693,-64.75008935330384,-58.280546520141016,-6.159646521703836
-13.782527877018286,-258.2933218835824,-192.57719731882656,5.283789298705182,-141.86518741453614,-63.938869547891294,-57.44123933002265,-6.343574352721396
-14.80191281604296,-258.16027411106523,-193.2737258917695,4.10626484757905,-142.346620674262,-64.57530246429152,-58.04500327205935,-7.0697934713625825
-16.924578441738383,-266.4121882949358,-200.93719727639345,2.262044400750692,-147.75845146144573,-67.60094904879168,-60.937289977582616,-8.39006175310892
-19.727705132712327,-284.1911907025881,-215.8787877031144,0.391041442638547,-158.29465454294106,-72.83033160881483,-65.86102110108547,-9.98709185511737
-22.06213762951875,-306.6953382803703,-233.50246562659848,-0.46718804011385906,-170.68166347672232,-78.44654401684286,-71.00260452331993,-11.17102824643043
-22.379418577975624,-322.7272195111711,-244.3771006440427,0.6662165992387173,-178.24003345328208,-81.20986135105356,-73.23796636872993,-11.114356889144014
-19.46504158169619,-318.03276414235074,-237.33398978070207,4.06881604227695,-173.06091376607014,-77.62335420134421,-69.29073794630513,-9.28129825458781
-13.235115105789864,-281.99634903140503,-204.89530820964217,8.90055494442125,-149.82943673721425,-65.7079919127822,-57.42995598517145,-5.828789486572829
-5.073541292211306,-214.41591210835074,-148.26546077376358,13.383755847617175,-109.37122524693933,-46.428523517709486,-38.77113998624965,-1.6935352275363273
2.6303681437149633,-127.9072887778412,-78.54443307990255,15.60478009155057,-59.55700457407413,-23.74758049614433,-17.23737171869556,1.7748681752490145
7.600647285215704,-43.52874089033279,-12.683637761212498,14.53324707024216,-12.473751868042848,-3.0034991075049176,2.0403643125165725,3.4902476773580706
8.841033664952736,18.55825398238703,34.01307959221926,10.654572247965032,20.909286747030315,11.594753290177685,15.079808301779376,3.236989550203194
7.13840152602376,48.15894542588031,54.65396584262708,5.799462602793087,35.617041455207534,18.87817280072912,20.778520671994038,1.8224876563486507
4.568909751317279,48.61242944557831,52.93525908401547,2.228885723307032,34.30289995388579,20.857253607323553,20.987508987433085,0.6447667865544535
3.2960686685727802,33.15989640632013,39.786026922619584,1.489969254042487,24.89171854540092,21.054917579874296,18.975094216063894,0.9099368482235133
4.38664118907273,16.92254166235017,26.932153125425515,3.6855655925338477,15.925581778216094,22.169941492629132,17.358619674888526,2.957507708301077
7.3147122520421854,9.500779863185704,21.28895425142835,7.51903140387469,12.432905598065453,24.5561309529305,16.80862115137067,6.075348480625169
10.353854592047263,11.851292607596626,22.866247471105886,11.012368146641059,14.342654042879374,26.324829846116717,16.152997500724915,8.878201956440458
11.548665045766242,17.880068376687134,26.368397909726124,12.476358272769952,17.66105821377393,24.777168310426198,13.54260095850157,10.012961503248818
9.73398045250151,18.86686667873498,24.926267831128904,11.27722611219615,17.272407426721166,18.182585194449683,7.825508206458446,8.825891661753513
5.155299427052332,8.503624449399608,14.12821871909527,8.097186530463292,9.942125507720318,6.9786001314727635,-0.5754400242175542,5.695387143966115
-0.5432764462395032,-13.112289301795588,-5.076782826230165,4.584841882841005,-3.585407109207265,-6.045009354779165,-9.552044388711765,1.8997432041557585
-4.9761549799146225,-37.994131362972475,-25.758102140316115,2.511101259263447,-18.20092719929342,-16.571728435629957,-15.933722634824935,-0.9277037920699469
-6.086790175991028,-52.55783802704389,-37.38572533680662,2.7961406809294367,-26.190408058196507,-20.318593440543594,-16.66541741072376,-1.5326511767099058
-3.1568703435430603,-43.57152948234615,-30.674343123807155,4.932516765469579,-20.71636942320417,-14.8093223434281,-10.16788461965415,0.37418566436666517
2.7879030967723173,-5.223216741921215,-2.63498698140032,7.197933109127705,0.5482764594401188,-0.6093999323396713,2.7269644611622197,3.985092531879228
9.448971795971325,56.73518266018815,41.118421564179236,7.6009458083677925,33.69358903114812,18.66779297186839,18.85076280735678,7.804948143031569
14.372686950130493,126.63456977608159,88.44994010874979,5.013054363931346,69.9528075899924,37.741672690122726,33.90276105638916,10.38599878060667
16.08908922090698,185.79262440564264,126.19287761547817,-0.20757403732565727,99.58534663753268,51.825648619043235,44.23578154564293,10.982756716095919
14.651114274668286,220.8888511212089,145.9944786061019,-6.466169079581574,116.14908001476512,58.48776190029418,48.29527508889476,9.78481147876816
11.346836905988532,229.1729821880901,147.33230595674624,-11.850508338529334,118.85929363021322,58.290807730398726,46.97504794949143,7.6544252167115046
7.853925425376025,217.91806802136153,136.34470269303137,-15.112654303815274,111.94517703322424,53.99221503522697,42.79039210112416,5.584320805458992
5.381010414281115,199.06849206883732,121.63674572542347,-16.137514978685832,101.71018288789874,48.87977217905705,38.435133510068034,4.214372980762155
4.2508468031989315,182.72595901036166,109.8109976241188,-15.724474988960155,93.22445639162156,45.22199390793076,35.567472135893134,3.6471034795078707
4.035646869040972,173.2395505898913,103.17794715086914,-14.959372597934346,88.48201672377552,43.59905632881054,34.410591470709896,3.5792354543115983
4.022156177306099,169.38873086585318,100.32914396885974,-14.630885826549331,86.64470442407772,43.24975583059643,34.18124773188853,3.5885164446069857
3.6736370352150955,167.4071562478912,98.44535003447888,-14.982682353275889,85.65808496769591,42.989824037983084,33.89886310326005,3.384705583966577
2.868768797844619,164.36945901705153,95.58863290242849,-15.804057270758982,83.98144696067271,42.08160640241209,33.0531879938014,2.9198760764244103
1.873910716464413,160.0837587533224,91.81249507724188,-16.696718654306544,81.5216969804485,40.64174088384702,31.8415393100811,2.3519821039372593
1.113912646268349,156.9176011631394,88.83340357081678,-17.361251660272657,79.506227051946,39.484268303376794,30.955938100204254,1.9061348478961475
0.8516783165122954,157.8636128993458,88.57924143568327,-17.796958111756886,79.47226275240364,39.51537310996696,31.055473067689082,1.6992387420815
0.9263166017275373,163.6780556391866,91.26731250825726,-18.32141912994948,81.82231309506585,40.94670782321395,32.15529495194581,1.6158552081737985
0.717308643670529,170.54954072860122,94.03717840331961,-19.356680503037705,84.69109891665778,42.734817731662,33.259686436944584,1.323472381780751
-0.5826447174623381,170.11348640800878,91.27728978466178,-21.070372199576184,83.99993866909305,42.67437269446219,32.55589768988981,0.45000326597535006
-3.4987698291279776,152.74716026784185,77.04825361880286,-23.117898839029355,75.10080084974797,38.29518848293616,28.22114761437929,-1.1680254152680414
-7.896831051868227,112.86942529301389,48.51448035975184,-24.725213625500462,55.33953006938071,28.18668196273247,19.45546036820197,-3.332855935719533
-12.975358777103528,52.9850609515191,8.168429613655714,-25.126019588639974,25.95714301663956,12.963942079012943,7.0765379279645035,-5.553056960967178
-17.679332259882493,-16.563036864130773,-36.92579627065784,-24.08777563510431,-8.088852703894329,-4.807200602054207,-6.792622273993495,-7.313057465388678
-21.284649425525572,-82.3796650954091,-78.61787137390199,-22.156694456686722,-40.44162555304818,-21.757313249967048,-19.79623735570036,-8.378612139974937
