FZ,C3,CZ,C4,PZ,PO7,OZ,PO8
-1.8149782596754294,12.211980652621971,9.225045014141875,-0.5995184850973964,6.090158172023335,2.35758493262253,2.7057790031129243,0.8148529087989858
-0.8358132004229264,28.80169941758224,21.17182450968466,-0.9683206950052017,13.922482902154067,5.405410161604329,5.570906086639758,0.8819326832751078
-0.1070233302776181,40.57132975725674,29.759131864976524,-1.1721148736316305,19.49093744472664,7.518258864232553,7.5733886877226535,0.929428069738684
0.24482949725178094,44.78699377521197,33.1053645637642,-1.0961871224502766,21.515526049783652,8.172365249135579,8.230983749327489,0.9560346430065967
0.2553726469982467,41.69184563293924,31.4107346026379,-0.7226889943143832,20.11299981061393,7.424513001872574,7.592218594771083,0.9742567208617932
0.04671156037629334,33.75701318815755,26.38560289623404,-0.15548919533420827,16.43342714290771,5.753783335803778,6.081868932196715,0.9827284744258032
-0.2779808622836225,24.05243635112641,20.086850958022065,0.4115444409088714,11.8921386193893,3.7374784050739502,4.205360004375263,0.9484373583347125
-0.6821911489192712,14.895735144847258,14.007106862582036,0.7801243107659452,7.549268208011767,1.7953436178957645,2.3325947886886054,0.8218162344801813
-1.1640079668678749,7.442865861203166,8.865251873369377,0.8427916242050193,3.9408086805571467,0.12730983457018935,0.663335800495762,0.5765916915920712
-1.688476695107535,2.0199029208061723,4.912859074790493,0.6417023886177697,1.2505239270520139,-1.2045314116507189,-0.6909249308930554,0.24639477429735102
-2.1424540847440943,-1.4482224912721784,2.2694362095461535,0.37484567781634404,-0.4911272118378671,-2.182185567959311,-1.6391259686220057,-0.06485333648502789
-2.345821099125792,-3.32491627232226,0.9752530574943009,0.3486536892686902,-1.3768274038100006,-2.811090682142006,-2.1279299657651207,-0.20850110480901135
-2.129440710396509,-4.396586326713319,0.7887773867613483,0.8644374685975098,-1.7251446919209252,-3.1663913306880707,-2.2242914730869434,-0.05555645495911564
-1.4687644757611327,-5.960340993860185,0.9343783846723617,2.0359847725217937,-2.1677755678451764,-3.453575281527969,-2.199005370079589,0.4089475800647122
-0.6175329453114482,-9.640774115057782,0.026355862992429535,3.602603909427582,-3.592426763749003,-4.02647146276388,-2.5389902914576625,1.0018452210569755
-0.13432423682171274,-16.815694899846008,-3.6016980091949797,4.874735366954032,-6.851078441260655,-5.302448578114925,-3.8141062735802516,1.3391758380254293
-0.7069209396299839,-27.622838346093125,-11.013573916218082,4.926716041270672,-12.202175119677394,-7.531067112322798,-6.36240439253755,0.9691235378189272
-2.8003951270869143,-39.831464295465835,-21.451437185879556,3.0026366476412063,-18.64816893040044,-10.467337540689265,-9.88880314836464,-0.38843874101151504
-6.318619253484921,-48.38118446264221,-31.555598943238333,-1.073653878386255,-23.621277610948585,-13.152042681655274,-13.241387224149703,-2.6233896898418347
-10.529938222546203,-46.562202818859014,-35.9974039948006,-6.743895979067047,-23.556500758810454,-14.063334691612138,-14.660874764441607,-5.193066060998793
-14.373196808721818,-29.06479695820299,-29.850917747362086,-12.936466003098584,-15.484829289888426,-11.741038257843174,-12.564541969212648,-7.323874523991313
-16.99271746667131,4.3287156549854195,-11.737085855093476,-18.533983685012462,0.9930649484772383,-5.646605599951291,-6.522492522044349,-8.364994044956802
-18.14292305979657,46.747344168820646,14.243180321497587,-22.77469008569723,22.580816025097835,3.2569071815712336,2.195359937781492,-8.080234376083435
-18.144814292714855,85.95736217139401,39.563587613514336,-25.318739593592138,43.083186130896976,12.692665775271497,11.00842903978997,-6.683214277492927
-17.394760393415464,109.87362371467663,55.44317927105135,-25.990990421095013,56.186648492436305,20.109339696571638,17.32143072486702,-4.595847079840177
-15.807913748431844,113.24712866081086,58.020626076206824,-24.511765675927805,58.90170469352183,24.06804010926127,20.035270542745547,-2.121999987817556
-12.690969752653949,101.37788985081494,51.19161394713245,-20.55030658942418,53.54424320049573,25.108442082378513,20.282284709762976,0.704295869050785
-7.227630068986529,87.9076995461488,44.84096340645936,-14.11990268171689,46.73768933602384,25.447754370262114,20.79721224656212,3.9882923661961893
0.7491496688341194,87.45459634837864,49.205954692566685,-5.968845798146289,45.78872342508324,27.625557840140605,24.248076590038693,7.696118310442117
10.293485359626688,107.48441682800302,68.87398714706782,2.4336648381958907,54.62033515260553,32.955403401808205,31.596262082364127,11.479931195535775
19.578354648296393,144.44711462016141,100.21559733699382,9.409514721225024,71.77476789340434,40.776246806403286,41.531567932480016,14.758804011477704
26.703903683433044,186.29277615504805,133.65486944671107,13.786255379950717,91.56234295530967,48.9175458864745,51.267466892246546,16.99758324027013
30.569068537291592,219.34033879807768,159.01003455977397,15.369031308095837,107.3818386353902,54.97934586422916,58.09382093441748,17.98300458556331
31.285504285661162,235.09033698152982,170.47900007882097,14.90040636978428,115.05340935957572,57.576064145578265,60.69640650040713,17.91469121579457
29.94853364117881,233.25564350182873,168.56668074092957,13.580105817484284,114.3316785185192,56.84506913358134,59.54323627757602,17.27085858009848
27.98711327228248,220.1053974266001,158.4999881894785,12.471663094480515,108.14641015652643,54.0799887922011,56.307073441028486,16.558262167423045
26.515577842707113,204.0608023548708,146.77161042724313,12.128743046293424,100.50438357138007,50.886986369806245,52.85164107790311,16.10772257480217
26.00954412114598,191.55537053206984,138.09726325529363,12.565376785321776,94.50290689892825,48.43621033077289,50.42187099112491,16.010069297648506
26.35850851386244,185.14879880795183,134.1637478859076,13.462725673262423,91.40840288549848,47.15464082444612,49.37281767373882,16.175929548160934
27.133861552824015,183.96901009618776,134.09808957078513,14.422326988320275,90.84023056236002,46.84053801286133,49.364584008461854,16.441094413280243
27.875647980520327,185.32760841216455,135.75006141441992,15.146928177476244,91.52294175122562,46.972730011736694,49.749310828833366,16.655142299104426
28.288090702102068,186.37392271879025,136.9588921130833,15.527667257368,92.07900844887746,47.01580679596069,49.92666130329903,16.735184228407483
28.316257148078208,185.2600260568735,136.420520151025,15.646810559393181,91.60534106477544,46.635380872370234,49.57201399258044,16.684885907966905
28.10676519328702,181.6530557169335,134.0189206586152,15.698692761026347,89.93400766698244,45.78968046898892,48.703610697397195,16.57422998274193
27.879491948396737,176.49966124098924,130.56162180172655,15.858955782879406,87.51736139760844,44.67270647746584,47.579859304458665,16.484925890322756
27.784105293483933,171.17648004003934,127.08109421461356,16.182467520186847,85.01045840711036,43.54144500292582,46.489306389872105,16.455234446345223
27.83566979005189,166.59409210268737,124.18208484889011,16.603265517356903,82.84088647808598,42.54990615259007,45.57912951919844,16.467032931927008
27.96393522730718,162.9112416220348,121.90627976016371,17.0229452681367,81.08336912752956,41.71511709837475,44.842791786648284,16.481996726396854
28.11144129875951,159.9462541708659,120.09999205405681,17.395029735001906,79.66469128382474,41.01120156375817,44.23706193188929,16.486299585137544
28.28080237516774,157.67697713319123,118.78080156617953,17.73398483674462,78.59494111681283,40.45732097575705,43.775105431594085,16.499268415161726
28.4999798920762,156.21090894491545,118.07198666634267,18.070190070525857,77.93721179704355,40.08849440970876,43.4897961062554,16.54531572675827
28.763627123288288,155.31159866756755,117.82710387459184,18.420322883432288,77.57444266550385,39.850112697869264,43.32438785729626,16.626029170618228
29.01752722991952,154.13439230190798,117.43772326136809,18.79508219346915,77.08921359037214,39.55383173939971,43.09216057639858,16.71809673157285
29.18827869675187,151.58849019558104,116.09235053813788,19.201900004427593,75.94285934754554,38.96380059834548,42.56327815750526,16.786196566776415
29.217343004647258,147.05281300481636,113.27149242210528,19.61530668107071,73.81606580384071,37.94531349363997,41.605422848712635,16.791300766896665
29.085948883980233,140.88306129175683,109.11611603151236,19.95852173483235,70.85368421034747,36.5682824606803,40.28169653187971,16.701043185455674
28.852930046443408,134.47378565201757,104.54895567707236,20.154899126152838,67.71462086338947,35.128879533672276,38.88161746883408,16.521445410202766
28.696577311324216,129.96726035261813,101.18068398108683,20.22655441877104,65.45982468560719,34.1003335689493,37.88892117880951,16.336804816798168
28.887877266892968,129.57113287437846,100.85900648360212,20.33734284074759,65.22765519690338,33.98260019904092,37.8333830291167,16.305028448006738
29.634895462434987,134.28577479505125,104.63591124081555,20.709143222716285,67.58237227675782,35.00415431003157,38.96985331032519,16.57185752684814
30.85646370055187,142.3237746291356,111.4029652996407,21.457757957116083,71.69143720997451,36.7607169398688,40.886971928426746,17.139655447187383
32.05429590062265,148.38296051413272,117.17062796768059,22.464415939358705,74.93227171456405,38.06486921381268,42.346643826726805,17.782152638098264
32.42368829274131,145.06171207385438,116.03622711435176,23.35303763300923,73.57623158978956,37.27767891807456,41.63273017267921,18.074810935998162
31.182705089940605,126.41606911281623,102.87025399659615,23.559616345654323,64.54835801301894,33.09306889669612,37.363215507446526,17.53305305418632
27.949863726765305,91.81269167305804,76.36355281335709,22.462469418444073,47.358798597491564,25.360474279586317,29.334162678332277,15.789774263926452
22.976465888437037,47.50768872902286,40.52929192405715,19.575478759716315,24.950594639648216,15.404284426900533,18.852829227701402,12.736466400399223
17.12842974629611,4.583092292734223,3.5618425420858366,14.791050780833555,2.7754924862983406,5.566191871506502,8.29101832765306,8.577232954298799
11.629818017353855,-25.835521510985576,-25.469764231781625,8.573315995421801,-13.503198800510791,-1.825039426652321,0.0564224615917996,3.775363328196169
7.670138229546384,-37.448763825621455,-40.36691265843474,1.9495165290041683,-20.446265198981166,-5.493105017061048,-4.469940994406159,-1.0894421230822913
6.0197655241494,-31.1612438478086,-40.11608889408249,-3.7759848997486753,-18.147427440260962,-5.699308985695321,-5.468174060310676,-5.491086128551693
6.781680540694659,-14.087626501691672,-28.88307505705845,-7.491066491082573,-9.907306969504809,-3.969421898099598,-4.4561435505340805,-9.075283393661257
9.351983475378644,3.687006646328272,-14.115903374840608,-8.697345937308915,-0.7217154080220249,-2.318291485365027,-3.5223705065876794,-11.679754772189096
12.612098207761758,12.724219122777617,-3.8313224650199427,-7.651398261302146,4.546924215670303,-2.4340294150324726,-4.451099032103266,-13.269682575768073
15.33379120269505,7.197976827005081,-3.863654324955934,-5.150502066340398,2.7581410083716307,-5.114364827867073,-8.056145543129203,-13.847927995461465
16.692081838514486,-12.76767096343939,-15.419715799571835,-2.119228465576457,-6.25987993637564,-9.964642411197412,-13.808912610078337,-13.412250611745284
16.658762864102073,-39.599778283093094,-33.55058276744971,0.7146397699613051,-18.98259840168419,-15.317871116521696,-19.79669995180222,-12.003507922844678
16.016783397852862,-59.013139272207006,-47.771661888962626,2.865828419360912,-28.624129876270008,-18.52326852661608,-23.158272938765393,-9.819907684235861
15.904475197349644,-54.54515325197361,-45.78188874820745,3.9316639425048123,-27.376629322717356,-16.813028469418544,-21.108915930821837,-7.297833419623129
17.09736284205329,-15.371088963065915,-19.499940471043065,3.481650410146627,-10.116531116671991,-8.637150234183906,-12.318123186236685,-5.048893713531444
19.441669122962846,56.173811656588065,29.446728936095106,1.1811007858354496,22.116488949105783,5.145857036034711,2.021051146062475,-3.6326829654323713
21.799253752053662,142.20765735948393,88.22973453944496,-2.912410635312251,61.07320652539473,21.02935755516912,18.162004776975497,-3.2784798600750213
22.577235109926146,214.7707406127489,137.0179012995778,-8.125697880829424,93.87731110789134,33.9822604374921,31.080902674367966,-3.73442805113931
20.576089737325884,247.41502996441397,157.38337197664723,-13.239553345145485,108.40156373803106,39.56130702576558,36.57707875981237,-4.360898508693207
15.692553003221485,227.2715537943641,140.8129866154267,-16.883124677507876,98.83339819810884,35.97235517185935,33.16235132569503,-4.442245804723315
9.072747443082775,161.20101305666554,92.84106370490473,-18.084822825087127,68.48484969763355,24.95525675188412,22.72534578670922,-3.5647084875375907
2.610416511688824,72.65579762976331,30.53118176967122,-16.71159421018626,28.286841629937726,10.962272050119285,9.58562921756499,-1.8654224982630754
-1.9354666706296195,-9.088959500554168,-25.389582552958835,-13.56096186100346,-8.260143502851157,-0.9545265804767066,-1.5623053123846147,-0.011498973256898231
-3.7045281914920607,-61.656471101552825,-59.59913162713011,-10.01782359417374,-31.014676132534458,-7.409820573199074,-7.70890315816762,1.1061123820410383
-2.9678613347100855,-77.85446115410339,-67.85752543182618,-7.405448951459687,-36.993774882248935,-7.922041402321176,-8.537123758522279,0.8297254752677198
-0.7672647478093625,-65.96456026851462,-56.83109827357973,-6.355462271512149,-30.382643628948994,-4.590904751118068,-5.990786365002344,-0.8942866678934023
1.7344034072245451,-42.99524283299272,-38.9471336362168,-6.556065899361445,-19.26075271730585,-0.607894134399255,-2.8629071552526146,-3.448508540448455
3.7677722181095485,-25.34464091710785,-25.645551031438412,-7.030152852768494,-11.193919996146239,1.4257004598187222,-1.3280129779828966,-5.8342695106181495
5.103028872342939,-21.809739474459896,-22.58736175660289,-6.757339434336238,-10.019404652975743,0.5047277285542526,-2.1575767357442794,-7.15189656881644
5.892690518981703,-31.532171466475734,-28.533403839838027,-5.24882550855489,-14.989783186593296,-2.7131756146280366,-4.76448897969669,-6.9924621548698624
6.418164458557001,-46.41078270305354,-37.38100724203031,-2.7741699347992954,-22.002331282967553,-6.4888761379269795,-7.751197639777161,-5.547205061301751
6.872967793931117,-55.90542582882427,-41.76992034734373,-0.2079284644229905,-25.931129552322904,-8.819576821896456,-9.595897882392615,-3.444276899068787
7.2008415899379346,-52.29915163394789,-36.82501735290641,1.351237882727433,-23.16557092883662,-8.274113391836165,-9.32043983267697,-1.464791244089862
7.017700469216876,-35.00241413256844,-22.974331178825505,1.0441243498380488,-13.663379130114857,-4.730332017221499,-7.0573598204105155,-0.27519978934957373
5.725162314673309,-12.374833251227173,-6.761159216028915,-1.2882784914425287,-1.738289207862108,0.24517688485133593,-4.278826710573875,-0.21722771781480074
2.879757228473446,0.5029474202115924,1.2786744536201105,-4.784316001861506,5.1763818550077865,3.7569412042163095,-3.365623138569157,-1.1588898711190685
-1.3348824811226299,-11.665030173004794,-8.530675768715781,-7.623986821763796,-0.19206880146001262,2.814230766257483,-6.471192003410186,-2.4614276066088
-5.882414564836721,-56.013676983653525,-39.44560163500417,-7.657446246949911,-20.92479374858277,-4.01378304157247,-14.16601461777854,-3.1559502940540836
-9.183053867433099,-125.70566295147545,-85.13986280381354,-3.4704977097988174,-53.32499369688848,-15.448635220522435,-24.687419254803892,-2.3511369416845964
-9.90813247346049,-200.57751341878674,-131.21298948711137,4.616941650847514,-87.55686534248332,-27.68900448984845,-34.4137085199713,0.2668459845118921
-7.834165683396827,-254.88609128600066,-161.16265279300308,14.245651497038772,-111.61347807762341,-36.04888774250565,-39.4912658754081,4.1040310516799146
-4.206069445540204,-268.72412900973745,-163.98143691905068,21.7434190276079,-116.7775588365394,-37.265319452828074,-37.80457540098422,7.732789131270897
-1.300941720023589,-237.29596021527962,-139.4084603046208,23.65565362616058,-101.74959229215433,-31.20939501248548,-30.184563093128045,9.415408734196737
-1.3553373372198094,-173.11761981421418,-97.99684730795637,18.348492453469397,-73.22701966395279,-21.011094566457327,-20.122335909418467,7.867353069628744
-5.421394455995152,-99.96186518045931,-55.96138588924911,6.8413319495715825,-42.621494819352606,-11.500585327669304,-12.092563401620685,2.886616559052402
-12.783076636141338,-41.846447956973535,-27.607406430456304,-7.585885091920861,-20.69230641430749,-6.82541063018477,-9.383389413420065,-4.480410809895723
-21.24671611585874,-12.900246830788594,-19.32491381422655,-20.79721271741407,-12.921283540192073,-8.535990348551676,-12.592339793299884,-12.327074344878364
-28.12980440413192,-13.085697950693985,-28.022882921899615,-29.472604110291023,-17.884413675894542,-15.102187184889516,-19.539006578554996,-18.630520609159152
-31.41442502798181,-31.156612539249235,-44.245067571416584,-32.229888097619686,-29.097258279015584,-22.9699770556728,-26.536316838741314,-21.99126983109785
-30.50040774528659,-52.17396165550051,-57.682904075553154,-29.771518247604345,-38.9216960942078,-28.430545137208256,-30.245993938257033,-22.05470385661225
-26.270106881268298,-64.8835625726119,-61.881546923728614,-24.19812382494361,-42.23921873067515,-29.255734576729754,-29.134633598306216,-19.500966141576342
-20.563812890840826,-65.33887059532935,-56.028490737479196,-18.003536786340366,-38.1546749770589,-25.38434842514306,-23.915014987933642,-15.698863294724143
-15.414313631895226,-56.161154300102226,-43.81609977300036,-13.25043241957118,-29.427985923951052,-18.593365966565468,-16.9791056919203,-12.212962534553236
-12.379810953333392,-43.340829471517395,-30.865069315390997,-11.132588004868566,-20.5361023365032,-11.559771961107492,-11.262745048846352,-10.319045385192123
-12.140779882463686,-32.93445860306193,-22.259417666613736,-11.856973044281942,-15.552851769739178,-6.790057807669162,-9.050622365718,-10.616849552250885
-14.383908533527679,-28.893073437174984,-20.924724490146286,-14.727884004807086,-16.618538809316767,-5.741418792287514,-11.101584886372196,-12.820845983768965
-17.96731027999966,-32.142670106938816,-26.942322544505778,-18.415331501377253,-23.306550233688796,-8.345936445786787,-16.3595667257152,-15.835861350560274
-21.35273460351124,-40.7291896519916,-37.782200895357136,-21.42326570684464,-32.96306624192664,-13.100144205030938,-22.395697722198047,-18.1750913190188
-23.19761121291072,-50.85644498254306,-49.382275778213,-22.654042027685183,-41.875309460288705,-17.7344751260508,-26.465583301678105,-18.607432133997502
-22.87394811128866,-58.38376165400673,-57.65858664840767,-21.834467620401682,-46.76499216727207,-20.19694950854413,-26.71997999857035,-16.73980622174685
-20.67460324200673,-60.08730434774803,-59.76779893273214,-19.598878835230135,-45.90479278554924,-19.48693873711966,-22.96751071567702,-13.221420846218198
-17.628893285209298,-54.32969831383337,-54.73863600668148,-17.20142086537856,-39.45631787306111,-15.970852665540662,-16.645576902444972,-9.450304413764915
-15.04922576516259,-41.49962019425176,-43.68575247128373,-15.988151676565355,-29.220029280850767,-11.136631064766666,-10.131158022589698,-6.933898682825478
-14.01420732073776,-24.692215317194474,-29.94549385911564,-16.805511011510763,-18.24994351835165,-7.015013515359594,-5.83016440309491,-6.618633575399731
-14.954218185325301,-10.224418777673353,-18.91000465206633,-19.521491263742895,-10.45127012650546,-5.528627692424519,-5.433411649188589,-8.483620856585107
-17.44951710857813,-6.717722592567278,-16.85468795963111,-22.864013794546565,-9.823212816123176,-7.913922547038234,-9.486467597146614,-11.551196812186012
-20.328615616203653,-21.971451133369467,-28.51421534946375,-24.76533735948327,-19.10139732496398,-14.298244651844007,-17.267755587897,-14.296169622861214
-22.09793484475977,-58.67817316480844,-54.375572904579165,-23.210381730429365,-38.22973579946416,-23.557604293464422,-26.9774082935066,-15.28710775681231
-21.58342522926865,-111.60321930806073,-89.45479648383876,-17.255706444754605,-63.66145992482622,-33.59444011418221,-36.257775027510384,-13.794126457067799
-18.49699014050139,-168.5436747401667,-124.770218994553,-7.663718326515949,-89.27791352563014,-42.03439639688261,-42.959708572052136,-10.092375327394405
-13.611460382926454,-215.15422608042292,-151.07066009586654,3.2791781730845613,-108.75229806816405,-47.09777116836772,-45.88699877329902,-5.313015864119117
-8.40828859723074,-241.1559015759831,-162.83307515569734,12.743337424750063,-118.1770101294957,-48.23846109840459,-45.16744709660385,-0.9085528643179608
-4.360886715258554,-244.4391915902767,-160.28398132725835,18.63074449330276,-117.50154401399173,-46.21899640143409,-42.04019766853762,2.0011953412830987
-2.2483963819616513,-230.943556592115,-148.48261552041825,20.44353464810378,-110.05836532473194,-42.60771506228232,-38.179481726329804,3.068904723838589
-1.8972698441044948,-210.96657536803332,-134.4186388246789,19.286556103325147,-100.68319231983605,-39.04446304042319,-34.97685989777751,2.729311387060293
-2.485631258675805,-194.56715761083038,-124.12255627341739,17.074997979608764,-93.69957705493496,-36.72707015661885,-33.20542024088872,1.8124692302400713
-3.1731339155059257,-188.4392038442594,-121.15484636758437,15.47795169541253,-91.7345132372687,-36.30028044419574,-33.134541782465924,1.0263456263285453
-3.6143049826448017,-194.68596207659402,-126.30903994450412,15.19936447332902,-95.37576352162692,-37.93147646850669,-34.761172951658835,0.6259973129809548
-4.045395673919748,-210.53944969490803,-137.58730980527835,15.872895555556356,-103.1265167300514,-41.253212784762155,-37.78756405118939,0.4216214021993854
-4.981370531976019,-228.56763156653548,-150.18740693131036,16.438341592858627,-111.47885483411785,-45.16226405338651,-41.360082759682314,0.03574742220297471
-6.813726206338359,-238.2071207043409,-157.3088745413744,15.69177592077938,-115.58620465170713,-47.83158357229353,-43.97376574617957,-0.8073469011798683
-9.57803706224259,-229.43710690909717,-152.4915085239397,12.783295918322999,-110.95454976413495,-47.26265427404591,-43.89923255663523,-2.125044200299349
-12.9595833957294,-197.58994825954014,-132.78929446751587,7.561423267807199,-95.65006974955868,-42.24960221467922,-40.023320508246854,-3.684850633190599
-16.44451493057761,-146.50914209610025,-100.8204469542838,0.6878978260275981,-71.68074648785333,-33.17542557643762,-32.56577612343895,-5.121533079555874
-19.501061371452955,-87.60798897075526,-64.0527497837915,-6.554461334868974,-44.4304187251839,-22.054331687949343,-23.144275053230455,-6.091571082719624
-21.72965720708118,-34.9205468425507,-31.481165381797474,-12.739136441546233,-20.268130668649725,-11.700486018166439,-14.093355822465742,-6.4077321593548096
-22.96303959240955,1.0293341608611273,-9.664109506140523,-16.86279663195493,-3.725924620003035,-4.477911062623688,-7.441430606263552,-6.1083833993447625
-23.298005502196922,16.96503267515473,-0.45433845923188665,-18.70414941949071,4.086546711494599,-1.3462261970974614,-4.1434190612200705,-5.430539850424966
-23.023665038498518,16.420632667891596,-1.4328200958734154,-18.756046002057218,5.087459644814954,-1.691677333369232,-3.937736408353141,-4.684321861586573
-22.426708866893787,6.2776018158575,-8.116437264041409,-17.75471690230183,2.4967037505269594,-3.9027706661094244,-5.745211057906314,-4.072029499829648
-21.536195171502712,-6.799840179949278,-16.022472096618067,-16.101666507244577,-0.8041005929396858,-6.210947370494994,-8.215701399385539,-3.5436755074950237
-19.97359376895691,-17.793571347449582,-21.36655398028473,-13.580962547969992,-2.8241494988123916,-7.280737237333775,-10.082570693201177,-2.79228358059264
-17.080166024909428,-22.744412033879335,-20.77396107338336,-9.596999864972602,-2.073767609255695,-6.369556294283007,-10.295237414830636,-1.4273933818510323
-12.333733538667131,-18.06298791718481,-11.32292300271474,-3.7866882918561755,2.8172068937350834,-3.245726884221059,-8.132196335274957,0.7542818740272391
-5.830590226164667,-1.3124588651468279,8.34343565905604,3.431091558290782,12.746630788620207,1.8654574116124027,-3.4321041609360146,3.5678233764780276
1.507827312504076,26.90641319529439,36.541489359596426,10.786193564838122,27.268740161070447,8.252129978867414,3.1808146137299156,6.451670212057763
8.214826664221516,61.90292033613039,68.25082638378416,16.665669302172198,44.13727978741285,14.786648618935804,10.36398289882079,8.71105956955719
12.944663262868705,96.29114801216053,96.90451016501014,19.90647568547145,60.0065553278309,20.277368003650565,16.567712647928822,9.86834480561105
15.139155992717264,123.4574561544238,117.50626020502267,20.380620991081805,72.07033057362914,24.0118580379593,20.778322119163175,9.916304481607675
15.262622828007059,140.74077336964146,128.98304567091782,19.008519868704926,79.4877779834493,26.11192174510584,22.99199822002311,9.310621707168494
14.434812710896088,149.80071298106256,133.93024769910218,17.210525557679887,83.41106571693253,27.333435404921005,24.012322396978316,8.691724349773896
13.699819231944666,153.76072887609266,135.79997005821545,16.16215253441602,85.48115500201654,28.347842458802884,24.65769751463094,8.504408097259201
13.415540081328228,153.49837257869353,135.6875818462494,16.287886051563998,85.99066754294415,29.026149964183322,24.974392478653584,8.750798037887696
13.133386388274408,146.36435964069145,131.30737588952607,17.187708778879617,83.30277010310972,28.336842601319752,24.096194723322444,9.009529933409063
11.970760942684544,128.59211036616014,118.98859435378884,17.893037354861434,75.10510329479985,25.017406379355634,20.886692134391772,8.673376598178459
9.1755962962106,99.43553787448553,97.07125054347112,17.252983217821125,60.53372156093526,18.561751804751182,14.8823192360655,7.251118118884494
4.551158011764864,63.56608290020341,68.06038900780672,14.345634872289072,41.4981044372089,9.821096318294643,6.8530627495295455,4.600260074975249
-1.4182643174435103,29.70709673437341,38.01420413913306,8.874900390096393,22.211423901222812,0.8148082660154727,-1.3771865329221016,1.0282033271722029
-7.722881352329067,6.425702604812257,13.730488383150922,1.4394350691123832,7.281213352234741,-6.1116889652678665,-7.696236564825473,-2.761844793223186
-13.163335107988804,-2.03455523849269,-0.3334756759800912,-6.520452590808674,-0.3682857517246325,-9.281507540983693,-10.592008886395504,-5.886521201848254
-16.745530382933364,2.6997422274111926,-3.6097802112573523,-13.198258812662512,-0.5442974020002174,-8.331362968733469,-9.725019685077445,-7.6155188177630455
-18.008980952074563,14.781840466545042,1.1097235608480671,-17.164432241333994,4.574836522283396,-4.27107707817994,-5.987554984046775,-7.6979666111046186
-17.17533556084309,27.490977405910268,9.495519181946774,-18.001687516995304,11.706097710030509,0.9685286861985649,-1.1130150435054185,-6.5129281940930035
-15.046785043570056,36.07937393015164,17.515497820031303,-16.4577968580968,17.792865235963838,5.257667608192623,2.9650677419779035,-4.925316955035396
-12.669541902153874,38.86616103784549,22.511931897380443,-13.999767191189713,20.86541413443099,7.019341213166232,4.800450116075412,-3.874600914770687
-10.896921350195615,36.812215849137885,23.55656864560508,-12.0233885538567,20.397072717136865,5.81738958210187,3.9834254698560465,-3.8942074420896104
-10.074663731116132,32.48898208275306,21.406648774766513,-11.197590803971949,17.301437544693105,2.580664547646367,1.345753770706862,-4.836153637536101
-10.030967061099371,28.968439250436813,18.102685177119522,-11.321190553860548,13.5537321669789,-0.7219550516269848,-1.3559157600749308,-5.976164118080778
-10.368336809890296,28.636425934713834,16.059836868963984,-11.708949473901466,11.350804466750924,-1.9537900563427322,-2.2490315875479245,-6.4450860865530295
-10.849491526403305,32.07512879380901,16.840166916085447,-11.788037019299491,12.020503764177551,0.110215492974225,-0.29620953876497014,-5.732953749423469
-11.613755697977052,37.64397598687489,20.27190123927876,-11.516952969259162,15.263230808564762,5.066312059242353,4.131448339405007,-3.9846092167303713
-13.097232721543284,42.292822365447485,24.529823274554474,-11.426712986948905,19.255902865922504,10.963972823670154,9.393864083289369,-1.9513119141572666
-15.734979802172251,43.28042131800099,27.14134920778227,-12.326268201577543,21.605414081626993,15.173978573815601,13.341074683153382,-0.6554186795013216
-19.636023798994838,39.70566164087936,26.26779253841582,-14.848624732819715,20.58228994866991,15.587867125013721,14.262008279130555,-0.941483354725219
-24.398910808139192,32.91275159509255,21.56732514233137,-19.04159281324893,15.961292661720735,11.554451797335977,11.568073642376666,-3.102976888105733
-29.150275912767675,25.683652342320073,14.32845106055348,-24.19202791569024,9.110736760001258,4.1387722034809,5.964647593786794,-6.732716496753406
-32.80696212966948,20.79749954248395,6.893201582607942,-29.005707497755814,2.3471635918823286,-4.386347073387365,-0.9019325528857955,-10.868188442136168
-34.47565387961078,19.61915608961176,1.5538336038800287,-32.099259869005124,-2.1761041411040645,-11.577286840138742,-7.156139397298713,-14.37965713518527
-33.81024218446903,21.265900075966933,-0.6434950144821631,-32.5581018729275,-3.562884138451046,-15.885874272642711,-11.448825689281847,-16.413875079958657
-31.125802943626454,22.91253424806461,-0.44066285599744087,-30.255382998349756,-2.609410962374605,-17.187005369908334,-13.37441978498571,-16.66381176570897
-27.200818351769087,21.557435810432462,0.36436112089459594,-25.807255532707003,-1.1343770772361697,-16.466476137075833,-13.323926783114235,-15.354384952295337
-22.92036326546538,16.646056669726867,0.6699404910247154,-20.309597883580782,-0.45709105488960455,-14.900364992798773,-11.921824191191842,-13.035733411654846
-19.02148716063203,11.833508946356812,1.5584339610440143,-15.094285604586615,-0.05224363511925917,-12.98792877558138,-9.509557842167505,-10.37891847128854
-16.0733878424411,14.107306193910391,6.117660240505991,-11.57670757859248,2.4938034198289816,-10.352250320569626,-6.084094554484017,-8.081563836580248
-14.57549193355616,30.060587360762028,17.365404761980695,-11.048683302991414,9.957129842675139,-6.301517443771374,-1.6884871094978595,-6.81728386167254
-14.940076752998799,61.291113697752294,35.60701676630305,-14.271785397504596,23.30887113926617,-0.6699798210610941,3.1522245778206894,-7.095936569644197
-17.26512900634484,101.90287973241446,57.154006955248676,-20.974381624202667,40.39133513918946,5.714240118254267,7.3894229560311295,-9.016376264421133
-21.060223118440845,140.00752827268832,75.45746805783008,-29.60463720273679,56.40113231997082,11.267954220885873,9.897399871138498,-12.069514919110047
-25.210729909695456,162.71145530044183,84.08782123041685,-37.667779724914155,65.9742955041548,14.420332577177392,10.099207091150733,-15.199795051854826
-28.328956568493023,161.97152697952475,79.82248102142647,-42.63857729407649,65.69297989201604,14.408673169481778,8.329901900092537,-17.186780555718723
-29.348501973266988,138.19915802725296,64.11040154626963,-43.02162557116334,55.64284397160135,11.643870699776455,5.698337970272725,-17.173343456014194
-28.006093790414617,99.8167257575252,42.24122674823093,-38.95936499145228,39.27374471753539,7.49885511513595,3.5586583230877356,-15.034737988977854
-24.9021409400748,59.26062934353909,20.89591438866959,-32.02711666055117,21.798681121363167,3.712178189653286,2.9340891235223054,-11.370463746068118
-21.111078111604684,27.780577872549063,5.543665710061498,-24.359954049473778,8.095975747239414,1.7544338519194391,4.206780395602047,-7.149065385936278
-17.609723973824583,11.73880027195418,-1.021597941650678,-17.663937210291852,1.174786697918465,2.430787639963203,7.165134975864282,-3.253800846703713
-14.886280471001236,11.857826832888305,1.3768271841334747,-12.683345036962022,1.7509991680630002,5.790697844943808,11.266345744556284,-0.20402906192155848
-12.936504241093774,24.863415873443056,11.22721863409846,-9.333563368685164,8.720209696705359,11.228316121578096,15.867994784235314,1.8366590793662134
-11.575271366355674,45.58764962529053,26.02457603358753,-7.240920163526426,19.819371078238003,17.597334582812792,20.254369383707026,2.8692641403305976
-10.77865039737237,67.87774267058734,42.14662702019414,-6.186554755360633,31.91910887889284,23.277848115731416,23.494081093860338,2.898254404096115
-10.763461453882103,84.38081031747303,54.457217274458706,-6.099122950369631,41.07019581081461,26.331373992737223,24.379469541361548,1.9509680411905583
-11.726109077998478,86.85745610838275,56.87524246217488,-6.6665726868284665,42.98102927767991,24.950308889201327,21.714777081828238,0.249101537969671
-13.456883286362032,68.47829528081523,44.556293511481925,-7.002272245859962,34.385661850211925,18.20402840875882,14.953095668010569,-1.6518488592809115
-15.18540562342772,27.561683500362278,16.79310468235044,-5.79321919347954,14.852564864662424,6.73116422059578,4.812298100795211,-2.9435445384451593
-15.86117768319746,-29.78641310450187,-21.389950156847544,-1.9640708524556334,-12.191966648258251,-7.140691061030158,-6.637992372527292,-2.89222746262625
-14.734937069869153,-90.70695609769624,-60.54911709828752,4.570322786352153,-40.28807565490131,-20.125998623567522,-16.656688376246407,-1.2322882278642553
-11.852038124960526,-140.63547385975414,-90.80382070639698,12.633189391580634,-62.55125023815387,-29.30989243330426,-23.00272056785992,1.6389229116338064
-8.101303866741503,-169.79635136736715,-106.32640824441589,20.26096955016483,-74.7169198954395,-33.376801490003615,-24.937228417705324,4.820126817601431
-4.758832185018101,-177.2527801416019,-107.63423508909095,25.669428130942816,-76.81886108775849,-33.029031796758254,-23.44170306172443,7.345150837624899
-2.8133514752739903,-170.0574601752637,-100.35063704095595,28.103909869040663,-72.5145518407333,-30.363002139428357,-20.5221323975676,8.640642463172908
-2.50924163619196,-158.33961689419067,-91.47326143104212,28.049494370658607,-66.63282451441712,-27.634280496774924,-18.071155428289153,8.72893532262382
-3.377580706805579,-149.79793405824438,-85.74858116139137,26.734403125304905,-62.64238333755888,-26.20230579164342,-17.021978440904068,8.080894698447032
-4.663955647360218,-146.96425991536165,-84.27384860720304,25.340627841306294,-61.5373069655164,-26.220273711097626,-17.236277478533935,7.263560744025047
-5.7973023391550225,-148.08270818874195,-85.49868660366597,24.466373351490276,-62.38204289842045,-27.04106431438187,-17.99256906212515,6.641856776571406
-6.589725362842586,-149.934709967075,-87.21103405673554,24.09978076627347,-63.639354871096984,-27.874794856474658,-18.594585206421886,6.3002945837738125
-7.132429436069004,-150.41454738393494,-88.0589379327303,23.957632740280697,-64.28231011757887,-28.264467826830337,-18.732190512747074,6.154713317812498
-7.574581403834964,-149.7657587340332,-88.12209869783852,23.86095341097719,-64.28602427387169,-28.24958805804849,-18.545144892036113,6.108057858231912
-7.967945058346603,-150.38593382199934,-88.68365960795671,23.919296728686714,-64.54322737327196,-28.27746160100585,-18.488132366504118,6.1376690408864985
-8.228195106428524,-155.2616415761501,-91.29911761686573,24.46979269313665,-66.24906340618948,-28.9041912856571,-19.03818487149235,6.294479054883363
-8.193816158280441,-165.31219962236895,-96.30468149318625,25.80437476230266,-69.83950531047392,-30.33589919524477,-20.285904553709162,6.63756092669329
-7.779911557302379,-176.93931516879837,-101.54762880996428,27.775269141236954,-74.00365917976454,-32.03750061833342,-21.626046505709965,7.125205708452082
-7.19548195619239,-181.92802891272368,-102.59932587525034,29.4925595122415,-75.6603450290977,-32.767515803473984,-21.869157244041407,7.509426434576028
-7.073156292750281,-170.89595987704894,-94.97297300805457,29.421275915520315,-71.36103917404698,-31.189326949645523,-19.863281004002623,7.33470221811917
-8.304430828888064,-138.82169415189784,-77.16991022592052,26.03410765126831,-59.4399208923,-26.736291007360563,-15.266772312316697,6.126984145492647
-11.540182817418101,-89.04608200758207,-52.31658463443543,18.767214015540404,-41.40662039270441,-20.111094852776727,-8.894451900685647,3.7213944861080477
-16.62041154585715,-32.701275033474346,-26.938481685818637,8.676751129025574,-21.454572103224347,-13.006906514050625,-2.333749856364387,0.5167576893427392
-22.3544087960658,16.437897974220718,-7.500481163072564,-1.7371960324760654,-4.300286102130291,-7.198757185448022,2.9254975749289867,-2.568313593579988
-26.899620810823183,48.55683857213665,3.0155031323511654,-9.566007512735839,7.234333664159396,-3.602293454560309,6.252069860254068,-4.480234536385828
-28.595638328159524,61.855672321791516,6.2905093323341,-12.838546233691996,13.351155734452368,-1.8977325606608664,8.037013451764306,-4.5552514430779905
-26.792298632862003,61.9008252928067,7.004991230654828,-11.412804463053654,16.51850997194519,-0.9073115046733363,9.216442583634732,-2.871740393141327
-22.19171376237549,57.22553389112061,9.622375601876481,-6.932295973784426,19.505124639759238,0.5860923121247221,10.543512469144037,-0.2189910477490649
-16.50845658845605,54.29834581713635,15.768774201891464,-1.931600626263365,23.583400232045417,3.134867753381956,12.121076785083018,2.29425424293585
-11.643781693084565,54.85540621024487,23.706231157174294,1.3668551145015762,27.98569642092598,6.440658416842077,13.465943389693333,3.7665859801932364
-8.811610225295937,56.60642105139815,29.894807751948093,1.9469064857807423,30.749290035944657,9.705340421454624,13.99365451483253,3.8977124729007895
-8.016707398247535,56.17873426087596,31.466526733354044,0.24640487924593818,30.253321139683162,12.230220251572007,13.579753441730134,3.0934481993768235
-8.058540414104089,52.25630798077723,28.234971721138496,-2.2094873345111004,26.532264869384626,13.91525257854714,12.87301610016494,2.280949584904164
-7.015094634918932,47.23174628276924,23.32951239873827,-3.548647707917314,21.719294894266785,15.41938572701213,13.185466344361876,2.5214264623383946
-3.048820250382398,46.506394156818985,22.067300136492975,-2.3969776120389117,19.338326704502766,17.868905521471632,15.925621290630978,4.52741357090654
4.691750424529707,55.41926492692262,29.17740038686287,1.4321175987193044,22.519589813960593,22.13454042012772,21.695377223494457,8.22061346357875
15.404018739111136,74.88043150984075,45.289734705973274,6.685735991252402,31.731489435706273,27.93047823099318,29.410500892668033,12.530175161680805
26.589875507203136,98.04947497040635,64.55781978816869,11.080159104805766,43.22754870890752,33.26520045475314,36.024492197041596,15.636429568584555
34.88176968712955,110.82220178305637,75.48846545887832,12.330694758126434,49.546845578526806,34.81869652094145,37.35046692723702,15.699235977735015
37.55781841339044,97.37619158101522,65.6986496413874,9.381009870810884,42.5607527364898,29.401813509828532,29.931312276961233,11.80834786663827
34.089423404759934,48.89394645088778,28.834812443236636,3.183715727847989,17.969290824664775,15.919547397901102,13.157921668498075,4.663244938937493
26.869723898421853,-29.173036926804834,-30.077546351200326,-3.468705490941595,-21.14497218248034,-3.2787991995279904,-9.578847456238295,-3.459450014581204
20.564089482356028,-116.11036769097069,-94.42490768030008,-7.084181730077994,-64.0498521435267,-22.656241428448006,-31.600889282980877,-9.545162065141271
20.208888121764005,-183.02377812912815,-141.96810076946147,-5.065054172050183,-96.13565137099464,-35.5314759135681,-45.464627295293326,-11.135140823746307
28.903860495082473,-205.20106925493712,-154.47035021952578,3.0439474608589236,-105.19059548804805,-37.03725343921252,-46.18121432849076,-7.445439230745564
46.26415724023192,-173.54840896968935,-126.11930704951025,15.30124188791572,-87.0409120985923,-26.476440929778036,-33.51367903645771,0.25973799606266373
68.47044683007725,-98.96531486793937,-66.26262116916273,28.23478731840099,-47.56262918708791,-7.76272397099357,-12.121707443040645,9.239067119600799
89.91471127088214,-7.266442857947121,4.96869282843398,38.36283143929117,0.01158995325757492,12.365321215095625,10.554520542814444,16.502366457501527
105.57583132429423,72.5381044464275,65.69685624456393,43.58435635380365,41.0100355274149,27.4372867522556,27.573829060187343,20.078783470520484
112.9065182739199,120.34570670839433,101.2155327790358,43.78650584263527,65.34558265500739,34.01907430791446,35.263977291370175,19.715219258554917
112.3728314948736,131.49378979030223,108.5214371353673,40.49088217858719,70.73397769796898,32.761414954015244,34.184418565624,16.72486260786709
106.59419000289704,115.35156037283078,94.97941456338759,35.87361239168077,61.975027704445786,27.355414030981258,28.040800151139056,13.156879749118906
98.76023961078451,88.05636093847369,72.85196313879108,31.74583734109042,47.33501924225486,22.185094121775528,21.39104206364439,10.773713997994173
91.23638292079566,64.12061030245339,53.165052550560254,28.96776052989387,34.3414014930061,20.07415307565274,17.470059550382615,10.34561215219308
84.96358851286199,51.164174929460145,41.88346223250448,27.434853436755816,27.075743996205613,21.268697314280782,17.151617648559416,11.532373006576508
79.7019425984831,49.28801452957261,39.381773875932346,26.472883721701905,25.745671296310874,23.943074752581204,19.269241433731025,13.292986569640913
74.73719704173193,53.80482731550577,42.30105396340692,25.36145633132034,27.97394289447604,25.663761392253445,21.789854573102165,14.531619705667435
69.56092815406436,58.924902130499376,46.181872725059314,23.74548442656528,30.673204488984705,24.879050960374524,23.06287527208226,14.641087136353255
64.19505849823977,60.587565921735326,47.65302027565111,21.787871704911115,31.593158495279173,21.692279733640106,22.554841020229656,13.714194212978711
59.090530417782794,57.73468685440281,45.60481114440655,20.021801484883536,30.102407289431202,17.666529810301533,20.86704560115023,12.376613788096837
54.75232896662052,52.02577457973669,41.180543732201805,18.991124718911507,27.108930439247,14.89377211412069,19.182119020502945,11.37350482452501
51.35994677103642,46.36735779399138,36.732820186840314,18.890012539171174,24.27133113884067,14.862897590862572,18.50111621682612,11.150032377878487
48.624923930778586,43.044266455879345,34.32424278524964,19.426091186266238,22.937622394811726,17.710181404406118,19.08925704717942,11.650463195622901
45.95908793341293,42.50547075008128,34.63488183841463,19.981798976368662,23.41694889971773,22.216712069137266,20.412354920710513,12.418123786324049
42.813989434997204,43.46147397504678,36.85061123750752,19.938680920688125,24.975469543637093,26.50421232682952,21.544450216171153,12.891581309418465
38.94944196490417,43.98957905457116,39.37275948462976,18.94004967654789,26.424510040892816,28.989474427903048,21.73346206240868,12.690813142804913
34.47901409450796,42.67563531733705,40.68644235128103,16.967054427769245,26.792927295750903,29.04881230274265,20.749598348891862,11.740004387023708
29.734564355409447,39.08570621695659,39.88907629129808,14.270425004387926,25.677188633644274,27.094891833068868,18.859531836306207,10.219827904638256
25.107598988785632,33.65449133612509,36.87640709404485,11.266222180938758,23.248746279449122,24.16726668741332,16.561950697910316,8.448170666065414
20.97239291864243,27.45089048699886,32.36932184287637,8.441937416581007,20.110228811088895,21.371646734934902,14.329346401743726,6.780531825768476
17.665832889897164,21.94637555509576,27.73790775692067,6.249905005368211,17.0854578022584,19.45604612290574,12.484512468383663,5.547007893420043
15.447002765538562,18.543723355873176,24.452839223515642,4.985128681477527,14.900920077932284,18.634878838332558,11.184310905674021,4.9982953655807005
14.423495104932936,17.863276772656015,23.31455559314146,4.708706739724378,13.83326663572704,18.655006235602357,10.453605355376776,5.252507719560083
14.506153910124466,19.315321567206116,24.010554923675468,5.276874217600867,13.590619389136801,19.054989548166954,10.265462096918904,6.268545213168331
15.439467597163071,21.46956396109114,25.419955681900838,6.452417345118033,13.603069002881332,19.50031071669756,10.65406622378878,7.866865382956705
16.880043667296103,23.006947766888235,26.43551187148987,8.00784008473452,13.51524984228051,19.987454019692795,11.764143564352821,9.78491044358555
18.464409114029454,23.435228653238795,26.61056269701946,9.75849637280645,13.43504621968597,20.745587103153724,13.735111083122364,11.739065775734018
19.852436716678604,23.02674014496282,26.186975803151526,11.547054483198805,13.72427074258256,21.893397161236585,16.468926493099758,13.480322893980205
20.777113895086387,22.266405570805606,25.697696220729878,13.234560974038015,14.583573747360653,23.14836991424688,19.490859416005037,14.843364313699421
21.1050278336321,21.47819407543203,25.61788984201373,14.710977357834844,15.851962185852296,23.87161852908659,22.0733929509939,15.777019410703382
20.855830231826044,20.854167558234035,26.241571763782883,15.895766501669975,17.146154613118988,23.443068887779987,23.56485676279743,16.333166962460005
20.137810019832585,20.535837379095437,27.60506580926569,16.719824216362863,18.101217443833487,21.67971848039348,23.686067388898117,16.612109894390695
19.038474579413606,20.462701667417832,29.352785390183964,17.12235141777317,18.466012895485743,19.001298205972276,22.61117758748431,16.69909284972411
17.563187671950033,20.2131478987418,30.74088205290677,17.08240203463581,18.077356991031092,16.274089130237737,20.842725837791395,16.633521381565405
15.667553734456185,19.19867342598109,30.95939155559103,16.646767045558033,16.873682394308283,14.466070993157615,19.001972384578877,16.418894796911562
13.336816629402906,17.095756764041262,29.574273294147904,15.905618550698508,14.959593099990721,14.272576402425912,17.61483902735828,16.048073913613205
10.638541670309188,14.006286400199976,26.684446038008048,14.935984319357118,12.579905623567424,15.810909909229325,16.914994490091082,15.521110998299674
7.728973886572585,10.150136137680692,22.696683071779788,13.78779870648518,9.968262748157183,18.473516383037303,16.71786005200596,14.854818793187219
4.839194412624368,5.532215814933276,18.059038151362454,12.536515693130687,7.2431900580861885,21.047163475183336,16.466720743743114,14.085752442798977
2.2468983372862805,0.09743661128300508,13.264147822859366,11.324490647746156,4.494410294461674,22.12753882546044,15.484358045123276,13.253398404862066
0.2084479705407189,-5.763995951255236,8.976969811541833,10.305077856032865,1.936310334354105,20.683120708329362,13.30992409510875,12.358708796818895
-1.1406584836136122,-11.026028323123448,5.906868470075604,9.523603207527383,-0.12218046536143944,16.50504752498697,9.929568382366336,11.334102904586555
-1.8414417466929636,-14.503879405655576,4.38894769237609,8.875060245692872,-1.5153506337573193,10.337525756087654,5.801349276256767,10.081525557359967
-2.0530319537282025,-15.593828360785984,4.103341967668856,8.223136559316483,-2.3927560382111395,3.64891397485105,1.7132818597093626,8.585073200144544
-1.9151017840990319,-14.637649225994151,4.279145289464061,7.5947557998298905,-3.1044500589419255,-1.8691670420431876,-1.4523299340531484,7.017595112025814
-1.4578375959832595,-12.787193652296189,4.170904206704564,7.2706353305102995,-3.9398947157360102,-4.931659776215187,-3.0201416864166903,5.732680358715127
-0.6447504944566335,-11.701636191774314,3.3122752143029146,7.679153140288649,-5.041135879714696,-5.211387848696799,-2.834571530056082,5.112335460957768
0.5048409176146398,-13.164649390464467,1.4524040931964817,9.162662552235036,-6.528585786384316,-3.5270523850667246,-1.4089148437275534,5.3595127581022695
1.84078955888705,-18.257363286655423,-1.3854490925184657,11.75050397326242,-8.497270305413346,-1.4485688151039562,0.2906599078011938,6.368298663069312
3.104967140540582,-26.033253987793554,-4.433045153954547,15.015082584711195,-10.638383298035283,-0.4238065585812212,1.398677484180457,7.735550882868738
3.9790214957881034,-32.657563761560645,-5.771905483488257,18.031822480586197,-11.808494719626117,-0.9336383340869921,1.6787528062683368,8.875098868226322
4.07874500949565,-32.396134036090096,-2.8608415341035354,19.493643065911638,-10.219155637347788,-2.273751362084944,1.587354800540984,9.16193577995692
2.9396331512229352,-20.68390315471689,5.833761420360942,18.061697364104266,-4.495214890735636,-3.15342220604946,1.7788458277226258,8.079155375877168
0.12331639398448918,2.460155960133863,19.158098314282363,12.931141593397824,5.03766045706044,-2.6824821259803966,2.4452890086719163,5.379088654863891
-4.514498366404115,31.259736643626212,33.04521275337401,4.375025490946852,15.921140474409048,-1.018908317764341,3.049708757695109,1.2347180301437826
-10.548183149397806,56.54029246041581,42.31729899636907,-6.096351167550549,24.554087284916378,0.7721468138487277,2.6876489460249737,-3.7117084759894916
-16.94665722557986,70.39891988942888,43.515677082008935,-16.180780538065136,28.090076748051846,1.4900603713492544,0.7911172283181522,-8.497818097123645
-22.40151598781327,70.24085988567299,36.8701783130271,-23.691684320072156,25.992361113512306,0.6018546162348499,-2.3816573360306417,-12.177760880897226
-25.88140192835416,59.63496787513255,26.054131046342967,-27.45825812893242,20.198927895988888,-1.4843794738992968,-5.844875696564942,-14.195698379775664
-27.085674255064802,45.653448745274616,15.934606498815908,-27.71395260684721,13.839196344671876,-3.793183488301751,-8.481067850592723,-14.588309095911926
-26.51229449408529,34.73585258179122,9.92570700732504,-25.778131385938668,9.458316132488514,-5.440591853393224,-9.673884184101675,-13.896630459908758
-25.11261968187875,29.848594291800076,8.68121814587838,-23.278500087201575,7.945505490324218,-6.076546376154578,-9.536481563545292,-12.849643020952556
-23.783507847612093,30.317939742776026,10.653179463573556,-21.41185272000012,8.666799488722708,-5.882125811833246,-8.662083533860944,-12.022396386459816
-23.019974300135026,33.55893430276771,13.616849377330194,-20.62219785021635,10.34163851062683,-5.2826213505246065,-7.690663654763521,-11.659312895906059
-22.8748548311359,36.93375648933829,15.87698400558566,-20.724905537495125,11.843874443504895,-4.679235047350864,-7.02959919960788,-11.708165716736477
-23.129491899503446,38.697123487873505,16.63365205672825,-21.238166541457723,12.523569922704661,-4.337539976870236,-6.817787793832685,-11.967670890152192
-23.489666058531057,38.19898797459224,15.8563027039793,-21.679248124347886,12.210456449486946,-4.365011581146551,-6.998965700710381,-12.225599913071173
-23.710291255327554,35.84863104155014,14.105560211071088,-21.739925823591157,11.15984898847679,-4.697042103293029,-7.384268181877128,-12.336771789828175
-23.663356756525975,32.859233076295055,12.293365350446239,-21.35991095716798,9.932247867025428,-5.125134556032934,-7.722809685086039,-12.255364015639456
-23.371278923386935,30.565744666330755,11.219256141188954,-20.705583942808143,9.092630262041519,-5.421458196841014,-7.826416514032655,-12.035433593429868
-22.979510175474143,29.590694641514403,11.08533419635566,-20.045447957944386,8.855410623064447,-5.493410603152899,-7.68391757882445,-11.790674192748615
-22.654840798250902,29.558433155214267,11.445935769247408,-19.576731126518446,8.993943342448535,-5.423975855692374,-7.445486853841872,-11.620752898939875
-22.473879565938308,29.639290288032694,11.688021982848756,-19.323735382543635,9.120000733710285,-5.357481892100087,-7.274777715628491,-11.552459719635214
-22.396274709677208,29.3382228455888,11.55692897137418,-19.18055160485652,9.039461374570608,-5.360169395061545,-7.2172126904638665,-11.543225143025266
-22.33716356435382,28.724644814132425,11.20657329011112,-19.035696315279903,8.82222851244667,-5.401667661425718,-7.212503191195747,-11.536455188863158
-22.251498158992693,28.025793411698675,10.836816185015746,-18.848417668200252,8.586622217355137,-5.445001885149411,-7.205715822086739,-11.508168177514671
-22.145084310804734,27.240996908995264,10.438269736855533,-18.625168589777374,8.324901916115662,-5.506858552789268,-7.20620367638393,-11.464101729833434
-22.026764702301037,26.261149144702003,9.92935089109454,-18.365936865179044,7.979168218278163,-5.614124676063182,-7.236076354674651,-11.409296574066639
-21.88232549572065,25.20764911692844,9.40316195767073,-18.063115174869974,7.606136757186419,-5.736671654396027,-7.264859422021591,-11.337947882135914
-21.70362189388334,24.41381698855453,9.079141393917073,-17.74006082265283,7.358152687529293,-5.806113181608019,-7.235017707199411,-11.252403786563946
-21.520291815973383,24.023816433121347,9.010754453018986,-17.453532188683912,7.290106552938073,-5.8017618379476446,-7.14368604729386,-11.175241227176343
-21.377485061105954,23.769425361309878,8.97318248548338,-17.239201452802323,7.266538190127109,-5.783531062605267,-7.059955062914187,-11.129507374632395
-21.28310974330319,23.270515758256384,8.71858269953875,-17.06891423958926,7.115723282889187,-5.820478454830389,-7.044644649752323,-11.110873525710963
-21.196565889257872,22.487414661085737,8.274157535258444,-16.881706779265897,6.836339598570678,-5.90708020780296,-7.076730047023442,-11.091010370996699
-21.077911865626135,21.732578427400988,7.886919288454173,-16.653729185617703,6.5836022572851665,-5.977752203748124,-7.085089822548774,-11.050783560863671
-20.934557041601412,21.23720558108117,7.692342377989048,-16.418785922408222,6.457249884400148,-5.997554032284328,-7.04251558022046,-11.00103414444473
-20.805325791827176,20.8608863747979,7.552596066303385,-16.216257045000134,6.378257781554845,-6.0055401460560365,-6.995918791585811,-10.96471720887939
-20.705906293130134,20.32156858185155,7.270585056280075,-16.038807956465373,6.213710183180923,-6.054962813285383,-6.995655014453918,-10.945643027901307
-20.610169078976465,19.607247687000392,6.872268681307459,-15.848792844398494,5.968681736055492,-6.136428484266125,-7.024311894548827,-10.925807498468988
-20.490472352603206,18.994329505192162,6.566701438113642,-15.636255366358956,5.778350598126236,-6.190978353711383,-7.022807946336457,-10.893047834644463
-20.358761597412702,18.654632511575624,6.446711514657431,-15.435588533764257,5.715374452207481,-6.193516850115025,-6.975208394278975,-10.859375226800543
-20.250803133536515,18.40505693298438,6.351780302517478,-15.277685436172185,5.683767139853526,-6.189465708395445,-6.932932469641183,-10.844402730962647
-20.176041285789786,17.9522575876705,6.085773608956665,-15.145281291296856,5.548375021891244,-6.233200969346369,-6.944431110655219,-10.847440666275382
-20.10355270668015,17.29510387890348,5.687733421496979,-14.994898670422122,5.320896608448915,-6.313464227686954,-6.988138462061377,-10.847654910729513
-20.004211680038594,16.727310824693326,5.379670948459759,-14.81591267958989,5.144457698709127,-6.369048721672647,-7.0019271968659,-10.83249657642882
-19.890842203003498,16.43493454278419,5.262312385304694,-14.645086216307298,5.097346655976771,-6.373100168358582,-6.96847352955623,-10.8150641047431
-19.800603807355866,16.243136287639672,5.1783783551310805,-14.516059126513316,5.0864799595695604,-6.369609029943018,-6.938564734214938,-10.81613170901163
-19.7437194089121,15.860256889256078,4.931405105269051,-14.413177019894153,4.977068905281016,-6.411991514013269,-6.96035339301466,-10.835458137762165
-19.68931781206798,15.280913858328418,4.557186782874698,-14.293257396776102,4.778842597952478,-6.489000791089591,-7.01260992423255,-10.851981558827351
-19.608024400849487,14.791759816054483,4.273112415288796,-14.14526240914434,4.631734018492344,-6.540429854931185,-7.034268350212518,-10.852759038246077
-19.512656133572378,14.57384711233299,4.176498502795096,-14.005690833173635,4.611644184888715,-6.5406556509028535,-7.009227914904027,-10.850888172293528
-19.441094084438415,14.452831223489213,4.109778204642343,-13.908796897745253,4.625514048687818,-6.534280271776144,-6.989022472603555,-10.867877275383492
-19.405221817780753,14.142270420481465,3.8788332321476564,-13.840617771556614,4.540781504406862,-6.574609148764801,-7.022088719690706,-10.904911044381574
-19.376287205631797,13.641427826459363,3.52142994621846,-13.759926349506463,4.369314313081691,-6.650317626040736,-7.087605147052654,-10.9424498233241
-19.326027985174843,13.234217387724629,3.2531310218659524,-13.65595779411053,4.250122311756302,-6.70195469461927,-7.125287454030001,-10.967979782558809
-19.265379002572224,13.089275875846807,3.165474659246768,-13.561701228508781,4.2542460441175045,-6.705207876998455,-7.119274377284813,-10.992619676938805
-19.226379456875836,13.017590483903613,3.096484580005691,-13.50399695746773,4.283184513427279,-6.704886488066676,-7.119111736476588,-11.033198680228105
-19.213020452878595,12.730355408155745,2.8564899697483064,-13.461159658163139,4.204366013155609,-6.751698511301946,-7.168426843855065,-11.085410496126707
-19.191688193710227,12.246345280604292,2.498169340819083,-13.390258553668826,4.0382687562680495,-6.829367813901857,-7.2410908826438956,-11.127300357574834
-19.137911330187595,11.883693668871146,2.2533354378261072,-13.28964089035912,3.937020079128202,-6.87448881617435,-7.275688755544903,-11.150659733862389
-19.076725649684306,11.837957621273478,2.2168760891225614,-13.210713155451415,3.97991191277765,-6.8638300422359855,-7.262881141683786,-11.177869157212447
-19.059253000773175,11.91866084210909,2.2102866922501914,-13.199034141048944,4.064613097896838,-6.849442414125783,-7.264842236223727,-11.239184424684693
-19.10257764898562,11.801569147782208,2.014413545378815,-13.239429767197304,4.042903105497724,-6.8921460094910145,-7.337051173464634,-11.33767533992965
-19.169040508451374,11.447339504483416,1.6548689295982453,-13.274115303843713,3.914110734709633,-6.982986902291182,-7.456181966716873,-11.445297798707934
-19.208302999135434,11.115088676245144,1.3528990575080333,-13.265481133623462,3.811987799496984,-7.058350171805508,-7.549921115034616,-11.532343854644612
-19.20426233079044,10.970346748028316,1.2186045409246786,-13.22062158172897,3.8097392722375645,-7.085137645436758,-7.58598466914319,-11.590868810900675
-19.170342519096124,10.856764098896312,1.1191473748354728,-13.15630635370351,3.8222721527974777,-7.09691056121641,-7.599748604777376,-11.6270390659668
-19.115377718711795,10.56866613704808,0.9044953684667947,-13.070938846279313,3.7474621823156906,-7.133190675838191,-7.629860888094516,-11.644899287110691
-19.043825361789523,10.23926155042202,0.6616806294803185,-12.97640281842828,3.645872554096896,-7.1730589311073985,-7.6621446522927075,-11.654942450491326
-18.996213969077886,10.257252494390224,0.6133775481056392,-12.943393267761879,3.6897435409816595,-7.165021020877852,-7.668561668783516,-11.69731273167826
-19.059549066282887,10.752824401383243,0.7713011968733664,-13.071425438555364,3.9246474688087014,-7.118316694426874,-7.68589286194463,-11.833769041050736
-19.29781793727527,11.310692405266463,0.8227356702911457,-13.381569137507476,4.15796091105326,-7.124910324006086,-7.80800938993309,-12.09200658129236
-19.656374884287896,11.320094718504164,0.447789194882189,-13.741260931845813,4.139849042024766,-7.264511264801748,-8.073929246573496,-12.41037700654725
-19.948906692251324,10.572542437167048,-0.301898649228701,-13.919018013597555,3.826410404339464,-7.500897777740191,-8.38197690407052,-12.64802210590198
-19.964816080351486,9.430281257804864,-1.0225086251843507,-13.73927315444997,3.4153145380940573,-7.69695045174973,-8.546704982045433,-12.668379672619535
-19.618944417935342,8.471143600737136,-1.329336431862139,-13.21554948071516,3.1477034715218246,-7.731329434192971,-8.451013526742155,-12.43732756554742
-19.03577853125213,8.140093642710093,-1.1212054118454777,-12.578969879159269,3.1521486552831273,-7.584665108118499,-8.141940333584522,-12.071404530602857
-18.528973940002132,8.75187618770342,-0.5038384108071161,-12.21100729836245,3.484148201336836,-7.324809770689928,-7.799820263185476,-11.815474679407991
-18.498003496153625,10.518103796413468,0.35397435972163377,-12.510084986658674,4.183706290105137,-7.059365460276375,-7.651268322777868,-11.958536657401188
-19.255398796337406,13.1642461441618,1.1164511830045312,-13.684942463609742,5.1350771183525605,-6.936792572592067,-7.90438219688372,-12.692935497716531
-20.79179112509347,15.416619538552172,1.1117227375143828,-15.499497889196284,5.855340541179769,-7.15070253083102,-8.675252274795701,-13.937984392489023
-22.56625404969684,15.190535394702106,-0.42874955213957733,-17.123064377817265,5.579096491782214,-7.8371860540955955,-9.847445364416078,-15.214768775350452
-23.512533237793303,10.774352666980432,-3.691602449989915,-17.305837543146836,3.7428145786638782,-8.883784509523492,-10.94530417192518,-15.708075871996048
-22.40765026624094,2.1515482309925824,-7.821651486715317,-14.93721206393201,0.4688077779112777,-9.845127247628595,-11.224738196794693,-14.582322220216437
-18.503818871910262,-8.788479739642156,-11.341390207579172,-9.724903350954072,-3.4622433721530737,-10.132899568334247,-10.06812872439465,-11.433638359110597
-12.059206351405887,-19.468108159678724,-13.2799412351807,-2.541645251181192,-7.190687021588105,-9.395715847128992,-7.468490838384045,-6.604496653625246
-4.379138574841496,-28.28596686378749,-14.057886072128918,4.86148441244548,-10.402477825271975,-7.789408770059459,-4.215024678710328,-1.1188176125345177
2.730922421092064,-35.39028043729652,-15.298688119640401,10.661635344582212,-13.449625053815115,-5.899845759450638,-1.5638961210201945,3.7736726303096044
7.799588444081183,-42.04615107819855,-18.648316589072564,13.811307809582098,-16.888072323776765,-4.366746574030107,-0.5664719525420665,7.185196996414466
10.306412940147911,-49.23856415888832,-24.521590667058938,14.408250009362431,-20.861938664426457,-3.5026144569033697,-1.498650427738406,8.948221585593117
10.726972261667427,-56.705008044316244,-31.76518700826805,13.394971653282212,-24.880383775067177,-3.2003718144492246,-3.7700483052600022,9.53466986545751
10.044101506387225,-63.17205550774572,-38.503082740537934,11.847964698860403,-28.190688919513185,-3.184144353883642,-6.346203593909147,9.627735325724306
9.104002422461875,-67.50262410678471,-43.46355134861771,10.36054071571551,-30.41561093514668,-3.3667650021967748,-8.352649147366993,9.663031998952661
8.237394004653666,-69.63809925681682,-46.6750818963691,8.884082795182938,-31.84999290467327,-3.975199945386086,-9.42792129464006,9.63919439606051
7.308701372906671,-70.46976349195691,-48.998778240707956,7.016701754773531,-33.108696828646416,-5.303522294427963,-9.637299032177634,9.273032682010568
6.0401791359003045,-70.90323821540996,-51.0550027917256,4.443465587269765,-34.45587543780752,-7.297687046711882,-9.1342402250482,8.334420956461145
4.331381934337271,-71.16954559174995,-52.617544400507015,1.2313891236307541,-35.47294379057569,-9.346921372575473,-7.920703707372066,6.914540708146654
2.3937614806204195,-71.01012197027968,-52.964856164340105,-2.130090102611819,-35.37230516750443,-10.485778955457361,-5.885232141328624,5.473141843679034
0.6862734606315392,-70.29467719925438,-51.67843912145945,-4.894535168303745,-33.62283820273602,-9.871606520557307,-3.005716774388825,4.663174069738931
-0.27612376438621294,-69.24029391973345,-49.06175085389106,-6.3396223801633225,-30.323338280168418,-7.217561894564216,0.5057104316810773,5.036072644492373
-0.15976072163407196,-68.07836317648864,-45.93767694505136,-6.069453815295462,-26.123156892938166,-2.9560483229453527,4.2119986794939,6.764327992606314
0.9977260274920894,-66.77866434221833,-43.24080626825785,-4.210984822032889,-21.93698911134225,1.8844693369363616,7.5548946334615135,9.506722983876323
2.7560631072780697,-65.28019304421022,-41.79652692686569,-1.3775566296590718,-18.72258045046051,5.995113035846467,9.979251138788355,12.495192142384164
4.459159508836249,-63.88600987674715,-42.19920301694215,1.6135855601601026,-17.29634045394314,8.19925410194703,11.073118911999845,14.829634071088654
5.558748618883923,-63.18417075399889,-44.539564010594304,4.112302539187565,-18.049479854462366,7.853828959688137,10.7165898678126,15.853154605867196
5.878048926409132,-63.47013626458314,-48.1017122617089,5.8738735772562025,-20.661000809483372,5.082049830374049,9.156228967933579,15.422650502552735
5.6561584298811045,-64.32856056424497,-51.454923039888406,7.058377342221749,-24.10800372687612,0.711338252053489,6.918214584676442,13.945688858256089
5.379025717067034,-64.86690955694614,-53.083241300775676,8.058846813793682,-27.091549522074633,-4.046462706569705,4.599505313298113,12.18586954743248
5.533843199999476,-64.32008949123916,-52.134635079991796,9.290640942389176,-28.609053749196494,-7.980343802192559,2.689068980479977,10.944351671330967
6.413271565866349,-62.388909753000895,-48.74393861210144,11.014534549833543,-28.287542922382276,-10.158192725692874,1.5176202304921378,10.749424387601795
8.006871610910702,-59.1375761536159,-43.83175256873439,13.20905871116375,-26.369259836710306,-10.079975575400425,1.2754994697091677,11.658071641753015
9.976182744771206,-54.84447420181766,-38.71139988061075,15.529277051201674,-23.53622387330884,-7.776659271300761,1.978946454727289,13.23719772715879
11.735396595230995,-50.093713398395586,-34.756178776207506,17.41375925648615,-20.729827883666616,-3.8522056489077703,3.3803845018538796,14.743621642075547
12.657780475081667,-45.83987944199558,-33.044853865800924,18.331937011162694,-18.90666834006405,0.6330156175539648,4.952254391655072,15.443136271628568
12.34764525594762,-43.047421505137244,-33.89407171644947,18.04364479170994,-18.659175542729837,4.486974284606748,6.043787885727952,14.93036834059091
10.837070346079512,-42.055315419345526,-36.54376983876721,16.712361376455473,-19.877491799855495,6.792450143662838,6.143675097666318,13.298799596688186
8.592225804959208,-42.30273631200086,-39.41258055374551,14.822921959903177,-21.768582265687645,7.173008202465995,5.077087257337672,11.089708303875105
6.335156841739631,-42.754770431161425,-40.920545343722836,12.989475129082498,-23.302584116966944,5.802691849642137,3.037193151671984,9.066494029335312
4.786182324672921,-42.61260151208571,-40.3049364106326,11.766606231481221,-23.75911333928916,3.2389690356085103,0.4953999560071293,7.931827340928152
4.4322339121532455,-41.636334275158106,-37.83301987206989,11.50434615802596,-22.970455863205796,0.23552645691020338,-1.9221006213248744,8.093185983289569
5.371721921425899,-39.95452025744355,-34.401374813183615,12.235745896559346,-21.198401169339885,-2.4024878504388236,-3.5792288827689522,9.527488990627013
7.261639727659443,-37.831845708452946,-31.02088747283371,13.616613549602592,-18.91969585638062,-3.9732382818551644,-4.032672594466757,11.760439632001948
9.40201060466254,-35.74061605902643,-28.569963633188383,14.981247086095868,-16.74331984491756,-4.078758501952153,-3.2528947597590148,13.973660760933276
10.965706385501765,-34.48048714371414,-27.72341997423638,15.540333897023768,-15.376732457584875,-2.7946131679826136,-1.719146811961764,15.239232246390193
11.29212293480327,-34.91273019394829,-28.803060546440076,14.644549099148069,-15.44795681931659,-0.6887869358176762,-0.27502256667883807,14.825862764968189
10.093108891911822,-37.402625937150376,-31.602932497869777,11.98316231625131,-17.220053401406318,1.3387112328934845,0.1981140593592201,12.460288381614513
7.465663484922688,-41.55980388061197,-35.486600759296635,7.644058115043025,-20.4595976547136,2.3161715674591723,-0.8987180250907075,8.428607825371301
3.745968699629574,-46.597907264169244,-39.80765091122221,2.0609278310543493,-24.601428060221192,1.4799619148186067,-3.7118877551258627,3.477757965483612
-0.6594398420732707,-51.907343071160156,-44.27241027085776,-4.092977058463687,-29.031339547941812,-1.451797598857538,-7.915259629779016,-1.4316064990271644
-5.359026070635026,-57.20384139458495,-48.86852772230133,-10.044190376517761,-33.21490778053212,-6.061455496004022,-12.7774167105609,-5.421196528976437
-9.979538925030658,-62.19151092728871,-53.482073399867666,-15.092897670981984,-36.65329831160721,-11.213616580986487,-17.306269661067198,-7.937246410484432
-14.15238638967798,-66.2972477814598,-57.6914114510505,-18.77892548639873,-38.89001700752144,-15.372488370518102,-20.499323506618413,-8.85643684292345
-17.52555826693498,-68.8860830574477,-60.979653851641366,-20.956353065142242,-39.68962950325242,-17.19413838385216,-21.657381765171465,-8.422230541970137
-19.800436267217805,-69.68956287433775,-63.07487826652565,-21.740012118040088,-39.21210117006069,-16.106108792757777,-20.62750558244626,-7.062304249860711
-20.78872050564612,-68.90536772986773,-64.0059801812286,-21.38822918433877,-37.943090913646614,-12.564464872104582,-17.863543607314845,-5.210097544392089
-20.490376258656998,-66.90043168678018,-63.8808625432539,-20.219299536987982,-36.41562346557117,-7.884611297941482,-14.309676951744818,-3.2371455143596553
-19.158458788547648,-63.975580638759375,-62.7531306084265,-18.58078506199129,-35.00052868648628,-3.7698154072953853,-11.176147322670703,-1.4904486244897737
-17.273116776371815,-60.4863423610778,-60.7550813189423,-16.80683195108533,-33.92043369164446,-1.7346848934099373,-9.63292911573504,-0.3238426338825269
-15.380557639720784,-57.020098789620015,-58.23643298646352,-15.127309550060623,-33.33126802027199,-2.582810012254455,-10.42311374150826,-0.02843253816600825
-13.868739454620068,-54.19028164431316,-55.61417587874521,-13.59728359420914,-33.25892374445761,-6.086703427193508,-13.505050832852852,-0.6935169966843434
-12.832230770266777,-52.168014669871994,-53.079797032065386,-12.142964424131756,-33.45922869175963,-11.033983237473084,-17.962287553559065,-2.128134413740834
-12.11518062922549,-50.55075203737214,-50.58731051649155,-10.706311500466818,-33.475532868540405,-15.706900683078556,-22.347869954631257,-3.9322577347102574
-11.46319350470945,-48.83524933607408,-48.20550049896386,-9.342383534006037,-32.96520580963354,-18.612939041515638,-25.327384086442894,-5.670112041902924
-10.632054188694747,-46.990864423257975,-46.37212392706708,-8.15136262378064,-31.988094799218793,-19.076627519786665,-26.225910190233563,-7.015048644323261
-9.385697475057295,-45.44211648573797,-45.600297102849694,-7.102577289697945,-30.912264922562514,-17.371397470626484,-25.150666512967376,-7.785959842542034
-7.466321395921855,-44.460709541941135,-45.828755556622944,-5.939475406752552,-29.994632778185302,-14.391534904315774,-22.704518993022123,-7.907085885539623
-4.659815670154861,-43.67482298638679,-46.106094569850505,-4.294215552458251,-29.060935538120777,-11.14938988922226,-19.5872171242102,-7.371852933891909
-0.9669748744392079,-42.243434396364876,-45.023726990107654,-1.95461488512778,-27.60030277993794,-8.397664224785284,-16.35812959732654,-6.247360573393158
3.2417241582017873,-39.476152487868426,-41.58902747483161,0.8974055412882799,-25.162796948189246,-6.4893996642926846,-13.40950976355994,-4.696399998433607
7.221786903358827,-35.31654903142296,-35.89894969775529,3.628862213791874,-21.72581399957268,-5.438240921162606,-11.044419631720054,-2.9853531566952562
10.03629929033679,-30.50801516991412,-29.29722153499342,5.329442688530856,-17.86253521926442,-5.119299570982906,-9.56463883058178,-1.4671734813281034
10.868122506594084,-26.67507592853005,-24.099106962460404,5.183610943643015,-14.749212629626758,-5.530874252555617,-9.315750155277776,-0.5257128499115866
9.380155590104374,-26.26691403663721,-22.92878139284785,2.9422986151101305,-13.960923635342303,-6.936996990407973,-10.607183371863522,-0.45255148688130536
6.018455674629629,-31.779802444228697,-27.537338831167236,-0.7038129254350665,-16.84511018791745,-9.679316783304479,-13.431416042774952,-1.2634695006569365
2.0939834058564197,-43.97122159392418,-37.2950620846542,-4.120941480871236,-23.489816196585416,-13.668390097437017,-17.08332524486481,-2.5544550291145804
-0.5275028580853203,-60.00173699330385,-48.290787957740534,-5.268841687053712,-31.884700442318284,-17.92618393793436,-20.01514753107021,-3.549544843922378
-0.13278621926405945,-73.2889576623222,-54.18991418694303,-2.6318606767864003,-38.15100164868464,-20.67296922928136,-20.253995003655543,-3.4068507063140645
4.017535285754669,-76.07103634540688,-49.0434092095997,3.932916608065265,-38.16340312430223,-20.10991160416254,-16.33633687264583,-1.6575256830983764
11.21874924114095,-63.61347145364542,-30.67613679824433,12.965125627343623,-29.810405838410908,-15.480508010614276,-8.245098911077632,1.4881331748928317
19.541839239407338,-37.404284316645445,-2.4767611817832074,21.999835801712184,-14.459487905041293,-7.691460214497977,2.3046763384804807,5.187409504521991
26.686924511321088,-5.01534931269713,27.807613514007244,28.698004943349932,3.448225609904108,0.9870689995125169,12.526064568534242,8.366037596908702
31.012497479732012,23.565595534801353,51.763608747712055,31.868229544415644,18.555645609121136,8.010719805490968,19.84272314020879,10.238047185009666
32.16490818675883,40.92292854959221,64.30575391049398,31.813810868981612,27.20450981643347,11.775011973043188,23.041894275714153,10.631549783605525
30.99489604647223,45.402652655542276,65.57837795230868,29.889377745999273,28.91247795075678,12.219954961091295,22.627980565793546,9.95012768384161
28.90869414442002,40.7278621715925,59.844911147262096,27.649649743604847,25.94740154363237,10.536370153354703,20.25254403950487,8.852940807353182
27.121359358340303,32.859837252135364,52.510175026412114,26.149511460573088,21.572026282106247,8.303284689959412,17.70000595467804,7.900234219550871
26.23547476896606,26.64042317523119,47.44057504679114,25.715888792453356,18.305839504127732,6.690156906031075,16.1044097901236,7.368172284283642
26.248484071156724,24.24259678185923,45.99832469798529,26.12148736463288,17.18787500598642,6.14479058140847,15.75103414709781,7.2616562119352475
26.803788058088607,25.528827539148203,47.60742310130483,26.892941450468758,18.024271321223885,6.529048461364965,16.328774206935712,7.423363488400476
27.456796511128267,29.105009109482747,50.78213456569641,27.564712637267565,19.980726363128028,7.40699775658393,17.287329089126775,7.642762530488192
27.859008352047503,33.147389934993875,53.902791204892395,27.844640030266362,22.053924908347522,8.2816632519186,18.09707358137417,7.741197278831904
27.863384678672563,36.021925714627244,55.74914173699059,27.695963363498056,23.417119732160046,8.771829933693068,18.417244469062155,7.636698759644665
27.544154053599073,36.92405588959495,55.923877788573364,27.30107471636704,23.728097710568676,8.750952921499898,18.19923590803225,7.365394699434642
27.107629017018326,36.227875167703985,54.94429548169372,26.903934224874217,23.247258202669542,8.376517781307093,17.66492151692224,7.034267426337489
26.737715946998467,35.072589765539014,53.77035209735859,26.639865695056912,22.577442653557387,7.946856296713579,17.128712533923025,6.736107426968526
26.497108649458546,34.42137799193969,53.081655117856556,26.49713207361075,22.189976258368382,7.682080676594693,16.78762118584483,6.502344738215077
26.363053208765905,34.49241179801653,52.972898539804454,26.426362031214115,22.17913661675654,7.624203827485361,16.662760708398917,6.33017022242053
26.333265471677972,35.07022988738725,53.298233244277505,26.45380945192578,22.446460175351127,7.7239576937136105,16.71460035658152,6.233668547458837
26.460848673204598,36.14777728975524,54.128250284005,26.65852944237611,23.006618124246444,7.966856300994624,16.953926265019177,6.242549790413063
26.768122965926374,37.98233889208882,55.67350752054841,27.041609331649276,23.980221181332432,8.362829617575533,17.390927325226016,6.342884126542135
27.141679352575927,40.47312487199604,57.74865547935411,27.443841045927186,25.273545567273143,8.822205732228113,17.890110753866782,6.434289155240384
27.341674849020045,42.71918637376045,59.49170667802327,27.609969205559715,26.38463166681738,9.10852793763755,18.143526475253456,6.367674402156615
27.139049145190416,43.461273921037524,59.803840313310715,27.34313673143412,26.656075021986062,8.97795668257074,17.85378153030354,6.042678851137587
26.475551106561554,42.07085359794739,58.17129265904535,26.632965042071913,25.780748325274825,8.391778823644952,16.983639732095927,5.488542177466645
25.54662438835142,39.1568193499937,55.16619010976146,25.709854925519657,24.105762869529524,7.603407693244548,15.861264987911847,4.879563530169887
24.78329156330536,36.36421408963693,52.33063486520155,25.033945788032316,22.537443148837735,7.057915835026019,15.075731696533357,4.489187966212847
24.732342902361665,35.72082850603203,51.653509919242126,25.181018985338465,22.206056813331045,7.199419110256204,15.241876412338842,4.593430993282079
25.80692642756592,38.91459395442099,54.817467502046796,26.551038424995173,24.04534919573397,8.273951576077,16.706161989234065,5.317393452975084
27.927693268340054,46.38911477258158,62.1459501580467,28.949048019795566,28.23964452956762,10.128868968393379,19.22291915049737,6.456073437760407
30.236587547272887,56.218885363841125,71.45736132113207,31.309193442342686,33.59670331025552,12.050653396692592,21.728763902357283,7.391014904138881
31.175186433213263,63.59278209624068,77.75180255573521,31.89025080090235,37.344413660260564,12.836662569117143,22.496743743563503,7.251828687453222
29.076263250100837,62.172341731697365,74.77066413153554,29.01084554010175,35.98821658447967,11.295760720888113,19.865728292583984,5.341420783554227
23.051677360878355,47.47514024089386,58.2976233088469,21.981640793408282,27.211330556541466,7.0589084093403205,13.31360772380808,1.6230122810739323
13.659532563261086,20.429530731382215,29.39152111718721,11.674230649641538,11.769469946530991,1.18486526981047,4.199276358179334,-3.0537579978013856
2.878546224779498,-11.642812652175953,-4.822498636680305,0.3324185824382607,-6.061643349146099,-4.006467853554198,-4.493204486843967,-7.201430155970269
-6.684720903052288,-37.961813672539,-33.85752631917678,-9.33217155100868,-20.151499268539304,-5.994414805647378,-9.496669384931197,-9.349039186612337
-12.949373679601901,-49.75403843586749,-48.81387135812783,-15.29943205062403,-25.535968355377186,-3.4916799694137857,-9.017574860162386,-8.767669549360473
-15.23599949389648,-44.94627398485518,-46.7571981376655,-17.04814873091698,-21.049425782270927,2.6131906122971076,-3.8627396924988857,-5.863718058377817
-14.401614614117795,-29.144586292059923,-31.999658429478192,-15.617443494260936,-9.986237227102192,9.447980851434618,2.7983200045940193,-2.0147958616849895
-12.228516644631258,-12.324789710569608,-13.658182926089303,-12.961712841009662,1.598750700812679,13.463960023786269,6.961389118343392,1.060517558526405
-10.479647667398192,-3.378212048379409,-1.0563502395644406,-11.00101826305536,7.931318336449753,12.163657627047009,5.759093046538274,2.0581628040216753
-10.140613250975964,-5.833000481450816,0.42666236987493367,-10.843233860233767,6.183178711631139,5.311299466878818,-1.1986427913635131,0.5969184723942399
-11.1613606005848,-16.976769203279577,-8.902492728148985,-12.473167945966157,-2.553820511373561,-4.982255632130007,-11.762057573969887,-2.721832370078752
-12.705307927329192,-30.278463001364603,-24.10050689587639,-14.957147639051417,-14.225144324332193,-15.266836898646435,-22.368409300274045,-6.672280527553125
-13.707570118036514,-39.27794971938397,-38.48873656896722,-17.019696007356767,-23.99594598414073,-22.293880944251647,-29.708792222939298,-9.981075203569215
-13.468657225949917,-40.88989406049503,-46.96293587438575,-17.713577396887818,-28.5747046398961,-24.368424253933195,-32.138007087086514,-11.85502095653537
-12.013801451323149,-36.785695976688174,-48.30315714011538,-16.846284652966027,-27.670435688751052,-21.945384601701665,-30.22689155072002,-12.221363600281013
-10.030545636901097,-32.27220837167678,-45.358970347204625,-14.93441685885034,-23.879087927394504,-17.224673360227385,-26.231136906421913,-11.57569923586678
-8.394418446237125,-32.83657205833536,-42.73352563011072,-12.745051921810465,-20.871705374574887,-12.897698408788171,-22.70597072034878,-10.541502843807239
-7.550739218276352,-39.71536557454455,-42.982332900822286,-10.770116825918004,-20.670843873718205,-10.611035153375953,-20.93750790963423,-9.422605856912709
-7.161113060932784,-47.093198002415704,-43.689493991812185,-9.018873070830642,-21.6324952018046,-9.96391511035753,-20.07076988300725,-8.041148724765595
-6.2878705962824215,-43.45024472657329,-37.77420717562365,-7.246166407131919,-18.694805651601996,-8.688089301082094,-17.538901669085618,-5.961241684515558
-4.026151722017003,-17.322021069397355,-17.45346861501886,-5.377352138786762,-6.155992981922669,-4.014637587539736,-10.65146603346624,-2.926135254816737
-0.16180697168384106,35.50056434540494,20.401734202185974,-3.7453569475799933,18.560429650556394,5.540103400436735,1.5828936428926363,0.8148406805366641
4.602827075185932,107.93942555336973,71.10921547830353,-2.9310387277602525,52.60899294805444,19.0771223036702,17.55657482899026,4.52984385381198
9.015324722256993,183.77818086776995,123.56197534165767,-3.3330595893454844,88.5368469674204,33.614611755298235,33.6895807117497,7.365778291387225
11.978744709800097,245.08145603276117,165.48487362121628,-4.814260006093206,117.818220603747,45.597065253522274,46.20156865341976,8.79926309185204
13.118936233123545,280.5038877545998,189.29585282168085,-6.712089022860008,134.92524193084503,52.65511164161646,52.92332817007351,8.878715417122734
12.862198443579858,289.5872985637641,195.01219607645444,-8.21315479095837,139.48293014355747,54.55450130862384,54.081469532893536,8.122094316234328
12.043221298223683,280.9433557876642,188.80595068033801,-8.807728196159658,135.4638892040495,52.88917575479817,51.73823054290969,7.182083408895965
11.379894454912128,266.26957644193146,178.75541976862291,-8.49818016444623,128.3760300003844,49.92647316261348,48.447438922348255,6.527618905593274
11.170111690135805,254.446296228885,170.83894725752188,-7.666702993089978,122.48638805720874,47.45923757765749,46.05318231612212,6.321193462110839
11.320676711853675,248.9895882019045,167.3396914583011,-6.7825941651040695,119.61376510943013,46.2900068013398,45.2262522002404,6.485823784931291
11.57054727769997,249.13484997156328,167.68024728063423,-6.186579541381798,119.5853236898363,46.3798487236184,45.70385247731497,6.836265856921454
11.719695395389007,252.5148743712094,170.2343940613457,-6.022021837300559,121.40280180326593,47.28801135930308,46.82197592193073,7.178086087022205
11.770139734822218,257.2915633899397,173.73964577158384,-6.227135906691897,124.16496418987884,48.54766721083363,47.981016831316424,7.369006224744488
11.9523852216194,262.87695385988263,177.80295755070253,-6.532471514587158,127.39379789463045,49.85160639302708,48.90344183639293,7.3658731624226395
12.60249645171651,269.37907342926695,182.55657921776722,-6.525512053560416,130.8409019222363,51.055832135075235,49.65119919396751,7.242266436489306
13.889799674725134,276.1801519226789,187.66856900143011,-5.836964260714473,133.94909069887126,52.0254632377625,50.39873251323932,7.1496271455524845
15.53680028371432,280.35150907121954,191.22170704873642,-4.350610220595856,135.27928491183687,52.415612777500954,51.076496357040895,7.249158698604191
16.783327928526,276.1934622885537,189.45626043591108,-2.248130187327038,132.46259007578064,51.609132204872445,51.169437608730284,7.684176651012926
16.736230040810806,257.0974741590747,178.20113058637926,0.17254842862963765,123.1301354748926,49.00144934467232,49.9186926392725,8.609633810790848
14.938620324402526,219.38559584321607,155.55242626588597,2.736720717992698,106.51501284640139,44.51464899814832,46.836604482233696,10.1918142290183
11.755899941804254,165.76734161650754,123.93738177058185,5.442899801821968,84.57149439478113,38.89339641549786,42.09540595719681,12.472725585036686
8.254056371380111,105.61899095993336,89.66424868468307,8.24719038563554,61.48045161558579,33.38229981046593,36.38588484315438,15.122419484381165
5.60696185050546,51.25601802725719,59.79251725137804,10.772679043924477,41.54329669974306,28.872492078526896,30.301396074850835,17.277292601550585
4.428729237191309,12.265361744524963,38.30981852824365,12.25577822317231,26.81839196754463,25.13221588311425,23.778414542804537,17.705655374772984
4.49416638429674,-8.565506079034026,24.32691739653901,11.893407594521397,16.228307667991235,20.80513754577644,16.157953027565426,15.361735473286679
5.022659691362496,-15.277503575931783,13.615269692868004,9.421661577673671,6.864190337068295,14.341016358984758,6.941197993859776,10.077232515465237
5.278149770191766,-15.082100005088607,2.3256524107144476,5.495945933526414,-3.439045859604304,5.2790783144913425,-3.3224447059314333,2.933112850452185
5.021011979445823,-13.801596326206818,-9.933551784723576,1.510807904529894,-14.19878384638524,-5.06959196802281,-12.805893651602743,-4.033183176222413
4.514801946880346,-13.457859520864602,-19.94852525514458,-1.1000798880353786,-22.511225336720102,-14.130811958419597,-19.18243590375955,-8.715255353555394
4.182192834699487,-13.056368387731634,-23.629982558061393,-1.6251735099851652,-25.208599379731417,-19.476569572784925,-20.953412376758855,-9.924297811168016
4.261305418345206,-11.108208103070737,-19.354257648576674,-0.3764584242606841,-21.261077800343816,-20.15191184499249,-18.375898396505875,-7.884385494677175
4.730080260390277,-7.519209416514602,-9.376525323249803,1.6420823460031968,-12.645768066179546,-17.019733622500574,-13.307768074894021,-3.966000344974823
5.478229267739071,-3.6148872739436158,1.5228520440878972,3.426159012345966,-3.1821278088034157,-11.989892763269456,-8.085915266699997,0.13093846788286234
6.509792019260156,-0.8354256340015436,8.956849518841876,4.558534671749635,3.6990970020244966,-6.775889159377827,-4.20932101336947,3.2390013766584627
7.991325574979995,0.5954904430493997,11.416019656981671,5.362928720806704,6.760252691367989,-2.0206254457782626,-1.6398666698586364,5.171062724575813
10.11256700386761,2.153081743519248,10.945396915280837,6.575708202090477,7.373267600471502,2.7555713589570368,0.9408331019711434,6.576330169008577
12.83659209036163,6.440842401385807,11.779103489791854,8.724869358136463,8.478481430717014,8.479181678747146,5.134087527794829,8.339958034503644
15.654608112415614,15.65490533573275,17.588584541741387,11.543523762203515,12.653536380527374,15.555710500633463,11.62124844168529,10.867596592951434
17.485554251361087,29.44742725610337,28.577385602536236,13.770221078762773,20.171459088366884,23.12306313209669,19.346462019987786,13.643145823825282
16.868526031835234,43.22616487066435,39.979679709472435,13.549821276250903,28.032524193646317,28.94449467394056,25.540163810050085,15.323282688768572
12.500300352460304,48.449461910662755,43.23544308203671,9.333614445920773,30.726591130792432,30.12018447091313,26.71758879936259,14.364878134138447
3.946361264589571,35.808916195220164,29.860852044811903,0.8307475862036767,22.7129184754438,24.408998997996335,20.308223460835173,9.88018089969717
-7.859612211811469,0.2521588618520766,-3.7412793098582457,-10.564242284274451,1.5205707852632009,11.547353098595783,6.13719139325725,2.2483787968579882
-20.70884210043813,-55.0228079156289,-53.323557425795954,-22.203650205809883,-30.288226653886785,-6.195631974473283,-13.094366660381299,-6.892628145206282
-31.88894697758037,-118.48249389012086,-107.76471074478037,-31.317057675158235,-65.63957692354478,-24.67813585387882,-32.7310282804876,-15.314306879873962
-39.293244527556574,-174.79090337583403,-153.79639740801102,-36.23375282805549,-95.91099232701595,-39.54598259688713,-48.10648202460826,-21.174927135563287
-42.2666576314272,-211.67734449820838,-181.9484916220494,-37.00618797994436,-114.77399883376407,-48.05138617777784,-56.49526465971396,-23.763410912109578
-41.70865750706211,-225.16200818267714,-190.32501475813348,-35.108217142356025,-120.74414976654498,-50.03836012707744,-58.01857739219502,-23.61717214108881
-39.41059758062831,-220.12862864294848,-184.19034430628432,-32.4687507996413,-117.0629365776984,-47.58802064353949,-55.08017456009657,-22.023070039761976
-37.08174987011593,-206.34317950721243,-172.07890285135426,-30.490403172591915,-109.26543505248455,-43.64617158319562,-50.81230797364457,-20.2777129863812
-35.65856725157593,-192.97094888249828,-161.25546232617774,-29.60868253883993,-102.20619165811063,-40.543257063420775,-47.5518305614556,-19.15700946541514
-35.20707675857552,-185.10179283473923,-155.25208567637452,-29.48785144806898,-98.34674953866418,-39.23321079984253,-46.16331527154429,-18.81097960554327
-35.28920097078133,-183.57866701784516,-154.1742202504246,-29.538465865614125,-97.84344643038798,-39.44628659934865,-46.30918377196214,-18.988563152359035
-35.43387888685556,-186.79026268369708,-156.44646479161787,-29.374787300708874,-99.63434172170093,-40.3458133847293,-47.16914106554344,-19.35154011909547
-35.438001924217666,-192.37366474711905,-160.2988561058103,-29.023244651028605,-102.42456210958177,-41.15596818020454,-48.051557616892,-19.694706655209135
-35.42286559635716,-197.99799261973527,-164.33722283664645,-28.865905858502856,-105.12309907565141,-41.50352744441032,-48.66250368133988,-20.009788017172234
-35.67889579742421,-201.64587981176854,-167.50003190050512,-29.349004271692543,-106.91820395223972,-41.47469009623545,-49.06773623735467,-20.398193526752642
-36.35830261863069,-201.7757150275253,-168.75380167812074,-30.542298229171884,-107.2000340997072,-41.42234892031742,-49.426293557735995,-20.87681166377038
-37.151663045912485,-197.15142676720683,-166.61382643795912,-31.79083990518187,-105.31808627974351,-41.55343446281654,-49.5874153646679,-21.190950588577365
-37.1925196673906,-186.2920651903455,-158.7920084505688,-31.790917788414074,-100.27921426948457,-41.48277324022626,-48.784370872009795,-20.80105066605488
-35.38663574719093,-167.293841674621,-142.65801241814495,-29.218016848059715,-90.8137401408688,-40.11761540642534,-45.75204023268052,-19.131468972809973
-31.07389269641226,-138.8451382986479,-116.82233224764947,-23.59873248089297,-76.12360998510395,-36.11955916642103,-39.37266374704382,-15.96168136287418
-24.607977943096937,-102.0673682589465,-82.99343457098776,-15.82769626985074,-56.9484596618458,-28.756216641251648,-29.502379150218317,-11.678206821798588
-17.40343536540879,-61.60689865835175,-46.52783398519325,-7.8974708929477435,-36.041569083121125,-18.58297507734718,-17.38122623716479,-7.167101405157304
-11.335611258989353,-24.63045957644025,-14.761727953255791,-1.9415162315726286,-17.41565671344649,-7.451791477149003,-5.2703463391881975,-3.3863061450850425
-7.830269362951162,2.063567081026615,6.175255922746832,0.8296074951188243,-4.62463828404757,2.2113596394083985,4.496306256511087,-0.8975536735797843
-7.194766520876774,15.121194069804863,14.180418006900927,0.6522576253187725,0.8976794814238801,8.449667252933233,10.466330064113164,0.3382868496948746
-8.574792594114783,15.972401519331127,11.903656987132532,-1.0804068730989866,0.40455662560153616,10.557712499037084,12.489488462677405,0.7973428058827172
-10.50973549602735,9.635076815304195,4.975434144062746,-2.6744651112814086,-3.0303086397302055,9.214687147493038,11.45755174841593,1.0123348791931013
-11.699999031690604,1.842107877890442,-1.096649147606825,-2.9997244763788515,-6.232969493748704,5.975902358348901,8.65318752228273,1.2530512105500693
-11.528038775358509,-3.6234224235039036,-3.439762826792071,-1.8892641868172435,-7.4114183861398475,2.4691952183355115,5.175809559260556,1.4625653131938845
-10.107170712219324,-5.859649815508523,-2.379709875251241,0.037783651069366514,-6.56624565343301,-0.26567605620811996,1.7404367647790686,1.4367743789849912
-7.961442335752638,-5.935856021300274,-0.1213196602699359,1.8957686994048986,-4.80622893220293,-2.016690497892458,-1.193480523536618,1.0715989293672281
-5.620426515081972,-5.285624952957084,1.2315568199810865,3.0453838738100902,-3.250875257300384,-3.1962633683813024,-3.2205928179972214,0.4943759883865174
-3.365818563210782,-4.657196880600424,0.9915104308666234,3.358836183562343,-2.292599475078959,-4.368654211573675,-3.9286284796700226,0.013141073613930639
-1.2037100102865756,-4.02159492765924,-0.009499719092376957,3.1759012800688295,-1.5409285983719936,-5.76882361137245,-3.005718591047113,-0.05684825379612048
0.9945896696878733,-3.0188511062860393,-0.22587387229947625,3.0280721419866743,-0.2650046225082747,-7.066119809864667,-0.415235056825457,0.423450480772711
3.2898503271499733,-1.400846970228214,1.545058561313734,3.2906197120439638,2.0470708751494886,-7.518521337908073,3.4697550307542793,1.320829119001557
5.518926817721502,0.7305579524386308,5.414642144646924,3.9516187024477656,5.311108804043414,-6.454170401703239,7.842337377375173,2.270815958827043
7.272250373304148,2.8772519425497696,10.281248931000125,4.629643262723173,8.802467948424193,-3.7963129248985155,11.598692198100858,2.8428371835207185
8.031514362640163,4.3236624821591985,14.388805346706434,4.820831944805515,11.466379504535753,-0.28010631064978997,13.65090513833229,2.7503261790877374
7.400673613924356,4.547034622895839,16.282157112689255,4.200940337488272,12.444533880721352,2.8149011609232577,13.329744271538639,1.9910399103848666
5.29770440115154,3.6160323258231406,15.586873834935743,2.7795655992213666,11.51909769280328,4.278933845486823,10.683822587131843,0.8374345410383153
1.999910091961448,2.1956014417414664,13.101822222979548,0.8337813876419673,9.18540221934089,3.5744456620141323,6.491806678961927,-0.3085476273753717
-1.964215138324891,1.0700995565575293,10.18141370347415,-1.2808480378939433,6.320417152303613,1.0953673693609498,1.9645411054061026,-1.0981010322982836
-5.9961217018180095,0.5812636353165727,7.910323047478598,-3.2838153821815177,3.7141799860999445,-2.02627896240966,-1.7027174429786036,-1.3527865035840085
-9.589850905994293,0.4811813080663376,6.641618639504203,-5.00977508866196,1.7832425434191916,-4.438788417451992,-3.7147540470069336,-1.0831200445774785
-12.427484478380423,0.2724848151454035,6.056865097557003,-6.370022240418712,0.5588574021883446,-5.163670537458244,-3.872803413930617,-0.44537042075069133
-14.394950594974695,-0.3540906884548005,5.492932081448802,-7.305672540989049,-0.18652973644443427,-4.008948184021967,-2.5673599321747433,0.3170506255886913
-15.521238108419952,-1.3569111809607444,4.258719338810416,-7.763090934249339,-0.8092932015714429,-1.6235527112136816,-0.594011161454236,0.937373460396569
-15.871388282078906,-2.440474927404823,1.8994154419987976,-7.686360331286093,-1.6523339271928679,0.8442515863017281,1.1676700244747804,1.2044365852413668
-15.466995713544291,-3.1748117947146204,-1.5479769980404388,-7.028929421599568,-2.849814348879228,2.329284705074814,2.1159954570617114,1.0440472255591142
-14.312473957693197,-3.066856805111997,-5.423063044438166,-5.797028830287189,-4.171551339702121,2.3683035895400057,2.1630308199646007,0.5603753019262724
-12.527789050740038,-1.7295820038311245,-8.642481410979808,-4.109360094550429,-5.082271915663456,1.2717519306887506,1.701416338125493,0.00430434958465575
-10.476571890126626,0.8153030343815987,-10.224100914941223,-2.2184994751568032,-5.048499182494409,-0.12060879566249083,1.3154862239265785,-0.3206736135811639
-8.742717516911654,3.961507058629317,-9.798953433650812,-0.4496486451332594,-3.883970804721799,-0.9090191396160364,1.4254124709912477,-0.17097962449509813
-7.904996580279851,6.750205117299166,-7.735941507663063,0.9222192663232516,-1.8655563468970524,-0.5355449108392957,2.086895045981554,0.5467640112973197
-8.220105381275824,8.412531626286937,-4.8354533383834335,1.7787226816261954,0.44174732451311316,1.0537865015809924,3.030161030103726,1.727498232254029
-9.41591810407813,8.775319247217366,-1.8948399738557589,2.180136531354381,2.4657040017036507,3.4591827092420027,3.8469965526630894,3.0747996108736144
-10.741791470663143,8.20157887691283,0.5433702017228476,2.300810611277889,3.799986688346988,5.973619895506379,4.176760890872081,4.180637043982996
-11.266347154113769,7.198811731448365,2.216625200759418,2.33187568709562,4.229653615662083,7.76662890261011,3.8127156042333956,4.675389456253394
-10.27101137931808,6.0976019060464015,3.0844275895790307,2.409317398667968,3.7081997193411373,8.117459988039833,2.7361024504110545,4.393152707603514
-7.545310010949268,5.014517482069268,3.2706195813958314,2.5935558836132,2.352797315876955,6.682882560187755,1.1070199363801625,3.4610230008539213
-3.452681348105824,3.971319887644197,2.972865876968422,2.897293181520844,0.4306348933035481,3.700391122854889,-0.7737274505954195,2.2549171389464986
1.245877370080508,2.9716035467351136,2.3498251634323357,3.3413775911426398,-1.6896495789672894,0.0016513636415024374,-2.5178339959402387,1.2498922567963333
5.708343619693316,2.028642391821112,1.5081281391337436,4.0006902589546645,-3.582810071120785,-3.217908888310195,-3.702541711231897,0.8499490784034546
9.30677189494671,1.238974680963852,0.6472411172180677,4.991396136041214,-4.784236313328307,-4.819660849897736,-3.937806447659756,1.2653598996330653
11.766332367526159,0.850395876866386,0.188618367766759,6.378388559455615,-4.855458889016252,-4.1942186108746915,-2.9880278705795247,2.4538290361794415
13.116252902776813,1.1444783146932231,0.6260461031154886,8.04985996849013,-3.5895354761719984,-1.5958367430826959,-0.9431274017907378,4.119709287605231
13.534857205341345,2.118969466221097,2.0885893658748604,9.659873426230517,-1.2830791999361404,1.8546802075873596,1.6697760360190923,5.779930829636972
13.215995478293234,3.261716264495989,3.9770054220573527,10.716187588610849,1.1818513451289765,4.588573085074157,3.9826374867171115,6.906501491128865
12.330426957435545,3.7337197758470912,5.084668637908402,10.792229004229247,2.646565465268076,5.2899212193601235,5.12092826499524,7.111721377026675
11.057024587307238,2.904348736557031,4.228561016318416,9.746441937112143,2.2609423389949628,3.512360895260048,4.603958902000129,6.289217662871617
9.604719448889654,0.7978678655940389,0.9621288690657177,7.818288821732042,-0.047052815898974434,-0.16433546041740088,2.5487817710149483,4.62745568030773
8.176807736003491,-1.9367689129740575,-4.133708083839516,5.545557385999932,-3.553631206730194,-4.531197088943878,-0.4506821833686801,2.49029834512195
6.902158811820813,-4.478463414478031,-9.73763581160106,3.5514437873911717,-7.158250308086817,-8.415546011382723,-3.6493019001276554,0.25261811394329864
5.79905000370247,-6.302944362471022,-14.396512645238312,2.3143457498184596,-9.909485016226029,-11.167609521300003,-6.42699298236436,-1.794379637909744
4.813440723417568,-7.340095503535378,-17.06297927967296,2.0305874638043946,-11.296183353562622,-12.70209711918471,-8.356578033824798,-3.421623944212184
3.9120591874207804,-7.834957482744601,-17.327668588605988,2.621565234159435,-11.209617631567976,-13.183977406843125,-9.121206038494766,-4.387026827525776
3.163869686405119,-8.135824945934822,-15.349727151504524,3.8538155666840077,-9.734540399205894,-12.685102347843367,-8.467610416751716,-4.425594777001641
2.7433131718253754,-8.56024928207623,-11.63906555092129,5.477250888840735,-6.997698051814734,-11.099751188473128,-6.315233558351008,-3.3706259046144256
2.833275890739353,-9.33763952919442,-6.878307988792931,7.28652861251849,-3.2003787169478413,-8.364510426697429,-2.9602172406022147,-1.3439051460597544
3.4722099085513047,-10.595183107692018,-1.9025541908402277,9.082900975795011,1.2026956258088068,-4.781451010840211,0.8163148181513882,1.143906313198319
4.444498423288771,-12.387228188357753,2.21811474289088,10.608891711221995,5.352783870153216,-1.159052935086832,3.9014405600181554,3.316026803879664
5.314454469787405,-14.727388235850553,4.231375138353909,11.561725352914214,8.08332912830848,1.397726483098328,5.271308904473221,4.464578287275677
5.6277124498702,-17.517811433178615,3.115180520963315,11.722643864191966,8.36555534713573,1.9809362991649007,4.494853867316067,4.324414616284282
5.183710771726727,-20.353455549005478,-1.2337657358920697,11.123655646727096,5.940044356276579,0.38307471419721867,2.0343306252286038,3.254338118428847
4.209543107186987,-22.39365235945057,-7.50140016993493,10.118041946755087,1.7277085925804003,-2.703408898334521,-0.8746657064711757,2.0925721430802198
3.308580037656602,-22.57092297095619,-13.17118428198826,9.277669445474276,-2.3645825802088454,-5.940513980884182,-2.758839012666146,1.7460256929386433
3.1931562161591778,-20.16326385691236,-15.552890592630776,9.156262488633809,-4.275893714491313,-7.936018527704209,-2.6047287554448864,2.731024096863675
4.338606531379966,-15.382227647774544,-13.124136685524983,10.03814802061744,-2.8435422203996854,-7.863403090427413,-0.35445948765466123,4.907239627889327
6.730717499618576,-9.52022243739001,-6.403332762176674,11.791104545604698,1.5331648894675651,-5.805484851734694,3.0552339613725517,7.532231401668429
9.818771340665542,-4.49798231023303,2.1642704651113744,13.886463850361787,7.009312461676945,-2.685381266504236,6.1142360352184975,9.592869241102939
12.69227956018218,-2.072690243518185,9.252845426543155,15.58560796828135,11.132177113694489,0.15120791284678292,7.399618511378532,10.243715870244804
14.4197721580483,-3.132714821005746,12.109799971711727,16.234432771630825,11.973049904114474,1.5135944558501824,6.178158562513459,9.155373926018875
14.427549193122427,-7.361363047090831,9.745971094896486,15.552375458777055,9.016995322788715,0.876363066819586,2.7173020313159597,6.6350992627733945
12.75793382342842,-13.342617769732563,3.3331043314093516,13.773810951937923,3.404345087996668,-1.388403338279606,-1.8046960638661889,3.4825476708122696
10.069051670743693,-19.074274669116612,-4.389063163107806,11.546747183166252,-2.6025618008940223,-4.186095175142966,-5.76218029500597,0.648994429056853
7.354007057450724,-22.760458465753164,-10.442590807590719,9.624937859324701,-6.69854494116545,-6.233541631423629,-7.745893780865625,-1.1471080105941056
5.517590696890009,-23.575172497668078,-13.009370342568449,8.523854916594898,-7.62523176951465,-6.686174264889271,-7.135799510414343,-1.6679750489027374
5.034125487496069,-21.972082515363066,-12.134332790745109,8.33549055458658,-5.680730696278629,-5.4994565984965655,-4.299528606356078,-1.152511717219296
5.845038602047299,-19.313675444342536,-9.370512314340418,8.782655986584611,-2.375334670081799,-3.320772597865283,-0.32314046925391476,-0.08757624648323264
7.49297563786967,-17.059357630971782,-6.681471986198491,9.433919125339756,0.5118276531834961,-1.0262232054948872,3.545862153805484,1.0854945632207078
9.362684243556101,-16.078117796452243,-5.363625736582213,9.9208635514278,1.8597231874428617,0.7550889580847829,6.408680017103248,2.1440124482166256
10.88818331371687,-16.49886998367842,-5.6202573277504175,10.040090999687378,1.5827138195819235,1.8305174236508195,7.923365049047131,3.053776080483968
11.660507163735186,-18.02765885813649,-6.869304109486924,9.722948517786083,0.35532631387187136,2.3003327014762283,8.185719142438696,3.800350801525602
11.448191577864383,-20.32984424838264,-8.386720170108237,8.936197273076774,-1.0030223462377457,2.268796958430415,7.449161626114643,4.231350596794268
10.176506179039198,-23.1731834897944,-9.80638673774269,7.603495331590831,-2.051901693822753,1.6517254199671358,5.890252326527037,4.035413072393515
7.90784786857479,-26.35087363610526,-11.23696830770508,5.616036581801609,-2.8964434277254094,0.2106126853477796,3.544994811844999,2.885612391959131
4.8445877102188675,-29.57432479803899,-13.032602684262551,2.941721500108506,-3.9833675099693657,-2.2197456369047717,0.423704404187977,0.6701786757625336
1.3447454097932823,-32.4422259174276,-15.406765284591486,-0.2342462993507706,-5.696928945032359,-5.462199446970945,-3.2869428333226653,-2.3258802960095655
-2.0887931312098313,-34.4659747636823,-18.125015059660925,-3.4507928834931727,-8.0017782337033,-8.871245935001088,-7.082422802294448,-5.412872857522667
-4.887519384428733,-35.136557429737664,-20.480557431399998,-6.075239753413504,-10.350463391696943,-11.46901776359008,-10.190510760798599,-7.7059781570143855
-6.567768147834048,-34.07251760312194,-21.611313504134,-7.547620012910726,-11.93172773490168,-12.319812466019066,-11.838746664951412,-8.480973646770124
-6.897648146932213,-31.23199697290005,-20.983851497992568,-7.642250968171764,-12.124556624093012,-10.970348767608867,-11.617642449426686,-7.514971652905843
-5.99736667084111,-27.042319647437854,-18.719247765685083,-6.602723465733317,-10.874178119030733,-7.719843972363311,-9.729414007059724,-5.237659580204554
-4.315980981222204,-22.299147199825853,-15.537548056399554,-5.073212491256171,-8.750559335871676,-3.559329832674282,-6.958349232959929,-2.594981163650248
-2.4871449430967267,-17.876133769850576,-12.392829452330693,-3.849915147539914,-6.670583025097734,0.20351656191863268,-4.3596191519494445,-0.6619612499413786
-1.1170847791585476,-14.460244606908846,-10.087651204298904,-3.553826088807131,-5.482806756825276,2.450302366829546,-2.827506619972994,-0.17121650825237494
-0.5780398352885706,-12.467410478214342,-9.092869885515903,-4.358110983693686,-5.654142353608156,2.6538717676931585,-2.7587796294371483,-1.1803174098853169
-0.8768107655259584,-12.06681876951956,-9.552128335986241,-5.890614627674805,-7.163206681256718,1.0265602948627184,-3.9488031873279965,-3.0466882725757207
-1.6494371080899601,-13.137283470050223,-11.295915937534948,-7.370760342093465,-9.552039024209252,-1.5923134712954832,-5.721113343707984,-4.731241973388101
-2.2943092752864045,-15.13140406734095,-13.769121367962015,-7.934703860635258,-12.046599429583676,-4.018041661189856,-7.192190193836977,-5.2834015480749095
-2.19945469854515,-17.035854329212878,-15.962896605660946,-6.999859309940188,-13.711545545113518,-5.065726553723984,-7.5552415335509275,-4.264504281429538
-0.9743494488779907,-17.61214451887958,-16.52475426620683,-4.4947612824665715,-13.655941520978185,-3.889630830852765,-6.308129230063196,-1.9061701899265866
1.4029456848591122,-15.875567797827243,-14.137354908082,-0.8630853266761535,-11.298646176458814,-0.2726879938458572,-3.4023497639449305,1.0443556797258606
4.565997888290103,-11.575748358104887,-8.102489358629564,3.119278437492153,-6.657292652752557,5.191367346439819,0.6870423693631174,3.6702061463057536
7.85672063928134,-5.455758725570434,1.068696714745676,6.599806408769755,-0.5722256785826803,11.112949368412734,4.989248054011899,5.2289531763321415
10.503585114346032,0.8129795727968638,11.365901276379995,8.884326293600772,5.281381695392778,15.609048919453631,8.217072040246338,5.359283820138167
11.845427586629103,5.065762709914656,19.632587777314697,9.619496681630682,8.765329329813902,16.90359258361683,9.141987707085523,4.129822138775084
11.553016206010158,5.451026849460786,22.713441518433164,8.909448387200314,8.089778136916609,14.067402856931187,7.10342563287932,1.9791207568576905
9.76934143492773,1.3959375631178905,19.053633200744205,7.318194170886662,2.8099555490706627,7.560338587904103,2.4269365992476435,-0.4154579336231326
7.082080930959567,-5.800295400400596,9.875918925441333,5.694763050154746,-5.568649846068537,-0.7921053631914114,-3.5487933076564047,-2.3379861949634995
4.304918511352109,-13.307141446173963,-0.9777989377708465,4.831674547766223,-13.937158316642854,-8.51568386185028,-8.980321362924245,-3.2851275070175863
2.157696769045655,-18.074817926738742,-8.73912294830293,5.096784020566262,-18.925348181096524,-13.597732953170674,-12.362441769840984,-3.178876416910053
1.007156443738714,-18.40685593277992,-10.101835827315794,6.243926849946917,-18.579068331247765,-15.378491811763627,-13.228587856698045,-2.4101210589699154
0.7877854739659689,-14.814297362458186,-4.952577293374079,7.523379873824321,-13.41311998401257,-14.704116341088266,-12.285352481479176,-1.6501249349902218
1.1007712803606367,-9.682938793735847,3.476294469762205,8.031382404001027,-6.259589710845928,-13.29350918070167,-10.92916570838372,-1.5139651780908665
1.4006754924061375,-6.084474599089678,9.995537783191642,7.108318992201645,-1.0518039965000896,-12.75381331339201,-10.475119979273076,-2.2601011506873028
1.1874430045798723,-6.4334960044090215,9.65559944301929,4.607667364837757,-1.167389786920489,-13.808618167207474,-11.526615704270458,-3.6769186370553064
0.17177200597956077,-11.501747010479951,-0.12337049482263213,0.9570545937252104,-7.993649160705128,-16.060228482218157,-13.736684017829223,-5.186617103719946
-1.611476101543304,-20.01149818344626,-18.23286605618195,-2.987521653949608,-20.2091851479987,-18.274814624917045,-15.988702564024353,-6.099423244646864
-3.7985906158196117,-28.959425715195312,-39.948994168900775,-6.2520249422593315,-34.09835302291867,-18.992611996895185,-16.90161663076937,-5.918358082717628
-5.842517921277734,-34.738165137289876,-58.59562480997525,-8.121504612580022,-44.92419166557824,-17.216441845111575,-15.487544521730218,-4.586028882481421
-7.256933373833441,-34.7221488492556,-68.24418326065046,-8.42017293784719,-48.880793149940004,-12.915930781905299,-11.691961236448893,-2.5592451008444637
-7.820799710151727,-28.506852314046682,-66.17349268918343,-7.540898781529976,-44.700285313277696,-7.110562635242343,-6.517778812301478,-0.6390813155624163
-7.626031391465827,-18.02609159229788,-53.803285995516816,-6.203692871100311,-34.05962124362632,-1.4525529693658212,-1.6062814700090877,0.39623125211595067
-6.9687655302091,-6.48371743651414,-35.694332720116925,-5.093081256554174,-20.609764856503677,2.4988620983927263,1.5275832659187334,0.1732373734471686
-6.188205899218851,3.1582803130325967,-17.341291152367393,-4.589791825509348,-8.260013379419027,3.9234367660198592,2.173275249376028,-1.0983042969945134
-5.557326782776091,9.222242524799249,-3.018518757360508,-4.722078191245358,0.32037339477438054,2.974340428436021,0.6454335058188224,-2.7566776645780138
-5.2478851418805865,11.513994722880414,5.391283852717582,-5.300562152059362,4.345963640510121,0.547716126380025,-2.010361068391677,-4.046824059461192
-5.321202258149517,10.941743631903796,8.39493240075892,-6.095345209501175,4.677487443419033,-2.191789322069604,-4.5756541095404675,-4.491255723532065
-5.700378726443596,8.986365268851959,8.06890892164759,-6.926522512936269,3.0857548157827335,-4.2402840036117295,-6.144403607138882,-4.0674376137897434
-6.140267109873348,7.215952563870493,6.930310846324501,-7.636686988557373,1.4435825574865329,-4.981188182728903,-6.337531703963627,-3.1189643697289875
-6.257676972708324,6.848790091194841,6.936985951052807,-8.016340487169224,1.1171562246188078,-4.217508783295032,-5.2456201443979005,-2.086932497844563
-5.664410936404199,8.436934975103084,8.926531447015089,-7.790638961408617,2.675733102638427,-2.0866180981124827,-3.211399049111063,-1.2325187847992716
-4.170306294139806,11.827111939438197,12.610051335916904,-6.724889020489194,5.926423602190865,1.0817102202306448,-0.5807988292453704,-0.497602613525961
-1.9484196858924494,16.413488190358,16.984131723917393,-4.799559372300467,10.17500948854544,4.920764392527032,2.4693702486188736,0.4442258623358294
0.4620809113827688,21.47418834934723,20.872130282022972,-2.321395923791579,14.553778193556253,9.144034331719434,5.9544763930776625,1.992831774621215
2.3685642128500817,26.388934694871693,23.38301063206474,0.14465016108623613,18.30429140186002,13.574715446976004,9.948626274807285,4.383950485336216
3.2690959274072093,30.75498832371261,24.25466881487186,2.0088833515248563,20.999377160710733,18.074441481585037,14.36964336260012,7.507548916486252
3.1259928828165813,34.51486040145222,24.073670015297225,2.902471189578638,22.69931942198694,22.406067451595725,18.804183198781423,10.845176597289141
2.3749785610881378,38.02711508890014,24.215297967831116,2.7672368820996813,23.94943418526282,26.10155810451109,22.47651597530374,13.555584040515209
1.6388661997991385,41.84700224019481,26.31248024602176,1.7564786992976704,25.502629328987965,28.42585004275546,24.4035291566883,14.711114563384353
1.321855916259951,46.18180914129632,31.346592875086362,0.06690197304207085,27.815171440712092,28.51466672809424,23.706017335992083,13.636640161126655
1.3455316059338909,50.405332590038554,38.847781921866925,-2.156304560984779,30.598680482524856,25.68942479981916,19.971563544111106,10.220790470310108
1.1842892481414082,53.13444610782128,46.76585516805246,-4.80811429255897,32.760746146271096,19.8309027960492,13.50791206088254,5.024391546767714
0.16049160552477013,52.94945963389021,52.18420384528558,-7.7739937046939955,32.83858780540903,11.611698664450609,5.342357425297287,-0.9090020515082529
-2.178986952857155,49.27672057312422,52.526424494064344,-10.903026053596763,29.712516590664674,2.431191311272172,-3.0581184934488372,-6.450342296065229
-5.7925100279997075,42.829907910673896,46.668919573922004,-13.99854517037496,23.234321134643515,-5.947023496426105,-10.214357548511009,-10.75928806321446
-10.089450965686167,35.40222533699894,35.5009144282523,-16.802704904766877,14.482172715197988,-11.898661270937387,-15.006675727532599,-13.441054411101694
-14.107503264147221,29.24093187607127,21.737079083118594,-18.996419043213827,5.529964893288767,-14.377758349258784,-16.85816297233494,-14.46993270509347
-16.853294390187408,26.324290167518797,9.023492414513818,-20.259356759510656,-1.2135288421503796,-13.152941917330205,-15.738630550816445,-14.017989799874044
-17.666322122735664,27.726208851242063,0.6301868155736196,-20.3831480654645,-3.8748362225242845,-8.807000346459159,-12.080987338407574,-12.33854276917516
-16.43798047384125,33.23111031429216,-1.7094420564677018,-19.363719869433574,-1.821720347876667,-2.5338343597409336,-6.674026882996975,-9.751901744200909
-13.580907498503414,41.43691902954891,1.7864889625010956,-17.405733687212276,4.169571963184333,4.204133845806673,-0.5268741322508914,-6.6808234082277185
-9.787485252065789,50.429774825131815,9.469480893785864,-14.849933590552482,12.38663214981911,10.067125710965673,5.3114826246375,-3.6587967271691446
-5.740851737790391,58.67364980317949,19.26975510166091,-12.08989296866395,20.97974333391209,14.155275057954015,9.94187195440712,-1.2703214862746595
-1.9421838902234005,65.49491628924456,29.453129317116055,-9.517830376618507,28.575975522821587,16.142388219250986,12.746943393073924,-0.02638086093127674
1.3051131157698697,70.88402954794506,38.75790270672324,-7.476643065292016,34.427453524427285,16.20742924902327,13.447512053304544,-0.20745683448198018
3.8428192871320492,75.00995075215067,46.2062615710632,-6.184472990217991,38.25459234096493,14.861397357576315,12.138003778597565,-1.730556752655563
5.642141492858677,78.07739641158037,51.12788229142391,-5.651599490217917,40.14414672794163,12.802758878063736,9.346266482905548,-4.112201024997482
6.836667023600536,80.63438003886591,53.52094900743751,-5.652425186275623,40.632374923279436,10.848541848106768,6.061859253546038,-6.574942208914627
7.724546843990721,83.76863088616425,54.32508324261794,-5.789437603643392,40.74718268712478,9.867584321483639,3.6033027048340553,-8.272735807994065
8.664847399490618,88.65127893274892,55.14400075513298,-5.626198736139647,41.72997637594567,10.614129006992195,3.2579480979197344,-8.543825917862687
9.878907787699088,95.61103872858052,57.45635974787343,-4.844025663164942,44.462274238442504,13.452190460717855,5.7911106713364795,-7.101736170033221
11.253224763209914,103.51984491495747,61.81727600549951,-3.393984931596065,48.93315205075446,18.083226867965383,11.042398463836891,-4.133158115386295
12.269985485965076,110.08996731023619,67.54215257495018,-1.6082702872916694,54.09532703422192,23.445202331189172,17.821030513482096,-0.306578210783291
12.159002361765262,112.99411239796935,73.03021809305002,-0.18689038047812404,58.23247255262625,27.923158481979716,24.21261903214388,3.3326510066320765
10.273323465903728,111.24416892896191,76.60867303126955,0.027837975381250872,59.73872020246618,29.915426753154293,28.272696888052863,5.632495993258316
6.546166117449226,106.22050249541516,77.60842024616093,-1.544323206176497,58.05090028695167,28.618941649480178,28.90131985332619,5.755620448780403
1.7550578856100014,101.7748516002552,77.12432954899215,-4.849494109981788,54.27789095009936,24.654996825317287,26.4882228883741,3.5902754394088428
-2.6639903006035195,102.83367213467726,77.70402835549511,-9.121126420431697,50.94507239582691,20.035661814981527,22.85549440845303,-0.10242319600878229
-5.263171263427043,112.42960543155505,81.59005201215169,-13.177984436053338,50.577107057403055,17.22081221845244,20.31452412197899,-3.9607669591192214
-5.351122676248516,128.3807791728383,88.28012535531663,-15.906346844819213,53.687853454342594,17.633046045723475,20.250201098056223,-6.612247615901415
-3.3796760976480655,142.02703842976092,93.23610142010001,-16.615120227431994,57.54951959589079,20.553389551226186,22.12272251781174,-7.254744333092323
-0.660357841492868,140.98273122478352,89.32377832466328,-15.100818220415192,56.986384547002444,23.265112499217075,23.652247797430963,-5.9048573050274955
1.4156715140373362,115.37736742306906,70.74943989419289,-11.51915382805949,47.15595063838708,22.53640078549739,22.188992477830297,-3.221446863676433
2.1345245066244374,64.18229558332719,37.17399509913738,-6.2756583045998235,26.72275040353647,16.570918780569425,16.414847590660617,-0.08450213007201395
1.71641497632283,-2.583598347478736,-4.87656757759408,-0.030836857196138358,-0.708804996765604,6.166604870924002,7.251365367128413,2.7852910789465444
0.975162147128211,-67.71015111966126,-44.58153085676471,6.284476236556352,-28.011561790992722,-5.6660373473421455,-2.611300259238328,4.988710327089396
0.6931724731616847,-114.75932633775417,-71.98443592038753,11.616020589036362,-48.02060492588568,-15.340039208442223,-10.206905930349595,6.409846238839121
1.1660259193174956,-135.45006742750581,-82.58059478454751,15.130770688159645,-56.92813094094283,-20.500957279806617,-13.802138374300675,7.111738129270638
2.1710167418034407,-132.23140814082475,-78.62876649748002,16.576711420805083,-55.57638867015139,-20.92613362678067,-13.514364594449328,7.267653018413174
3.264293997112637,-115.12732120709039,-66.81017565124523,16.38849052260533,-48.165510144332906,-18.159444850076483,-10.839384584307716,7.1227701950611735
4.104973139572177,-95.6039134401783,-54.237930682236126,15.42650477565845,-39.59821807454388,-14.374941226320903,-7.6190614135435855,6.93036310030144
4.583474973610419,-81.48997207463,-45.43900999208687,14.518656484224607,-33.26894233354687,-11.29794417592804,-5.181448454457146,6.859168600239787
4.763085490664852,-75.2620171075883,-41.58332017339632,14.117940243975337,-30.310545051064725,-9.705547487027188,-4.029347903050178,6.939244099323991
4.778129526485431,-75.23503321659489,-41.41878889709763,14.257428099982954,-30.07544595117908,-9.495861854591176,-3.9778804864136155,7.09793625765055
4.776237901673862,-77.80674235363735,-42.66776245412522,14.724409454028672,-31.0525168538666,-10.036899358081742,-4.46290342244813,7.249444512135366
4.881200743158579,-79.41390897436418,-43.15857570895736,15.253714691629584,-31.68427168524988,-10.564187976449434,-4.855169775877859,7.35324717254257
5.144152786620956,-77.87241472213677,-41.611797724117345,15.635628298538958,-30.9719344157627,-10.527173034800073,-4.731886138256298,7.407859836771492
5.522009414535954,-73.02970424726685,-38.029920489012454,15.772924516467459,-28.806844383031994,-9.795977513115433,-4.032507229776054,7.4252838589469965
5.932822826360842,-66.45441750551853,-33.45061074359284,15.726376789464217,-25.854111424315445,-8.627204506595248,-3.001643562624562,7.434985097572976
6.348074328615117,-60.1933232552203,-29.10221986621106,15.700348830478953,-22.992753489493257,-7.40821262221021,-1.9495689858758762,7.499301895338492
6.815450244117642,-55.4167747280894,-25.578647510375575,15.913297238796757,-20.713626207547563,-6.382003698793182,-1.0324005262642033,7.686826040218346
7.372825888212743,-51.99220564222419,-22.71363873136343,16.41709452631377,-18.9593364812226,-5.569971586818169,-0.2371823578209573,8.002393418349293
7.9471856034152095,-49.151888856527734,-20.131981157959633,17.02171456022216,-17.449524908743875,-4.901030185627044,0.4657775406750837,8.343948072577154
8.364736566184847,-46.36851886926851,-17.766097284168815,17.409652875313576,-16.05053471063327,-4.352143215731505,1.015406944632967,8.548337461930242
8.484066420857454,-43.54942514855499,-15.779477639152946,17.356288562693642,-14.793738549567397,-3.940039440375795,1.3290319780181674,8.503044930117088
8.337056313835507,-40.6343462276705,-14.113293688670897,16.894938575697907,-13.633225552209481,-3.614192284398488,1.4546093837513063,8.23854034532524
8.161939321522697,-37.3571910841007,-12.28984535773686,16.3404812005438,-12.331335516665437,-3.216215367376892,1.6204692528335418,7.94035656095441
