FZ,C3,CZ,C4,PZ,PO7,OZ,PO8
-7.230709448938462,-19.04829434911649,-14.385991981507738,-3.802145151267568,-9.834845761432826,-4.642496850691885,-5.053361475593712,-2.8200427027308317
-7.238971504867238,-105.58579862721689,-75.09124393802973,1.7028734542666508,-58.287583845584095,-23.082853626561224,-22.514022553198085,-0.8394164724190842
-6.627939816674509,-171.2056566032509,-121.70501478767385,5.891899336388417,-95.66778392769672,-37.61430856729301,-35.93867472651879,0.7929066375121814
-4.9840919608014085,-203.7700816487589,-145.98622968963915,8.088389517250626,-115.35889664417174,-45.7954188330717,-42.845370220573585,1.9462108030136205
-2.2204684946926183,-203.65922680890733,-148.0168563083276,8.494592792512432,-117.1328720859655,-47.30351074312461,-43.013212232994476,2.7689847298336763
1.3726391174072294,-181.23942762349773,-134.5073949736281,7.893883511923047,-105.95079294843943,-43.601975345853525,-38.154486727844095,3.528393396090667
5.1841972942381,-150.89542136023553,-114.85997246989712,7.094368466999079,-89.05769144375144,-37.095508880570854,-30.99989753865946,4.344128657181439
8.48346477431788,-125.59550112729035,-97.64374047876642,6.553467080502239,-73.351839777114,-30.350663089497637,-24.37141060988931,5.0412397390156425
10.761543794330763,-113.88643072337614,-88.69217194005132,6.429656329031929,-63.920687955113266,-25.55794148193287,-20.46654234402716,5.284297872646047
12.07641146241755,-118.74492605593807,-90.35081628901169,6.9118558122477864,-63.35444227441688,-24.07239218841333,-20.294143549583797,4.925809018261647
13.152117838962955,-137.30701891093042,-101.17855264808055,8.432534132624497,-71.2910526569645,-25.982884280913908,-23.31373651785139,4.2861415429696565
15.06304744539547,-161.71595641117338,-116.31714891636149,11.499971985488038,-84.40780916384593,-29.993405477342133,-27.57318835132022,4.093186327463234
18.617804056905033,-181.87343280198223,-129.17307379551696,16.260721031774963,-97.48683879934393,-33.92880294619896,-30.537377490014094,5.070910315381566
23.82076007550514,-189.6571179629262,-134.2126931871323,22.171826907434795,-105.55145026817854,-35.759371616163186,-30.312950531716297,7.458196539233689
29.780497930416907,-182.52139824212233,-129.47776625732376,28.08892537032267,-106.05330901781909,-34.5798047479045,-26.57556911248937,10.80549965658829
35.1380437628612,-164.28551503428432,-117.27086424224886,32.750113557917786,-99.81010604291652,-30.946716891949883,-20.6300826482881,14.188884866977274
38.742692811544565,-142.64416932909123,-102.60434709077992,35.34752998190801,-90.17222561284608,-26.41096856649896,-14.602754293135492,16.68672450918709
40.16836565056757,-125.04304090475206,-90.46422077017229,35.841239038139065,-81.04943724327843,-22.604366336611356,-10.310727840524414,17.8119697321849
39.80505537265653,-115.40369046119343,-83.5667505220718,34.86764240463791,-75.04694970028245,-20.462743246845314,-8.483211065017851,17.663417858898523
38.543078693248226,-113.30103673443509,-81.73197684589351,33.35206421622507,-72.6812342690198,-19.980326299566983,-8.690236030701511,16.76407829774429
37.29208995577513,-115.44339025662302,-82.82034935734045,32.077978439584946,-72.80869286031577,-20.49045294991041,-9.851340358357271,15.737701918596679
36.61532798660862,-118.02218202592793,-84.29070362679317,31.431150575185093,-73.67774375084309,-21.166609775580724,-10.897407607178376,15.027257629149336
36.62562004602954,-118.46029507811389,-84.38523705784357,31.388423086607116,-73.86746184237387,-21.416160734958257,-11.20323349983324,14.779532837683165
37.107378187688525,-115.97613581524222,-82.53293223056183,31.67779280244633,-72.73023482303434,-21.02763905913111,-10.672654382759248,14.89354294404684
37.72743045653208,-111.24610842223035,-79.14739704163301,31.98161820451337,-70.37669490550222,-20.11996752537236,-9.58590909249542,15.151143379684113
38.212541232581096,-105.68845434214796,-75.1623009920397,32.085859772478834,-67.40461722148018,-18.996833730105156,-8.369119143069206,15.346111944907669
38.4416611235828,-100.69747105082682,-71.52057630326945,31.938397780104008,-64.52685262233018,-17.974958692329146,-7.382639472434151,15.366175656630462
38.452988107192816,-97.02523917888645,-68.74928066021792,31.62360400566044,-62.2171446300157,-17.236045682908003,-6.778608814762322,15.215114264168236
38.384892482540586,-94.54408774884114,-66.78367906492142,31.284085762678608,-60.52259429216599,-16.764135924955866,-6.473781019696998,14.979855953020845
38.38312690560408,-92.5298780429617,-65.14610599540063,31.03459195973577,-59.14791232967709,-16.404707500722132,-6.2514277763270965,14.764840653743939
38.52327125047209,-90.25936876270472,-63.347434799068125,30.91287650169355,-57.73443004055865,-15.997886095399384,-5.923064039553582,14.632427254067327
38.79148075290959,-87.44802938352815,-61.18905469002404,30.886883297915606,-56.099496503989336,-15.476978151081765,-5.430001966904218,14.583630648607748
39.12473041737796,-84.22888811663536,-58.75487240758837,30.898395625335645,-54.263231193985376,-14.865253349379518,-4.8229192305238415,14.581693804287667
39.46676270227422,-80.83864408479839,-56.20071969421188,30.903029762430922,-52.316697751930974,-14.209237692723269,-4.174191528959563,14.58861046887656
39.79383232579228,-77.4082113605044,-53.61187819941709,30.88264740156847,-50.31961882593206,-13.535864417499134,-3.5240676737648027,14.58358059006931
40.10502563662615,-74.0123456591107,-51.03747023731497,30.83787360787938,-48.316217331341065,-12.864492417544417,-2.8931401437412387,14.559821577155358
40.40649879677913,-70.7701408297686,-48.560467083764685,30.780392543111528,-46.379105336835025,-12.226100129336048,-2.3062591357362874,14.517819851239233
40.71059158572283,-67.77599407332599,-46.25021416004786,30.73030917034325,-44.57187834957316,-11.64380669721274,-1.7767593904780932,14.466338313811713
41.03937761286429,-64.949280822108,-44.0562477322382,30.709353687329433,-42.86769443476993,-11.09862165798012,-1.2756654090024855,14.423101918683836
41.41406367348302,-62.057021969922644,-41.82006209763581,30.727274429231585,-41.15180518688191,-10.537147258965607,-0.7441373237249131,14.404775502132667
41.83601647128859,-58.941226104392825,-39.43066461030512,30.774293231546828,-39.33387379088582,-9.924362072491439,-0.14946211161260953,14.41304767355941
42.28407120304719,-55.68231575341716,-36.94015740251895,30.830938247154908,-37.44022467114082,-9.27902899623074,0.4819672742868263,14.433757407849376
42.73600128200115,-52.484642621944616,-34.48834230324088,30.886636994284203,-35.56890426181166,-8.646036335346441,1.0990794816339269,14.452165963729604
43.19060804095828,-49.42574588334957,-32.12992388084827,30.946748757553625,-33.76498680960683,-8.040717727922674,1.6862730312192213,14.467127316658527
43.664412829263334,-46.38946804726317,-29.785580464840468,31.021562131767254,-31.976790257602726,-7.436409123248723,2.2737880334661584,14.488022758152544
44.16867074832079,-43.25593519208181,-27.37151017845843,31.1128822737487,-30.143441722837604,-6.8079786584212805,2.8889788684942594,14.520314128444763
44.69669990565994,-40.07882648447565,-24.923616557943838,31.215007492487292,-28.28781039590769,-6.169343410296925,3.517013950183662,14.55932274420074
45.23609943548834,-37.006629582843445,-22.545604338652545,31.326127229821207,-26.485496884798863,-5.553338615914205,4.123921150594284,14.599274466838134
45.78670707677236,-34.06253104527883,-20.256315845759804,31.452254797062984,-24.754373218636914,-4.963087486375192,4.707807049724125,14.643419513389931
46.359015584295435,-31.095242517606138,-17.95252181823582,31.597671271247357,-23.021049449012004,-4.364002655017549,5.305199282462783,14.700243381814785
46.95674461265117,-27.976958421655542,-15.544089054033108,31.756322501938754,-21.21536554129172,-3.7293423752513926,5.942231322367003,14.771031430564907
47.570319663457965,-24.778914660317728,-13.077477901923046,31.918313724255306,-19.365403273076577,-3.077141545864729,6.598043019254166,14.846817167389943
48.192439148276634,-21.67938266483185,-10.6751878419342,32.084284343393755,-17.561170789571772,-2.4467049240283933,7.232253173374277,14.919986683644295
48.834067943454144,-18.725780301287482,-8.371254513607967,32.267806710895464,-15.834490308307428,-1.8457750893091045,7.839868656081847,14.995081538916823
49.51553482729908,-15.777452525448316,-6.069082479218108,32.48060653380044,-14.119698871626778,-1.240906192665324,8.457672076140305,15.083618834803046
50.240026407977666,-12.70987589118478,-3.681726907230075,32.7182304532653,-12.35010902471596,-0.6049609442726727,9.111956255971773,15.18919630029471
50.98232824238683,-9.597328114639541,-1.2607355787276115,32.963742198296494,-10.55644023506518,0.04360217519589969,9.779192558947873,15.30251586356117
51.70895044222245,-6.613936395583671,1.069993622839612,33.20404064204714,-8.8270420566653,0.6650835617237878,10.415467114741945,15.412770459219416
52.40803191989687,-3.7807534795357465,3.291348302748311,33.43871481168289,-7.179721031947771,1.2546103120716192,11.016744506577398,15.520053037098181
53.097778992607296,-0.9089137662313392,5.533633008901232,33.67426559991713,-5.522165067858649,1.852711506339839,11.628250992361153,15.632856291345357
53.811026597020216,2.168212474374251,7.918397069157851,33.917489025921405,-3.763218998583233,2.493809785610892,12.288901505758789,15.755807207411525
54.57940168103768,5.374715537872756,10.402239029347449,34.18010343890463,-1.9323334903445568,3.160950595668292,12.98433644630995,15.88593619416499
55.429040346757716,8.475541304147542,12.827895402080381,34.48453708408125,-0.14955139271929227,3.807499233288218,13.669600130188742,16.022490755131418
56.37206612751292,11.350403944821926,15.110054070642127,34.85163685085241,1.5130874714525937,4.415670770316438,14.32679533797213,16.17428325752383
57.380674715781986,14.096757921679806,17.307327845199787,35.27266382055259,3.0962170263653412,5.0123232529261825,14.976693502751854,16.350192209593505
58.3669818911427,16.84960845361523,19.500163297359617,35.69483194627727,4.670822552533404,5.623328100071742,15.631393286404835,16.542145032003223
59.21112832262236,19.60409486526474,21.67154830903749,36.044906481802805,6.242969951966095,6.234969684317598,16.262819473982802,16.72366502393887
59.84435217666701,22.31124372657501,23.78005403300146,36.28012245536029,7.7917566028641785,6.821394208491842,16.843413850829297,16.870726090331694
60.3328799693116,25.099101653735765,25.922895828043,36.428934833997644,9.381131416043385,7.401062218242455,17.41067847712778,16.985077364823166
60.88899477675257,28.24065966045312,28.319224105383597,36.592938840623255,11.152789660526492,8.0358537495679,18.06019348235076,17.09705899604575
61.78087056662282,31.804864421385,31.05900266384877,36.90909300891482,13.151134806870623,8.758061171959403,18.85432292246373,17.24775747421017
63.17910026864233,35.39365358560822,33.895183736052516,37.48627026567824,15.176611271617325,9.511294164575391,19.74295241454547,17.468377982262005
65.01327313911183,38.348393891276174,36.35848473186175,38.33087773379288,16.876979372171217,10.184351177852275,20.58540011427089,17.767208606765653
66.91261725206554,40.288595219614905,38.12061248789958,39.288036924637794,18.027747503525664,10.707142516764748,21.248942891473764,18.11890303983723
68.29359568743995,41.471627714818666,39.26476342038512,40.050018364586485,18.740975519898356,11.107505659329531,21.68734414769322,18.455509974136856
68.62550285563731,42.683826733197996,40.259133957831125,40.281352395503525,19.430926099889227,11.484828034843787,21.955615968181075,18.678885841835932
67.81514569192576,44.853978905500604,41.746658241203995,39.844059106283815,20.61363056934103,11.955157464493304,22.20219595523519,18.714057267110935
66.51501153239644,48.6898315373958,44.33017895644723,39.0058137533181,22.698372669758204,12.626018853070185,22.66550693503715,18.58600372079371
66.08061041079384,54.34167063831535,48.32410192624425,38.463489738434156,25.792050519194703,13.57375951792416,23.614351078097677,18.460968674686196
68.00526887555021,60.980847318782644,53.375009948606014,39.07683558144396,29.467784556258437,14.76428167955631,25.166878942652353,18.596418315380124
72.95252380400844,66.55548072479729,58.147461348316696,41.3614995760992,32.62767554111864,15.95120405991243,27.061664331231444,19.19822779918728
79.83230962323358,68.32577188337184,60.55501160976633,44.952678564833256,33.77216703359667,16.685240073238866,28.587174220956605,20.246519468568735
85.50606231302946,64.3731271561251,58.76308773774299,48.33456734364406,31.79678867863256,16.513027126830185,28.814138351322573,21.378057862475973
85.52093583116954,55.27158879083633,52.46890625887886,49.08424957053213,26.912908403803083,15.255559924770017,27.038255331232513,21.897340858845784
75.79714709063411,44.54473400806407,43.48919138939896,44.68446341998249,20.95805697798452,13.141766342777185,23.153972168428282,20.949096170952973
54.62402892141139,37.181029421001604,35.038353162749374,33.65751801572082,16.662884140404252,10.677488594540208,17.72352007361556,17.829483585717323
23.970764661372755,36.9308940226706,30.03757025403689,16.502218866862123,16.20803034824613,8.362135923530046,11.727260284357438,12.342284249832597
-10.71877225662663,44.14298423177316,29.560300486201125,-4.115135638369554,20.001257748324907,6.496972105954334,6.183605285157064,5.046314676977694
-42.357286495759766,55.6437250738414,32.46918838739926,-24.144968489467008,26.524347416474942,5.233748963285952,1.8658824398238154,-2.758289417269196
-64.87821592128901,66.7635193308622,36.44992186990887,-39.620326090936516,33.36207539726566,4.770321756135207,-0.7837803283414259,-9.369571571230187
-75.45186706403545,74.06040641750765,39.605593679316115,-48.12301801127914,38.65592150801895,5.424465007930995,-1.6257121653769417,-13.268633403176818
-75.23258364415815,76.8039303209907,41.37237914895308,-49.567668541399044,41.915273374753156,7.398118718922027,-0.8307384999318643,-13.727727407388405
-68.41409098935598,76.37470275904644,42.17881791008376,-45.985015630648086,43.694438760297,10.36629191563615,1.0528887319946947,-11.152879271988851
-60.1910530404002,74.52220651805813,42.45150322993455,-40.484453458713396,44.6427653496873,13.297464712787647,3.1378386434054186,-6.95177871027965
-54.65354030536272,72.20325821343636,42.093995593230844,-35.94548879799602,44.90478346664015,14.807012088749127,4.487532935006004,-2.9507235582024594
-53.534948588442255,69.75986545005212,40.88396475027821,-34.048324341700386,44.327343076884155,13.89012982165253,4.5430595791955275,-0.6479111142705491
-56.19967953746857,67.65642327960835,39.14554201446993,-34.990999790151854,43.02636456921766,10.512612307768666,3.364339606637198,-0.689984549762597
-60.59849806351559,66.62732483434378,37.81009169232827,-37.83870252875213,41.579840729847156,5.643396233938609,1.4875267535879244,-2.805976376929661
-64.51050116207533,67.1212460437087,37.77972739771999,-41.17594162989291,40.675054605829104,0.7799974595797942,-0.44958731052999273,-6.143595730265023
-66.4357575841433,68.90719033748731,39.31238554495293,-43.71682557140513,40.685165182879636,-2.638099057877542,-1.9763777783766707,-9.743078929622348
-65.88126890337377,71.41466511358858,42.02003285188011,-44.6839613329553,41.62468625813147,-3.613454541227004,-2.7906284168535196,-12.877891569097086
-63.16916723522978,74.34952283985739,45.307154474375366,-43.92036457813814,43.38857748388037,-1.7685520975158873,-2.642175301679654,-15.145449621247145
-59.05270505033414,77.79210173896966,48.68964772474217,-41.77904297783782,45.87530019471492,2.5453698779225395,-1.3367061505969022,-16.371432997979216
-54.36470988223572,81.72941526151261,51.799070898913136,-38.88003489229043,48.86527871124668,8.214902456215972,1.100722596190465,-16.485645973536624
-49.797888151886404,85.7159441152086,54.35115599853582,-35.85813781810311,51.916438119657364,13.573991763083216,4.277573508785755,-15.494821509203751
-45.82632482133839,89.11323140101041,56.27981937831006,-33.20569095988465,54.503510373330265,16.934081263835868,7.468268301697538,-13.557861021726666
-42.72253848631847,91.55391354190508,57.83123607589239,-31.22825280906486,56.27237429510212,17.241524561599444,9.828133854838125,-11.059430309774944
-40.59414482001319,93.05766765663526,59.36804886198855,-30.04978169856851,57.14245105289213,14.52013793884289,10.675456727534538,-8.564791704239463
-39.38465969798774,93.82852255996892,61.05655895546882,-29.609818024908932,57.24535771890449,9.88722888646241,9.759183144129208,-6.62822745720507
-38.8576076171194,94.22946956337948,62.854938704964056,-29.668881443193264,56.91759140408877,5.181369057023183,7.4595982669950285,-5.547988365788404
-38.643014861264,95.03404261243772,64.84569332716309,-29.878259679437992,56.792054645361375,2.3653871434521347,4.801856759083105,-5.223331789924121
-38.38973452328761,97.37945772294131,67.42124816034644,-29.91910273851614,57.70694705656412,2.851162569047734,3.127912787037134,-5.224270166762802
-37.95197520154004,101.98367037130507,70.91488979650754,-29.63311585675497,60.217691977455644,6.908814877337357,3.4545578765195972,-5.053773910431017
-37.46647751778868,108.14524787984382,74.96391513907142,-29.05854329072255,63.993844137108304,13.418983196955436,5.858175065489099,-4.453112206971688
-37.245284651417855,113.60927963668519,78.33652876683156,-28.369224282774024,67.69825683985042,20.207259031472383,9.3326864884428,-3.5680399445394873
-37.56276126523226,115.71906480993462,79.54989429979983,-27.794721026189766,69.61165732280193,24.918451101743358,12.280025374694501,-2.8790453702568737
-38.49571239404938,113.07842107593505,77.82135214540695,-27.582900109467538,68.60768429907,26.026356294297333,13.345938169168306,-2.936380791651267
-39.90439561859579,106.56559652502102,73.64560003573041,-27.98258374628989,64.82538983485962,23.47035010916213,12.112032646198465,-4.040198424345479
-41.51342121522383,99.22782622038515,68.74602780573244,-29.186515407004848,59.72755417116486,18.652172589236844,9.316693598245406,-6.027920900298763
-43.00703940237624,95.31232860052201,65.58791364036786,-31.23187045500282,55.65098010617712,13.862070502794062,6.558761184468612,-8.28857071760472
-44.10889852750579,98.67097204610393,66.54103226047269,-33.9275047969526,54.98318349537914,11.37252107281728,5.596355992245976,-10.033805276238562
-44.66250355890541,110.56908115531996,72.5732116454958,-36.86633071708584,58.97819318704636,12.465127835052243,7.433479099204341,-10.723173701008506
-44.694953206587655,127.49483113412592,81.75966542234727,-39.50425234399166,66.48501922322606,16.71577597715452,11.543454350223868,-10.413664386482887
-44.398294713261066,140.59726280999308,88.70105474325263,-41.249767231834106,73.42200509934814,21.934086375474823,15.723197635320156,-9.790340800755317
-43.99920044369215,138.33956385910682,86.03996926100028,-41.55538719489211,73.90097410300552,24.994348191440377,16.904251121278108,-9.806671098076931
-43.59213580630447,112.01458989933867,67.99999220855698,-40.05186265440324,62.97198487945732,23.311101368202085,12.679496405023661,-11.130295383056662
-43.06564674813623,61.223742426018845,34.0867658072909,-36.726064913056724,39.598312630500615,16.207598893953772,2.7179245673911456,-13.742646419453973
-42.187124470770485,-4.366490014209947,-9.562452787046201,-32.04506221681274,7.9143765472134415,5.3589238476715435,-10.834498059592505,-16.944297984928017
-40.78737578849086,-68.65474614379286,-52.41998738522904,-26.895798149410655,-24.27862989520414,-5.995960923849425,-24.28618495872857,-19.745259640818347
-38.91138703655809,-116.31703743052572,-84.30212608331713,-22.30424789824551,-49.05363387861269,-14.626299814580362,-34.141701812220425,-21.379184679183176
-36.82756523929391,-139.4525080023787,-99.84773870943623,-19.050341457727107,-61.88168736717456,-18.755208506882717,-38.6386647565672,-21.634546084964388
-34.88811267350484,-139.9772376512807,-100.21950845406286,-17.38167887230367,-63.15528710625396,-18.60191879514225,-38.248732451865465,-20.848811548590657
-33.338533223301745,-126.93561652966034,-91.39118547546413,-16.982800132665304,-57.09716160076611,-15.857920626284198,-35.01335626526283,-19.635173866371392
-32.20897961290731,-111.02754161971926,-80.51432588730987,-17.206104965249494,-49.081788699708866,-12.584086884707665,-31.289531809307135,-18.54983159640376
-31.35162045123599,-99.84931676726092,-72.7149352147977,-17.415078804177014,-43.13920613890002,-10.25229020029852,-28.7047138590514,-17.886757878398154
-30.57078651638098,-96.04952454738213,-69.82701938931024,-17.238992127199474,-40.85946696394562,-9.374832020308633,-27.783655014083358,-17.657014360027677
-29.733036248979,-98.24730001551586,-70.98194606653661,-16.6262119778195,-41.73075511744074,-9.680289200904717,-28.176455818558235,-17.690226447618574
-28.79234561274348,-103.14004471852647,-74.00202643431244,-15.732816173620625,-44.15745371118872,-10.517676488296582,-29.1281729219001,-17.764479420670387
-27.757186111606742,-107.42213625031944,-76.67477917034178,-14.769019716429199,-46.44108311829698,-11.22570816552666,-29.89908833581543,-17.70797021736587
-26.660252770364586,-109.019628118279,-77.58326894078851,-13.896754578660914,-47.44342399749478,-11.381646897477669,-30.037989985634386,-17.45453267346054
-25.549714408001638,-107.60078575113548,-76.46828027490264,-13.19148827297735,-46.89710091593953,-10.91796058011213,-29.493798788646856,-17.04665877883293
-24.477107180881696,-104.302722335276,-74.06900390129883,-12.641528706763763,-45.319206453497074,-10.077039423667227,-28.54355500676741,-16.58828149807
-23.470629605677594,-100.78162812630038,-71.49507590438975,-12.172838584853848,-43.55494829266716,-9.21434065876717,-27.567569486141302,-16.17532883911755
-22.52168463304953,-98.18449148061147,-69.52705335854864,-11.699711516342816,-42.23497331728116,-8.576514267193593,-26.819806463767716,-15.85067243242145
-21.608359736949854,-96.78909203914749,-68.36177673835405,-11.178396362373524,-41.543041214064615,-8.21785835414485,-26.359766521628806,-15.608577446609406
-20.730313793246786,-96.4329630093618,-67.89863034601629,-10.620385706002386,-41.40077882127059,-8.083929214279882,-26.15419208633962,-15.426426429828204
-19.905850137860014,-97.04751697014588,-68.10406910722355,-10.05213670668214,-41.749550972132866,-8.121633946550693,-26.18378714503856,-15.281089511044394
-19.126188377277693,-98.5963341081358,-68.96852366486233,-9.465924648633171,-42.554628377543665,-8.276451391680549,-26.412735587395087,-15.137682645958487
-18.32288860800334,-100.53991028626216,-70.13336890220957,-8.82058272948036,-43.55389767454511,-8.408829233382736,-26.67481782875775,-14.94045073095063
-17.401075317041727,-101.61483525599499,-70.73122071819995,-8.09625530813585,-44.13591629031166,-8.284842652435069,-26.657560312757788,-14.635799528279302
-16.321235115727603,-100.4217027855723,-69.78701485315705,-7.345060014763964,-43.61681052981204,-7.714788443656911,-26.06877172921315,-14.216849151409592
-15.157584650705795,-96.45046394670918,-66.928169571911,-6.68166395570592,-41.74739360901752,-6.733067323366802,-24.87068938373598,-13.749090147678949
-14.081868077937191,-90.75100674524573,-62.854880112786184,-6.217134425038884,-39.04529179743624,-5.655017498693826,-23.397306884664903,-13.351907058875291
-13.284229575304138,-85.81585813574873,-59.26758342749024,-5.984589032754451,-36.72372491765271,-4.961438538828503,-22.275975769176043,-13.146683072587427
-12.874068792828208,-84.74856632654357,-58.30235686814995,-5.896109745149095,-36.26931123734222,-5.086686276459519,-22.19207277659015,-13.196073464058914
-12.791092743970665,-89.8833825440697,-61.58923458070948,-5.742569593202694,-38.78187527900107,-6.190161082283334,-23.55103520628307,-13.44947333196048
-12.752931183750693,-101.01887731151562,-69.0388870774775,-5.247734893492589,-44.157256952627684,-7.9486165891475595,-26.095587887848357,-13.711012416289398
-12.293541499229075,-113.91755258864494,-77.79469968796255,-4.196328206533728,-50.391551986154774,-9.455926467821225,-28.648063445403658,-13.66668700639515
-10.947023003094998,-120.40037473332387,-82.26260060242224,-2.615837274683009,-53.617225634684296,-9.409354194718246,-29.269763348650596,-13.00386529328822
-8.541581092416392,-111.09698817956522,-75.96661263665352,-0.9071741577192096,-49.395766398542825,-6.685301262645747,-26.008182902864963,-11.593545412040053
-5.433169114294039,-80.19373844118475,-54.80659076783401,0.21820074981306903,-34.986521104595425,-1.0915700074620394,-17.977991873032593,-9.62136680696831
-2.466979581499409,-29.50566197529035,-19.8951831573519,0.04468675583360464,-11.31130795332391,6.2202530554025035,-6.109795736593582,-7.539394958356603
-0.5971418485525524,31.159098109093726,22.123751345159427,-1.73144632191162,16.880381753889317,13.13052398395364,7.062660586999875,-5.816192908889426
-0.34709801975829957,88.26465648987394,61.94551621584912,-4.73946061329074,43.12124970381397,17.655155566594402,18.61699496253121,-4.626904809868014
-1.4615347927135183,131.10311760135076,92.09187524495174,-8.036844134083925,62.45875069766113,19.11986441844524,26.74721006363436,-3.714206472595832
-3.0283228963708773,156.38232860066017,110.10132156400242,-10.566379907097891,73.67697934874366,18.559217496659873,31.533098224322284,-2.5669741920677147
-4.0481672712195165,167.7170706840367,118.25235963692305,-11.707341546937359,78.92537346452309,17.94445328119103,34.393771127539786,-0.8372928711394164
-4.0973911742312845,170.53285934524868,120.12939995577968,-11.569298791772006,81.01355757615784,18.677525903779788,36.59823140197478,1.290295579463418
-3.622611609041531,166.3890224306158,116.75245371363668,-10.833051330480759,80.4402246103356,20.39875597817553,37.95716030640146,3.072332296351141
-3.640129187286984,151.23857000097195,105.37408142129875,-10.252690492814544,74.52558542174901,21.020844094034167,36.73658684382357,3.5919054389450404
-5.035183425845414,119.06674698461647,81.95942051895952,-10.167561461589907,59.440417478633414,18.04989751810359,30.92130910499709,2.32334578249922
-7.944111283770869,68.08877305620463,45.43274797247049,-10.350143257641438,33.66200584188411,10.313025220544056,19.9169929691293,-0.4999565591020505
-11.632146207980755,4.67196992828803,0.3629742678830045,-10.25724394687924,0.24986729070957112,-1.0875488628846077,5.438417072898253,-3.961530693454853
-14.918277114241356,-58.11474560024711,-44.061284355618355,-9.465390376726212,-33.80368188396732,-13.219257863268565,-9.068574602848738,-6.927021437502132
-16.832826645942486,-106.47011360510405,-78.18746017588117,-7.971060209097753,-60.778993732759076,-22.831032260516896,-20.084390944260466,-8.596862384256864
-17.08067502939636,-132.396587073651,-96.44780779668079,-6.173167336497412,-75.88919162869868,-27.94202106628524,-25.669444438220467,-8.819657574795134
-16.06640343115659,-136.73648560664742,-99.4704649213063,-4.599317728791843,-79.13855571646307,-28.572132885117423,-26.130488294833476,-8.027604463909244
-14.550420029006531,-127.30671372583902,-92.76970015797843,-3.599677887670229,-74.50257509349937,-26.332296363551585,-23.454333352534032,-6.901894441378022
-13.215543915952935,-114.00929280201657,-83.31954181644481,-3.208660667039351,-67.34346667242416,-23.3312091825148,-20.056762750869837,-6.009407348571926
-12.405346378212688,-104.27596364698432,-76.35761715777652,-3.2140998558889677,-61.86496094670691,-21.159877180215638,-17.683600364351335,-5.605465863249666
-12.112130106016298,-101.11895462470719,-74.01533625046414,-3.326132864965006,-59.915321665381235,-20.45124498290737,-16.976825031015153,-5.64380223365988
-12.121581490023726,-103.77910133042975,-75.77400877413515,-3.316418026386229,-61.23361072742335,-21.007964313478027,-17.663547863105276,-5.909404043817891
-12.182142837452558,-109.53467537402908,-79.73708657954235,-3.0793962925893354,-64.40123422236599,-22.191918447662996,-19.014585382911985,-6.167543774430416
-12.126839639271127,-115.40276673203397,-83.82039586700353,-2.638917007399259,-67.78177297159853,-23.311344467379037,-20.27782897945758,-6.269246553373438
-11.928126319120162,-119.30047238887381,-86.55472466495189,-2.1221666353267454,-70.1727118822537,-23.907477685796835,-20.97692456672231,-6.1949704174516675
-11.674484552378216,-120.60747266409608,-87.47135003351421,-1.6940919119857745,-71.1328968905904,-23.90197028898309,-21.039343956364636,-6.0310176461535665
-11.47238311741217,-119.99471966051951,-86.99075851688018,-1.460258835048062,-70.93016204551404,-23.54794603426642,-20.71463207859211,-5.889756515687355
-11.332314137134832,-118.58632527197939,-85.86340803660916,-1.393984645835468,-70.13921788629834,-23.195654287653987,-20.323894401237474,-5.821224611906592
-11.137193469994623,-117.09985696486494,-84.5989930144755,-1.3495074778986038,-69.20222880880331,-23.037517994657872,-20.02777049063035,-5.782034897765999
-10.741557438046671,-115.75759954693397,-83.41825968368853,-1.1586275228758005,-68.35595240204084,-23.04020762312258,-19.8102760474614,-5.688059802105459
-10.133850100499636,-114.98123484802456,-82.72320779893003,-0.7396050731384022,-67.94973383155816,-23.095988156146824,-19.66667716430545,-5.505468386615027
-9.52457988854886,-115.91679456197417,-83.41804097875091,-0.14926830724887458,-68.67573289451896,-23.20412288208636,-19.76080998105873,-5.301735685739875
-9.272396932379062,-119.87488447117907,-86.45219919680441,0.43274430464095376,-71.23136729360382,-23.48142914461543,-20.3439679821315,-5.2162002672502075
-9.675863337591283,-126.89830431211064,-91.76038171305903,0.7642448274707363,-75.52230510517587,-24.006479540627698,-21.482698421556748,-5.373058476463537
-10.73531702282437,-134.655399068786,-97.47802009670411,0.6397937575026602,-80.06525550325019,-24.668781441244487,-22.835683991399566,-5.786025343951043
-11.992888172684,-138.63959221886438,-100.15242661220182,0.032231243811700665,-82.15943507993015,-25.13697632202464,-23.65177089310075,-6.290243333451594
-12.537145375031248,-133.5886125372001,-95.8833310204606,-0.7758948070157674,-78.79378624951211,-24.896616987088922,-22.957743079651898,-6.52790903366489
-11.237065291496641,-115.31370939291415,-81.75993830743879,-1.1914611030913258,-67.78540851288446,-23.28005691422025,-19.81795686441008,-6.023606465765603
-7.1992671680132485,-82.24885880522999,-57.00835481851138,-0.5299014678121513,-48.65392960808495,-19.544161135056132,-13.618786216162075,-4.369857762982391
-0.29264176572288036,-36.40244099902287,-23.552859265956293,1.6108476928596218,-22.987156017660396,-13.126037783981701,-4.374697246841341,-1.4708183641503603
8.550560489958837,16.564948834159093,14.18078491450878,5.043243380570604,5.788978671117341,-4.068566356705575,7.037257735691416,2.2893466443159673
17.51043210193961,68.45722364288373,50.31403882935316,8.97589973150207,33.235142243448266,6.62028389155215,18.901952254207533,6.087251415760005
24.535372919033847,110.80942867002382,79.21304389092336,12.342527233166095,55.13104955982664,16.983879229490064,29.067758664275843,8.938336543080455
28.177501425113967,137.59724561971277,97.24102372836803,14.296271833258745,68.70889722619154,24.64731500391631,35.63399505216079,10.101897478380055
28.17189766568316,147.26119614599443,103.83345169414143,14.581673178779797,73.42305391742974,27.698553014577346,37.6455904261072,9.425867730878952
25.459783730432555,143.0554509777702,101.39968671670063,13.582245830871978,70.9425625431495,25.51797916622401,35.471254793443904,7.463185148595117
21.673226110577936,131.42628340000033,94.06318475820899,12.055101163345116,64.34851292693929,19.133597267911917,30.667980774971575,5.286121509163821
18.39265358064826,119.15861352581787,85.85448224519453,10.746439828585446,56.89047509602908,10.91374180307099,25.386875695053153,4.0580912398672035
16.57295504209772,110.81376163863138,79.32690320695492,10.108960999224914,50.92374160527676,3.755274868578662,21.611656200127353,4.544023574084435
16.370890828704773,107.7838859877897,75.28518835793099,10.223358021763088,47.53062140260398,0.13769911337024998,20.56573475893333,6.78456107438073
17.33645430202683,109.07998768501221,73.47709596104023,10.882429493269735,46.80765283989405,1.3705423867075472,22.449874923914347,10.087508877378804
18.75644921502982,112.77610040748054,73.41201434569601,11.737117163902914,48.32340226525752,7.19079899712132,26.469195493501793,13.336445429294217
19.950851429464034,116.95229908042533,74.60899452093514,12.431666396610824,51.302851704491445,15.779849857534751,31.071400194017126,15.467324055231627
20.44382816262902,119.9242376753105,76.35587819821883,12.69968836651077,54.59401907403306,24.276879287487926,34.4022337988337,15.893464810474008
20.027129916923656,120.34398794323397,77.59902663330784,12.411240382341317,56.81836716130458,29.77038182821169,34.96669797477387,14.694879110997583
18.752395530964296,117.57448123461246,77.32174462235048,11.571437777314527,56.888692856433025,30.458412426406284,32.28570612087176,12.509304639766627
16.875657263760484,112.03604347188217,75.1117609177143,10.294258399259345,54.57964531862865,26.413510837719585,27.17341922739495,10.208648920558346
14.77760174691113,105.03023536925538,71.37885927016622,8.786520188321935,50.67139641005639,19.49957759486114,21.39498219419677,8.537063739992728
12.883194590820665,98.09147302021422,67.0779582142518,7.345198694725224,46.541008676747296,12.472481689152964,16.858104290514902,7.876358967082298
11.579567704117034,92.41310894973267,63.255168477176994,6.322768442148149,43.51779903280784,7.775122608113808,14.802393079952795,8.207203620698628
11.11044057430564,88.68701636480947,60.728065620438805,6.018931271065885,42.38697256980059,6.640710105196237,15.406805481877797,9.22288853363648
11.457179810498548,87.13937458473828,59.89585872804791,6.532432406431995,43.17488493497546,8.841482261665378,17.921307440726796,10.499588871316774
12.280930889656421,87.44015780190576,60.574370739900694,7.677264442801502,45.169969163569995,13.04583465143191,21.138585710066046,11.645307100244938
13.009489065244278,88.6058203036343,61.96791192399216,9.040670107143049,47.17372721707504,17.51026300122037,23.926401745534452,12.388063511819741
13.06318841487956,89.28611625458119,62.991094665179546,10.148053088055917,47.994185693168944,20.769995949942302,25.592060493156616,12.582388647518844
12.101784752092273,88.44728808630848,62.85308206267375,10.621315560426137,47.00273715956504,22.053906189325392,25.95637637264962,12.137308339322148
10.157258838466054,85.9074685116076,61.45579783586956,10.258498236713999,44.39050581700781,21.313908900840314,25.163555916436234,10.932236947054491
7.612866186552858,82.23532373856621,59.26274872066747,9.064257760093426,40.91767664130889,18.98042809744895,23.417584434680997,8.83671109084589
5.087737226276348,78.18777307460238,56.820036399128206,7.286694837516583,37.3787079299355,15.689203133400655,20.881576725312865,5.883647763308964
3.2890783040035028,74.30785282918714,54.438037276252345,5.432230998127527,34.2409653666182,12.139903757503802,17.803660433508046,2.4728708771081274
2.834866108000353,70.97955755898673,52.27906527617827,4.15987719277784,31.675763629531616,9.025166689539532,14.673566729206946,-0.6230602762303262
4.043641551697834,68.60914794592327,50.5947771799246,4.024146554097486,29.777967911484733,6.87237852427497,12.153417562209686,-2.557951645080374
6.7640461879649925,67.51065138867665,49.74297549897231,5.194358838739064,28.65704830673469,5.803903264563967,10.765105500219809,-2.852514886245414
10.368042273636304,67.59103814296788,49.96830208800983,7.348644329516958,28.35028444791532,5.445494625876711,10.60650094721798,-1.6518860516880909
13.956137319329418,68.29548604890292,51.230459687285226,9.828116484988394,28.75291121341215,5.181203893233065,11.374984189168936,0.40588310794127685
16.67083202245728,68.96089051251981,53.22557324552788,11.944093176554565,29.669804873992174,4.634692022407086,12.673754863634972,2.6150285605124117
17.942055332508257,69.17562433975763,55.439648129721085,13.240328580589654,30.856691000292557,3.9808240100046106,14.289854529236159,4.600753024316754
17.57087822686857,68.73803433113808,57.09147194428548,13.585118536802915,31.92282028729343,3.7824944225747315,16.17364744204294,6.4040237362739365
15.69962442317187,67.37195340636151,57.148898538607845,13.107877364335673,32.230903687379694,4.45061363719278,18.167506052812204,8.21847558999752
12.766230649704422,64.7128137944883,54.712092735380374,12.075731927049324,31.062694539656334,5.757749744811945,19.785519753178452,10.014509273391559
9.465586355965856,60.70751636585728,49.669826964556044,10.79441114988891,28.064699598986486,6.795628091687744,20.290671935958752,11.36832895960654
6.652534165100811,55.95433286030851,43.075222779698734,9.563707126059304,23.61717135241115,6.423639119957973,19.046328241331082,11.658649583655631
5.136340293764777,51.4892356159013,36.78111661443948,8.671776579556811,18.75622480273422,3.9281815138237794,15.914049968874817,10.521048241470153
5.422843806682416,48.16386259942634,32.51535793540192,8.388164682713793,14.681949715472705,-0.47866604425899695,11.469319625119288,8.249009592380766
7.542660479289202,46.23788567765237,31.075259175947398,8.916070772896456,12.248898692165335,-5.577891719490994,6.923742497145393,5.8364593776216624
11.076375388526968,45.51739701333392,32.14611813213713,10.302112455510422,11.762980049845103,-9.543125846065896,3.7562131350619685,4.575200215752589
15.374515795966756,45.720321425891626,34.66396325077213,12.364132303070154,13.051762903743432,-10.672033790537183,3.1619984526575635,5.41835592191066
19.858245195102914,46.590657937439744,37.32325198045576,14.723226721014171,15.594195857925275,-8.110064495162984,5.54811918503657,8.49142926041399
24.240215756384973,47.75694518459569,39.00168238597979,16.96201221615741,18.642695757319714,-2.183142448571761,10.34707102632594,13.041843643640874
28.53906145185474,48.72078223227228,39.11957202475929,18.81512180708604,21.434366502732722,5.8310983875541185,16.271294510942738,17.82517739468294
32.86537259490304,49.122413190182634,37.883237242014154,20.244836644594304,23.482369437748687,14.298179667790698,21.84586052384866,21.65336083065921
37.099352234901,48.942329408081314,36.17510473526016,21.33646841665079,24.724083096749577,21.774795385330002,25.883653198305307,23.78114317586766
40.68461242926416,48.30908442220889,34.991885750962034,22.103345443001754,25.350841322265584,27.230285290894116,27.68358338686183,23.993475631783756
42.73118340227033,47.129842035249716,34.77435963217253,22.37550490631712,25.476642861831465,30.009382680400766,27.016674042534266,22.490594026922356
42.4282186507294,45.07837865320028,35.175835117568354,21.876154156111458,25.009114960681618,29.812686731803147,24.109399109401352,19.747134430847414
39.53067254797337,42.057539772144715,35.441628163983125,20.429878215070904,23.862469416789022,26.844872937007775,19.697335186784382,16.42386330385655
34.5965147465114,38.593983482889634,34.99408925135475,18.14128107915405,22.241701248351667,21.985090204788943,14.996059544466473,13.284982195872214
28.8022436728647,35.59919748242012,33.69114503328981,15.412569305619398,20.632126771756905,16.703522798746693,11.409933872991914,11.054372648392922
23.44375292886934,33.627137880099056,31.657113167336043,12.788344629894501,19.464829732238282,12.621088152046894,10.01904709157782,10.220581237997784
19.422196488533093,32.335347931796555,29.017697217997444,10.726441540019373,18.783120924639647,10.903405622427705,11.115912696114586,10.876610028639774
16.99400100560963,30.64215617286255,25.831145984002987,9.433731280431326,18.20670650713697,11.818877184113274,14.074835453745418,12.691229633438814
15.878820556201363,27.403692435601254,22.178215312016885,8.86572064817095,17.181069687053288,14.688703975185334,17.638155977695803,15.051648311354532
15.610984435688843,22.125434628443966,18.25336594203447,8.884294829532301,15.313714898100564,18.243689573054116,20.480718745009,17.324954672235357
15.90011570416803,15.452343371081966,14.466658781495427,9.446291826584957,12.671951859608646,21.221758911826345,21.797126950229718,19.105725394000853
16.774043946120397,9.359757099231635,11.61036241016803,10.645586164358981,9.985941387832844,22.926383222377964,21.637227787881432,20.304258682724836
18.4051524973389,6.739870282939395,10.858901979550113,12.526165490761318,8.575060115187942,23.436056295640448,20.773899124093173,21.013576354644414
20.725057244352882,9.976121524212974,13.179533959373046,14.785017780423432,9.738962967098754,23.290620309691057,20.07875987381326,21.240389952798992
23.107383868872567,18.793220286223068,18.157325767703938,16.63114693669825,13.683876611384667,22.809647575977127,19.708500801016466,20.701713445543348
24.407902488326783,28.79718637946986,23.061908995813422,17.00641238710959,18.652503355984084,21.529989562688552,18.66108645595143,18.875707849645156
23.438474021457637,32.37112466359802,23.283629687960588,15.114333413798798,21.142215846653627,18.264068275152383,15.147145449057358,15.328735474658888
19.63402122497264,22.21422418848963,14.451083689366486,10.938601141066885,17.487011504127473,11.861624680209193,7.688342540995221,10.120161764416473
13.486985926192734,-4.305770382461504,-4.854517263366884,5.386844153625228,6.013465149973502,2.191728095540849,-3.730815755397317,3.986564621920497
6.434136929756934,-42.84834722610031,-31.625212451485655,-0.07687665512701948,-11.635464660349545,-9.37850934794204,-17.26938066664779,-1.8689842182102696
0.2245822531036356,-83.63290960756234,-59.4010624852924,-4.10886523562701,-31.002955906366147,-20.421641430694237,-29.938139407853214,-6.288131635267472
-3.867896030783409,-116.10971731011573,-81.294840100366,-6.069482419693754,-46.95722112590075,-28.58068912074941,-39.013673609120076,-8.665290257699766
-5.5358497851685655,-133.9594876032889,-93.25191546696529,-6.189208722210744,-56.1720063014239,-32.68398438397847,-43.291826963576,-9.154057697122077
-5.391159828446831,-137.42426431754882,-95.56346979848398,-5.281043391190885,-58.43686178981906,-33.15689712613557,-43.44462614581945,-8.479866487405575
-4.4896089354318125,-131.88691276095113,-91.8990345408653,-4.243135005835,-56.13952072474572,-31.55113720881087,-41.37212360618289,-7.5164514984439865
-3.771848946281562,-124.18375646554527,-86.84096486825943,-3.6683009507584265,-52.54103571258241,-29.611022925165962,-39.09240785554554,-6.899050065128067
-3.7329062757311697,-119.32128018705326,-83.70922048466844,-3.7249329128662274,-50.14034254209305,-28.51771583671925,-37.90013393406954,-6.864331067759705
-4.404419623083634,-119.27186565311389,-83.79315420450959,-4.260908042578084,-50.01145153403373,-28.666133273475662,-38.159006257545585,-7.3205107454687415
-5.526821623994171,-123.56513319323912,-86.77695866657135,-4.984754767350673,-52.03314438224566,-29.862411326573284,-39.56929761024269,-8.020866499951769
-6.748836842094641,-130.3862317268417,-91.47052993878391,-5.621119538783862,-55.39025219193242,-31.619363955118875,-41.534977873413894,-8.716439317547044
-7.775670459226576,-137.407419517981,-96.33109317460617,-6.011964180860705,-58.9555095270104,-33.36809834990635,-43.420906928867524,-9.241692885674384
-8.458476181654934,-142.47811982379065,-99.89426685186267,-6.155402487201921,-61.62062306750858,-34.61561525886047,-44.723951198611076,-9.541647884628805
-8.820324431261144,-144.38731903051058,-101.29036577980541,-6.167742618527272,-62.7015999190526,-35.099856055670664,-45.21211477870757,-9.653834610328932
-9.007862116108791,-143.38079809272799,-100.63145628995666,-6.185041877651542,-62.25492227128251,-34.88356609714806,-44.98404946773278,-9.65811176900608
-9.19684537381845,-140.99291467389082,-98.94317814887971,-6.2746123619514265,-61.042917614978734,-34.31046588669644,-44.39586276925307,-9.628208047474697
-9.520680271648475,-139.3217303154249,-97.69847195779715,-6.426699316693047,-60.17106270377256,-33.86397980619604,-43.919537043612465,-9.625376999381867
-10.06192352429187,-140.3106577301099,-98.32123078882027,-6.618753932964771,-60.68182365228522,-34.035150385801074,-44.04082229342629,-9.731590973001888
-10.866737273291426,-145.25350384871192,-101.8072418031371,-6.870324155360849,-63.256378765798765,-35.20917388669687,-45.177272044813456,-10.062470615193911
-11.913772330773014,-154.1743514886241,-108.23379027642366,-7.223613602561276,-67.88503611745615,-37.47285785970179,-47.48346020156656,-10.703265942153408
-13.040502547545316,-164.95124797314037,-116.09124698547416,-7.6726848711360836,-73.43921779230087,-40.34018475018525,-50.531337347156004,-11.589918511975073
-13.91909753535727,-172.9670027815934,-122.01302035098426,-8.118158808157164,-77.52031411426763,-42.62839435925013,-53.12314772716971,-12.434704767055713
-14.162319565213437,-172.40331838699626,-121.71041283634312,-8.387982436227036,-77.14518136832552,-42.77936805118451,-53.56933585065971,-12.786893512082491
-13.523633636612226,-159.19323654596548,-112.12987614599544,-8.295969051123338,-70.2856792867335,-39.631985856815014,-50.46190857049422,-12.226195174079427
-12.054662029713446,-133.94845662480327,-93.62332438797135,-7.694069044472348,-57.397981704743025,-33.22737825079897,-43.53030904457249,-10.592830020240294
-10.101031107139269,-102.62816957043005,-70.49923533342552,-6.512365125832563,-41.762422784794666,-25.0769997232885,-34.00171680992328,-8.131220496272457
-8.132551538930029,-74.06257881930748,-49.2639770401154,-4.800996629755381,-28.141740680077632,-17.615103527683583,-24.16859770950079,-5.464109566258749
-6.511736806507393,-55.65703248815461,-35.467762639145064,-2.7574456969536123,-20.44921161780938,-13.077456714843422,-16.372409912403175,-3.3852111199000334
-5.33314498982438,-49.91965525842898,-31.077017087984466,-0.6920338230878131,-19.85449032204542,-12.421679010789303,-11.974417293109761,-2.538018957261592
-4.414391183602669,-53.896947588982265,-33.95478202166594,1.08798429205836,-24.48181180179656,-14.89171760145773,-10.873566241358919,-3.114396674483616
-3.428531979126749,-61.60434463278205,-39.59832647887706,2.4248463254532813,-30.77688448129304,-18.448567883970195,-11.773388306412349,-4.719689821441554
-2.0924623826737316,-67.57881880465715,-43.80599476659457,3.3890512145718636,-35.526393592051186,-20.788514050657295,-12.94763340393872,-6.487833253253133
-0.31504760781201196,-69.23338654785296,-44.5331907662103,4.21527190296977,-37.225487780328,-20.379324782141033,-13.029815309184455,-7.419500460638961
1.741650630411676,-67.0088609137518,-42.104435378050624,5.109820164540449,-36.18382701899874,-17.034082006056877,-11.48049883587633,-6.814262414544554
3.6850954789566464,-63.084946960460535,-38.26777842025489,6.047530945947321,-33.764035408491665,-11.872322651936251,-8.671386583226274,-4.61191810595436
4.989567199388265,-60.01925666819589,-35.11122454005592,6.7098340249102835,-31.55370384745344,-6.79905489269003,-5.678315379335576,-1.47321011299545
5.162925375829822,-59.91254273120945,-34.365665341212434,6.628339170185312,-30.879497219420436,-3.7352264924713063,-3.853558075804499,1.4646517256146208
3.9409026685574595,-63.81867987326689,-36.95300148241186,5.443046536975657,-32.52392165618679,-3.8583781865143214,-4.251307120682559,3.055983391180631
1.4133622869590672,-71.20168123378035,-42.61119176422302,3.097769823975457,-36.45513681865001,-7.143724315060966,-7.112988696591441,2.6115645577805204
-2.000971601425528,-79.87698363911441,-49.836656487196805,-0.14002626857183703,-41.71863043821125,-12.43542295337528,-11.707549059036104,0.14676694833738116
-5.7184683749791585,-86.90285215074934,-56.44618148148506,-3.8034450599606022,-46.75805587625525,-18.02544829197707,-16.66247904144019,-3.667215183800597
-9.192268770040572,-90.08593514011267,-60.56919111593326,-7.386055065967259,-50.10375793089485,-22.417265735292414,-20.603170337400442,-7.787706038246121
-12.060003031496771,-89.13683906011303,-61.47253407599263,-10.469292381063015,-51.02554206959112,-24.880269033241998,-22.744541446730896,-11.191710397247325
-14.216740064352738,-85.84922576788033,-59.824448498370636,-12.812435573343103,-49.82645582004679,-25.61194741157283,-23.184278049472816,-13.235716787307155
-15.81714811725542,-83.45903372549924,-57.48209195707726,-14.391841381068664,-47.77504375878459,-25.562375402530144,-22.84542112557409,-13.850643843897926
-17.172313109584714,-85.5395671366963,-56.957184983150256,-15.33662127280555,-46.750121909986504,-26.013169152107476,-23.08840944649477,-13.471994361756975
-18.512080646915937,-94.40334085728627,-60.41190227682736,-15.749711574523326,-48.488306485954716,-27.941018375211808,-25.01740771927357,-12.714496977626347
-19.70311324789646,-109.0528925828506,-68.11629662088325,-15.529991677528429,-53.396630376473155,-31.29419626346777,-28.658109246158325,-11.961333692940727
-20.141135352756123,-123.69604802659855,-77.0759198355759,-14.375577981390105,-59.462488779394555,-34.571797381563684,-32.464441187285985,-11.127667798646424
-18.991087460987227,-128.58752610281238,-81.18722946873213,-12.029580698281551,-62.28163518602421,-35.17601336587797,-33.67210301617247,-9.766930878646244
-15.70302932250084,-114.01046986432173,-73.69707018962066,-8.606816338004048,-56.81848702651936,-30.621774765084073,-29.584096575175785,-7.453442031210235
-10.481641206640106,-75.78498766133566,-51.01510289817557,-4.730168724213488,-40.23890973628545,-20.02777190508475,-19.16694455010155,-4.173409233345047
-4.3668457269592755,-18.868152057359612,-15.510518813315233,-1.3291436928604885,-14.069368041003832,-4.94587741477383,-3.9522790778944086,-0.4499971736796711
1.1705488099269674,43.71517081479068,24.77658271175691,0.7921450574443605,15.896389409627627,11.097011454139196,12.42248367999462,2.880714251174337
4.8900930932494475,96.45269170057364,59.630577086158134,1.339400774244092,42.10498630437484,24.156944698043933,25.840808382520677,5.088044408559938
6.309298446777193,128.29908966532912,81.35679196921254,0.6256158778757006,58.727988505652355,31.634805498746427,33.55920509852822,5.890299736547231
5.809732134515967,137.0171741482344,87.93439664923588,-0.6562689199664922,64.08245559902694,33.24707422289809,35.23621511012371,5.5288390159211405
4.313076326901523,128.72316186522693,82.99360353959811,-1.8151047547198167,60.72064301128652,30.755929108602214,32.66345154335998,4.568996583559692
2.7725752874063336,113.53324275685871,73.07134897219277,-2.456523316044604,53.45782850378595,26.786965019280107,28.542197253008275,3.5890004654832235
1.7852566708649253,100.36179487730945,64.14310312559769,-2.550868194976771,46.78893866340594,23.532928182640397,25.13968919268304,2.9481264663749713
1.4847648466809362,93.768697187332,59.420157674609285,-2.3079729142392904,43.194323217577924,22.02951176401061,23.536843817127615,2.726110770466212
1.668266026776995,93.78461535649976,59.11418653104875,-1.9960512867325244,42.90769823127245,22.17690989146656,23.644075032722952,2.799541331659382
2.0058684454207643,97.67637106099637,61.52985034672546,-1.8155923093014188,44.70488006932338,23.219362273267095,24.688182059629597,2.965350619779281
2.213467356176608,102.05329034210678,64.43520475490705,-1.8508370554071574,46.928060686737396,24.28673242839849,25.76749934382911,3.0458116856437645
2.1501726484437405,104.3861796673409,66.08821260526526,-2.071781619126364,48.26148596258799,24.77308381915113,26.247330664637957,2.9525771379583152
1.8409384177395145,103.76564379881519,65.79079476419541,-2.369630565272016,48.15345411150562,24.50644110078545,25.94392702646184,2.703742212907488
1.4275195476993225,100.91928944085983,63.95677772712306,-2.6217344190247918,46.8799923830572,23.71820616985746,25.096746616142244,2.390874240148923
1.0686511091993793,97.50541270475094,61.67278580123501,-2.7609160861306177,45.23515449682209,22.838102411757564,24.15286911354445,2.1123423705246753
0.8473717852560418,95.00712166259248,59.952826921236806,-2.80284818158528,43.98416319643173,22.217822538724185,23.476389764660937,1.9156622421397054
0.7466052386826197,93.92914848697723,59.17077622293791,-2.811430125268497,43.429383169947904,21.955550944455677,23.167293353562872,1.7873112873445274
0.6980385793925793,93.82782958277444,59.05518814952411,-2.8386701752449808,43.38504925143424,21.92670023744995,23.097166730261677,1.6865871791087905
0.6466359478076813,93.9753995885001,59.1288562336255,-2.8960132785002917,43.494581572902455,21.950787412384926,23.082711110988583,1.5830942902552418
0.5732846661688448,93.93969833667417,59.10338094267035,-2.9722073077483926,43.53358726976894,21.922756417772,23.01760097770516,1.465771695685941
0.4763079046805462,93.62958036003077,58.91281415355525,-3.0608010407973816,43.44879033071132,21.81823115230009,22.87455455400459,1.3307185519659737
0.354925265536108,93.03649939871049,58.5394470940687,-3.161088760255495,43.229693578441115,21.63639122972513,22.648487376691524,1.1752625542271304
0.21723558160354617,92.14735451253746,57.95931016736909,-3.2615416545217326,42.85864064618644,21.38410001850666,22.345239794737306,1.0061246925181722
0.08980585696311494,91.09599983711159,57.254496800899574,-3.3397302991552533,42.39028772955384,21.105776411829147,22.013714078946723,0.843045755184374
0.0016262604003044814,90.20423382739843,56.647193471168656,-3.385366757955439,41.98484553891648,20.880783948434615,21.738949848544127,0.7043023858216524
-0.04451527324978913,89.72372385352436,56.31978249978652,-3.415395723568297,41.782612851530665,20.759147618294424,21.57176819928013,0.5885280312043534
-0.07575673761050727,89.56688864751557,56.22078244731511,-3.457126576067995,41.75550408781831,20.708805090704608,21.475871267830016,0.47663832702296643
-0.11943564248617133,89.3999918174998,56.12221103050645,-3.5182672663638774,41.73758155207177,20.649559539146473,21.36760942158338,0.35329152458986174
-0.17521315015529096,89.01693852531241,55.878256576769004,-3.581581334478961,41.6133435614343,20.54014207596953,21.2070846548407,0.22189251603927634
-0.22241837754371763,88.53646314895957,55.56701701005046,-3.6297755214289924,41.43257299233047,20.41350164930304,21.030660120375185,0.09572828488347636
-0.24997005322302726,88.19240550686297,55.34905777709691,-3.6666400792672724,41.3154218096664,20.321699049560326,20.890573371191326,-0.020925342304647387
-0.26825561287125405,88.01622836795511,55.24670087503197,-3.7072568170460185,41.28587703960875,20.2678219344622,20.78654459834244,-0.13616706825465044
-0.2895182391146989,87.82968092436128,55.136847120557434,-3.753280092696097,41.25536800713654,20.212632226240945,20.67735799832128,-0.25567569060917206
-0.30715808287410185,87.52527871335577,54.945867457390676,-3.789221478865124,41.16362756380024,20.137797346563364,20.54715322166498,-0.3724155424913658
-0.3044953922258861,87.2250260254144,54.76133997327804,-3.8053752864704804,41.070219734552985,20.0725047010567,20.428807493076164,-0.47636085523263955
-0.2808028023139203,87.0981655752084,54.70419118454466,-3.8149962832370243,41.06829205534477,20.047020464616892,20.35244257096152,-0.5707195993537796
-0.2568926370836048,87.10768270006771,54.747931111980776,-3.840400814718829,41.14660831066201,20.04288411609845,20.295829963870133,-0.6709586573321611
-0.2500282888068801,87.05704416178777,54.74826952244825,-3.885100914200019,41.20004607584183,20.015510450371792,20.212224000645197,-0.7860379525584114
-0.2505422177053034,86.88274590971766,54.65033874385195,-3.9284590720520116,41.17982814504504,19.962138941607318,20.101293327463416,-0.9059326554985506
-0.2314094063022118,86.78035026253436,54.58508340478907,-3.9492901856202267,41.174452218314435,19.939795525937225,20.023640061385336,-1.0118379030391316
-0.17859026610474774,86.96567733281832,54.70945696718982,-3.9469987081914666,41.301110510780774,20.001020306983325,20.03142197697184,-1.095956200408453
-0.10362110286162171,87.37194996658961,54.994140682507,-3.934817358512302,41.5460597556407,20.125484732501793,20.100314363394812,-1.1665767883694418
-0.02580873333453934,87.6846497859492,55.239390391149236,-3.919723251894503,41.76618850266205,20.233660106808358,20.14856215688165,-1.2355238366902166
0.04770468193655407,87.67860575938828,55.2992009902479,-3.9007340120470597,41.85152021572115,20.264270420971453,20.117479819067537,-1.308245857484804
0.11685563293929796,87.43908322985949,55.226537757419074,-3.887313793388249,41.839759394478094,20.221896960909337,20.015640360908357,-1.3894889314306904
0.17171460879900902,87.22822641565627,55.1763406829271,-3.9054372794948535,41.849908740878966,20.152219149473883,19.889025241887165,-1.4910390926457513
0.19755911574353305,87.23096988572816,55.23405688131457,-3.9711427675139404,41.948854287073466,20.101218089418445,19.780418296974386,-1.621707869718072
0.2047421581974539,87.52076929589556,55.411367379550015,-4.057145492482391,42.137231901124004,20.11998970308157,19.739105882200544,-1.7652896345984455
0.24432942239433803,88.19832497502144,55.772791676274025,-4.0961540464276345,42.444194523342276,20.284987109832894,19.843493601300008,-1.875749175284874
0.37757415866669425,89.35680600735614,56.43472372480724,-4.027986467681737,42.943018149066056,20.655173638654063,20.15458172428038,-1.9060878670339343
0.6194188345562773,90.7822839439045,57.35061034256503,-3.850369045448184,43.60766918754023,21.168790183628186,20.608355788224422,-1.8505813951443018
0.909354056213978,91.78277991379497,58.14564642782123,-3.6315857542454597,44.18874645788101,21.59530613373316,20.969542098995472,-1.763165975860499
1.1373610146536979,91.55356251592404,58.29956822439238,-3.48220306844411,44.33158746443465,21.644030990972844,20.946731413235625,-1.736025694783552
1.2030417673948723,89.91625020750034,57.60194214776978,-3.509357121934986,43.89585749068959,21.183577468957306,20.41466525442258,-1.853637902794419
1.0707510610531807,87.7773154714,56.4677189757211,-3.765798006503763,43.180756164199664,20.406742165638477,19.574017689407267,-2.145187685795729
0.805625079654257,86.82715895865272,55.80658675411089,-4.193422488744246,42.825936703637105,19.808552033075095,18.922045318788925,-2.547950419249571
0.5862720698499704,88.61750167669032,56.53219822051832,-4.585283941365741,43.450198856190994,19.97436425021186,19.03907725396218,-2.8954858342251932
0.6686978382309047,93.520633418447,59.00441454394259,-4.623834471603888,45.25451707856042,21.260553394114524,20.2736983736356,-2.9592423340183376
1.2686421951946234,99.9552365399159,62.57783655387179,-4.0304899701078885,47.724638125078094,23.462256341578968,22.41450312168387,-2.563936447484325
2.3845813748331213,104.09169915901477,65.31509065286768,-2.770549820931213,49.459126066472784,25.588617801682325,24.465426034268457,-1.7428299600663175
3.6692079430822244,100.36159803422738,64.06939256740617,-1.1759721112377228,48.23621144340424,25.931209929414415,24.714422491704205,-0.8358780144210024
4.477090784822976,83.14233321263086,55.287220244010385,0.1319062554366497,41.55570037555987,22.58619632013487,21.259733175734418,-0.4314331930248383
4.118682973715193,49.4260043612415,36.585634971985776,0.5124404886728366,27.719858381151546,14.354334553188025,12.912355922206789,-1.136542686558254
2.1988151403578673,1.2952775099611935,8.46941757902459,-0.3769699270372329,7.046155361987425,1.6018274848078653,0.04778070694534166,-3.277270775584471
-1.1636794971177271,-53.457801960748284,-24.91515005907458,-2.406110171686441,-17.54975303897258,-13.482935965485623,-15.158243107924699,-6.689912530275425
-5.376399628906979,-103.53812653272158,-56.80210432931732,-5.042995223839762,-41.203978808474425,-27.55340063976274,-29.411582554454604,-10.720817703284716
-9.648019034355311,-138.54757797614275,-80.43178693673411,-7.614468446185094,-58.92939064464022,-37.467061493499095,-39.65844141761872,-14.439277662209477
-13.318880205430752,-153.43662447723608,-92.02287924919848,-9.5849718138659,-67.7772100525578,-41.64339193488649,-44.414276428821815,-16.96395921515288
-16.046928189541276,-150.4908322804753,-92.38495741568136,-10.701167211320438,-68.1174616993458,-40.64708154283475,-44.30664072683259,-17.769827616037407
-17.776100264673968,-137.60739826246802,-86.1401354551392,-10.977732608980066,-63.22581433315023,-36.67490578990731,-41.530632201977824,-16.875520082845338
-18.583086955259063,-123.93057853879314,-79.04339623540541,-10.608077332100512,-57.4237535090295,-32.31270340274505,-38.59539132330959,-14.858492330677198
-18.55838449747232,-115.58338411128955,-75.135483089811,-9.879027704738608,-53.96102566352268,-29.34561625884985,-37.14492393050031,-12.676493197884492
-17.792024221762382,-113.83832864947176,-75.36357251981063,-9.097039779121038,-53.85199072509364,-28.23817484414151,-37.46534038159125,-11.318268648376717
-16.419107102193816,-116.04377934277176,-78.02735273655344,-8.509964103064855,-56.023211883216455,-28.353889941992307,-38.74568998940725,-11.394955903865608
-14.657901847936404,-117.9303048444922,-80.23938003157707,-8.25381855104264,-58.281959474754906,-28.564120308630926,-39.73870152136353,-12.867345912352437
-12.824100212484145,-115.88476694034762,-79.4755703277136,-8.370010541013137,-58.47843532869357,-27.87761191826385,-39.43767816106339,-15.077051496756077
-11.31857678619732,-108.69084188477335,-74.83184330898885,-8.862181937369401,-55.56641466650947,-25.915430387063157,-37.56246968524794,-17.07630927418873
-10.53990694412731,-98.555270897345,-67.79407349889911,-9.68258002870308,-50.36460205648272,-23.13772415873017,-34.73022377886004,-18.04791165035796
-10.67512401598669,-90.75758771824006,-62.022549884491184,-10.592839772553985,-45.57017508004759,-20.679980517436388,-32.17722878285817,-17.554844105336425
-11.446581997280298,-91.28792680776748,-61.712786739282315,-11.017622897243172,-44.60977117091759,-19.738411352333888,-31.04078274746526,-15.518916464072094
-12.033400022393202,-103.19489240506246,-69.0535203144288,-10.111117783726353,-49.65011569244531,-20.76612725297526,-31.554559563400733,-12.056327237083991
-11.350149389953739,-123.93958858414538,-82.38522730542289,-7.1309773349522905,-59.977410400630795,-23.02056229117674,-32.730051978924116,-7.381654466635589
-8.612523360339248,-145.94833947487427,-96.5757507566794,-1.9381822580221795,-71.99516376126026,-24.866662025997826,-32.85332942228012,-1.8621487415533955
-3.8512813351679553,-160.42547125887327,-105.64753538999156,4.732450983438645,-81.03246144373026,-24.708810515371646,-30.53339429795714,3.8928642747949396
1.9908992251707471,-162.07370531205797,-106.02452782157528,11.477472598762581,-83.84716594183769,-21.942302331922384,-25.600978835588922,9.0843758940167
7.479959618157758,-151.70810441738035,-98.31859968222571,16.83064311838653,-80.23256735824573,-17.295934627537452,-19.254510753158467,12.968075998798005
11.37958173085363,-135.26410160202957,-86.63012004056607,19.91433883665874,-72.80354660168574,-12.373273544231736,-13.382917506622066,15.157669682393674
13.193632467360363,-120.11141075769903,-76.00377396920135,20.754933278609478,-65.26697034527649,-8.732946953488758,-9.535953230227003,15.782420145568
13.267269881915231,-111.16738096976967,-69.76569241083266,20.11312205998582,-60.385861105076664,-7.105653918083849,-8.192779423338338,15.387158263959783
12.450109742840668,-109.09381960208619,-68.31171675575504,18.9889888752592,-58.86605215777746,-7.188380857644283,-8.7199965820439,14.637997035199136
11.58430969659583,-111.19236815212918,-69.75404384203627,18.129263745973695,-59.61150746630825,-8.032757921296124,-9.927831420636043,14.019921332688003
11.13615283201938,-113.82768992681308,-71.59814911377774,17.798936249287394,-60.85839824946227,-8.677232991488943,-10.781473908401205,13.699028365137975
11.136065452912908,-114.59745715822146,-72.21222251891716,17.867056362082423,-61.303931374312306,-8.613761575022632,-10.83389106594563,13.594454394024218
11.371083959890678,-113.19005713226204,-71.37305700913531,18.069224154140826,-60.64360792987491,-7.902061476884665,-10.237706388835294,13.567129385962845
11.64646211835412,-110.96196736075667,-69.94483546112356,18.255621381990107,-59.467117431923135,-6.996850086482513,-9.474928193387763,13.58083321220388
11.949215536299858,-109.78980038097993,-69.1054276114783,18.493774275889788,-58.745064730491535,-6.4399951869676535,-9.014401986485213,13.738580979621684
12.439391755461392,-110.714837390965,-69.4809236926013,18.98874911322975,-59.13933131462175,-6.531358661330796,-9.030183526895263,14.184889651561955
13.285055556465707,-112.88585308545785,-70.50424876963272,19.86609176371821,-60.38423320101072,-7.08328970018202,-9.263019254129196,14.933738718392744
14.425920363837749,-113.45989926253048,-70.39836428095145,20.93606273607391,-61.10104144042423,-7.407264726199083,-9.114039850894901,15.719215676815073
15.406083552344521,-108.91096565719118,-67.04679450788088,21.60332352394959,-59.34752618891826,-6.639407147106789,-7.99959374563209,15.974313207192623
15.424777167850857,-97.29682985302387,-59.4283617039819,21.04451195094185,-53.75994516073675,-4.305149419513304,-5.811560120399433,15.005040911134095
13.658484614932865,-80.05299776338548,-48.66849785803528,18.6197096385009,-44.59600849140504,-0.7929862664915482,-3.1695003081437427,12.323358339539904
9.722794746971728,-61.86669607830786,-37.799091980381434,14.294296921608705,-33.88992007915934,2.6111121116791636,-1.2258765207089546,7.972858422403616
3.993504817044467,-48.4348038747836,-30.19890182853016,8.779219615477766,-24.50299142654839,4.2156244633248505,-1.095996029976738,2.627103283679646
-2.463226992186623,-43.52598199834564,-27.754928196852887,3.2417176760347264,-18.687217717325623,2.6719681066522845,-3.289266716615463,-2.6597433962609394
-8.371490258745176,-47.40017177660734,-30.113271427159255,-1.2762847376531012,-17.181288710498727,-2.4690151697733995,-7.5490682457690745,-6.952688403140356
-12.868085373848714,-57.634078410923614,-35.57931906404621,-4.368173721747451,-19.437568069277344,-10.692977855521914,-13.19973010338227,-9.895457479251547
-15.861678121073144,-71.4030863345596,-42.809264970761504,-6.35309616126433,-24.596428434081243,-20.86367988611372,-19.65867633211103,-11.817965358275933
-17.870320260287237,-86.92821203438464,-51.59724581642521,-7.879828504206354,-32.10090589135148,-31.56848597143534,-26.575837526286826,-13.379787057906608
-19.444764549875313,-102.53564657657112,-61.75619170133642,-9.336005121852565,-41.1543171883479,-41.148293341794066,-33.374938282845804,-14.959520391314388
-20.610972833316744,-114.26079813193368,-70.97612209489871,-10.510764153946695,-49.46951364016921,-47.553795567606414,-38.61417567144859,-16.223480530926583
-20.772947184744297,-114.87495135776007,-73.92487537468733,-10.765938315335502,-52.79224350645289,-48.53728793087845,-39.95160761014805,-16.228293826630328
-19.165849067170996,-96.43910609212529,-64.18272339350949,-9.571762130079765,-46.32201268583133,-42.48375964084914,-35.11902068753261,-14.037812989085081
-15.516226243158744,-55.36487049341845,-38.20799651705117,-6.986805840007857,-27.520242904068265,-29.514102536734615,-23.41559324940064,-9.439005533177115
-10.41030818420596,3.6736427244907053,1.4641565162933192,-3.7283007129400203,1.6418361649309787,-12.019864195381665,-6.6391534210482845,-3.250136850524955
-5.104812882109048,68.26616679412976,46.32904536486259,-0.805778519195139,34.80766913342819,5.964657057919901,11.341339724605787,2.9954992203806157
-0.9225231943844925,123.41537424589015,85.55242012099252,1.003779186725139,63.912325838139324,20.351254475236058,26.225829825064736,7.775928320865023
1.3629299316299976,158.2530104401913,110.9303655141845,1.4952034601675648,82.82642416881221,28.664455028192545,35.162138730679416,10.258105495231952
1.7919342764954944,170.34113783060687,120.2112099915311,1.019290627035459,89.81591715595067,30.854678154259094,37.782434029638914,10.553915703280007
1.040371074347561,165.3826268979028,117.10019132528255,0.19215116686319714,87.57207702764224,28.89482497305308,35.923536271941295,9.486057442062396
-0.0182646160696783,153.15288583953333,108.44841392762858,-0.4456947983104861,81.152858030112,25.536387920397996,32.38345270802868,8.082488075977238
-0.7216548997843795,142.5007572233818,100.65131744841364,-0.6289037061091588,75.31274501544556,23.010593528203312,29.543731569804024,7.113386907225029
-0.8071368447458682,138.16403779010722,97.2662020731509,-0.3761317484619578,72.71584342755496,22.32478452175247,28.569905224666382,6.876401075351168
-0.3690220773561114,140.39326142241876,98.62949843484039,0.12069158629375368,73.63379701504007,23.311952324366562,29.39189979464245,7.2470918189198335
0.30816314093626035,146.5580410719675,102.93787850514431,0.6304761948078462,76.74373064116902,25.1477019207558,31.196918556254264,7.8808644106849846
0.9275280947684947,153.25999445012886,107.75292166044807,0.9854978557811177,80.24697287712212,26.929242598687612,33.02775303208637,8.431696419629274
1.305924052383613,157.94502007421235,111.18878753763668,1.1346639337210978,82.74776533648357,28.066243645147086,34.21910326112852,8.70018618475358
1.4235944596974113,159.69743692547596,112.52373876778887,1.139637077714967,83.70212498670188,28.427048038260534,34.58779304880824,8.678025736720587
1.391773313387935,159.21524310230288,112.21295933002334,1.1172691259182428,83.43116784405987,28.272023782732493,34.38472973887546,8.496827856726458
1.3612496314746931,158.08468453749467,111.38095228212953,1.1617647619901643,82.7577617354338,28.034057585777344,34.06436399137037,8.323417207962606
1.4297396686616581,157.7341846055463,111.06810630947174,1.2986447209086742,82.45655973036565,28.05598160202438,33.99809565067275,8.265120297995972
1.6065052442137988,158.6958759611035,111.68639144831113,1.4965411187457571,82.84430354746605,28.43239794063739,34.29950548271408,8.335452157129385
1.8435133564139161,160.6088994387211,113.0028313806086,1.711310905403856,83.7541862289249,29.039502215505085,34.851403572570526,8.483139532763376
2.08817196085526,162.78840061154673,114.53482822663995,1.9154490511046955,84.82473912919511,29.690085037546282,35.464296294640704,8.643881469140787
2.3092172755237135,164.75859335416524,115.9331027565507,2.0957939547122315,85.79260093012873,30.263594389331768,36.0089219173763,8.772935891043597
2.4915006313686128,166.3569457267506,117.06757475851235,2.2428711668814643,86.56475519441408,30.724938606766585,36.43819385450609,8.850638889216631
2.6293114850088632,167.56343176277335,117.91572920645343,2.356050848702535,87.13184626306104,31.07797064854434,36.74812010585985,8.879250200941167
2.7339026783164972,168.42367901866885,118.50977474603306,2.4557788366971893,87.5180258463031,31.343872511754956,36.96356722692138,8.882455612409004
2.8375178110775234,169.13207545386507,118.99167750276193,2.577345730231558,87.81901462643289,31.57816562207738,37.153361610016866,8.898689488611524
2.9745043478343423,170.01755378224576,119.59889375681816,2.74404274470383,88.20117416323068,31.86518483895674,37.41233563040673,8.95987057527899
3.152538130313816,171.29948848028954,120.48917531010989,2.9474986633034916,88.78128759338247,32.260551437661015,37.792088952519585,9.068165733734322
3.3460893365556967,172.85725300823677,121.57615110489584,3.1567025775500235,89.50270136202343,32.73836592285185,38.249254711390364,9.193322585818875
3.5205686999054757,174.3218089710247,122.59395757717898,3.3428163542251244,90.17434077474758,33.21142104771087,38.678864599293874,9.29469659208405
3.6596127605216564,175.4237213892055,123.34625648566207,3.491537459885749,90.65283438047959,33.60715026303942,39.00359611279848,9.347499638972794
3.767907984261042,176.21329353553267,123.86777088096815,3.5981804307851903,90.96835150747502,33.91493937653025,39.22520761648346,9.35298102207111
3.8565887292623864,176.93769061207615,124.34183071211518,3.667293023350188,91.26554615522001,34.16369346384741,39.398005347912154,9.33421082370717
3.938628121575016,177.787085581479,124.91834821109582,3.728116889361866,91.65798721320421,34.38127562579603,39.58028836373108,9.330940932712622
4.0396009522543705,178.83121897605423,125.65888418425781,3.84275327129412,92.17446846731877,34.60018520137001,39.827198288896376,9.393589411802452
4.197399873169103,180.13389186141285,126.60622371047968,4.076577497828607,92.81412106626645,34.889796452172064,40.203614059198685,9.56158028312328
4.431625699358517,181.75143119210404,127.77901132171118,4.438980048473318,93.56575842519736,35.33656701348917,40.74812848910903,9.824210936091843
4.705458665838223,183.51249549064403,129.02315666219934,4.844319632885693,94.32212437781313,35.95262515416498,41.38894692613456,10.09358949666704
4.92549531639416,184.88512391129098,129.93438499362796,5.136986455196064,94.82676803645231,36.60130343634278,41.91202735856442,10.2285562982761
4.9950738447496486,185.26596214438024,130.0825168229166,5.175242771696038,94.82132455214402,37.04181894818499,42.06742537212866,10.115326601901563
4.886051329620127,184.56183470378943,129.43677690936283,4.92699868996809,94.33110127374249,37.08605423159351,41.766560286431236,9.762067547834956
4.678069925975959,183.52754857985093,128.6022505992572,4.528200180462201,93.81157789799609,36.752469099081175,41.217819463287746,9.34463672375577
4.5418952765685905,183.47981550735472,128.59011695135132,4.272045315150052,93.9562298823645,36.30939036757083,40.88414211096479,9.162045721625805
4.673944851473498,185.533809518321,130.22795527048476,4.508506228938452,95.25643183863386,36.18705511153585,41.270227802855935,9.50072905555335
5.195820686691878,189.80571901099924,133.5445133170187,5.452925547818736,97.5819506063609,36.790687847907186,42.62798551521587,10.445979151481637
6.038214983087262,194.88247046323553,137.37513426897084,6.960490107642787,99.97081454609062,38.24225392268408,44.67525248071367,11.716728912295077
6.860799491551771,197.66257824120154,139.28676781706176,8.399526584597186,100.66701506556724,40.10586071160617,46.43395779709942,12.62976034572665
7.091414452164982,193.75042849037268,135.94712202064173,8.768881303030117,97.43097090530776,41.25272271637925,46.33838864086096,12.283966775803393
6.135108721553924,178.67993353961452,124.09288419080096,7.092500691236296,88.18812909505738,40.0804171288173,42.734444982552084,9.957322975682839
3.6920115973930643,149.87984255403728,101.9775135808778,2.934781571283748,71.9463661614546,35.16503483993229,34.684841491969266,5.556093312108393
0.011676062832238356,108.56318821633614,70.68138117801091,-3.247992312841615,49.61408116280052,26.1173493012204,22.707838100635172,-0.14678221365445904
-4.092442211268132,60.32960458961354,34.43830599209177,-10.15465363659914,24.193740971821946,14.16378069131454,8.963386909343338,-5.6916606149739914
-7.513458488307198,13.750993326396829,-0.4750012171293207,-16.09959457250279,0.05114760430481338,2.012361867996942,-3.372458004199867,-9.51773665798846
-9.271100967603363,-22.62714570313879,-27.904945687510487,-19.654304504321626,-18.522515487755076,-7.0738041415730315,-11.333305036345351,-10.679372319774217
-8.850513083648963,-43.3455301520102,-43.93435868925004,-20.139109216256678,-28.758442254046106,-10.589040851566251,-13.363993910308459,-9.293989991428822
-6.298274124302148,-47.43916606380058,-47.77808237663629,-17.757870832435813,-30.08470157127185,-7.797638202759821,-9.830532889158953,-6.44814432578502
-2.1014512553031355,-37.59160779119507,-41.12996910174313,-13.409615846520019,-23.747816534628782,0.0690453397670603,-2.6019544081529555,-3.613514592827539
2.9779260272987846,-18.209474914707954,-26.86069763854273,-8.366083371204333,-11.933895395159409,10.405759431364627,5.892873114939217,-1.9343239153972143
7.977179659751886,5.581647434732646,-8.464585380322944,-3.9634908504526782,2.6540321207178272,20.115567677097946,13.412153143336024,-1.8075472513428608
11.767686481948088,27.25615588107129,9.302414813027724,-1.3182631133191178,16.404482728292592,26.285876057036386,18.056909731643138,-2.9390960907723462
13.23082383568988,38.06632378459958,19.797915206749593,-1.0311394811464507,24.38796335613417,26.591431212307963,18.11699960530842,-4.722912343676962
11.65351324223664,28.496364212879946,15.641676852267507,-2.948794554873176,21.181419575725595,19.698193756025468,12.219258907193991,-6.623778765137538
7.160442894881806,-7.4693425470403785,-8.027379421519914,-6.159082319574351,3.2179855265472783,5.800953890542814,0.007680844071583162,-8.3417773023947
0.8488344874661183,-67.76538625615629,-50.072144240385356,-9.330729777467386,-28.655606610896548,-13.014645250188913,-17.120769856896388,-9.760283540000747
-5.566348965547706,-141.04139954050552,-102.38850373675041,-11.283512677782396,-68.41306528007547,-33.088008688913504,-35.99050524515711,-10.82628737587619
-10.453981554610452,-210.53296165393166,-152.7052847244835,-11.487227845882678,-106.85896543314134,-50.32914357143859,-52.652936347894496,-11.494973121714876
-12.925047761343803,-261.1532909905316,-189.80182496565226,-10.211425323609147,-135.48603980175193,-61.728444353009856,-63.961357256150485,-11.757649095584009
-13.088815468811505,-285.717178766926,-208.14190299079982,-8.268153886442809,-149.97719606747978,-66.42581183722656,-68.80353195508869,-11.685147026724215
-11.813404031832183,-286.8791667112158,-209.395301881833,-6.535739149885048,-151.43391073568176,-65.76255877441584,-68.30005427249907,-11.420887660380448
-10.19091705629733,-274.21812719201955,-200.39219907231754,-5.5523085529801195,-144.92249259694825,-62.357609056146885,-64.95232702427346,-11.121039117370723
-9.035580883267158,-258.7716797984398,-189.16069263535636,-5.375771097523239,-136.51943341783962,-58.80328338851777,-61.33974460350944,-10.89134040796849
-8.651806370849416,-248.32201546136827,-181.45188114742518,-5.711904827156651,-130.6557626521874,-56.696543090117686,-59.11360829524104,-10.765430911394281
-8.899755348110789,-245.52302199410943,-179.30412927997494,-6.1618129301910365,-128.96941998037363,-56.38478619704478,-58.69447132443498,-10.724976836279978
-9.422556575440117,-248.81464330732425,-181.6498996169787,-6.42466821784237,-130.71796789171609,-57.318762985293965,-59.58281232469447,-10.730288941056559
-9.872888827712519,-254.6683621420988,-185.93230428305196,-6.381483212080616,-133.99108124850875,-58.629928689521634,-60.9143292017423,-10.739035630964516
-10.04991234995804,-259.7024030940842,-189.6630379836356,-6.078588423802034,-136.90070026175877,-59.59924981881982,-61.93570028551439,-10.71663795704959
-9.934502175015293,-261.96477282064257,-191.3855749637246,-5.659487655562777,-138.32303273579944,-59.88970007761694,-62.26626210208018,-10.647986230698809
-9.643499301509648,-261.28613534738366,-190.95160394805794,-5.279825308158363,-138.118619021196,-59.5600883175854,-61.94089431193793,-10.544622255679306
-9.335191623282975,-258.8260291684867,-189.19720882788093,-5.032451856835168,-136.9002722833445,-58.918822339199345,-61.272747881505595,-10.43471429325079
-9.115730742750054,-256.12082534065144,-187.2487305716649,-4.915023430319693,-135.51775666487467,-58.30046276122471,-60.61839118040738,-10.340142455869302
-9.00106336733267,-254.20552136970093,-185.8764638147696,-4.858213354583262,-134.56351105636614,-57.88921123791791,-60.184918207869934,-10.262965538478458
-8.951316307620235,-253.35865552188838,-185.295262948288,-4.789773388404612,-134.20272616938527,-57.69584881799451,-59.997145539941414,-10.194564729592697
-8.93446240145007,-253.48907946516647,-185.4323729046809,-4.680107369690684,-134.36422330499403,-57.67295123678618,-60.0078568467202,-10.133399827501531
-8.954399987081075,-254.58735315339084,-186.25600219814356,-4.53766039222367,-135.0029229166697,-57.82668210497465,-60.20478135867986,-10.087179566071342
-9.021935890756236,-256.6739336296307,-187.7571520022019,-4.375486997548501,-136.1162473872532,-58.19667136506535,-60.591559498262306,-10.056583544024434
-9.108652600467952,-259.3200197561899,-189.6268760918913,-4.1932999868110885,-137.51537296861122,-58.72769130267307,-61.076842496412596,-10.022862993089174
-9.137044610880018,-261.3716532005507,-191.06522273449104,-3.9893023765981526,-138.6610694467717,-59.18371323836035,-61.41871969012366,-9.957762712916026
-9.019124212124352,-261.3559009496224,-191.05887483012927,-3.7763070227876097,-138.83019110073144,-59.2211604355374,-61.31869893832023,-9.846967640202092
-8.713872169189996,-258.40247579763263,-189.01568886520502,-3.5774918894148775,-137.5578430097472,-58.59366304581275,-60.61439521686866,-9.7034058180133
-8.27138507203341,-253.083604787515,-185.34223938829362,-3.4104515795687638,-135.06391813121732,-57.3611988520115,-59.44312910544151,-9.561203426718142
-7.848331334746168,-247.66809041582556,-181.61515432716612,-3.2830006359035298,-132.40578004526535,-55.98731609930384,-58.28426513631343,-9.461751950578293
-7.678143287390923,-245.5684882650104,-180.19594843945515,-3.20027292656286,-131.24316268610823,-55.25688535200186,-57.84386246544418,-9.441745540003101
-7.970854420003115,-249.9143943958452,-183.24545394642112,-3.1587435017896186,-133.175612159315,-55.97213045541303,-58.761008198116514,-9.516414690019094
-8.748498678423832,-261.4280729115221,-191.25743848168545,-3.1197068548266573,-138.7122571268428,-58.4450237475705,-61.16198073858229,-9.651151276822214
-9.697497403839208,-276.4268024717519,-201.67595740854932,-2.9936735968630837,-146.24078826696478,-61.97096553883238,-64.23865246751222,-9.738934286266275
-10.168416424488377,-286.45127778050556,-208.6305750091798,-2.671435132462137,-151.7254250716582,-64.64823216063496,-66.17912140013851,-9.616702333115487
-9.398806989179592,-280.75490270465804,-204.64608165141368,-2.0912544426153836,-149.79650745571968,-63.869878724724934,-64.70953747475828,-9.130257386712493
-6.889818198488027,-251.25710707393569,-184.05640755914018,-1.287407371450476,-136.1305557730728,-57.45062224751586,-58.14171572808351,-8.21140850050229
-2.7395631827242597,-197.5096521338466,-146.43009846049284,-0.38025165856431314,-109.97899540619049,-44.863542389334725,-46.392831876370046,-6.913762137344368
2.2686187087330416,-128.47752999898597,-97.80080190950353,0.47004668773659297,-75.25161867661289,-27.840281868824533,-31.321233812138644,-5.389783864350202
6.895201177433444,-59.46983930403238,-48.56696365612647,1.0857100930239647,-39.23732542990282,-9.874484267265057,-16.07612552234829,-3.847277191785883
9.88509607472388,-5.587615337448244,-9.025622591515654,1.2440736705232083,-9.518243770591468,5.175314762663968,-3.7823512070167866,-2.5369851359830613
10.405546897138716,24.531097907658275,14.846249888450139,0.6573347446330965,9.126831477117314,14.603770165111113,3.6722654744486825,-1.7698630168308642
8.296625847408242,31.012645858786446,22.879349944724844,-0.9391297912305244,16.00769684301859,17.647623921627257,6.065616022764112,-1.8896103122229806
4.084249326599421,20.226683721727223,18.947731086204396,-3.5517624528048017,13.485422924805054,15.223221952286641,4.385977484015909,-3.1218290386902474
-1.1739667748671858,-0.053814287718326415,7.746267806941519,-6.665228368574716,4.76806870788521,9.021127469973765,0.012804340396617708,-5.328823523153483
-6.129887097324786,-24.105860437443212,-7.346778389240484,-9.19035247410787,-7.659582539920362,0.7072821334727893,-5.807311339219578,-7.844490334785559
-9.45807559833805,-48.50804729782455,-24.18415335832704,-9.79968478740098,-22.070466863831673,-8.322973336671971,-11.964831403320433,-9.594880361305675
-10.235710969682184,-70.44650958842743,-40.561241322486346,-7.560880639902471,-36.62970677951996,-16.7973211176574,-17.301446862546005,-9.544526309920785
-8.284309746185246,-86.70146328278847,-53.621276129602066,-2.5013372803583955,-48.975451774794266,-23.500046533125794,-20.693448533902565,-7.246716405661802
-4.2737863844857795,-94.62142544971441,-60.805217705304436,4.295058863982037,-56.91813368186226,-27.541523554515923,-21.487101298160763,-3.138601300620982
0.5454177642803367,-94.02779089357736,-61.46510577030307,11.173782422335451,-59.67659260357272,-28.7622097870961,-19.914241396291487,1.6474584201000426
4.8914683476230785,-87.91279187781196,-57.51582454324701,16.692700274716383,-58.45712594231103,-27.8523678346238,-17.04161844181956,5.864070242914353
7.981178912455425,-80.81119032573507,-52.289739860120356,20.209180958568517,-55.68737044041804,-25.974920251098723,-14.168767204710745,8.757118536884589
9.727146688819358,-75.78183810347508,-48.28307077508849,21.919971861593666,-53.333105333273664,-24.098808974533355,-12.056805099403896,10.31899782709719
10.49829297393982,-72.28067924264604,-45.47482662337947,22.38667810921159,-51.531256788954906,-22.516030194602482,-10.552712410937085,11.045326115667857
10.633337065948659,-66.73813608441843,-41.57535863527965,21.929922412482668,-48.627876578485285,-20.898872925542804,-8.911699699565455,11.38573136668268
10.068035373401054,-55.652718106343684,-34.130598208376405,20.34644849507413,-42.68577043480155,-18.83357749167298,-6.594105871838236,11.27954962650654
8.356146718698831,-38.99394490522028,-22.949139029814095,17.14933486435681,-33.38219111267838,-16.379170926441336,-3.9240467648696282,10.107181241821518
5.075783644064103,-21.298255548876355,-10.989315679460491,12.13769509426113,-22.852702804914205,-14.175160056115978,-2.0671698202041657,7.109417002949761
0.32144462394036427,-9.434349267013694,-2.930063941411298,5.854962192278736,-14.762617630714173,-12.993100934285088,-2.284405691367906,2.013249170755453
-5.094337574586025,-8.428212034308267,-2.3322259739817857,-0.42784692407687985,-12.164478887762103,-13.09419061832438,-4.974719413714924,-4.542829681221032
-9.905498371992673,-18.184265792853054,-9.327477884197489,-5.225835913983802,-15.586556655051856,-13.934871114557051,-9.209901744856008,-11.076120902984531
-12.967458803693436,-33.356327129897366,-20.40832748537349,-7.519776512338887,-22.650523472229253,-14.497067559752857,-13.132596599032247,-15.81206399865569
-13.76856354167872,-46.40686222675518,-30.40040961584216,-7.164967606637569,-29.436695668865323,-14.004255797046284,-14.964234601144048,-17.423215899523875
-12.55935691050249,-51.690185210841676,-35.19664570422536,-4.804488866462723,-32.60761962026915,-12.442995093555917,-13.927618468237512,-15.56021359413487
-10.064141672648205,-47.93454694923319,-33.49894124444795,-1.4131112023284202,-30.90998303962174,-10.464155258424894,-10.495531894316375,-10.928406429737391
-7.0243243643078115,-38.053921602028716,-26.838608152022182,2.1894738437051093,-25.358503252702345,-8.783143412905913,-5.9367933371787975,-4.934377060069747
-3.887900955192521,-27.204343743856334,-18.457212289557514,5.58217083085403,-18.428088297467568,-7.630288340649113,-1.6251755219293196,0.8719814533144261
-0.7810899681264682,-20.567947079429178,-11.975735274578899,8.699330872486575,-12.963305659816195,-6.69728284429993,1.4295273843184577,5.303120160225979
2.332794793012875,-21.44685776130375,-10.143829185738111,11.629947495565972,-11.126096155496905,-5.504196007615234,2.7615168038042768,7.823689809130663
5.481270281344284,-29.535224769540932,-13.507219282057575,14.398845159004924,-13.343263234455266,-3.7324726287559686,2.544847822128997,8.574036445125975
8.583956094175244,-39.82131913006713,-19.333580728833038,16.8035069058271,-17.50816743796114,-1.216333069897461,1.673455842967905,8.15995959264603
11.413118725937743,-43.474819864294204,-21.878010769235974,18.35822901715784,-19.199665391501163,2.256558382218318,1.6103400607051148,7.308046598636098
13.60014060744508,-31.499548188238855,-14.722284781062383,18.411416637533772,-13.449932151238734,6.959172146592593,3.812176488268138,6.5384607563089014
14.723907842835072,0.24232055989637824,5.6548237351066,16.44964388420019,2.5435308479016503,12.924114026582346,8.921521282999727,6.00394453804989
14.49716835916768,47.775898597075106,37.29270367359062,12.460180339356848,27.403611744864087,19.604843024367593,16.256772729325945,5.554882082378268
12.969432600596106,100.02442089582941,73.06589601979115,7.116519426214942,55.72842435011487,25.886087724861632,24.02416557615399,4.958019293850278
10.60227429106633,143.81669480390588,103.93054360572388,1.6156735650213594,80.50473503605015,30.542142624176677,30.183598145453825,4.1131134414093555
8.1311877543123,169.95204167257745,123.16641763079738,-2.7865649888741095,96.36744720181106,32.855477958205626,33.440814391053664,3.135299225954058
6.268615821634447,176.81817142146716,129.12518011531057,-5.291552820369154,101.80411503645709,32.96970036374309,33.77103133080433,2.2757522399339187
5.412599517636856,169.82722626974916,125.11964938438805,-5.838178618578928,99.19578336052051,31.750267868220185,32.2215204787594,1.7598265908572197
5.524467129052988,157.60830402521844,116.95440431325297,-5.012706515290926,92.9954389185075,30.280043302071995,30.214524957512793,1.6609662843504118
6.230744817407099,147.60170461934248,109.87615961800648,-3.6784366526062415,87.36660298048227,29.34452983476633,28.83651337197683,1.8841575589112989
7.06485519105228,143.45570673798574,106.65272231704063,-2.5615463139044663,84.6191502869127,29.20378835659421,28.4988055430095,2.246264313753739
7.691405576481088,144.95514795610117,107.3768657987143,-2.0098850688153678,84.96690506858452,29.689343599697445,29.02420414822539,2.58029037484329
7.998280838799797,149.59195928770546,110.45360645505139,-1.993481157598476,87.24372068539016,30.44876722993048,29.949301038717252,2.7966531517909177
8.053159420111244,154.41557464723732,113.85550621614736,-2.2640604861714815,89.879157419435,31.15004465521171,30.809013007805156,2.886314246181885
8.002243630387637,157.33767149845912,116.06087001125891,-2.5396491529456005,91.6538431524963,31.58711887345921,31.307889064501726,2.892512046697436
7.985334170741267,157.71566341674392,116.52014452210754,-2.628718484905725,92.0884664927139,31.71918733307227,31.388131760980286,2.8790409482722983
8.088891059048764,156.26902031954944,115.654198966312,-2.4776900132089867,91.46353728135216,31.66016284657668,31.205763105940683,2.9027540961930023
8.326940594806102,154.42397813922364,114.42786534515322,-2.156138359498869,90.50614251604237,31.60136534362381,31.01359097938813,2.9904975708969874
8.64730353195722,153.39945502257737,113.71015737195822,-1.795919937181226,89.90148896005068,31.689088317696548,31.00092875946418,3.129689074450344
8.968560656601541,153.5855111491498,113.81566150379729,-1.5105487706610687,89.92574900605561,31.94266765613001,31.19726303750846,3.282729542894846
9.232830497394316,154.59557252709618,114.51242497776056,-1.3384631254808694,90.42700452250293,32.28009233076479,31.507104673335533,3.4169277011280346
9.436352758887923,155.81070654467135,115.3857835798628,-1.244117929163152,91.08970281623174,32.614736137962375,31.823528234324165,3.524779992097487
9.61430831253891,156.8508741513855,116.16755103717568,-1.1662421628462798,91.69425177565783,32.91950502370215,32.102701426675765,3.6187278951229858
9.800316959332285,157.62501132465002,116.78025611615853,-1.0652388580716599,92.16866873725719,33.20748985557251,32.3474795567765,3.7115894160029863
10.003295418779853,158.1345082847633,117.2092833033053,-0.933205648441783,92.49894543305916,33.48179478791082,32.55857131414202,3.8063006875890304
10.217842521504293,158.3946569880146,117.45390169490496,-0.7754401342517163,92.68547924579278,33.72992257098507,32.729978676814454,3.902377210205346
10.443676858852823,158.53370512082992,117.59963368821093,-0.597057725767265,92.79118358802144,33.96058178607052,32.88253284251272,4.004361119133432
10.685731702594891,158.81373748576505,117.83358966872693,-0.40784067116393585,92.95604530284143,34.21653584843961,33.068478903570515,4.118145113792553
10.939583953966931,159.43393724013427,118.3040717524786,-0.22692366519599713,93.29714005232057,34.5338297546747,33.32416345936627,4.241091336573153
11.188850696229988,160.33062213885967,118.97485481912378,-0.07047061831136632,93.79636531775837,34.89912756370949,33.6292127238654,4.362056764976824
11.422443844424514,161.24974914686575,119.67093453117077,0.06535145822212901,94.32550891520458,35.26533954957537,33.930151003065326,4.473569971118062
11.648530282766677,162.02616236179844,120.27370271360883,0.20149055124259166,94.78926712034888,35.60765677494339,34.20170554671279,4.58042325022584
11.883988616571118,162.72649351341917,120.82483819001398,0.35290855376934577,95.21071789566183,35.94637911257021,34.467386214331945,4.692652238991007
12.1315679155763,163.49085725469862,121.41903375558371,0.5129386350746313,95.65974830739074,36.308253053823535,34.755527478523994,4.811816744693298
12.375433686223744,164.30836842675026,122.04715875161197,0.6647749353187075,96.13430236961177,36.682699807234094,35.05421172286786,4.928947492723842
12.602525322373873,165.04000174526325,122.61112608138163,0.804981480680744,96.56280085431484,37.03616031340138,35.32877564162334,5.0371376224667435
12.822635479405946,165.65361553662868,123.08903919639319,0.9486491858368474,96.92439143102963,37.36657183311361,35.57829538342949,5.142128892816258
13.060885301092055,166.3377063186147,123.6167504408043,1.1104145247511168,97.31704566620093,37.722125097467924,35.85205622263823,5.256845746828097
13.33140215342938,167.31891026715218,124.35958317052854,1.2866764201595935,97.86933038173757,38.153750786806796,36.19921886322506,5.3869434437212
13.623634262446382,168.60450937359002,125.32747986901019,1.4607330361641389,98.59925452604472,38.65798019543432,36.61335893764027,5.525493751483108
13.914080959347615,169.96722815403191,126.35923438853024,1.6209375134707025,99.39150464877711,39.17841562570969,37.038840437758395,5.6616956243912355
14.183959794936586,171.16685512856,127.2770612552081,1.7666630979372886,100.10696433273199,39.65738809360581,37.42413056689401,5.790102822659221
14.421925026082057,172.1148872742454,128.00680810093107,1.8979743482555793,100.67785557908181,40.0714625707423,37.752460577606634,5.908772729551776
14.619472812459483,172.82232562395978,128.54826723648793,2.0107663048257316,101.09465433568808,40.4214945616436,38.02499553841361,6.013273514757947
14.780748583328856,173.31165851152736,128.91855948952085,2.11115135293095,101.3669450183783,40.72003376051771,38.246295310564285,6.10108644228725
14.943927014365583,173.7131857120361,129.2215847548984,2.230523489346826,101.57372284326595,41.016693619571704,38.45432728253137,6.185095447087399
15.180942111603514,174.4278659297075,129.76036288654126,2.4121238916917673,101.94904674897164,41.42476804232212,38.7539000308082,6.29674378844206
15.553126191474497,176.01010670549954,130.94709493020878,2.6705356746007074,102.8198147893954,42.0743569063259,39.274429865969076,6.465852996211309
16.048092802650196,178.68703530107777,132.9514524890971,2.9615526649186767,104.33982519117076,42.990275840315746,40.04989724408765,6.690434680443297
16.553769279453125,181.91276359048666,135.37248623669444,3.196060878735607,106.22602003097215,43.99913114418024,40.92581621949686,6.924670712373138
16.902155144105667,184.45548491351133,137.2961742492727,3.291888950266415,107.77851292434293,44.775803641783114,41.60074787936284,7.098752689132161
16.963141218303527,185.07844860473844,137.7919688048297,3.2279367245080257,108.24677199130099,45.027834244569554,41.79773527122111,7.158048797612766
16.73841781932608,183.38273270305328,136.542177692268,3.0719525573421684,107.32485096740666,44.7049519182775,41.456764756152154,7.099058986868008
16.410613808567376,180.30922719543838,134.2324987561911,2.97429625010543,105.4864718028522,44.11088363537267,40.838121761767184,6.988068498907624
16.3158114254361,178.05808679150036,132.5082927452344,3.1231885813443014,103.98889932123434,43.85574071924549,40.487830570068056,6.954620687132589
16.815270823555323,179.3703931328236,133.43952245322998,3.6524407864915034,104.48160857000984,44.633947809214234,41.05099821694658,7.148075210230864
18.07316721278448,186.17064798401614,138.49386577952123,4.517334739434131,108.20872499470514,46.84406641817549,42.934009279937314,7.651888637811838
19.82280637520234,197.8477394507555,147.23736093520677,5.4080885110528305,114.96849393180982,50.15770560909406,45.898539273130375,8.384245714503605
21.27773267447137,210.05791713249138,156.4285516847537,5.794961241680616,122.34272616494195,53.28872390350744,48.81850659858766,9.053499369746698
21.325053795271717,215.2694334215194,160.41368822884587,5.139887752667065,125.91624639905241,54.252849104494395,49.88504006158313,9.23421963802765
18.98932995910718,205.59443940822675,153.23262274266528,3.1896719934013142,120.85291061218085,51.18845354510418,47.34582369048967,8.563647973831067
13.958625351120551,176.8817975573391,131.6853064746998,0.17923954669330586,104.30717294894123,43.4041901920031,40.479252082005736,6.967685208513328
6.869478420380739,131.73606827550964,97.62910361144029,-3.1996517110583045,77.35055933875591,32.03294690650474,30.22392063921159,4.779454295318711
-0.8510376330519434,79.32930203773202,57.898481820536674,-6.074667061286578,45.10834426081094,19.78831197516498,18.983873163224562,2.653752312759144
-7.5349805572466355,31.73876168295839,21.601611079044975,-7.771008651033068,14.79921118295689,9.836418938109134,9.610495045108552,1.2911215224189063
-11.923890461121692,-1.1438632041661658,-3.720869766936759,-8.082579346986483,-7.272047147175033,4.383454027089244,4.115973764335851,1.1026212401713555
-13.577372548801216,-15.100802212938666,-14.80420903887199,-7.302208054778871,-18.013027701008077,3.798162951700443,2.883648116040566,1.9940047238918528
-12.880285110989679,-11.729802922716829,-12.860990656018927,-6.040338463736508,-17.95306447171052,6.7249676948384005,4.794054144222823,3.384675930432517
-10.75873548258293,3.8569578711848895,-1.8577785551128356,-4.979261541287812,-10.049969361416975,10.942009531420487,8.013333393258947,4.44173259819582
-8.343413002305311,25.196749750000897,13.239140121975717,-4.684390353925435,1.7258002508031463,14.260680375882147,10.762723620894137,4.403025305482833
-6.720062996712063,44.8694825382729,26.94648601268608,-5.4784002581048075,12.9530746728902,14.948448058863574,11.596628343729964,2.852683817032277
-6.732782521067699,54.09514994750515,33.04598772737794,-7.331379427939174,18.741254430362748,11.758244147798553,9.327415103384995,-0.13136036960607023
-8.769044006593795,43.923721599862205,25.34442968160561,-9.793313756359622,14.308745701450277,4.0145435930672875,3.0907505285733787,-3.9877108744476124
-12.579679922326815,8.914319120725285,0.13568383871116402,-12.078452079529429,-3.2513584789003334,-8.024982254612834,-7.217658350654806,-7.843953017706126
-17.29287080169983,-48.768784559666166,-40.99404689241014,-13.357749127774715,-32.92516193409256,-22.828107853191437,-20.46099674972666,-10.816259580324646
-21.713446090041955,-118.27777213544327,-90.40278607228734,-13.144954290496043,-69.17264338753775,-37.761639043873146,-34.29435246588086,-12.33324229559547
-24.802851452161732,-183.71574417568257,-136.9031148176359,-11.545551831790346,-103.71571624327584,-49.93751224508847,-45.93128488365755,-12.337768194181553
-26.08977531830549,-230.81976192834614,-170.43213116495218,-9.201830184051097,-128.96856817108056,-57.34573859592778,-53.28342784590987,-11.263751676910712
-25.79105357460893,-252.8510964848532,-186.20334010587413,-6.963339959917024,-141.16373938189918,-59.62304734267696,-55.801798296107705,-9.803014221495905
-24.600481554611754,-252.43830885502388,-186.0354661385161,-5.483147246686886,-141.43816875708416,-58.01900723344573,-54.53596514515474,-8.589653942839316
-23.297857162660318,-238.80713621541005,-176.42845387109878,-4.968262587432777,-134.4954542580363,-54.6289820904764,-51.438044249845966,-7.962860054387762
-22.411105487589907,-222.56636862052093,-164.8934143623641,-5.194224361055254,-125.9105343141498,-51.389507738214874,-48.38628154082431,-7.909931192073758
-22.08902413151892,-211.1886735900104,-156.74925940542738,-5.722751173264705,-119.71516581102786,-49.391440818077484,-46.48625574320133,-8.181697700002516
-22.18402792726754,-207.19375544101078,-153.8175742122004,-6.157065880238119,-117.3646624584928,-48.765357532252985,-45.921301233903506,-8.481678044618047
-22.42889595489315,-209.008379293482,-155.01404880696492,-6.2921694034664,-118.12771998535503,-49.00611365845212,-46.23941558685189,-8.61311785672625
-22.588419248724165,-213.13312125827875,-157.87491765248427,-6.124429936225204,-120.20276573532402,-49.42133540065288,-46.77692505448017,-8.525390685887583
-22.537691857118,-216.22218209950233,-160.03008552480253,-5.77607240779317,-121.8182626677966,-49.469845399527195,-46.99131401055545,-8.27790343825332
-22.277080179277647,-216.38825837084218,-160.13136024700654,-5.4049659015499545,-121.93783573042262,-48.92627811621659,-46.63607982895411,-7.975507324739817
-21.902655662088467,-213.60323145605463,-158.1426276611667,-5.1341433102369205,-120.49496620330996,-47.893436387879774,-45.78932997979861,-7.714197554515465
-21.543529485684893,-209.26341921531616,-155.04004432867126,-5.009191406902607,-118.18970269339718,-46.68591211374474,-44.749756000588555,-7.5471139202123645
-21.290448881114923,-205.1727428018122,-152.09831125088562,-4.992763091329816,-115.96953695459283,-45.63001018773656,-43.84056453018932,-7.4715940188715875
-21.156890011339357,-202.49977297114006,-150.15220680491703,-5.002330178105974,-114.47504550660123,-44.88546870696871,-43.22852813004022,-7.441646700208116
-21.096014541016864,-201.3261220943587,-149.27043705321455,-4.969973160216424,-113.77902544442142,-44.400041468228316,-42.87330121295159,-7.402445558817764
-21.049540200546954,-200.9556466842096,-148.96732199247813,-4.879917081427363,-113.52857371384873,-44.006074949652906,-42.61878370201606,-7.324611160774641
-20.98011008702861,-200.55249160198963,-148.65199374159965,-4.757625749900467,-113.27900892648411,-43.55158081535869,-42.319720979951605,-7.212504541764122
-20.867757140081064,-199.548304026806,-147.9186275467155,-4.631132397854048,-112.72034626428764,-42.95813503978807,-41.89646951791174,-7.084796520875991
-20.69733347483141,-197.69566033984506,-146.58633406908677,-4.508130335610879,-111.71440315544537,-42.20708195137338,-41.32089663023897,-6.952567618804898
-20.468651993681927,-195.05797749942784,-144.69240641487235,-4.385564431710639,-110.2881419380135,-41.330999140688014,-40.611504514190635,-6.817918535700605
-20.22047374940661,-192.11149633373188,-142.56625447747916,-4.267994115910773,-108.68525294046437,-40.43810422025674,-39.864591857030426,-6.687816068351221
-20.02939550431691,-189.72876915003783,-140.82334869741223,-4.167230296539047,-107.36404751608863,-39.70481119035262,-39.25383980659102,-6.579578897625071
-19.966857834985706,-188.75396705301492,-140.07056264616372,-4.0878153121093925,-106.78246324089388,-39.27756229012079,-38.936139756546375,-6.507950817939119
-20.04471340017621,-189.32809827442816,-140.42755327554445,-4.0230787384173325,-107.03844818646405,-39.136065324901494,-38.913230023137544,-6.4690755442175885
-20.193832670947685,-190.52770132024847,-141.2603357611848,-3.9674857371770296,-107.66069130894421,-39.04544315659526,-38.975442084897104,-6.4401017028410985
-20.28879681532936,-190.71207285645684,-141.4126048198242,-3.923043790520317,-107.77472068287287,-38.663021614085125,-38.79450337964497,-6.392608826092475
-20.19950062910756,-188.40886198555978,-139.82417572769873,-3.88429495781246,-106.57178209220862,-37.736000209525905,-38.10688863441583,-6.303942329829059
-19.85210653196529,-183.22353402236246,-136.17837321063854,-3.821432857475116,-103.80771104838466,-36.270968522406974,-36.87781312204754,-6.161519912498164
-19.29381989002284,-176.37065686166613,-131.29343574383105,-3.6942022146178517,-100.10392888274005,-34.60313719262677,-35.382528036829974,-5.971523470865878
-18.737435631015224,-170.62710151833014,-127.11212849986941,-3.49588941351198,-96.93425511872552,-33.341634381941994,-34.182526342901284,-5.7759737074260755
-18.52603130286945,-169.48944061834663,-126.12804569939281,-3.2849337600540225,-96.18372609052433,-33.15783464137947,-33.9521318470425,-5.6568452629515
-18.969883706815676,-175.37575819413496,-130.12292985393992,-3.1644810998167077,-99.19526045611212,-34.399230719768816,-35.11570977464165,-5.699909834041963
-20.09620415109173,-187.3148286151022,-138.5132521895474,-3.2163980105464143,-105.52782948573648,-36.647898203839645,-37.391940384959,-5.92310502753228
-21.45503051287565,-199.4766722861693,-147.25862011812492,-3.433032004810293,-112.13438657613848,-38.52064401121114,-39.534155380386494,-6.214904251032296
-22.139961957908703,-202.1253011631032,-149.46850742817344,-3.682391701610388,-113.81365114893057,-38.00464687092103,-39.57850191329837,-6.3323307840795335
-21.076021642082797,-185.41862215779065,-138.04856899549267,-3.714399384770153,-105.2029109691069,-33.32675518168904,-35.64195951201133,-5.969361348426
-17.467819190377934,-144.49604160643403,-109.3242392984128,-3.2086317301519753,-83.5192796397739,-23.942918713438324,-26.909451885654438,-4.862739629457393
-11.195635077476926,-82.9806093174838,-65.61939431189671,-1.8735918790328299,-50.516661556029014,-11.042235920027405,-14.235034542558322,-2.8901264963271953
-2.9567762510579687,-12.542602273113392,-15.087762561495683,0.40759816730524523,-12.356793310706758,2.8165102353806883,0.04783466749220029,-0.1326922256487283
5.931416128076556,51.623565402345584,31.382342276372665,3.4427301507147403,22.746212597960568,14.794826221067252,13.049621136633732,3.1067558680131873
13.982574960039837,97.06306516766102,64.60358877951941,6.7080436804974655,47.89147055399636,22.979023569552055,22.478745448067468,6.336254451694428
20.041050747441922,118.67833544635971,80.49402457108488,9.513127199883852,60.04776137100043,27.02133471319771,27.41260241354135,8.972562677743575
23.62526349945955,119.54931186200852,80.87738565904338,11.322829521371785,60.60398491535831,27.953918307862672,28.382127611631752,10.515395853297983
25.006225193748257,108.33945170265969,71.84346377545536,12.0705283022146,54.068766202978615,27.471701930815435,26.928568154683244,10.763750509511608
25.008739786804735,95.37659987943259,61.041704954261554,12.230172289493453,46.017377007581615,27.19777108760823,24.990122540855495,9.961154090732247
24.581864401078324,89.18971103191959,55.12450999067213,12.513982622335003,41.24978590162268,28.194397176878628,24.301958262165396,8.723145347582442
24.270357608835255,93.98329799518162,57.721666853508005,13.324134435597665,42.42264287057192,30.654084288695014,25.78713013205973,7.7038909228432
23.84393895544789,108.08886594008494,68.07799454218934,14.331941796883529,49.150527417588684,33.71466901335036,29.02661675637271,7.171555632877136
22.366271597314533,124.10628588451904,80.97876342560961,14.545174860790677,57.93195866312788,35.59466386212729,32.18029962671846,6.800203174243966
18.767987319397843,131.6641472370578,88.70013549034543,12.895497416379037,63.42931613566906,34.27374784959584,32.700674900364135,5.875645724742695
12.621240481344882,122.34068120075462,84.65865602705173,8.973543985663307,60.95911788766761,28.55447625493704,28.660626296581146,3.8028216212267116
4.606870261957715,94.30763356902777,66.95093022320654,3.4017261584372314,48.994532401790956,18.900074181327554,19.941409909423164,0.5574815262467979
-3.6636954909869854,53.78880001944329,39.60535366428299,-2.4135715873451833,30.146379372628743,7.446795163622866,8.48607888700897,-3.2344982448213564
-10.37678728184833,12.232053782136479,10.675282448498006,-6.977555619043787,9.940550893335251,-2.9015296327664117,-2.5880050595597583,-6.625768737593487
-14.344949763546198,-19.182058171149656,-11.698889711433004,-9.402138486379116,-5.893746112135558,-9.786520804259409,-10.479675235549934,-8.842439944750542
-15.458241128545096,-34.48845898345376,-22.941949623325996,-9.707694766678632,-14.02499252441128,-12.36400981105808,-13.916388832400038,-9.631040134458015
-14.560348709793672,-34.70125079035132,-23.45881954315254,-8.63532615981806,-14.601290185100313,-11.431976035583633,-13.457346732567668,-9.286348096757317
-12.910661860358259,-25.906687284583487,-17.39339960058761,-7.172828200988329,-10.451819952308858,-8.762286151378783,-10.867043348819164,-8.410097693483815
-11.59169618809777,-15.402279664930488,-9.911770104399775,-6.104571360201412,-5.195529380106845,-6.133968905754412,-8.076276643632132,-7.591717424645872
-11.162901525892348,-8.388383363279805,-4.798920408434707,-5.7875911868450025,-1.5248481757454126,-4.640115629914458,-6.371174141703958,-7.191511453564416
-11.640248605389997,-6.741122915780131,-3.500224632084697,-6.1667758098688035,-0.49878466046573366,-4.533257802551316,-6.143811958814914,-7.2906098564496595
-12.684520453988224,-9.67412947669576,-5.522524851317195,-6.9247215180167,-1.8099690082665394,-5.473550764051466,-7.1044484572555815,-7.760112645986832
-13.83266718770876,-15.088912776143149,-9.371466235550114,-7.661656844301774,-4.440597658628459,-6.8709492718050384,-8.64217911073401,-8.368199893842295
-14.678287726006328,-20.65785861659074,-13.343536709329582,-8.051995626389505,-7.2133804604236875,-8.128018230320398,-10.110187620968821,-8.876064788074808
-14.987414018117757,-24.47065838710446,-16.030023009066905,-7.953329926821519,-9.137974932244822,-8.784316935656083,-11.00293609409367,-9.111399739702112
-14.757560901682826,-25.453746874896705,-16.655883503127257,-7.446791717583811,-9.650519219189773,-8.625101512216709,-11.071126856883103,-9.017787367541276
-14.215346120393768,-23.608707021324708,-15.265992687067278,-6.8001420958540795,-8.754978818743334,-7.752410213480369,-10.379786655589902,-8.673453217657848
-13.748362926911069,-19.96304691126578,-12.671256746047648,-6.371635014871313,-6.991441317327769,-6.572324202028091,-9.286556621053883,-8.275184263319325
-13.782238781070623,-16.282082854638578,-10.191216429729897,-6.4832616103363,-5.25238901003151,-5.689586356637423,-8.35186117014469,-8.088594803782483
-14.618906187089499,-14.713829481514876,-9.338098057250257,-7.279411255566976,-4.565105097511961,-5.737014039955354,-8.208855886324594,-8.362077081547147
-16.25437087073689,-17.307616794549247,-11.440091566702307,-8.590369402020025,-5.8550950838305145,-7.140517452283813,-9.370513995086846,-9.201783190300587
-18.22837003525072,-25.10318215672394,-17.02344829991462,-9.864641318411564,-9.55038617036296,-9.811883719559404,-11.931166689673342,-10.435394248787906
-19.615002551146134,-36.83182507342744,-24.985095100411577,-10.270859226764324,-15.009444110511456,-12.873052723612838,-15.241715451056814,-11.544452313894551
-19.262706604717284,-48.09506452735337,-32.12882885247149,-9.015197151452524,-20.1501219967751,-14.670080671345527,-17.821454259689148,-11.760566579820793
-16.2669485234772,-52.22537247998117,-33.85350996591693,-5.765466127170543,-21.854815318137554,-13.303356631134758,-17.77255158087612,-10.349076758180413
-10.463582467760329,-43.13609216982792,-26.156963227252422,-0.9318390862110278,-17.31954786924792,-7.576301498183267,-13.660063180415204,-6.97094420343588
-2.6295875853185833,-18.823845714576304,-7.9999603231143785,4.427961723989099,-5.712116673592869,2.144372120803675,-5.402781510274026,-1.9204989763114046
5.798795764230061,16.768252305683173,17.544994054074433,9.098534769422347,10.978284327455865,13.783071513567592,5.438398331987172,3.9248642908761466
13.376310789729768,55.05121060223683,44.35689128260079,12.332121249696334,28.643798097145005,24.386299573106964,16.277300640145597,9.440768612672228
19.27989177968228,86.66612113528589,66.05204599255754,14.212904291523877,42.9993640559248,31.53384026777773,24.7150626083376,13.692312452128991
23.51709740115809,105.47520148008519,78.72645938473673,15.502290754464067,51.503849281327945,34.45442531208179,29.580026576059907,16.22527748397919
26.60177470636623,110.18088997723666,81.92419247655302,17.057438954555423,53.99302317776791,34.100200150827916,31.129327658561376,17.08467675500071
28.990308257201452,103.10584331983432,77.56578931445723,19.228047185722104,51.8169601801039,32.181370603756996,30.401288975932516,16.63882622691696
30.751633973091835,88.02456279543179,68.25440394780271,21.65387232880471,46.543986751607285,29.970019229038986,28.386378976449105,15.402935400427308
31.720803568692236,69.35124640216394,56.667971816039454,23.574496320258497,39.552540116541,27.825960070368783,25.75386367553488,13.980183608055645
31.9405366788804,52.972091272055685,46.28506007655688,24.377128292882375,32.74523508838111,25.702078384517222,23.240295851996382,13.057171268652784
31.935574386145717,46.68062604325227,41.96833917617434,23.96916899195545,29.256798129562988,23.986838419067837,22.092471306595357,13.302449840421744
32.52845420091071,58.137598251573394,48.81775804871096,22.75719203736319,32.84028345071148,23.781081587014725,23.880605878121393,15.119967030033026
34.32343253894048,90.74647183580714,69.41861529973096,21.33374112843361,45.86763819499402,26.288655625960587,29.628068220772175,18.394884788449968
37.268641994533795,140.34183793014302,101.43855561231831,20.144382573203114,67.34383878208354,31.831334614711768,38.91198186993515,22.442409406543423
40.63086426375556,195.6106811015075,137.66391993142523,19.34142030219136,92.59274574047816,39.32711421226491,49.70895247338252,26.25285039927899
43.39192573659365,242.63346712137812,168.8847683081633,18.845194472256733,115.1119882019572,46.679832165971824,59.21436439845886,28.919557508038675
44.785493718193024,271.01916244185065,188.00788236768452,18.496352251898436,129.54199246133942,51.81941954718504,65.14728395361118,30.009888636814164
44.63931653008549,278.06323177282655,192.97058749941965,18.17263704168552,133.96092752556143,53.68740104093943,66.73265574415242,29.682364213452367
43.36335873619459,268.7673769984972,186.90787166438767,17.825400432114513,130.2463046258261,52.572064316344786,64.82035389504208,28.5195122814082
41.66457122558186,252.23622120544331,175.82769111840832,17.468170988136034,122.54678398247474,49.70444783847818,61.199580745407346,27.208107677511236
40.19898202706982,236.98953577226547,165.46746981573452,17.15690071493893,115.02102689132022,46.50460852671742,57.63725752509632,26.251343233446754
39.33494796615504,227.81823994350222,159.1256360070669,16.96125804804772,110.18645756445297,43.976650717285644,55.20416851061791,25.831054122374592
39.080268827071336,225.22953156378762,157.22017643889728,16.91105113179422,108.50491040736891,42.495877815961414,54.118243097288925,25.82860355939146
39.14060217836584,226.76379556320975,158.12716729879412,16.938985814662384,108.93256500853984,41.909487250457445,53.96853375720962,25.944949222383016
39.0667414611364,228.84404396699261,159.4131361845521,16.877613341666393,109.79189676306561,41.75416069683344,54.061826629564244,25.855697784750138
38.46001161259522,228.33761819686256,158.9121483486411,16.54318508622371,109.54546527440341,41.477581965010025,53.736590484325944,25.35702965923691
37.182680402010675,223.6634124026913,155.52570124333454,15.866202468746241,107.37173084799444,40.64357555150155,52.60429699569118,24.46473024933264
35.48082413453494,215.36360153102004,149.66014236194255,14.981485735603162,103.48385509395683,39.089961698675246,50.68445879797488,23.42596965045334
33.930866311573766,205.86974602068491,143.07559641269802,14.212126800060712,99.03170790871752,36.972150118680275,48.37444794204304,22.620925331385035
33.190670392620724,198.3643925080014,138.0545953964325,13.93998536102138,95.52408678141862,34.67156776167962,46.2501370454148,22.37641285826621
33.631994802629464,195.17414513099231,136.20796024489974,14.400329050767786,94.01108745490633,32.638163783708215,44.79543686623037,22.761449393902197
35.00204606564761,196.42986124183975,137.48078756300905,15.467643357890676,94.4401891472034,31.24646283298247,44.183658299906334,23.457240983199167
36.28752314618643,199.48319055662205,139.7565318549554,16.53757208113591,95.44758714785249,30.663011592739345,44.158371325402705,23.783320325883142
35.92514740147793,199.17949015051383,139.1510672239371,16.632789341391767,94.58462586267419,30.687280008522688,44.00550156565706,22.91801307256418
32.38940602514847,189.0287603737524,130.98896419551986,14.794103516361012,88.91231701283134,30.630014425153583,42.65537990401206,20.270766372810602
24.982562761893767,163.37996881568688,111.45180383464806,10.637087161935867,75.97063009563567,29.416959983468583,39.00824420543561,15.85794440473761
14.442660609158471,120.28880419597455,79.59604844414599,4.765135291068996,55.01808979863472,26.043202746800358,32.47895257086995,10.462261041730043
2.948594429912398,63.866386903714904,38.86003462947194,-1.2904698576851483,28.05918110350393,20.220933766772852,23.517200058257647,5.405366339205814
-6.645790980604999,4.370589301580152,-3.1025947661568325,-5.701076801787676,-0.0970402883489028,12.790029354757952,13.702650903543045,1.959425900040009
-12.070709630054283,-44.99128565135377,-36.86486609892092,-7.272324292256015,-23.246059188367113,5.481787860081458,5.157261723228039,0.6668436545972627
-12.760192152103597,-73.73517804692456,-55.26104081665309,-6.1563116089995935,-36.36553424569275,0.011032076533943155,-0.558822302322474,0.9526151715927684
-10.198653864116165,-79.53153034076904,-57.08361760833448,-3.8879639984451444,-38.17835858780949,-3.0143909674869453,-3.46495401845024,1.2941572023976955
-7.2489051019715305,-70.11109987875618,-48.21965376919671,-2.6619224714042167,-32.18160230169813,-4.629548590390342,-5.385036607857816,-0.08558127032187646
-6.779600815675119,-59.946156519674055,-39.15647994806457,-4.222685391547833,-25.25803454060871,-7.035081955036035,-9.077604629188064,-4.337340171787159
-10.312951179114279,-63.11748568632416,-39.92103219385086,-8.983519295864578,-24.39390263100034,-12.320609114129859,-16.68390089437844,-11.377565525048006
-17.401596220780778,-86.33752754979255,-55.22667876054877,-15.854899863929496,-33.28865264379648,-21.18006282112036,-28.424697239698496,-19.881858862903897
-26.015825244608177,-126.11324669864442,-82.55640102956997,-22.84049843569762,-50.779171294353034,-32.43724821103638,-42.368727874463154,-27.88536181461356
-33.65144575454799,-171.41586868994196,-114.0828698259504,-28.026990645669237,-71.86843451441987,-43.65893227468778,-55.41508452552128,-33.66830461250118
-38.51406662762936,-209.89838427443215,-141.03781830891162,-30.4202727922226,-90.57497828327041,-52.43837836255535,-64.87694109834376,-36.470757441654484
-40.18629640065828,-233.87890177100596,-157.90382779115188,-30.240480995086298,-102.85763824342062,-57.55966853366002,-69.73406782993781,-36.70790862607905
-39.54985876927138,-242.9092691314424,-164.23004424322784,-28.635591040653228,-108.03319085337407,-59.39917432601688,-70.89053087059087,-35.64295529378498
-38.14955999606901,-242.13154405886985,-163.52258142420044,-27.06493186168163,-108.18089933326283,-59.43891408133292,-70.40508711519746,-34.73577661129017
-37.408663579979304,-238.19431726273433,-160.43386366022904,-26.67894038139839,-106.29490611975542,-59.303479951341544,-70.24642836515625,-34.99064582543563
-38.061002357002174,-235.62531975369018,-158.24860556816336,-27.906129339182538,-104.57030468801058,-59.94363569655624,-71.31656752685338,-36.562998138142575
-39.959218198808074,-235.61291354279263,-158.00630011406452,-30.309022957666624,-103.80026245841397,-61.37013991230273,-73.20662679907782,-38.7347671176558
-42.22424792476032,-237.06474822568197,-159.15858647296906,-32.707183814927596,-103.8320092538513,-62.910153405440575,-74.64697422712719,-40.22471743003117
-43.616526771342734,-238.33581306484996,-160.65680700107916,-33.56107187322199,-104.2806188634436,-63.67024589286168,-74.25741692193067,-39.706646698780936
-43.005559427819534,-238.16692822219287,-161.50445409426445,-31.558729472340858,-104.7972684182133,-62.915390679081334,-71.17924874383748,-36.354699329841
-39.81396921520057,-235.62190789138165,-160.70022553463085,-26.219124675021277,-104.87167393006968,-60.28179676694041,-65.37653392549949,-30.2152652946486
-34.294881498255435,-229.82251898581055,-157.1773722093598,-18.22859859850842,-103.68177416633101,-55.89033600414283,-57.611003122875296,-22.24904551366427
-27.51740153905659,-220.24212387559015,-150.2398907540332,-9.292207722834432,-100.42134342392957,-50.40966551247249,-49.20111262211804,-14.01796273441004
-21.02770659147465,-207.49533663901374,-140.33156124674449,-1.5169726675710238,-94.99390156306174,-45.01404559045851,-41.6808153921565,-7.160601954145718
-16.302091932866663,-193.85807264359968,-129.45411907523032,3.3912536053658404,-88.50948412276578,-41.143596502947446,-36.445852102410264,-2.8997799998505527
-14.235384269083658,-182.89430229019948,-120.72672109742645,4.71906031107994,-83.11087658503376,-40.09089049423856,-34.476734072776985,-1.7859060027638813
-14.91609293125319,-178.39426328171575,-117.30776865144472,2.847023994197377,-81.21208706625684,-42.61653014444449,-36.238882544708424,-3.7273979054289574
-17.77534920292317,-183.3371384354606,-121.37779021003749,-1.1218095433986581,-84.65478833659773,-48.80235924854085,-41.767454187071614,-8.191608175391478
