FZ,C3,CZ,C4,PZ,PO7,OZ,PO8
-2.7146225738260905,-45.866188461219515,-29.324670354181222,1.2068109666581945,-22.94815765582893,-8.552606210941867,-8.789789363992764,-0.18680315357861585
-13.434122594349914,-5.781675124683577,-12.946440201035006,-17.53294377425707,-8.64412296444526,-10.156919710891666,-12.00075338663627,-10.018803258427212
-21.73405216213521,29.65254074777216,2.8450963861294887,-32.26243944681658,4.255290712943463,-11.334449054823528,-13.811623377417263,-17.646071824369944
-26.18497553655834,57.61341305226249,17.518290004217796,-40.64794396773123,14.975104643607526,-11.684855905351657,-13.453384821008914,-21.74962720827765
-26.904275652791103,76.44407749451938,29.61238815783588,-42.7905318219368,22.91816870114001,-11.180101758001076,-11.356217127540386,-22.346803950410436
-25.408231965055162,83.12112438113589,35.39736476012245,-40.72402832462852,26.47071688659002,-10.635971223688651,-9.334374219278013,-20.602494895824105
-23.800039974300088,72.08855059137562,29.108662526303274,-37.0606208984379,22.57730664788259,-11.72143116322396,-9.99631817883443,-18.12670586086449
-23.711088610740926,37.870817238263456,5.763029933225639,-33.664728365946914,8.153540001730459,-16.1792500840854,-15.438468518794792,-16.17315279207627
-25.579032812715873,-19.82711704264353,-34.90410000992014,-31.093440174396818,-17.356597143997288,-24.652694928265458,-25.925976279463736,-15.182191193685492
-28.636199869033316,-92.70743066699875,-86.38554861892395,-28.932841194795866,-50.29929914263641,-35.97741726619743,-39.45986631249339,-14.853140972602622
-31.530757344446762,-165.5202610522425,-137.22829674050973,-26.57539073544764,-83.59079894686724,-47.53327818619425,-52.607063992001876,-14.585030988489565
-33.14193807425009,-222.33866062556388,-175.96186171411247,-23.829526358042102,-109.72264854928363,-56.48585344423828,-62.124371066132916,-13.943818852933335
-33.10982940702081,-253.5908036781239,-196.1397952588736,-21.032908158590295,-124.12470148717412,-61.12769293113294,-66.40237324677489,-12.885782773444541
-31.85176028793167,-259.5486035587399,-198.52793504935534,-18.749915954410543,-126.84011027179261,-61.514373939509994,-65.93559948342057,-11.68176646469376
-30.174299072799514,-248.59894864408108,-189.5175519591538,-17.371497725071453,-121.72748380011579,-59.124471861561794,-62.69952079349001,-10.675537239450431
-28.79394555644654,-232.04453018175963,-177.23680200870152,-16.903772551382986,-114.0257206944139,-55.909183514929566,-58.97094823962067,-10.067987093839006
-28.049528084827376,-218.88864838005998,-167.88033671079205,-17.027983193242736,-107.91386385216283,-53.379030722085226,-56.33221453398494,-9.846009252626196
-27.892313393728298,-213.1987089919019,-164.00934787352313,-17.317395802747598,-105.28062208457912,-52.17601727834639,-55.298275517320334,-9.848808437583846
-28.050883575713847,-214.41948595472454,-164.9468118521939,-17.437877176034693,-105.86830778581673,-52.159028142964715,-55.523214363049526,-9.883493105391892
-28.21790700652535,-219.35371135686142,-168.27523830581393,-17.23696704851171,-108.18871681561133,-52.75385698164763,-56.26290229391504,-9.809898409974723
-28.176031377409053,-224.34252180987488,-171.39333799936523,-16.733227315082097,-110.53347541784649,-53.32128585809909,-56.80458448503878,-9.572531767760253
-27.855590045188187,-226.85342838858756,-172.60251658185206,-16.0581129746971,-111.71703636099947,-53.427245389982055,-56.739658681806105,-9.196427247792291
-27.331435153452542,-226.21355555667472,-171.56298433914043,-15.381249773025608,-111.42621656356567,-52.9726150721099,-56.05259440508878,-8.761100437385986
-26.758432983040713,-223.39728514860744,-169.07455998846086,-14.833080588277195,-110.12267314617542,-52.151696256270796,-55.02295208206091,-8.356272410324234
-26.271278413321436,-220.0425050521173,-166.33446213505434,-14.452637780732577,-108.57624095820806,-51.264200140857184,-53.995606306967986,-8.034108013171698
-25.913394733532186,-217.34590402477164,-164.15817681972183,-14.19187584455538,-107.34219757418528,-50.51085532105572,-53.167579500182164,-7.7877911063254
-25.6450760761601,-215.62481742652665,-162.71189847537002,-13.968892285198235,-106.55964561738377,-49.9265471620592,-52.54096639907521,-7.571743203013538
-25.407924734608127,-214.73215995237274,-161.84544159551666,-13.717853845320885,-106.15464986617239,-49.47440343368029,-52.04380082404117,-7.341431823968206
-25.171601435339394,-214.6800232629213,-161.53707121853122,-13.394791350734518,-106.13550929867426,-49.16277005407776,-51.661957917683786,-7.075006141787409
-24.923115217559317,-215.69360729222643,-161.91466942139286,-12.95915144420808,-106.61278520778565,-49.040633870388035,-51.435951059186834,-6.766335547063667
-24.635114094575165,-217.65298245969018,-162.86460059242177,-12.38396535894343,-107.53299848943124,-49.08432540932057,-51.34541659612217,-6.414549081978013
-24.270797106374953,-219.62658127508539,-163.73736348273187,-11.704976727697863,-108.46294593154599,-49.1202571205656,-51.23143697138944,-6.03238103909546
-23.825930989587363,-220.11462924362715,-163.54859810481844,-11.05199759109184,-108.70849250848316,-48.88541660048424,-50.85357986775304,-5.659850196686913
-23.353210932535553,-217.89409846258738,-161.55457362392283,-10.60254714738591,-107.70590648473559,-48.18111814831056,-50.03262875191005,-5.352163652009175
-22.93447808622104,-212.87540597413798,-157.78840498424682,-10.46960780953834,-105.41003391957598,-47.00751239110308,-48.77249756499185,-5.138636399794944
-22.63034225337696,-206.53928853849328,-153.29949042434095,-10.60120105632529,-102.49215702896241,-45.62317794647861,-47.31674765077167,-4.988239592136944
-22.45542328991051,-201.82361857935084,-150.0469550644953,-10.761321669012528,-100.29862762149448,-44.528523882686294,-46.140910387606944,-4.81668369381961
-22.380696955969928,-202.27676430050587,-150.32684503656017,-10.605363369920683,-100.47768924566631,-44.33445483849465,-45.83329959999824,-4.530915335347113
-22.327938098910433,-210.23185843633064,-155.5544411312042,-9.827498315451935,-104.13985925850247,-45.44845339927388,-46.78861208698953,-4.07842586794102
-22.15415203939367,-224.37470439730166,-164.6646225387622,-8.350938570350108,-110.71351041511384,-47.63511089624787,-48.77358634800747,-3.478776121495821
-21.67680308956709,-238.18583992297172,-173.15267159845453,-6.500687541334724,-117.19112306172468,-49.72900396758093,-50.64732246702778,-2.8346222269697487
-20.769776101186885,-241.0853341286666,-173.96173771618433,-5.033598967141129,-118.62976104311724,-49.835750686803685,-50.56595301251361,-2.312314830040383
-19.4657962585668,-222.75471557746067,-160.43619925095223,-4.894547845478485,-110.13166394308887,-46.09019771758429,-46.72646823546742,-2.064743186228121
-17.94794900372234,-178.73889052815477,-129.96608839726852,-6.711361708971766,-89.4262466408679,-37.61522226061357,-38.290979723185785,-2.094330116443814
-16.391199652907115,-113.95680926274107,-86.07593783537288,-10.277276836214401,-58.504909209923504,-25.10261793001487,-25.93481740419075,-2.129315674485969
-14.768361230728313,-41.56979925231247,-37.41404480184384,-14.396684458502753,-23.156113351713135,-10.62826988939693,-11.661507669156991,-1.6398231283863334
-12.810129145994566,22.596794241556005,6.011597213450935,-17.32360384910255,9.490184225228138,3.2103912502957663,2.017621237313819,-0.0693120028130404
-10.211290668847708,67.04051301560987,37.21992212644002,-17.64750744913336,34.03033511269108,14.328549113016553,13.057618297871505,2.7955552630275733
-6.963396755833232,88.98806404048631,54.72428720624903,-15.12647748751677,48.707091143191924,21.790057087276374,20.479065029028174,6.54275066446682
-3.5404480312991256,93.9403968306381,61.86131525850415,-10.914772512716674,55.23539027983859,25.80324098178768,24.375655731431557,10.178433554883004
-0.7272426383286202,91.26162459982439,63.87174292670001,-6.979106358705007,57.00507581213318,27.276169576879433,25.522709967452172,12.55400238882002
0.8448073513202112,88.95496852922237,64.87235986477486,-5.037168172062054,57.0393891813203,27.312535545450046,24.936825156732972,12.959605946766176
1.1219051114259202,90.48772948509338,66.36315531357414,-5.67705797870213,56.841089671438766,26.853997415271426,23.563261217841596,11.510698935426728
0.6832500823917961,94.51350625304762,67.45442201258159,-8.160857168165029,56.32740887798332,26.43602352505235,22.049013449078476,9.07198592436608
0.39838138820558067,96.71946844698806,66.08605071436361,-10.92340172818753,54.44839157977439,26.035517239558384,20.58483132354608,6.78190761295941
0.9730235186816721,92.79730089518085,60.640182415870434,-12.374544603104189,50.15976369458912,25.1694143547322,18.971602599782667,5.49835310219122
2.7005093607662722,81.7450554809326,51.64024106280546,-11.578529228509895,43.599531503860014,23.386387801242126,17.034259080936376,5.480490965191956
5.486510171466013,68.23508576840155,42.88319419227222,-8.604242998284688,37.03273437923095,20.94188718828957,15.17030251356473,6.4028465404903026
8.977627288873414,62.20284770846806,40.888344854913456,-4.5200116430010615,34.72518946122479,19.106273675695363,14.53467924863944,7.588767449758626
12.63471364053112,74.70026483169906,52.12213336582267,-1.040260561345606,41.22516288018352,19.685356957358554,16.53567129726436,8.302315838516131
15.776438393983295,111.6284241197683,79.14780675080854,0.13233501477461965,58.70522284540061,23.937845248789223,21.887990438503824,8.00593246742344
17.72183059089321,169.19855301882737,118.19580541559584,-1.9379475292069237,85.06786864021826,31.633072914476315,29.919048284300853,6.544000567260079
18.060085994407505,234.54366040320605,160.1617859148748,-6.944069490594493,114.3344587926908,40.973491649925805,38.70777850501596,4.203824798036963
16.898742024858866,291.67904817693403,194.82350217989185,-13.456917408956144,139.36854406933634,49.495090748608,46.0298233877946,1.6028964130229166
14.886655456915875,329.3138227638393,215.78869619911046,-19.62373180092363,155.3318531768631,55.348389834792926,50.48639497507547,-0.5823273010362067
12.937981166552017,345.63315661039917,223.0832475163113,-24.043519842975147,161.7006247324056,58.10193971639165,52.0672616868594,-1.9255048726564228
11.793873338357809,347.1679868894243,221.83330768369194,-26.289101291207597,161.62101359200045,58.580269604530976,51.81979222284619,-2.4214648101336125
11.68600391616119,342.8677773642311,218.11469584210704,-26.781324060799093,159.18755377835294,57.958287657547864,50.940536318175056,-2.4013221543216394
12.304150841507028,337.6441573866673,214.87375469843545,-26.168597450213685,156.59163599864522,56.843473542792715,49.985500415506266,-2.230253135954757
13.054269214247011,329.6926655111664,210.54891690596338,-24.70834451902264,153.0202270138966,55.00359438895351,48.72616043695682,-1.985878633287331
13.394716522940127,312.9299533703063,200.93582489563752,-22.12466564194218,145.80141360006417,51.83414040279316,46.625815704081255,-1.352646506071209
13.02351437360411,282.2994592298762,182.62458386150513,-18.03122184428451,132.7215733951177,47.093469983891254,43.453200082579826,0.16974627553801394
11.855748649152037,238.11658615521083,155.59685977992945,-12.55477085903837,113.836022436647,41.30364630647365,39.539108086987106,2.8709151657846763
9.908138980745543,186.7967534278517,123.5371595266233,-6.631411508988721,91.70927985367683,35.54781683663985,35.547324511284984,6.51681470555279
7.2430538965236035,137.94906021244026,92.07178170005089,-1.697627162901823,70.19071771750843,30.864755351804487,32.019551214277556,10.339640997590726
4.020062943229293,100.00565444520564,66.30904574362984,1.0427561921740616,52.69496415344667,27.699196768161706,29.078368549648552,13.351738880156082
0.5770494240072747,77.04889002737636,49.131803548884456,1.2784204641646826,41.042721313013104,25.77358210421759,26.49484239559069,14.800861920052574
-2.5804903796142837,68.23987408432374,40.85171808211042,-0.2654008380933794,35.306207867046275,24.405000056630122,24.014440251954692,14.508871486796352
-4.934461167486818,69.35549070797805,39.82596714053975,-2.26912115517109,34.33796082771825,22.972081583273926,21.636050439021545,12.924184067594194
-6.17507706769192,74.94297631224032,43.2943991788578,-3.5192577840131416,36.38145930557408,21.197741286551086,19.620367368634582,10.89484628835128
-6.330685828881301,80.06054367233193,48.133941856780936,-3.4204189586385136,39.500461060884156,19.151106642564308,18.276638935444076,9.306703433538043
-5.714218410415302,81.50061505109421,51.680825912582335,-2.0935908130770775,41.97851310427641,17.104764092769173,17.750569402386628,8.751007814087625
-4.748795937223152,78.55618461084597,52.57426266527329,-0.15716484376212186,42.782854725572975,15.384098587064203,17.947211889656568,9.321822424954988
-3.813052216125226,72.92228650040158,51.08759776140013,1.5831548857556779,41.8232246014079,14.212800868998034,18.53645419408837,10.587902239869756
-3.1689985539833447,67.38482422841678,48.519314337837685,2.411921426654905,39.69291351556113,13.543242285735387,18.967637644059344,11.764586995229235
-2.9199139579795603,63.912871465151404,46.0276675486577,1.9475911428278452,37.04033623426271,12.989150538441603,18.558738510887373,12.065137918838216
-2.9502848090486467,62.535502584001286,43.884214018441654,0.32641545100905456,34.131809368670666,12.016562335791422,16.768676817620012,11.100686972212578
-2.9049780287410547,61.82838413916858,41.71968365988609,-1.7869580306216386,30.975937274687283,10.351310386544593,13.578502053196706,9.109809687499668
-2.30387851804223,60.41549338797748,39.3576967023657,-3.442092968033302,27.784547105555706,8.309455630858636,9.700575358112722,6.859123838082935
-0.7811957992346226,58.14838022637737,37.370921519679534,-3.8110954905461742,25.242041276911543,6.7546203879253,6.385605646555073,5.260315441898838
1.692919646328716,56.23357265678861,36.944348507814276,-2.5523722759738887,24.337062991843474,6.671211553888784,4.8914031501825335,4.932131407635425
4.74475874451109,56.57509027087731,39.2838730256968,0.03254118139151745,25.934665505453594,8.626662280377868,5.911562645011785,5.942721328997421
7.689891052474158,60.80205156878313,44.91048394481755,3.0764174337773587,30.32036792881639,12.413084000714608,9.224652284648275,7.817059651287789
9.706384289405959,69.05395143984218,52.93000635783442,5.420062245659458,36.749273532436455,16.97408857056,13.64000199873724,9.743736613019378
10.052899214150852,78.70339503594701,60.47234446650344,6.053334317117859,43.082932292400145,20.600846302396867,17.236759929141684,10.875821832490729
8.35726815030034,83.9966563830295,62.95703006716959,4.641251806107818,45.93758465790012,21.406158815908203,17.930270512836756,10.649104124460866
4.927290375344052,77.83256147330542,55.79809145667958,1.897148886860316,41.80748334993483,18.060555971180985,14.324990715134277,9.036801214991758
0.8756092405255872,55.55941993055748,37.10684036296097,-0.515028460957846,28.952741989221877,10.552722671534372,6.535162930262908,6.620543267715203
-2.168752061187478,18.62938591188747,9.702271878735504,-0.6695517843289444,8.941717197506971,0.5074653190133378,-3.5587524270642548,4.383702233364103
-2.7467177206828604,-24.696483005308586,-19.3074086026438,2.6319962784869344,-13.411147011506847,-9.301871846114976,-12.957336934034807,3.2768203611329763
-0.3046633930593046,-62.67208407570558,-41.58986893216553,9.153099930422956,-32.016836386799525,-16.126245774424017,-18.868191086923918,3.771534229563904
4.483416869768272,-85.67482077385927,-51.60741078959599,17.26377232684376,-42.35398339523267,-18.480051641443854,-19.98729730705704,5.657322117275575
10.035789134419032,-90.70093712412806,-49.14938282833582,24.73188221640306,-43.49198350112591,-16.7326621964411,-16.99627104206696,8.195445958414172
14.644368509121005,-82.09197984488065,-38.904792438641536,29.789853130033237,-38.12993467332137,-12.731722840295394,-12.021765195378489,10.524991870675144
17.25435847041766,-68.35322991152077,-27.53047319650326,31.857596286946904,-30.775555522645625,-8.734812477446686,-7.439958366502586,12.07187315691652
17.811284142267336,-57.388768368871055,-20.19366941138412,31.56815771479337,-25.325857785347637,-6.31925206340561,-4.765794799689418,12.736877486050167
17.05063522829106,-53.15931979046449,-18.649664292671794,30.204650478819286,-23.517004114129836,-5.87301763295891,-4.2204651557067745,12.80502808260958
15.956994557934182,-55.2990523455181,-21.585085150396065,28.980419049105578,-24.89873363210228,-6.814037101014364,-5.055588335840209,12.69711109404561
15.267628632317622,-60.963226979187844,-26.35104193906006,28.577347987876898,-27.87343220681974,-8.205318958662124,-6.234856126188304,12.745615972661044
15.264722222083192,-67.02702728759792,-30.615005644544524,29.080904486709265,-30.83107282432524,-9.292982631031466,-6.981777528384471,13.099795426511315
15.84661253094473,-71.35808444695697,-33.114350352274165,30.18090246930022,-32.762215249756885,-9.726156307753369,-6.976360176017156,13.744843733757858
16.717420125848406,-73.14398411067216,-33.662125059983445,31.434235769961045,-33.369351468175886,-9.522913751731176,-6.292719704396051,14.566373879507882
17.561764815935373,-72.77977110940434,-32.872017220794234,32.472207371776456,-32.95086158581706,-8.942891530765095,-5.246982691013395,15.416396848248294
18.165695908168637,-71.48882870487033,-31.76837749552608,33.12214174210079,-32.16602900466547,-8.335843768208363,-4.224422603448014,16.17259028426884
18.480125798542097,-70.60784972716272,-31.25462350660798,33.42927699848156,-31.66784823116603,-7.972276091365242,-3.498959938695365,16.78138220714618
18.6059913390247,-70.81773046588116,-31.644076818852632,33.573447991598776,-31.746799420488593,-7.917188861351582,-3.1148915254544156,17.263252743414075
18.698873922243457,-71.93301288131619,-32.63831542995151,33.73271366065273,-32.26569922048296,-8.046651986374167,-2.92392826572499,17.678510012976773
18.858472534257753,-73.44693083037336,-33.80115602163557,33.99678605692186,-32.951469492005465,-8.203998332932608,-2.7535660827167154,18.089226532035525
19.094786494584206,-75.21144143298349,-35.03293898390596,34.38844597755094,-33.72668597807386,-8.343597456422401,-2.5440004999757138,18.55361444470567
19.38847781626058,-77.46067745835418,-36.522078506779806,34.936196825899124,-34.70741895723083,-8.51573730186227,-2.3219481273539437,19.141356967336726
19.760954368457217,-80.17508116058555,-38.25904140687998,35.68713535764667,-35.887125228245196,-8.72631474459764,-2.068519294053164,19.920917234918633
20.26334290279644,-82.601300735292,-39.72626817399784,36.62711743414883,-36.9086089337001,-8.849642467776246,-1.6605288766029955,20.897955405875198
20.893900141802813,-83.5875839167732,-40.18044155686876,37.59751524837308,-37.23220091139869,-8.706834980229791,-0.9704719927021674,21.952486135242825
21.54027701135573,-82.48351310356253,-39.27989519828599,38.32099272161656,-36.5666906701408,-8.232548559305977,-0.02017932204862443,22.850856953521475
22.01705192746282,-79.80112571264816,-37.48348334147169,38.55003131386478,-35.17694263624413,-7.569278674381398,0.9721161453226467,23.358927056308264
22.172808222569856,-77.18446638378364,-35.95655724034898,38.246133347109065,-33.8597712362145,-7.0253261022661935,1.687928341592956,23.402669931592648
21.991400890045284,-76.84756340974249,-36.14557221726874,37.68313931969062,-33.66925822606085,-6.95361522082115,1.8604517771628892,23.18304457086636
21.643054144598725,-80.71952694623393,-39.19420621368416,37.41710607416596,-35.50283243815142,-7.6049061719933935,1.4104342788142428,23.16915114022327
21.475843452839506,-89.27772259391759,-45.18113840786041,38.0986430155718,-39.54025900360028,-8.946892520385672,0.5655927618387065,23.934288841585644
21.920472584835085,-100.27227575271822,-52.33767428359478,40.126386110378064,-44.64548832774163,-10.484599262097973,-0.06926563157747831,25.848651810187434
23.27004527143788,-108.30280199606045,-56.91963389019859,43.22794130896464,-48.201975834118095,-11.255806204929533,0.36830508623142166,28.720228693154613
25.379719677741917,-106.42546581592997,-54.478925937686064,46.20094692069053,-46.93356271107263,-10.189984170050147,2.57559778068243,31.571988267344153
27.47126190341662,-89.77389761652971,-42.37931649822201,47.098392673285815,-38.66898657512533,-6.772830461444116,6.497770353826291,32.771808183946014
28.263157568861846,-59.27134203064238,-22.128702850496225,43.95025422344095,-24.099851609780693,-1.6256047132266,10.984164513185956,30.596452990601314
26.47529794409158,-22.70593278816086,0.2843482683049858,35.74218324162506,-7.226520851364431,3.4706669415991045,14.063698533713064,24.037555969090775
21.479069395646444,8.203789155068403,16.76567286092427,23.101231160876694,6.136258454352924,6.262917439423478,13.825209874014654,13.427119184557004
13.708469459000924,23.44392530388048,21.068737962829676,8.225538388663486,11.134783765037405,5.09773330033158,9.432012515651468,0.4792783714221426
4.560369683491868,19.731625064240447,11.991151080673268,-5.97034083386301,6.3323180134246,-0.2348234183237945,1.6475917015020265,-12.343696646055566
-4.175981213738981,1.8423298091438938,-6.149674291830629,-17.033674480649815,-5.6398703515413535,-8.371819288908549,-7.468791227961116,-22.821763364789973
-11.03025575383738,-20.47557127765971,-25.991083288570497,-23.824707832956044,-19.59173696469932,-17.00811594114463,-15.517219945794906,-29.78603492505707
-15.310291504392788,-37.83878451911677,-40.89187564268685,-26.634641858377382,-30.43223080414336,-23.886394446752142,-20.790235746469175,-33.34255405438322
-17.116271528280983,-45.42889440748424,-47.68256223458775,-26.64712859168481,-35.35237649267655,-27.600974381844434,-22.820813895943022,-34.48612788885783
-17.01497028797375,-43.94057084715645,-47.10824726677893,-25.17419743614215,-34.46688264298416,-27.893344019026166,-22.261765204203176,-34.4218160140351
-15.645899133961143,-37.66113327247999,-42.368744696138066,-23.099989643266028,-29.99879085764427,-25.47482241659258,-20.33355319775469,-33.9979401038345
-13.475681084618119,-31.567139715523812,-37.0723679474332,-20.712543692036583,-24.83330857061003,-21.5992640445774,-18.216338726960554,-33.48843968890152
-10.754136478834097,-28.974061216084852,-33.61041151274082,-17.86644259600914,-21.190407192873703,-17.565059660641786,-16.61654701349585,-32.72250580842173
-7.623907485373074,-30.22729154413443,-32.2848384330087,-14.344324052430657,-19.758770369337928,-14.25290732883692,-15.574894951900419,-31.413434238867538
-4.326845233462244,-32.59126443867397,-31.34963058820663,-10.287185305813551,-19.496718927112113,-11.858323498505083,-14.571559217290243,-29.51494434818416
-1.4337423721962166,-31.715722723694565,-28.215046776163636,-6.51263489869598,-18.34281886061712,-10.026805359870844,-12.986683910603647,-27.458028915837
0.05319037747646671,-24.593570334695222,-21.59754933080732,-4.481316464515071,-14.75113126089818,-8.411712492335353,-10.778581570308758,-26.146422003261847
-1.0921442786196154,-12.529995951869747,-13.397284820774683,-5.775229458548375,-9.236140103897275,-7.296806972919998,-8.939151595194616,-26.650375023122628
-5.770380581065234,-1.7943282183214693,-8.67969752436779,-11.261116078900725,-4.7276242931417976,-7.738852448473957,-9.252877157486918,-29.683386149087085
-13.921772696112994,-0.7737459551592961,-13.202120313496119,-20.415205640163936,-5.1650272678028095,-10.985527793451949,-13.324363192800615,-35.12076497031061
-24.23808251568128,-15.03154702777768,-29.818827700968207,-31.291155217647677,-13.069204801506913,-17.517548784643964,-21.446615610043022,-41.87216294024588
-34.5083294454704,-43.4840954973265,-56.16946136223852,-41.24918531477902,-27.7048249592854,-26.421290438584286,-32.10686474358816,-48.25269611976476
-42.48532250484374,-78.3358711838398,-85.31941045398196,-48.07508757002892,-45.116842247034654,-35.59287936592331,-42.53417576454023,-52.69168818855209
-46.805294632441594,-108.90532357534049,-109.0501771165036,-50.862135713483916,-60.05818917360645,-42.68512244154578,-49.98883597727089,-54.393725372062384
-47.45217999146457,-126.94658006812897,-121.78598094577467,-50.19001133774879,-68.59331396460323,-46.20613585489346,-53.015252982625626,-53.592764367019285
-45.553830154399286,-130.27789224385046,-122.86487639799905,-47.58808535900747,-69.8159606433497,-46.11655791961464,-51.94974062850347,-51.29527417294242
-42.708720239514506,-122.88967469720504,-116.10472925758661,-44.68838044176274,-65.82647478673408,-43.65215498170343,-48.49756314203182,-48.70774332916263
-40.27793670072844,-112.09274806218895,-107.38036533946686,-42.57424955042646,-60.28590427228019,-40.60545838750069,-44.76652287574495,-46.68784954714801
-38.994499488826754,-104.83973116869751,-101.88910419889476,-41.58997856754415,-56.60435566836369,-38.550216852008724,-42.36234848014301,-45.47916060460936
-38.951112286218944,-105.10164186138144,-102.38241353762821,-41.53029162259098,-56.671229681810225,-38.35037122760305,-41.92638682011208,-44.78351323598236
-39.78946178673875,-112.82964015393488,-108.57957357286774,-41.949940420324054,-60.37255543016209,-39.98550602685026,-43.11509387383137,-44.05432772504248
-40.897772407627166,-124.14212257960222,-117.40446114435997,-42.39291317575461,-65.71878075748168,-42.58052496872782,-44.83914834977248,-42.8424074370313
-41.56272570499157,-132.55505263793057,-123.91631564384203,-42.49368094699773,-69.49371354652328,-44.62315730539285,-45.65783135527612,-41.057629839360644
-41.12531683764745,-131.4080813481882,-123.08039488323769,-41.98922050288892,-68.48200907160025,-44.45062009631207,-44.31741033862792,-39.0543731659928
-39.16225862958785,-117.07679641219066,-112.09878839768693,-40.6854268262769,-61.047171165573786,-40.960748182816246,-40.32852653921419,-37.49473596383813
-35.63269376547895,-91.4295093212041,-92.19930346854481,-38.42341585353822,-48.29416416082355,-34.23914090228735,-34.30102721567643,-37.02847762356518
-30.914032729031522,-61.7075423488236,-68.5950403594904,-35.11108916310641,-33.94444497785116,-25.697151378569572,-27.76642199073426,-37.9450655457768
-25.715897103315452,-37.37317063616195,-48.29680228080899,-30.859572356433425,-22.7345919404791,-17.554890423622254,-22.508858456499595,-40.01338269958092
-20.92727003494657,-25.600242148316013,-36.93360970926049,-26.162010130816928,-18.17946644296824,-11.921311273099521,-19.778415783206654,-42.63937006016071
-17.452874885972236,-28.20398123075473,-36.494524108480704,-21.949330430839606,-21.063130026276433,-9.987918047422719,-19.86339773338039,-45.25978099344294
-16.038172620780855,-41.85835803208182,-45.25254256988363,-19.362237046009266,-29.54181083283353,-11.747303055914356,-22.233202224297752,-47.69420492300448
-17.03481621559753,-61.01274573577669,-59.49126872220395,-19.22661224986646,-40.562902358118016,-16.24617936248896,-26.01717846276024,-50.16546172738293
-20.102345382074834,-80.88594382625453,-75.33115145368966,-21.449850321883613,-51.342683872686656,-22.01342504380327,-30.330278678828844,-52.92382213675949
-23.99258348923253,-98.09448753640042,-89.15092314371793,-24.728129231666607,-59.756410822189174,-27.300012276847635,-34.15723081581427,-55.736058783484
-26.68733494500081,-108.90767704745937,-96.75193058075752,-26.89445744966493,-63.657083764091446,-30.135270672421743,-36.02717614612886,-57.667222603061546
-26.055083646173674,-107.66057849499396,-92.96068227999554,-25.87975483678962,-60.29835594599636,-28.549289822388577,-34.04973761786598,-57.41609831061474
-20.832183635554664,-87.96429864110966,-73.16001413758775,-20.80250764086458,-47.02082394326168,-21.219983921345683,-26.64191098403188,-54.05538278290663
-11.388290827690234,-46.719802213579904,-36.3147943092773,-12.517696156724245,-23.100520125588698,-8.31359159230918,-13.611695995873227,-47.692406965724885
0.2537093035972485,12.01418367882137,12.7657843696287,-3.2478555047738924,8.65971979895422,8.107778876423655,3.2066209455867485,-39.58478175478351
11.246694689750777,76.736819625941,64.11387843645248,4.500738129038368,42.122203753548995,24.600843217916694,20.380677794510696,-31.60957566824142
19.16293250938698,132.7820573856291,106.42386109485689,9.094564593720179,70.08427052509914,37.6642937644436,34.265576753626256,-25.410933422836077
22.96552366902399,168.80684060825945,131.92176185651738,10.362291456028297,87.38977746144542,45.17411276321381,42.56656859535675,-21.730127237070686
23.217326707678055,181.55618646396607,139.41280987686048,9.379655285833103,93.01684832323977,47.12527207269741,45.177172696669615,-20.258601537300375
21.520150213150053,176.1983490138588,133.8574016631639,7.708272787230045,89.9702038895578,45.30891919982707,43.87953985323885,-20.003161115999724
19.607957264182954,162.5137042553842,123.08529592151224,6.606172928478763,83.257126482839,42.2128825362604,41.21453776493304,-19.869030473259663
18.62586456389354,149.72473110649221,113.90046168879006,6.619227435564425,77.35846400781007,39.851622005907906,39.26932401605627,-19.118565024325804
18.892116572696867,143.02931143838882,109.75180631221694,7.62944865551811,74.64213359318806,39.13952503868503,39.01963201900306,-17.528887606414564
20.08914179515854,143.079894552242,110.65725494008917,9.160293804438933,75.23628416796886,39.95226837722016,40.37194734606889,-15.286952481295517
21.629194962385455,147.53315424516242,114.5587179217509,10.692894250775653,77.86941838159882,41.58788287414943,42.61543954092664,-12.771356704047172
22.97197775640857,153.05680991490678,118.87846042517552,11.869002103840904,80.87444743455956,43.24860693798535,44.910830092316324,-10.349751081642339
23.808934887565062,156.8477127715295,121.61918428766985,12.572000339822768,82.91203789336438,44.35578669299541,46.62990218730002,-8.249417256184842
24.11681704991183,157.53797063534515,121.95373732438426,12.905779724144118,83.37642010341469,44.698163172242964,47.53134445511637,-6.511726396271235
24.098734799967524,155.49781883064338,120.33711520778503,13.091658987231444,82.5077283902776,44.441964655136125,47.78192826528551,-5.0219763169517115
24.046795312897828,152.38110308204452,118.07753263594392,13.338302529173063,81.1519661565344,43.998334685263245,47.815500452631916,-3.585486240985227
24.200718777824733,150.03403628833865,116.51604665577827,13.768428298721386,80.23337441254417,43.791943743913144,48.088465900705785,-2.0034549881353008
24.679850703087197,149.4542716109581,116.32623988912741,14.436796536494361,80.26067787727874,44.06390353301846,48.87624614463419,-0.11867346721137448
25.494526205299238,150.52003747200106,117.39095171130502,15.375401558820455,81.19298002480652,44.82226739054912,50.21709198718868,2.1536817417804777
26.567276215671345,152.47298551237049,119.16355679814694,16.572611214471134,82.64702038294077,45.91039011421867,51.96172267255593,4.776545707424198
27.71325148680401,154.46181586512236,121.00583763300808,17.885938952187697,84.1306515302832,47.06936764834434,53.81246965609548,7.53383331318794
28.627971915110663,155.66495415964363,122.2297185638526,19.002553916945928,85.10829721526476,47.95202208892429,55.336450730636926,10.040649428006517
28.98102233948386,155.2846995764385,122.12444810858503,19.55569796230965,85.06141993519408,48.19117237208793,56.07361312380757,11.89282659389228
28.631574332882117,152.95520153804958,120.34759075155061,19.36995792075723,83.78411081634624,47.61624339550878,55.818048006301666,12.930720315351804
27.83768106712231,149.44426242326261,117.51591192003184,18.678792674861125,81.79721969831816,46.51916295608737,54.93219116311362,13.473184053816967
27.27662756788665,146.82127827205798,115.33828704624295,18.151200591630502,80.41948050160742,45.71254676013784,54.40080833001737,14.338430824281062
27.786782598066296,147.5049422250768,115.8619868251696,18.661494685174905,81.18265669964909,46.20672300885203,55.441752871675206,16.546571694216087
29.901099160333604,152.60707092189563,120.15087086127829,20.84615130977714,84.81584791274167,48.60023541901124,58.78461477175545,20.752833486764068
33.36188639019822,160.63728177452626,127.180816627807,24.58405165052842,90.39784808719789,52.48986333842042,63.96031427316636,26.625003578332635
36.856173281347054,167.31800943553654,133.5456098256002,28.637126065718036,95.16871389538021,56.2179447478314,68.97740435602802,32.493944988935915
38.19738868442846,166.54067442633894,134.11756296451094,30.75416470642764,95.13392825196219,57.15003835467763,70.64490329561767,35.59877944218883
35.05768652367681,152.1709220176196,123.57656258450731,28.427689702818817,86.34033925935833,52.5135230478018,65.60316634264137,33.040649330229634
26.076112670744447,120.41007692562779,98.57581026160234,20.129370610066424,66.53962497104439,40.61136266443166,51.81838503178839,23.164115863540896
11.829822469070535,72.10678443952733,59.869296782892015,6.416608527405878,36.67324922085192,21.94028023965283,29.92021027162134,6.701548841602082
-4.965994972992199,13.805019888683665,13.193170191827114,-9.830170402892222,1.3381295311026016,-0.43242517482173104,3.580243087596367,-13.044391250340613
-20.34714123649837,-43.69435025568628,-32.15458802857076,-24.385777480235898,-32.410827791279004,-21.67173454084963,-21.547329136322887,-31.273584140030827
-30.75202201537035,-89.3050343061823,-66.90764260481366,-33.47976070472454,-57.72194267183446,-36.98533027208856,-40.01703954466866,-43.58551420414367
-34.57118515159883,-116.46471854653346,-85.94137171879568,-35.4439139982903,-70.87060413748887,-43.62006315256686,-48.859272491254785,-47.735565393593085
-32.71332953265348,-126.06706419389863,-90.5224510245784,-31.26629764488422,-72.82713272789577,-41.9953234139597,-48.70262849150176,-44.33677682781158
-27.86694785488333,-125.39603743031769,-87.07759742369122,-23.77616139352143,-68.40062111324441,-35.30976711851869,-43.10880039265964,-36.20924800429438
-22.922185520180985,-123.13737682356317,-82.86093875240825,-16.035199176529094,-63.22168873793346,-27.77547326160669,-36.47565038331381,-26.8446564511483
-19.51027126728582,-123.25637726955303,-81.04013472526947,-9.946225934115336,-60.24372162287477,-22.436957429029906,-31.701218655012166,-18.877346063387485
-17.487575672621723,-121.84678309522563,-78.46653299542382,-5.82060984148659,-57.975901709107696,-19.814359979663152,-28.94717044019231,-13.3106245805138
-15.537304991770228,-109.50223059271754,-67.85377213717054,-2.9220799261453516,-51.70414246826155,-18.1199255340462,-26.149868988392058,-9.700283115669105
-12.353583487909612,-77.99622477577822,-43.083697374878064,-0.39655901614528033,-36.97550358328335,-14.806430901931673,-20.820723205934073,-6.94439721744217
-7.591194715829886,-26.843609663330575,-4.09211431685981,2.0920052907688547,-13.034777927136263,-8.388390160322919,-11.903565625125884,-4.10063906444159
-2.0415326560897182,34.757095107247025,41.965008286630585,4.323136465421477,16.06696682681064,0.6057793428520251,-0.532313634938061,-0.8067692579103874
2.9343957873801565,91.94349820460157,84.0006174155942,5.906621345330285,43.3571662151351,10.02881278174764,10.652478450547536,2.773387967148636
6.233543496708307,131.52803142372773,112.53118975295139,6.688737002746082,62.5055972679369,17.436602538425305,19.026994792537597,6.27009214465348
7.5488229725743805,148.03466320611057,123.9773817037506,6.875413721252623,70.79102016521395,21.40122184527052,23.30959545741988,9.409453993264993
7.3621439664366735,145.0447342887284,121.37601083055758,6.861592633943152,69.80894872153516,22.039924468646667,23.943489207197583,12.132995974371577
6.53597345002238,131.80085648913564,111.68548740829642,6.9812003737311175,63.888092297012946,20.624761302792564,22.519050237580547,14.552848256530796
5.853079796862365,117.938003822261,101.91024484686115,7.385934290414017,57.593343231996,18.738033777313042,20.809959369099907,16.855666041455038
5.762947790519774,109.6712819890481,96.43188378269615,8.081824292449513,53.90800745989318,17.574341147178913,20.05676616832619,19.234871130406145
6.3592079238033845,108.85488215879225,96.44615322766013,9.009419309457469,53.76802488266287,17.671587739459362,20.74380320989478,21.850033221695515
7.470386587010986,114.06319222931815,100.80610826109032,10.076018292776611,56.54782297137997,18.969203876513593,22.715912971947215,24.784375412161477
8.772910180541874,122.13572084784818,107.1538898370911,11.158205058014309,60.769921110641306,20.98159252796513,25.39543883844882,28.005787022765116
9.913990269014432,129.44739672217156,112.84668402627788,12.13088899795661,64.69934050152075,23.005188937075783,28.01287453860494,31.364451804794037
10.639236917152358,133.02133589795073,115.75903440726353,12.915912157469055,66.87782415674312,24.3764715355588,29.869158581439887,34.6393402901235
10.877931547794637,131.53058880531617,114.97139793525663,13.496886582889564,66.61177246128226,24.736722830840936,30.59089876247035,37.61248067608789
10.747312251898805,125.78487674090401,111.0746694510568,13.89670044665643,64.22114911073113,24.17916271503678,30.272204637037554,40.152150280065136
10.504020448284573,118.41005490703738,105.94253471866088,14.180989243284268,60.91792060783604,23.212581614173775,29.456074506228262,42.304543539906994
10.495301999798619,112.99027241508482,102.18453325025047,14.514169976084904,58.438753208151766,22.600563438040613,29.005013449500176,44.370245064286514
11.09447539177662,113.06178491851564,102.4833292497756,15.181187142064733,58.58817746300215,23.143930534759924,29.883936738448593,46.88149900598176
12.544229404342579,120.84908350194881,108.63684233926719,16.458535206826557,62.60312451136346,25.371989581044932,32.7800017260077,50.38876691566974
14.703648516237415,135.49604437661898,120.12308716171165,18.35231214611521,70.2129082034764,29.113097932740715,37.5445581679185,55.07815078896625
16.860711878593257,151.46676074056606,132.78795933454356,20.39028886599796,78.75590638016038,33.1329683210129,42.72330446495243,60.411911900614285
17.835934288070344,158.86279784403948,139.03904929268438,21.664327717614377,83.25339480241989,35.229938392390146,45.65214755914973,65.05739394445193
16.440992496435896,146.93054942824327,130.4881836599127,21.144189822912306,78.10330525951967,33.024982248299786,43.389110678672104,67.252057502356
12.081627382960221,109.71743775393824,102.22389949172668,18.09572338181631,59.91122421215301,25.17785121459804,34.165121377555145,65.50762576510171
5.15032633567853,50.55420249808619,56.243828753604475,12.396940733683126,29.839334514678058,12.317259453763816,18.537477020496386,59.34371726290435
-3.0322652667400987,-17.932070280144675,1.6339553565619396,4.641436913512236,-6.17313632057007,-2.970698077892239,-0.5198488928821261,49.68790415871671
-10.692614240634592,-78.89540986150014,-48.987604899529934,-3.970529907284409,-39.70812318416002,-17.179823242695242,-18.738433680239122,38.7150907619645
-16.228104934273688,-118.70329503989984,-84.85406041274877,-11.897867923656447,-63.45673716140448,-27.365151851370953,-32.29113776577252,29.16168540593005
-18.6690013996264,-132.46044149316222,-101.24589314890676,-17.61556150035536,-74.07960436414082,-32.220620703510065,-39.1901064601267,23.403646929229016
-17.825519936246465,-124.72347645918626,-100.39079223486618,-20.001916547186646,-72.89040058502587,-32.221397482583825,-39.674342241337776,22.684624530463672
-14.187847097176721,-105.67727965977853,-89.1276079368535,-18.687613245666117,-64.35751671429122,-28.9432628542604,-35.594470999252124,26.776644198128466
-8.744048384270688,-85.67228380821287,-75.202122447421,-14.254399503688727,-53.65020343636317,-24.145627632325255,-29.359625570938004,34.152907966492236
-2.7909760355405537,-71.3120609426594,-64.30251586180795,-8.134176426078625,-44.64551903948123,-19.172548050298325,-23.063026387975174,42.5803768078818
2.3193220224778828,-64.44120560416779,-58.80988285475984,-2.137425999059832,-39.06688008088252,-14.809893706628781,-18.043418117136664,49.92781361510854
5.538808732808422,-63.3037076458647,-58.007461819217106,2.2385093184416753,-36.59337797843238,-11.381210660706607,-14.796215794454184,54.90126738195754
6.466577628383455,-64.4525380175861,-59.1295849769322,4.367721003444451,-35.52973929546981,-8.863970975236624,-13.097286798369304,57.39825053007836
5.451925216920157,-64.57083050633085,-58.89982975322029,4.599014465327429,-33.81206829971697,-7.020586546037956,-12.312062582309752,58.30658190229258
3.3503414511234006,-61.9354158601754,-55.26072077612608,3.8685548313593903,-30.160929563686047,-5.621159750037787,-11.849451876930171,58.85992311700707
1.070960393990413,-57.16031285761559,-48.62112750780854,3.0973512998219985,-24.921628628007443,-4.687355490929847,-11.555163515549758,59.92297099626308
-0.8093972927498304,-52.72870850853044,-41.81568934364721,2.737554278176395,-20.021628201074172,-4.549105952624784,-11.774787084688363,61.60750002862795
-2.177305091671687,-51.40338287693908,-38.6326247070344,2.669813938193842,-17.932423099089576,-5.6108008760816395,-13.021951632882402,63.38638408250206
-3.26594230823987,-54.51866991033438,-41.776242806046966,2.418918622769149,-20.250537268891097,-7.981439019158815,-15.494390528609017,64.55871230402614
-4.4183305024145945,-61.31489363916721,-51.50117817820496,1.51682942817776,-26.79556890938604,-11.243679018586581,-18.78183739936053,64.74665008557432
-5.855382414558176,-69.56783230499882,-65.54718611757329,-0.17464771047776964,-35.683186825919464,-14.502062479178706,-21.926306047482015,64.15041979851162
-7.5300409495873195,-76.75245916695313,-80.10334562609765,-2.3272074576248722,-44.1446004423527,-16.641872765289733,-23.74959627692845,63.46414101376115
-9.12620132007484,-80.90457609212409,-91.1697081293859,-4.267090290525013,-49.564980338731985,-16.665039265778358,-23.27860013045036,63.53164321633788
-10.223227942883799,-81.04401263652534,-95.88553545194112,-5.306429963441662,-50.37250333989183,-14.031132916728225,-20.147944038189,64.92711459782024
-10.555078673762662,-77.45618413439242,-93.56003376648546,-5.109628381763879,-46.60305193106549,-8.946733047804313,-14.8728681802712,67.66573430668537
-10.207433731276105,-71.81414135717499,-86.01702223104714,-3.8840771557791056,-39.9487889695724,-2.4705926179781343,-8.836743874076307,71.18171395690004
-9.61793457379973,-66.72403202402447,-76.87638130374839,-2.294173236975922,-33.11705068895273,3.7122381498187798,-3.8825014187906097,74.57416091851225
-9.376020823643788,-64.5789219091509,-69.92961946241304,-1.1686864404574637,-28.657894394512876,7.833384212378062,-1.6173974445662644,76.98467894562125
-9.943382598668379,-66.35812118222672,-67.46004503403478,-1.1639248452848938,-27.855268973980248,8.667905189718082,-2.7715695905415725,77.92069720728468
-11.433029487338423,-71.23501590630302,-69.45515459552418,-2.5157235682909644,-30.3162079550607,5.950229958262589,-6.951767018747825,77.39739583441231
-13.519627507381728,-77.18737483802822,-73.98919067403705,-4.941616588424658,-34.40443652738229,0.42955702407462104,-12.880586444263468,75.87691825726067
-15.499899464125075,-81.9959192935148,-78.2870042163892,-7.716386598755266,-38.10844420569657,-6.397206449272508,-18.93663329364319,74.06072600290693
-16.506265405082488,-83.95840788355181,-79.81152636072609,-9.91763906146951,-39.81757670700961,-12.756911485398941,-23.72300395511339,72.62121937824556
-15.839375065671797,-82.22807966216118,-77.07019980546252,-10.769557038276854,-38.775607311589866,-17.154872965001395,-26.47282352846696,71.9681256593702
-13.298750177508156,-77.04178174610365,-70.10606147260623,-9.934067819817148,-35.24802662279408,-18.860647474719254,-27.201797006499884,72.13969262458212
-9.335817520565335,-69.83285938859929,-60.56166570233294,-7.6069910566398695,-30.430128175220737,-18.13042255994167,-26.578615591508587,72.86173048562395
-4.922529440331227,-62.884093602625086,-51.133503526335424,-4.395671161930548,-26.042607641143753,-16.03609910288661,-25.561743967591624,73.7300979220815
-1.1906549627193759,-58.41849489116713,-44.52194129597709,-1.0783789686364886,-23.680878528549822,-13.96658811901612,-24.962546682978935,74.40649691705725
0.981618994386278,-57.631141687286345,-42.39580423593857,1.635001373879097,-24.2138990244525,-13.050390242540292,-25.145846779814303,74.73274816990856
1.2632382990853819,-60.32835086398642,-44.91169476281815,3.2861062974069957,-27.546998850844034,-13.766058115923853,-25.988903390580926,74.74344609473896
-0.04150777792913556,-65.29295414093157,-50.88043988924661,3.782225125409741,-32.79123085993801,-15.865489107555709,-27.051515665714017,74.61207179280284
-2.118240723979487,-70.89563255980906,-58.260960830118385,3.4077218017393625,-38.61844562261774,-18.576478657734956,-27.81519883079748,74.56090922976925
-3.9482892542144192,-75.52324982336499,-64.70877050603325,2.6874382509081722,-43.60994822158488,-20.97768695224608,-27.889368381967422,74.74004436724358
-4.712768959996595,-77.89761349092394,-68.19862497199567,2.1268775106866165,-46.60942989271417,-22.41618266130336,-27.15883406533317,75.09481794253735
-4.137685582748143,-77.5213502100365,-67.74767664366547,1.9637153092792459,-47.11810471394594,-22.796570314246452,-25.84367502589342,75.29188856606181
-2.592260066831504,-75.06335318060871,-63.913933469259305,2.0930601070754618,-45.55071040273605,-22.559106511728462,-24.395456855733265,74.79302670001383
-0.8506176242935332,-72.15435507798996,-58.57372962562273,2.2196281758778635,-43.05003143430287,-22.30097540225367,-23.20290393826962,73.09929234055538
0.3728188879944934,-70.45198537914581,-53.910985151825884,2.1301486038736677,-40.8272114781248,-22.259727454514536,-22.252073370312697,70.06787931471618
0.8465254403693873,-70.61250300637272,-51.237271440276736,1.9044616962590812,-39.44403305000995,-22.043191356307897,-21.009165399412375,66.11984295160187
0.9512513147258282,-72.01478194686095,-50.45303132646068,1.9360067370202594,-38.57412722763437,-20.848037143555366,-18.689657128628816,62.17209711285337
1.4422049237101506,-73.39955359686688,-50.421216996287455,2.7450996859845036,-37.39522327622251,-18.036340238122996,-14.79212082062893,59.23678874943825
2.9854770867166844,-73.77592655242782,-49.824744656680025,4.6694473211456256,-35.25836179702595,-13.657354953907904,-9.55543905637931,57.79188501419112
5.731410133945367,-72.88884423769161,-47.88657664126446,7.586435344514614,-32.14149482753566,-8.555393992779573,-4.034495402118603,57.1844388864779
9.164419741593381,-71.15051518969605,-44.657315070735194,10.844525088984518,-28.668761055700095,-4.02203235688507,0.2670301514902901,55.40916654175312
12.320921905411751,-69.38135072066191,-40.91428950597296,13.5039354757378,-25.79953843420986,-1.240691822240325,2.0211767872814868,49.522265547035566
14.258607547656148,-68.54822633011969,-37.779589322928466,14.794394893075143,-24.39186021305677,-0.8294853714295546,0.6636819129517347,36.67214498681346
14.499640561739323,-69.38864964336025,-36.16155876995465,14.507307448885262,-24.808501612499846,-2.6588723264842504,-3.321829041482106,15.363725164861448
13.178050478702943,-71.94054927515201,-36.278228423237785,13.040646393480765,-26.736446917047093,-5.968839998323087,-8.577760069575348,-13.648641396792103
10.825827940702489,-75.36815570845779,-37.626706760046346,11.062074323940404,-29.372664572724236,-9.71059299878222,-13.46522746418508,-47.33242210102734
7.994275436157946,-78.42015413296228,-39.487753389482826,9.058250355698066,-31.925047772259756,-12.959549929570535,-16.7951697136787,-81.28325256109348
5.011009177683931,-80.2623150477644,-41.54606990194624,7.121360057678496,-34.08091182393292,-15.198279798723489,-18.282892973975372,-111.15490129562413
2.028495889231028,-80.99163020297105,-44.0461585417776,5.1112093460798205,-36.05617089008561,-16.33264944880401,-18.452714578164773,-133.9535670269945
-0.7380695653880436,-81.44619448549544,-47.361086030433675,3.0241767656919305,-38.20043801953081,-16.490610359324876,-18.091780248983728,-148.65471911989138
-2.827968236101657,-82.60594180941402,-51.440989144345394,1.26332375862527,-40.54927155559127,-15.807565733755062,-17.659094726284742,-155.98239399964476
-3.5800085863492708,-85.0838345358949,-55.643058948261164,0.6066377239709543,-42.71278040267053,-14.364340175052705,-17.03256259214277,-157.60473817070414
-2.4001411873924274,-88.78276351690926,-58.93278218606947,1.8693075814771316,-44.08118828857144,-12.257989384938138,-15.677748515595958,-155.23768451538535
0.8734064495718299,-92.51141381856107,-60.104027831068365,5.3965159136478,-44.032369371543865,-9.670560523007579,-13.052451565560697,-150.1188106705912
5.652104959991977,-93.78171733672593,-57.95586416744877,10.590273340240351,-42.01255023259913,-6.882129425958619,-9.026902161079313,-143.04844415315193
10.466953870900849,-89.57013779086232,-51.821116609843216,15.720053797548827,-37.74222832431893,-4.316328056798265,-4.202912901070704,-134.82991714704625
13.176956696958705,-78.43150415558362,-42.65128168066435,18.25822342903859,-31.77891002587001,-2.678322629388699,-0.03953768826195517,-126.67606005781496
11.60903145646415,-62.946659139868714,-33.99958582934625,15.80501877869791,-26.13509161670303,-3.036474960765159,1.3808325177708651,-120.16269056212816
4.513001116436356,-50.413535936067284,-31.669610812741425,7.315740346216568,-24.196680644020187,-6.575947462941419,-1.9261267131295932,-116.62719606313304
-7.566056060989852,-50.325026294393744,-41.38855455855991,-5.979962478317065,-29.447956858811214,-13.94633446211611,-10.796510196453594,-116.34166091531361
-22.02368936928485,-69.35088489475976,-65.36421523464689,-20.587363948243325,-43.41454665189246,-24.52439858466907,-24.060101189849032,-118.0353767078236
-34.86692255515088,-106.61664433192195,-99.78361562930581,-31.89828939087315,-64.0468189617493,-36.146885161708255,-38.48677975052787,-119.20478233018616
-42.175052145864306,-152.40539841809826,-135.1607715315139,-36.06743192599618,-85.7722099605593,-45.68007887196364,-49.798816012037435,-117.1878214681615
-41.72630608130327,-191.62027604413942,-159.89637857485116,-31.717692681571407,-101.54578422164433,-50.27534331921492,-54.39205895396708,-110.47708171874042
-33.98535143651884,-210.49858012523768,-165.41623130043243,-20.577490072870905,-105.97386794836179,-48.66971188463594,-50.91993341194936,-99.53267141861576
-21.91542906408545,-202.97859579278705,-150.12454985900752,-6.682443635221662,-97.814208394053,-41.78619063399797,-40.88408305836418,-86.60009508561829
-9.682069420416846,-173.22522808397136,-119.9839416850507,5.448762049266728,-80.44850882269638,-32.27896014660867,-27.903957969907392,-74.61711852716469
-0.908924304005989,-133.12183811531958,-85.51599668174248,12.7001194196471,-60.13672109556235,-23.305340628418527,-16.089295040165364,-65.83995606631571
2.6360874522396465,-96.49441193498988,-57.08748422634127,14.360333884074038,-43.17149826252171,-17.243425517008966,-8.41758639232947,-60.9638286472852
1.340581402424322,-73.49470451714966,-41.13234515066651,11.86676068339036,-33.567515344511264,-15.020025755783937,-5.9167616386353785,-59.16098128433709
-2.938378780593092,-67.93469209703422,-39.010930492298215,7.655537611079423,-32.34383413254343,-16.246635751393427,-7.876300856643836,-58.86621811915315
-7.9858867859244445,-78.01147489983028,-48.270103119350125,3.9069938601917267,-38.249936309030105,-19.833114900575612,-12.671507405500195,-58.717963784842965
-12.089171192909093,-98.57832764970266,-64.58306348019457,1.8423049840310357,-48.857036265877404,-24.523597540826756,-18.517770803801646,-58.07921935520594
-14.306411016426832,-122.6931354669895,-82.7499066507567,1.7037987509052817,-61.01648100587003,-29.021448419000905,-23.738904161114483,-56.9577413223888
-14.298066154808108,-141.8697956736345,-96.6634311715537,3.08275099139457,-70.68775342802488,-31.849200664994964,-26.6912489517059,-55.58934816222704
-12.119022114212845,-146.53216094620328,-99.59342764552193,5.196102146380599,-73.09183586086428,-31.40110510575438,-25.83195611790715,-54.10637678812789
-8.207166009256726,-128.41213307941865,-86.01691336423796,7.0125068600793075,-64.04281309707653,-26.4787860125211,-20.227910693600478,-52.5119529132508
-3.4571111976762667,-84.62838756705248,-54.553605373622126,7.4183727751271995,-42.143613030887956,-17.080001041176473,-10.254030370056434,-50.851564593553064
0.8956092261227473,-20.849548935239262,-9.967196179180966,5.588515773503745,-10.385466064117614,-4.825015638583885,2.1319442400127047,-49.32017240973512
3.6888654100154565,49.34862917343046,37.72745808747416,1.4408305066904687,24.30009589208872,7.457357645362871,13.956323631690013,-48.16315344137205
4.348822238534523,109.5546139932234,77.17589612046822,-4.162177227749107,53.71821447169243,16.889058365407397,22.45641187944386,-47.46131656497997
3.158823961249826,147.5339657835366,100.58494650955102,-9.706076208956587,71.94220380936359,21.80590081236006,26.27870180417905,-47.006169276733814
1.076472876322931,160.15879875095953,106.77431446670003,-13.710198444476095,77.66870675391948,22.380932464451863,25.938370738716344,-46.387920470021164
-0.7953981577833265,153.47873378312767,100.699534607251,-15.404757154507111,74.10241068213416,20.27457121292987,23.30396998767919,-45.23415347409453
-1.7433139039074357,138.3292919289224,90.0643676213435,-14.989320843394733,66.67919198918761,17.60424266883919,20.49565578661955,-43.417629628422326
-1.6664743694464375,124.60563051347503,81.3757772544569,-13.35730325015214,60.22911603271682,15.917911597289974,18.908584695255833,-41.09029207790424
-0.9253494339965058,117.59786882573505,77.70665793608357,-11.532787691227744,57.23090248593679,15.736084395532199,18.870947431731437,-38.549941970293844
-0.012368952470414234,117.66844205915379,78.80281159766915,-10.2057018647959,57.72840769033332,16.735944596306027,19.924932590043962,-36.06652633951712
0.7047584312547899,122.13560835153957,82.55483803647775,-9.586249795742953,60.30817319302074,18.23322919698412,21.339847965361486,-33.787159744812534
1.0669611555068956,127.47872508958432,86.51557017310525,-9.523440524923817,63.204272597024556,19.587191909817246,22.496936749532562,-31.738154122488076
1.0963240446714144,130.8731824884658,88.87394044957279,-9.702310590667409,65.05036170021586,20.404530606742643,23.059896213371303,-29.866962638483574
0.940323009509151,131.04861877812544,88.95575167372041,-9.803846283841484,65.27959666317247,20.608697885492607,23.01637961274091,-28.079515708794062
0.7995170371376666,128.54541157403176,87.31255996377284,-9.620769436446524,64.21489756910174,20.41879919016113,22.631874869771156,-26.277145170157738
0.8270986920471252,125.17023324621526,85.26622442761074,-9.131365901230776,62.77007558468153,20.208281760128727,22.287998133977332,-24.40302190024684
1.0450319904945382,122.75749693252536,84.02690996540832,-8.487258146861606,61.835582077213665,20.27307426824911,22.25018181216789,-22.472280979161223
1.3510260940049639,122.04511213520591,83.97647135101629,-7.895288194608089,61.7472490017345,20.66393522472128,22.52611746964856,-20.551188377455393
1.6185632710819138,122.52844704439755,84.67127431156396,-7.472084064819134,62.23939910217736,21.219575870517073,22.931528091961628,-18.697476423946576
1.7952199753061786,123.24712743968273,85.44145409396313,-7.191551579265506,62.83717933868641,21.748032724228615,23.28159088265622,-16.919295401421284
1.910047976838028,123.58762947318436,85.91239616259486,-6.955151835354092,63.23920372845815,22.163306654948432,23.509979253073713,-15.190068224851505
2.00811954781488,123.39278498663562,86.01320353038557,-6.691429994136087,63.36246889192218,22.468373032706182,23.630685178030497,-13.491827987899004
2.104873604218566,122.6313594731725,85.7251897222273,-6.38373396106928,63.18560373608648,22.672291874196276,23.652763352284982,-11.831761916261454
2.2048701976199188,121.32643993793204,85.0607313495095,-6.033256344727965,62.72403165748141,22.783585782741678,23.58478222925479,-10.218862351901558
2.332840691724177,119.854961700833,84.29166172015718,-5.640446449434092,62.17725913736813,22.877437320283292,23.50533657284361,-8.64087394456795
2.5134485789753085,119.01337069750454,83.97435343578293,-5.236369740411648,61.95151997859145,23.10282414132293,23.560383644390427,-7.075857552420094
2.7210093871812777,119.44771375235115,84.53066358766984,-4.900232711994432,62.3732167838726,23.56497545283607,23.84033598064105,-5.520360124714477
2.8778586917073583,120.92458790687432,85.76427236988724,-4.702255914234038,63.332025774994406,24.195762392389486,24.263369009822114,-3.992474956231015
2.9247625926518914,122.2747033399477,86.87185404137132,-4.614780868016566,64.25235849637001,24.766888120921024,24.607594334714825,-2.5053655400670074
2.8903155839157035,122.16481009246823,86.98937123084977,-4.4973274043436655,64.46249366508106,25.047334373461574,24.66917297071338,-1.0508264193296384
2.8789737653551244,120.00421056922346,85.76550196612773,-4.191810540766123,63.632408944324894,24.957066488982083,24.393794103542817,0.380756271111487
2.990125422002009,116.30310455940064,83.54449675266993,-3.6459108727850187,61.96490971899149,24.605980223116504,23.892620925578047,1.7713899986060762
3.251879002334831,112.49786469014505,81.24114621261495,-2.9605764072011573,60.14806541899297,24.251678585213497,23.397985833022798,3.083583621954708
3.616652242950041,110.59350443896653,80.15266474511371,-2.3450837908615254,59.213162690566136,24.24751968122697,23.227252368735094,4.305919230979638
3.984793757559579,112.5675414038586,81.60613988254347,-2.034645255326957,60.23774010515874,24.94726386684136,23.703179132093812,5.484407159945494
4.2152856105894765,119.18055427419871,86.15159327020389,-2.1998026683654612,63.71141892527943,26.482076481700137,24.940461157442456,6.698370911961201
4.150880863349309,128.46100144065994,92.50373137687662,-2.8283731172595123,68.71848402539376,28.47101170834035,26.569569666596248,7.999183797673636
3.7102370434193417,135.11820457624535,97.12938343790299,-3.6018798360652977,72.58797209832485,29.918470870214055,27.653368223512267,9.363164588131013
3.0149061533950863,132.08290479411423,95.2888468965398,-3.8872127447417673,71.6307693287615,29.514275753131294,26.991379905644486,10.681078503098007
2.4199143371362832,113.84844948582769,83.26126862079178,-2.9626399329077473,62.82482817358628,26.24258042387535,23.69658479071542,11.76547376514146
2.349406371104341,79.58615453990164,60.37737213698076,-0.4235028190744383,45.45909679626624,19.909228500529945,17.6669918256111,12.36406959664119
3.007357171874391,33.83290431914243,29.45176975414458,3.49082146506009,21.624757980436407,11.216440866146154,9.626407264472881,12.207277661089192
4.177233419462212,-15.798855444358768,-4.664621977552948,7.921358762731223,-4.791609773726016,1.3485866574071474,0.7316159140778696,11.121029902280515
5.294348248766559,-62.273886443386004,-37.33589874068773,11.80820183412377,-29.907156268975307,-8.597457333749645,-7.941292049676385,9.176576012434898
5.7833123699118305,-101.53301696765794,-65.57414622386467,14.446990673066267,-51.18163409029405,-17.89171812253216,-15.650610667507468,6.782154360470857
5.446294069882395,-131.9878114904782,-87.71182559970254,15.798939390718276,-67.42121273702438,-25.95937733528881,-21.830749225956076,4.617293901881102
4.618917595833211,-151.8370554315158,-101.86343881467207,16.324323696799283,-77.67093177402822,-31.92482430930069,-25.74594149909303,3.3844952270010866
3.9476735986754163,-156.95068829443449,-104.90806025607753,16.453437097958926,-80.22349819437532,-34.45165855853397,-26.403598809231084,3.4688589748538274
3.9172090668358552,-141.86092651852465,-93.45297247976279,16.10077975263498,-72.95557826271282,-32.23841587278742,-22.993803964329093,4.690468316416895
4.467649897749974,-103.7926647757501,-66.50219138835749,14.626908137411633,-55.02782622542987,-24.9505415897611,-15.624986445995944,6.329718308907575
4.998716429282774,-46.77407713032319,-27.803477046992242,11.320878208501947,-28.63641200097702,-13.891463920955665,-5.757664143638259,7.463411301316575
4.770704204321105,17.707827097769275,14.281447318935008,6.06046011899302,0.7799245423258372,-1.8004763023845383,4.127419561915077,7.442177222816083
3.414468320745548,74.70410889387561,49.837957450012134,-0.35182398385806013,26.40392868617982,8.231884247671294,11.541468665114733,6.225756888506497
1.1907889185205842,112.2787805551534,71.69032773529018,-6.450367424686431,42.96350571879783,14.10843339970724,15.084622589513867,4.37358610168085
-1.1671844517637804,126.4927422340417,78.29571128588788,-10.809891528598863,48.90869782362046,15.52572887215193,14.956008914937286,2.7092983305317473
-2.896545221037129,121.99241839325578,73.57590160786376,-12.731854246728824,46.55794470481876,13.804165963608494,12.604991892696574,1.879032205724275
-3.615557759245557,108.33634808349723,64.11456403846908,-12.489414155161974,40.33595606801831,10.96488550980667,9.823594661198914,2.069022749351201
-3.4418388436619747,94.86065472378047,55.76430858506407,-11.032898467910641,34.42507138174393,8.704947540939623,7.898205858916106,3.0173921520451543
-2.7987168363921646,87.21287693331446,51.65941868622115,-9.418734235023907,31.251901487730365,7.847001955541204,7.278005199622459,4.251325200202339
-2.1131369860924374,86.75315952593935,52.1748533803883,-8.348032409298078,31.304106904727323,8.380543713214117,7.757639794903624,5.356535850726181
-1.6297417870248776,91.82778739189875,55.95804379728176,-8.026861480099024,33.766956982000444,9.805813376114559,8.839603057176038,6.121605663860811
-1.404657709752951,99.3227710883639,60.947074203950656,-8.288219565213542,37.23458142443047,11.454558469233376,9.986676788103507,6.534406169624294
-1.3875858173436817,105.82402271131437,65.03430790318723,-8.792743685243858,40.20954179158947,12.69458377989501,10.735531011203086,6.706375040551732
-1.4917264247464508,108.60234989186009,66.61557326101303,-9.195864320292024,41.51732196147314,13.092611031362866,10.784624225083022,6.7953546963305556
-1.6355835267696721,106.53549472086459,65.11595572838581,-9.273779528886752,40.69532233727605,12.560009342413062,10.08933024195691,6.943049166371379
-1.7778571040830602,100.56329490550038,61.21919990535577,-9.005422087918895,38.171800916215844,11.399127432002748,8.888569431792185,7.223938913226063
-1.9252370340611324,93.34545007080852,56.617449828541844,-8.561632875351776,35.096825870663544,10.197037083963599,7.62542540476756,7.62455060815077
-2.075699542502587,88.36915595733603,53.48555922582223,-8.180755539226181,32.95986939444027,9.628912385830718,6.825936807976203,8.073754982310087
-2.13231677833794,88.91978414572867,53.91900205755397,-8.010614753835098,33.18410800212699,10.249815234037582,6.982475642851918,8.501683803648621
-1.8973138347394694,96.85900158856968,59.19701858198092,-8.036545309721031,36.6381290762942,12.25784498193453,8.374298276303893,8.872426240952077
-1.205554437896451,110.99426280611745,68.66722989241921,-8.122793706309938,42.91989479164492,15.20243975193155,10.768513612324767,9.16897600085092
-0.10324917695261834,125.67788444281592,78.72567310869589,-8.078165551479774,49.68222804619211,17.79266368330345,13.161746684163314,9.374256502017024
1.1065860087377042,131.2782112924001,83.07774324261209,-7.666704718377473,52.76382185136736,18.1204912477219,13.901953028722238,9.50176510105135
2.0304429834184927,117.67786444915703,75.06590939110413,-6.6062405331069245,47.68511097621524,14.44983405172041,11.366585988338837,9.659689227062895
2.445789512718082,79.70319490181939,51.260615910273174,-4.663142202350634,32.040040985590174,6.25490868473387,4.912757970087536,10.064285971386443
2.4450299187087454,21.22677455147561,14.090343667526398,-1.8568891514731036,7.327192940777891,-5.165424928335758,-4.526750423616055,10.941635493542973
2.341091896399082,-45.17783307688637,-28.501130180941363,1.3707068252354127,-21.17057082820736,-17.023555309441093,-14.686540612529317,12.36023415848385
2.405136143103377,-103.44612055675107,-66.49258967346263,4.210719173708879,-46.62776736147251,-26.251102009908223,-22.97958089112456,14.120039393061345
2.6385389631933576,-141.24201404817487,-92.31593785093985,5.820762051551097,-63.75935361760061,-30.898221729486572,-27.671144924577295,15.804067353253586
2.7537357935572553,-154.97117243849374,-103.75813651634778,5.775299712989568,-70.90514663238571,-30.90504862178996,-28.513248420789928,16.985618282577814
2.372755031637674,-149.90650350900364,-103.7226176436442,4.3405948724350685,-70.01099717152643,-27.8485633973106,-26.537038992572814,17.464071869001238
1.2806922826931044,-135.99578132877917,-97.52417634449247,2.3574271263393856,-64.85177570881125,-23.928809446968234,-23.274249081067342,17.372210551354613
-0.45642738331675914,-122.47543615328246,-89.86837176514322,0.7755856900853632,-58.895453483947804,-20.872426593698364,-19.9817816284181,17.09012687592791
-2.5621512306901244,-114.4850117221826,-83.36821210768501,0.14328307785607114,-54.11189589508331,-19.336517937113236,-17.28319205791333,17.04139776341215
-4.702522916431596,-112.77713806404975,-78.85626700784267,0.3862026310614314,-51.02810285759364,-18.95906268220358,-15.239055401872223,17.51118106500777
-6.593514264888096,-115.39543793250145,-76.40641973687372,0.975787792589631,-49.40882845711145,-18.83085504056995,-13.609044263177077,18.562054464449655
-8.041193586345253,-119.58994407374666,-75.95517902712753,1.2975664772614528,-48.833005695391726,-18.091897939080816,-12.124419995465688,20.01577034885089
-8.976036196765177,-123.10945102131136,-77.3225899721288,0.9405566459456927,-48.95055108914922,-16.459154522224466,-10.744730300798905,21.44316112289928
-9.50588579811325,-124.90675702762178,-80.09770946786969,-0.22708225594257644,-49.60305625884396,-14.534101085945517,-9.870416920037735,22.179822770710807
-9.925028971028214,-125.35107587085454,-83.71116041578289,-2.137607380806445,-50.90885094793008,-13.701029328660102,-10.352113120093346,21.454436191342023
-10.610337053253494,-125.78087655556412,-87.57349022520553,-4.629843596430915,-53.177446134758185,-15.514515134008741,-13.13507738378288,18.674924444146964
-11.8291445628186,-127.47502673192855,-91.10103538502614,-7.503285667861351,-56.582014389105204,-20.7852065723277,-18.628332170235957,13.784267499639563
-13.56999978740095,-130.70873169435404,-93.73469290412811,-10.506371627780181,-60.818889656412935,-28.88542591969995,-26.18399624928474,7.492325381715252
-15.49484549254168,-134.6122874230737,-95.12486309311095,-13.27799494705315,-65.07559206733924,-37.769377181316784,-34.09029625267219,1.2088447847765083
-17.030038306658295,-137.81187424111513,-95.34673372681077,-15.295774100323232,-68.34229757586984,-44.77432606983789,-40.1604504489234,-3.3616200518623556
-17.556371515828342,-139.14037393076111,-94.81105706173898,-15.925088976108396,-69.78715734618945,-47.76617074869954,-42.61415612370853,-4.833433428275429
-16.649433609969076,-137.88627068478198,-93.84003319909368,-14.63722365371813,-68.95661649527985,-46.011157205897426,-40.80493092542873,-2.714939092133609
-14.3047179277451,-133.77758913245964,-92.3427086924981,-11.330928797566886,-65.84458329509135,-40.379366462717115,-35.48218588838544,2.3212189289052096
-11.03603225941853,-127.14922072356264,-89.99036412949836,-6.547596904488472,-60.96891776840331,-32.87314384576775,-28.508558265639248,8.63699091521945
-7.736891128065498,-119.20716620519131,-86.71825125760314,-1.3806342214622962,-55.38059154996852,-25.75882419030243,-22.142046568695402,14.25384586803302
-5.311736637241683,-111.81570939386873,-82.96888076798693,2.9237853058009913,-50.376971266591724,-20.688103899164336,-18.144502358336652,17.63361163827332
-4.252952806571952,-106.59857263325952,-79.38364060192514,5.459841271053129,-46.91681982214283,-18.17124284854173,-17.094905627841428,18.242244774669583
-4.407351430378515,-103.9881934214403,-76.29400038651366,5.983677429966361,-45.12354395476307,-17.62025750168535,-18.25800136536122,16.634256332748787
-5.069792415808224,-103.08317742186051,-73.56753981194558,4.927736513352917,-44.30889318965817,-17.911132156841195,-20.09701011082788,14.056698094058195
-5.34846765770123,-102.42353582356435,-70.91241432423935,3.1421485195865255,-43.52468533518479,-18.12356008403071,-21.142620091192395,11.809830125971349
-4.609397179574166,-100.93555790160234,-68.23954059881609,1.496051070307197,-42.19811351395042,-18.012948565400112,-20.71920538751159,10.681986993672973
-2.7891836296996257,-98.30841744701941,-65.7226132925985,0.5041340483145054,-40.39901156782629,-17.966427425513043,-19.153204217851624,10.69516561944467
-0.4330519429964192,-94.79911774216522,-63.623281261935716,0.1453832325936293,-38.66602880104642,-18.551917815340193,-17.431837047716517,11.238086562235535
1.573597266993351,-90.93948929488224,-62.1486393686243,-0.017113397283787433,-37.626030029505756,-20.00214472822473,-16.570641050960518,11.498672949884323
2.473363448231477,-87.36153575174826,-61.38751278570725,-0.4627413697839618,-37.62653930075557,-21.937604543826225,-17.028956847906976,10.97800381373346
2.0696139658014983,-84.54829011293052,-61.17496599417103,-1.3172804069319428,-38.47045768611331,-23.4371027806027,-18.43429607508626,9.816818653645468
0.8622973333037767,-82.45891204481676,-60.929619234715055,-2.2131424859051916,-39.360434061728014,-23.404596999434602,-19.7448606408515,8.743991015916688
-0.22649479126815816,-80.43459828733,-59.797176721217234,-2.5154459721842217,-39.22242410060663,-21.101089933440637,-19.809163537298737,8.65893020008174
-0.3882380493429802,-77.74179774048955,-57.26276843330768,-1.7560397696849264,-37.389296583796074,-16.632019630919377,-18.064154468686205,10.082083748207424
0.608208857248369,-74.3997304791745,-53.81559219286602,0.023698861460230976,-34.23095887566511,-11.114003517515,-14.963174575425445,12.798392089823558
2.304328160896462,-71.44200556760755,-50.97555058843115,2.228507168791699,-31.176534420921893,-6.333785493233814,-11.8274604120503,15.902088884981774
3.8202845699974373,-70.2306169075027,-50.482442672435276,3.9538423932295195,-29.983559222008964,-4.006823514907683,-10.178003270352162,18.2059851541344
4.2985945596135915,-71.41814474109397,-53.23252195502551,4.361141663973269,-31.733836795037867,-5.031674921454175,-10.956589727357034,18.779842219307326
3.2732068584794396,-74.48562379078948,-58.75180009466854,3.019381669793724,-36.23802835569918,-9.141240509832873,-14.083426746265308,17.350827678041163
0.8319462505517985,-78.10693467455897,-65.43541739482608,0.1049163344285133,-42.13380906174248,-15.06871819552877,-18.5241979780064,14.40693123115354
-2.434741336155866,-80.79801837289907,-71.17269328984469,-3.6162071777464915,-47.45020284215563,-21.0574216167057,-22.740555480080808,10.983218995715694
-5.657267773537861,-81.33849068973583,-73.97559201769604,-7.061693850221719,-50.29497983693378,-25.47026961990999,-25.29829122062594,8.220359847187787
-8.015657802145073,-79.0567604859146,-72.60024408403197,-9.286034647668801,-49.51982666953774,-27.323648068111144,-25.440263081608233,6.872537660277123
-9.04847928608736,-74.24813095211454,-67.19159804642383,-9.890126049065694,-45.273786062432556,-26.59846980008134,-23.428247420705627,6.993915829051581
-8.78550181372432,-68.46684415191582,-59.5816408066199,-9.142388771907049,-39.158822853921826,-24.172433735153067,-20.44497653298419,7.9795358889535715
-7.636606244759616,-64.05978137707544,-52.713969546277106,-7.746732577105373,-33.66518722525611,-21.334969039142347,-18.002995825985906,8.94784568093257
-6.1426946398904,-62.8608787408802,-49.24132603356465,-6.4422272169909345,-30.998674161418048,-19.117096973668648,-17.140720467443774,9.23110932430882
-4.787045222204172,-64.94109702497656,-50.15329291184016,-5.713818399101346,-31.980278528947267,-17.8577397166843,-17.914830365437112,8.66339798452105
-3.973723016149077,-68.49854404038417,-54.40321472656114,-5.758551849821724,-35.756499945117405,-17.289734604316394,-19.537973147580026,7.503403713947271
-4.09657810889703,-71.03942127524896,-59.727996595920274,-6.6331986894027155,-40.46489420401349,-17.029916957486062,-21.04076478408345,6.092080500492962
-5.537632762374231,-70.94635398151233,-63.99380436578394,-8.39889900739111,-44.32521461224287,-17.052928347135516,-21.96216760912428,4.520458676260954
-8.518045916775373,-68.42274195328012,-66.24076856290343,-11.124179113424072,-46.47668603502828,-17.786059359305337,-22.603438206686306,2.5543953361928824
-12.869216864694252,-65.4773627235887,-67.02003581111053,-14.722690763915539,-47.222470783627465,-19.784914874092387,-23.729400992734988,-0.12217568213778664
-17.85834190317554,-65.08875814933405,-67.956273212121,-18.70779273000381,-47.67926927860819,-23.219243568484558,-25.932545349160264,-3.4912996630955386
-22.17618105700367,-69.620434811229,-70.53526882295743,-22.028086750993076,-48.92566982081041,-27.44203732578849,-28.991955883631373,-6.877624743201415
-24.147155730392218,-78.6626200825644,-74.37288233131856,-23.179404714858514,-50.859203749875554,-30.833669445034467,-31.528711089083053,-8.964662815084768
-22.17775785359164,-87.28760547973913,-75.89291585230569,-20.693948809297982,-51.32818137658485,-31.056097485635217,-31.196131080567504,-8.239045398889898
-15.367233756569115,-86.43842704388754,-68.75546743521714,-13.866561448178913,-46.35959560087177,-25.783938857050714,-25.500077250194906,-3.705718999463204
-4.054446762190202,-66.46015091838298,-46.63463503419416,-3.3329765228182056,-31.883695791746128,-13.763185421961653,-13.028113746795668,4.487687812715051
10.019082191627762,-22.541093778833655,-7.195263852063156,8.911267642376373,-6.277890181052512,4.270486575617116,5.5026171921120755,14.894468095017572
24.14309516367617,41.18764325926191,45.23562661324144,20.182521929886715,27.84258529993679,25.41421763764683,27.06131540299502,25.232566946103983
35.574285158837796,111.95748735710293,100.40966081442582,28.180071891118047,63.978879899440585,45.46682352513974,47.276197778842665,33.27283644663353
42.556518005794175,173.5290665711243,146.33136323353682,31.894995613633917,94.34998220534702,60.54020383134549,62.1734613029789,37.70488074137369
44.9085339164073,213.47434270777217,174.59564322901872,31.873121403861337,113.3493869109821,68.60364077154776,69.78182903222684,38.54378952962594
43.88195756302856,228.36372896611547,183.79564129815603,29.73215476639949,119.85576529997456,70.13176368210439,70.7407292262603,36.90843357756735
41.4080849450362,224.0047714013763,179.16145041845073,27.27055972294018,117.12754508840263,67.54256855634966,67.63907340699612,34.35575664238992
39.18943096537677,211.11699711615506,169.03283919815632,25.700569985984064,110.57768497600581,63.831556982788435,63.56587713037648,32.17089838753649
38.11978420588348,199.58949722676869,160.62767055399928,25.36824293886266,104.99276824259664,61.23658839445591,60.75647244062693,30.96482738159833
38.23460249553917,194.7560354028578,157.53186301409613,25.951984437841958,102.81999515369377,60.61320749073372,60.005419555462844,30.68455258036663
39.043162354418925,197.01740040645356,159.67621708242868,26.864386573700028,104.09272355162865,61.6287885190541,60.910087508733874,30.894479116200113
39.940092246648874,203.70815447566127,164.85555982188026,27.58754236594448,107.40882266553639,63.38407577358224,62.52064578290488,31.10267674223824
40.48704360844278,211.31656961948545,170.40319053303747,27.844607515376673,111.03401661892025,64.99413475754835,63.928589471115004,30.981877896962242
40.526135956137516,217.03075811436312,174.31714718965236,27.636795802566432,113.64250162652989,65.91669803990196,64.59580828131456,30.45041203229157
40.166489725769765,219.58235235595305,175.8299829024864,27.180358624512905,114.69278941430296,66.05403794045753,64.45277372861308,29.63774521654557
39.67539793437889,219.47796229730733,175.48326139008282,26.76009952375603,114.496425948867,65.68995726112544,63.82031653937372,28.771695907746718
39.311008445482415,218.4524333394976,174.62652470176704,26.559753837767374,113.92033621833369,65.2819288396915,63.178632046925166,28.040552974474522
39.18178666581595,218.26289550744642,174.5039848680163,26.577595826551942,113.79877865773082,65.181864214375,62.87537973919691,27.502650249631014
39.22489140202952,219.6114050774652,175.53015680280092,26.685235464904206,114.43445788247449,65.45589288703012,62.95535207503441,27.09293528196427
39.306273854268916,222.03123740616522,177.29771852926078,26.761696842383216,115.57078207464637,65.9313990226981,63.228686234611764,26.704809195880813
39.33925849773001,224.6780102702483,179.18671469317272,26.773505380478344,116.78625322933077,66.40241602721365,63.486372494994136,26.270128530411128
39.317754781383215,227.1047203436922,180.89244036902974,26.748525941387243,117.86560430073254,66.78507728735637,63.648163269676864,25.779645057232763
39.26578383307056,229.3033886157718,182.4158884148047,26.71061561829507,118.8150393512918,67.10141177106723,63.73638550674378,25.255012165692797
39.18841075153602,231.26854822111224,183.75332781919633,26.660721964579665,119.65159771515386,67.37393915355872,63.77295841008365,24.721331176701945
39.07790217089766,232.828895623771,184.80126557662638,26.60293526691785,120.31868491329419,67.58544229107972,63.74851610632336,24.20183527157685
38.94168971249677,233.95109890739786,185.5692759549707,26.55147271596998,120.81798172012542,67.7311879701792,63.67399088846183,23.71420167941926
38.797797015557585,234.97847550531478,186.31096099043594,26.499203871573684,121.30644729423902,67.85648291640847,63.60383704147009,23.25216796275334
38.64729521176333,236.36179147724027,187.31076777451108,26.405017273864487,121.96324598818231,68.0111767038937,63.57832094747166,22.77469898984894
38.478910761603125,238.19394143077656,188.58699440396316,26.244916007215625,122.78481571870229,68.19193616551513,63.57069762223596,22.233785518900582
38.314623116774285,240.17720397417747,189.9237468060584,26.077861841012343,123.59910412590243,68.37115058715138,63.53329729372589,21.628283654532947
38.230369830511066,242.06565471056126,191.19537954890447,26.032515464143653,124.30015002241794,68.5810966124141,63.49393342779233,21.029129644857772
38.296207225683865,243.95547620469503,192.5247200946187,26.198889307231138,124.99072405907594,68.91996059585527,63.56178533485415,20.539786909245233
38.477855642367075,245.99989566635594,194.03079068211753,26.5209735743592,125.82897518855722,69.43132909098088,63.80251322503398,20.218309453356373
38.606375982531446,247.95068925734043,195.5027238374204,26.795739532058533,126.77299224220924,69.98354183385543,64.11570437354986,20.022637031123196
38.468455955608135,249.23688562740105,196.4887896752168,26.783374944631483,127.56793130094026,70.30908497249285,64.26693624654257,19.815020809109324
37.95661778074603,249.62122075629608,196.7799108497389,26.346862163842836,128.01483097422775,70.20149062399018,64.06177897650717,19.41627805835491
37.172047069877515,249.68905409703206,196.75169478944764,25.55020247278363,128.20287315648113,69.70237494036508,63.504412596581496,18.687566946867403
36.423197427641156,250.55337159951804,197.17057693966237,24.695970223670713,128.44325438300206,69.13079807781259,62.82283260084975,17.62653739319812
36.12526905795025,253.02077421542367,198.65662543780056,24.27934927698338,129.0117073869884,68.95456209145843,62.38094431241319,16.44847463174637
36.614403778255905,256.9402075559197,201.26040904881773,24.800586788639066,129.97719533034257,69.58170522892657,62.541516424336905,15.581423464063503
37.894641336487325,261.0282465160137,204.28922903867996,26.42763224978768,131.162461792048,71.10719703209453,63.47226672855807,15.504893607430816
39.408319840677954,262.87181229269095,206.17559350552932,28.66186697110775,132.02917729182911,73.03457000214712,64.8747455277339,16.454092215180907
40.01475006151143,258.95101719729195,204.37205044607848,30.280517314704028,131.42555902743428,74.1087833432233,65.75918552432069,18.143003101678634
38.33038647110093,245.15622150091298,195.70052918620186,29.731874696439323,127.52258344413434,72.50494688897655,64.52644548850202,19.70861871983749
33.365232868544446,218.3293920114491,177.53009077844646,25.85977496547876,118.34446234947667,66.49028036056146,59.51385928889428,19.976762390489863
25.129383075601076,178.4511470769988,149.43479892877667,18.560237832892728,102.8491542813595,55.32273629753696,49.824325304585194,17.955139727936587
14.815516769870737,130.0938959408893,114.28947495346144,8.958907459485161,81.93997161614045,39.86875670592885,35.97464600640705,13.30761327308777
4.38309792036794,81.75992759912793,77.83509835534782,-1.0261587596485702,58.64289261073246,22.500819389341125,19.935294141952877,6.5594269281296835
-4.262364093686729,42.87469751920082,46.601500544681066,-9.496107605222678,37.115411324623224,6.251150426027018,4.476235409570166,-1.0734415092079996
-10.044481183816863,19.74759716577395,25.12375205812854,-15.302880809541039,20.87803565274024,-6.346209992840516,-7.861453438597053,-8.140974739336782
-13.02726536776618,12.730990042668182,13.961322984137139,-18.334677345804373,11.225470752649846,-14.110898686943504,-15.640525354266273,-13.479477953977058
-14.141210133441085,16.358840568822146,9.70374749283669,-19.29480774762326,6.777046816824356,-17.35953278087818,-18.830448708957565,-16.565477959883715
-14.552800899778061,22.48657935514826,7.011229554475529,-19.19547078363822,4.470109311209011,-17.367113568529376,-18.46634972182634,-17.570178602194517
-15.066627885498217,24.559621128946567,1.5283374667658607,-18.862946112605165,1.4068877178839452,-15.54283102917422,-15.938475947110495,-17.122432215061167
-15.844698408390007,20.6031112075899,-7.890835853294466,-18.64505895601953,-3.4992121209787426,-12.776841529702029,-12.311552103750008,-15.916702792903436
-16.498884982921677,13.646130911637043,-18.62930630901742,-18.38404149570045,-8.898097186406114,-9.209479852331325,-7.964509454349889,-14.375973984350647
-16.451297233659773,9.832613993437151,-25.53375425270048,-17.651011465605805,-11.640393925911896,-4.44177398652633,-2.666960112453276,-12.559524543892103
-15.408561576657872,15.163183881881816,-23.492864666138303,-16.168352626861157,-8.458114588081697,1.9066199819415113,3.919569955483425,-10.372951801692814
-13.76757198270152,31.80453012308223,-10.611013561267152,-14.214394630145899,1.852669696419665,9.466747144496374,11.479481314393372,-7.93745181821028
-12.724304481292362,55.17719039412147,9.302530670357399,-12.712499757539046,16.673200195682885,16.560128018797982,18.418877170958204,-5.832918988713322
-13.905011318641122,73.62989928047571,26.614085975499947,-12.831654323793037,29.41211054107359,20.283097588839258,21.916509249459235,-4.97871861962605
-18.584099216764546,72.14678883846766,29.148168753940137,-15.270116951755266,31.69486594879602,17.509166238126348,18.93543555398321,-6.165624876886987
-26.881559628134813,39.36240299399551,7.929813669158955,-19.693978647125927,17.28151703546,6.492218838199078,7.837668136327709,-9.53139025149551
-37.45759688071977,-25.604209570659535,-37.60626323310509,-24.762562988719758,-14.31357525128817,-11.827036885871907,-10.336508673755795,-14.351980989105071
-47.9717136659727,-110.84955828722323,-98.22910396544353,-28.77922180315016,-56.776696055377805,-33.731773421466144,-31.838471351315633,-19.320339721238973
-56.09583156235039,-195.9801048886318,-158.57491143097664,-30.564931587977746,-99.43291298077153,-54.10077623671406,-51.62600787632949,-23.15463675529488
-60.515344384587564,-260.9958425520258,-203.99289479856034,-30.007002605368683,-131.95136909404172,-68.55996196969737,-65.4977263382953,-25.167737112161532
-61.37020678544718,-294.8285263499658,-226.75597618935504,-27.97729490749434,-148.71008020322014,-75.22887597426669,-71.76236162386783,-25.479338062968623
-59.95176990427187,-298.88361458825347,-228.3365099207453,-25.74169920666053,-150.4997897963877,-75.14546279753938,-71.57190102036539,-24.801340626979396
-57.91919554587871,-284.1804344468208,-217.00080854655704,-24.28282612387984,-142.9655758609191,-71.28453961043535,-67.89196377813964,-23.986614901005233
-56.532198277311736,-264.57574535234517,-202.75913093125436,-23.93696078243676,-133.12497614503863,-66.89700156703421,-63.86420276311512,-23.63022715727558
-56.28444308396889,-250.4025758506919,-192.84441061243086,-24.461196764460173,-126.15828938537904,-64.15276170967516,-61.52106010867956,-23.911751742858684
-56.99471383787931,-245.62889444679806,-189.8324163964542,-25.3501956636409,-124.00126216854265,-63.67316093656777,-61.38589528474823,-24.675944729768048
-58.144194500010414,-248.74591386725,-192.4107757917356,-26.139196198199,-125.81911247089718,-64.88068333495548,-62.8477846949516,-25.621696149217254
-59.20891411750784,-255.50468803195986,-197.39882483777774,-26.559706820542868,-129.4117715853538,-66.69324526019098,-64.84042022403872,-26.47246220122357
-59.86460383965636,-261.55662954969563,-201.65502492891545,-26.56931216474055,-132.56926510688683,-68.13392044464499,-66.42424916506103,-27.075962416536193
-60.058927076613934,-264.1615264727513,-203.2943607231307,-26.312798958205082,-133.93902916040403,-68.68471703003708,-67.12095058747627,-27.433167108617905
-59.9711381591567,-262.8936227073164,-202.14936107029382,-26.028724339763297,-133.3574760132476,-68.37964532224744,-66.99464341965283,-27.663679709685937
-59.877151240109896,-259.3302097732922,-199.46321018719152,-25.914684690243018,-131.65428480863514,-67.66008280511497,-66.49664952080799,-27.920904600071914
-59.98007804776218,-255.8118330297424,-196.9336132437306,-26.021133768808415,-130.0084439867884,-67.05711881369498,-66.14362088474095,-28.30014224857239
-60.31066349524653,-253.93607442283835,-195.64168956758124,-26.254971870304686,-129.2033811747227,-66.874518982373,-66.21175867526537,-28.798695106438235
-60.76109125593471,-253.81521573283092,-195.59214110954446,-26.485262821875686,-129.27838444266737,-67.0777581263751,-66.64714509648698,-29.349658704715065
-61.202491150853824,-254.54640733618746,-196.10879501398978,-26.64564768136545,-129.7735325450056,-67.43703219898676,-67.22066067218375,-29.887852812782246
-61.57151073296733,-255.24470872870583,-196.56806129277444,-26.744247933814318,-130.2403039816429,-67.75474579305062,-67.7470076028622,-30.386588677629902
-61.86868766849096,-255.5982189011348,-196.75610236881033,-26.805377243728326,-130.51664036898688,-67.96878650337747,-68.17119929370433,-30.848607496050118
-62.116060178846915,-255.64865683033747,-196.7016894108119,-26.83583782376861,-130.62774090140047,-68.0986843127012,-68.51003696799567,-31.28581962194094
-62.344338213671215,-255.40913823161304,-196.43113007319832,-26.851186411257714,-130.60258920671708,-68.16979714199368,-68.78680987011882,-31.71869570570709
-62.60674224940835,-254.89476554645807,-196.00241178327732,-26.901479247690876,-130.47532859838046,-68.21592407293286,-69.0426722225001,-32.18191375672944
-62.96150958004071,-254.35930654613858,-195.63482650506617,-27.036027083662614,-130.37618259728478,-68.30547027455515,-69.3565331740742,-32.70592192931592
-63.410336599381175,-254.17496482357328,-195.571321884407,-27.240140288217304,-130.45964369155732,-68.49409006696138,-69.78459849083623,-33.28051457110193
-63.86155876886629,-254.36389858402123,-195.746978401771,-27.42982620270437,-130.68965150985437,-68.7354061487009,-70.26888808804117,-33.844396290935094
-64.18326279448115,-254.43453850745806,-195.73600781753018,-27.52435298040491,-130.7913559085268,-68.88527198891231,-70.65280735746299,-34.32625999484311
-64.31417985495558,-253.8984930889158,-195.18071721674917,-27.5182474068141,-130.52935086966554,-68.84381502994431,-70.83260177323591,-34.70581631201049
-64.3295994692855,-252.94010189052005,-194.27126758075744,-27.476408808439594,-130.0400176353949,-68.69634195957676,-70.89484229222859,-35.038689230478454
-64.40422720025218,-252.40417569647866,-193.69789143146235,-27.473787522139713,-129.81167780338407,-68.6848193541181,-71.0808251261186,-35.426545598081084
-64.71338586039825,-253.03135309104903,-194.07475306186106,-27.55936725754264,-130.28220548612978,-69.01929749820023,-71.60237754151674,-35.96321689474169
-65.34572760018463,-254.74737779844958,-195.41573308503436,-27.766734023510235,-131.4483706929736,-69.70611655359376,-72.48251457483977,-36.69043946805286
-66.24836320901868,-256.69329620539565,-197.113864084678,-28.110533560612915,-132.83353661296005,-70.52882631897826,-73.53589603300068,-37.56591266393759
-67.19209067711648,-257.79695462439855,-198.2819369659183,-28.52920716596814,-133.7509339227374,-71.149000109013,-74.44578123063434,-38.441626954035186
-67.79210535947608,-257.244102457255,-198.0757235316854,-28.840358474448884,-133.58891749147264,-71.22969462041866,-74.85873590609123,-39.08508705842276
-67.66400630377612,-254.70122609027536,-195.97453682246507,-28.813483737369424,-132.04743490225437,-70.57516711932732,-74.52082730235713,-39.28786524735388
-66.71616143976003,-250.67610316493818,-192.2602373416373,-28.356604481359568,-129.4527048215734,-69.32977072766863,-73.50708236979858,-39.04187062960193
-65.40725540360258,-247.02107600193176,-188.54242429454868,-27.671219407737293,-127.05466711812619,-68.14415921937054,-72.43166545302026,-38.667221559648766
-64.71379787348883,-246.74731141910732,-187.5824514786086,-27.222216505666335,-126.82886028414647,-68.0569340204244,-72.35985788011129,-38.752691345538175
-65.68659875496533,-252.3894297717455,-191.8467459447776,-27.50841557320064,-130.4173980097825,-69.93746077557887,-74.25550301103834,-39.86847722287611
-68.74839643157843,-263.5029516810695,-201.31729924983318,-28.75596463380424,-137.59145853276513,-73.70520751486735,-78.17702602647726,-42.16404630759052
-73.09013172882284,-275.145773586482,-212.0590187599236,-30.678125122583438,-145.30319567628223,-77.84705703278678,-82.73773699105536,-45.06024368565215
-76.53180346516352,-278.8787022949552,-216.82492020068645,-32.39879197209967,-148.24607474264494,-79.67197178756022,-85.27112489370897,-47.23333801735014
-76.04763920095586,-266.08362982508436,-207.7112441141478,-32.61690892630324,-140.9064663428323,-76.31469122100869,-82.74861433700525,-46.98765661782341
-68.88642565583571,-231.852482237459,-179.65166500177207,-30.063113569589675,-120.14717417334843,-66.05963269388839,-73.0903784022659,-42.950750435093596
-53.89786843224633,-177.51632925076797,-133.1497950924754,-24.155951357158553,-87.05921377190586,-49.36591702467605,-56.30172421089453,-34.82761908383084
-32.419290196929765,-110.75901231052353,-74.99505349046285,-15.529648797841023,-47.156784035826995,-29.06403555212028,-34.878279062072345,-23.80824426061013
-8.115804405964758,-43.30438234051568,-16.428925343973148,-6.015871341595752,-8.674913606437828,-9.5066012772831,-13.152089099916738,-12.291565824717368
14.346620189021676,12.9669632644204,30.75280736622325,2.0775772272597934,20.43669749268895,5.060938694994144,4.279090911398687,-2.9382950016084926
31.19922215385848,49.95207493105746,58.56827077761866,7.057648288172018,35.50402103014987,12.17301710560146,14.35097017548012,2.4871736734281575
41.026730430396576,65.67898901256642,65.61725620286023,8.652259451245884,36.65508511686104,12.010798844752035,16.64959151659455,3.830623305448145
45.02010881105951,64.18843707262107,56.91690883544316,8.029983150809308,28.179240269575196,7.041245676683775,13.295287629172408,2.421034200329816
46.01244856309708,53.24693568042935,41.06117970898843,7.062435227563535,16.214647844246166,0.7137172607374236,7.762110432595947,0.2455247448436315
46.97550412934119,41.08141419612715,26.33804918887806,7.3534435160345994,6.09538205257159,-4.015170176484267,3.3553494541290565,-1.0190638009769253
49.83227434588972,33.558976821573786,17.793599832177733,9.63932667280061,0.674582469945873,-5.591679671071242,2.1144075544539644,-0.5696177811304806
55.07068185512654,32.88720055722745,16.465760739996572,13.798717266317185,0.20088811846667975,-3.9291986459191643,4.5078427302172255,1.5414208790577413
62.06429774397219,38.10603175009587,20.633640038056633,19.23139403589783,3.373667713930619,0.12223191629370037,9.776789422377519,4.769375707821263
69.64541166420746,46.67119345309924,27.794703087858814,25.17960538076821,8.611070514609734,5.385614411515297,16.502119908452016,8.409832510715331
76.5365404689427,55.928727415863946,35.95135257478878,30.790377242863713,14.688308326334697,10.675148318017731,23.05729849124117,11.71576954513899
81.57619406880079,63.73083194540833,43.71723296491852,35.08578167064781,20.620730931911204,14.848925723860068,27.91671263833958,13.914084599470792
83.9209411102546,68.44468929136687,49.893426026527486,37.13707847346397,25.36889685393921,16.908875957258125,29.995429227898942,14.351955804258603
83.34382613303343,69.10642575862236,53.45898063883926,36.5054807828136,27.99600639154086,16.361038537404475,29.083529440482533,12.835228161291965
80.48718324038785,65.94918689333697,54.16774162735552,33.6637110781931,28.27918384796833,13.653606739879704,26.13075124710507,9.942221775022919
76.78208387479582,60.685822008171876,53.03980564573985,30.00534764456999,27.134790950509437,10.233917077963664,23.009403921686584,6.987736371033414
73.90752527018401,55.86640982210041,51.99857875599856,27.298618509162914,26.264666328045074,7.947624759584039,21.665950046463358,5.500746412498433
73.00470464809678,53.50994968367316,52.74558491499851,26.835343093110986,27.13576743500297,8.033565121965564,23.067755774328813,6.429420232911217
74.08887225089019,54.01893110603261,55.732714510543246,28.756113974534546,30.04467585534099,10.370798126725534,26.610206543075737,9.53182079373701
76.03370639150702,56.19728013938334,59.99791317503386,31.960438573432622,33.96855544276009,13.536896794307477,30.416671752330643,13.371316282529536
77.19560208054708,58.24729343719028,63.88117776319236,34.70601785913486,37.27385720191172,15.708699422969733,32.412367325733584,16.02506921984198
76.38293303421308,58.93571657147619,66.03867203721661,35.623960766691376,38.760752661794506,15.88012270915466,31.58081708964515,16.194646412399102
73.64175208763628,58.238302844158675,66.15780978478004,34.59731730148994,38.3969308450756,14.653030031115469,28.694544335947935,14.106132331788926
70.35834633216383,57.293100901946374,65.09438164035045,32.94003274276288,37.36490882514145,14.077319384810085,26.069892732271377,11.60552515877922
68.51635605528045,57.80272064892659,64.42030796714556,32.6649077349496,37.4203091921641,16.537198360037305,26.38805355772741,11.257554818248229
69.46602904400437,61.09353411373827,65.56746175255881,35.2076772318302,39.884799001041266,23.246279859905247,31.14727401305567,14.865981502012248
72.94867514089967,67.20261482231814,69.00504789870811,40.40077635927133,44.83067901388711,33.227965671729166,39.608507864931454,22.270559948186857
77.04266917201157,74.5819538276158,74.0157077257505,46.39592921948983,50.998387730019076,43.47593982785168,48.92112657637248,31.192316376976517
79.12417862289092,80.80837078916967,79.2953155374067,50.61581208707228,56.56137398870291,50.314382414645294,55.44876387783691,38.278632609706285
77.2497557582691,83.93550769432197,83.89875217611923,51.1159825955257,60.20773932366451,51.195034396534325,56.54087859275264,40.74425054222764
71.09758952118803,83.48639539966078,87.67151354114675,47.49971678906149,61.708902600947404,45.858628492231325,51.69668054861275,37.652965812692834
61.953694742345675,80.33527259118733,90.76639019306099,40.90631611744454,61.56901186337444,36.23231440517952,42.513007236992834,30.173227392649203
51.89011943042027,75.7240123797445,92.77321570406745,33.237269333984635,60.16770727782631,25.29219922838794,31.64251726113029,20.81248058749454
42.73417536841558,70.37930539802485,92.41656166709168,26.192098091997927,57.235879106382825,15.70237957502685,21.53906616180694,12.188883203258877
35.40391664015168,64.40476537309046,88.21368177896214,20.642069319879305,52.11840779183882,8.958311142996566,13.673604167951165,6.013646384135142
29.832317589704143,57.73328372123066,79.51955535942635,16.542649057347848,44.49651493433461,5.2445720696671625,8.405974910611477,2.6854662233908995
25.34886050160844,50.478161539035284,67.04002297482508,13.271825160420203,34.86844562591165,3.7879428871351175,5.296772328872612,1.515764771440659
21.229925787564714,42.91508009008822,52.48231596873569,10.139584044340191,24.436076659155564,3.406711109433969,3.5768719787666186,1.3383716963640324
17.147921295321886,35.40623576790078,37.8215019953569,6.819360387087133,14.643247642973382,3.0691149122943178,2.6018172349480517,1.169213980990203
13.34110008331775,28.55513412370778,24.815315755378155,3.526006583283559,6.795779206130284,2.3225041006161535,2.1647881755605294,0.6269935988569038
10.445900556364009,23.36033865055663,14.866617079808147,0.8760969872149384,1.8770870956011398,1.4217674571485044,2.522659044101917,-0.038710031638604855
9.081881283804517,20.92160128408557,8.875229077602055,-0.4891917888647793,0.36849916344987066,1.0516610838296572,4.078320711932414,-0.2733722068112889
9.412974270563751,21.726233000698933,6.899646727110002,-0.310098973501887,1.995920415780268,1.7768588972255526,6.899612067146927,0.317859292333048
10.934191897800797,25.135157850356133,7.948018707129754,1.088958311457433,5.646917097794422,3.5780328967505253,10.42867727271399,1.6427120022885195
12.606397546803535,29.61673354524148,10.314087266462879,2.9135709336863247,9.731704054984595,5.794910175613111,13.625707685022777,3.10774585880009
13.262100196011552,33.57969791972694,12.39418723571925,4.256764737156183,12.888185432881055,7.496554822713751,15.462314598782312,3.903503311692064
12.07066091720381,36.13406481256148,13.434488570466804,4.4971918644120725,14.579449997490654,7.999685049475582,15.429777675295458,3.419678265694557
8.85067009492804,37.29510619184504,13.710795103754108,3.5358094410166516,15.200586873320566,7.201621196513752,13.757002807779,1.5775201262453487
4.11130829059026,37.704237645073775,14.116297143326259,1.7717925883308385,15.696651323485693,5.574780445326606,11.259448667672073,-1.0769673869743321
-1.1767017656465484,38.213986761120445,15.507492057621619,-0.1444783569182712,16.991034915921386,3.8932131434098465,8.949738649204354,-3.5656461546667524
-5.971978142610835,39.53636850257567,18.18566679333942,-1.633777353996573,19.535202050423106,2.8812640334287716,7.623011811376003,-4.87704241605243
-9.53483864818369,41.977991963402864,21.73281435790516,-2.408091732615056,23.146271814526386,2.9723245856697735,7.606690980340179,-4.390457240808236
-11.611203917379374,45.3298157748792,25.2609430846846,-2.4885653874721654,27.164293632569063,4.276946826775904,8.772122392319373,-2.1243669980888753
-12.370984351800418,49.03307032889259,27.95543889707457,-2.0643711400413904,30.84160428901007,6.719939187212877,10.76139660145367,1.303491925801742
-12.192978260408223,52.55850849663971,29.586251977013927,-1.333888915586185,33.745033317797805,10.186902764043134,13.249595004517806,4.965585428255537
-11.458228429506338,55.685931001651916,30.609858437708226,-0.4431597043153636,35.90733797791295,14.524860806666794,16.05067133763466,8.004903184780849
-10.45556093948279,58.43082480462833,31.757644116048787,0.4776221145842292,37.625529059172415,19.39516849625065,19.021150730277352,9.926372461525004
-9.387713466891729,60.74301072043103,33.43177120574022,1.263818887052976,39.08538475688834,24.153767168470992,21.90171676668114,10.691022208044261
-8.404170315331834,62.35823887178723,35.39670592012674,1.72268717280958,40.13174298293084,27.95443859950389,24.2873614758308,10.611446969587936
-7.609895848013873,62.993643789166185,36.98353718961641,1.6963407121804461,40.36074296428546,30.091179227927267,25.784525573166174,10.133451844230333
-7.050649070664349,62.67306648771807,37.59927439777259,1.137411141324727,39.43762877944438,30.370216733472486,26.231448425384837,9.62308883575104
-6.698515193470819,61.8386250355639,37.16730105879521,0.15821626676839914,37.406228795249746,29.237964523376217,25.798152540252683,9.25105368693578
-6.457616344017604,61.167844132577,36.28446905387554,-0.9712737690238548,34.82270440623993,27.550847989380298,24.885758851658444,8.994787597270772
-6.204819547451441,61.29648212234551,36.07948016736661,-1.8978602442467423,32.6626305897551,26.122374645686925,23.899257092182037,8.71057624670114
-5.869952113661225,62.609888897043476,37.791131738878164,-2.33283828879907,31.993618168965202,25.323042361959644,23.038894087600646,8.211393511991574
-5.526743773523864,65.0541315076409,42.0897281401055,-2.218963606425374,33.44678562510377,24.949811734234796,22.21259213645136,7.322239533180665
-5.427551584623046,67.91292967578067,48.355515435894716,-1.8154986128756536,36.67201919605617,24.397136321891768,21.08586565042882,5.925007206455774
-5.923967442025459,69.74229662881254,54.395069118072435,-1.6244436612143371,40.13558761077738,22.994202202338283,19.228606609678177,4.005732879889943
-7.290682209376031,68.76674068464892,57.03731208323888,-2.1774191812320787,41.56550273274175,20.315408035062276,16.300416661826883,1.6873241121054379
-9.552875282197114,63.73575350697684,53.53969295053238,-3.792818161692908,38.97723528478643,16.32858566819027,12.215981618219066,-0.7834621338329955
-12.424347824554134,54.768652655550824,43.1029850468042,-6.421066029836129,31.76992868666263,11.367567429042266,7.242164935984446,-3.100396543539496
-15.384183951380212,43.59938630246514,27.598979692938126,-9.630691607511357,21.25267067101465,6.022721527228462,2.0015355723868473,-4.979765776024291
-17.833819101192677,33.0273910568514,11.052734845362412,-12.722047641899728,10.27196779158716,1.0546353214119362,-2.6210826318454603,-6.216739797576404
-19.260647646628318,25.8961327020057,-1.8626274652962576,-14.933068379204634,2.1218075400949465,-2.661577021634082,-5.668406346490449,-6.702350432838613
-19.374836409471087,24.100581718208954,-7.586677886305475,-15.695538505055545,-0.7376076482459699,-4.262246583376196,-6.391587888196869,-6.421496525701562
-18.20872708619849,27.952248670671374,-4.942724218746233,-14.870292933521357,2.3925942968419087,-3.1738669136736046,-4.569017758192911,-5.455019845905673
-16.14349866565917,36.034466264320734,4.533782841319557,-12.853635522429446,10.215424261767666,0.5397834717713259,-0.7227527337626494,-3.982689590439144
-13.810959916951186,45.62777005547862,17.292420998834,-10.468878567643126,19.965785669797796,6.006374344305781,3.9436303704576665,-2.2644102154120715
-11.871679984435602,53.687651297155035,29.20738566029779,-8.660264351053618,28.497690483423476,11.754564517784047,7.95069137489468,-0.5890260240425924
-10.76687118657597,58.052002624949225,37.158455965834186,-8.125943449355166,33.48792942533443,16.2584269523795,10.13325143161076,0.7907531485318512
-10.58020427641361,58.27401316336826,40.0548081131973,-9.063471655167378,34.22887517955017,18.520519600175227,10.098772719326512,1.7078877562831585
-11.073464200626386,55.60843935850676,38.88972341017378,-11.1282032481664,31.6792186265626,18.375109573182776,8.303435586967996,2.1049350582936066
-11.841585683409368,52.22044106074615,35.95103069205181,-13.592068605665625,27.83651962752546,16.404183018353784,5.741350118255523,2.044110659298549
-12.478603043003417,50.15205410062075,33.698956142364686,-15.620208423857054,24.80877987929294,13.596489191148958,3.4618661790518215,1.7080344323323688
-12.687213124776923,50.565016675107,33.805247918774704,-16.56773334012462,23.993040728153144,10.959411629100808,2.1655463204983563,1.3696239023990306
-12.331479404619081,53.42726120511428,36.59079443750397,-16.200752143448234,25.601542332037074,9.224407551406197,2.0157474159109876,1.3081194706706216
-11.45147249612536,57.58476821721297,40.941397531384155,-14.754931974286848,28.63316945694932,8.70044096123176,2.68261106436958,1.6910846632504328
-10.235956628345363,61.21015916655813,44.779874831288296,-12.793720608002936,31.32865102663046,9.29415686891959,3.5785687932572263,2.491451361020256
-8.942924896655985,62.62992092625098,46.065094582736435,-10.926473287483528,32.024939288276194,10.681230793580692,4.200886832621893,3.5050913918019146
-7.79285351423486,61.2506664111519,43.936791059455665,-9.535956280797482,30.06542789207121,12.535552086503197,4.428209258365501,4.466205931896527
-6.894180928044161,57.99836662553145,39.32641806509066,-8.665226362191785,26.23796040977933,14.665898417232365,4.5917216244754355,5.1822926858264236
-6.241936788517281,54.84879695371527,34.543286567020324,-8.10946218538938,22.393987294827276,16.97466183352737,5.2496863003530665,5.5995280412088215
-5.767052341980792,53.688731066256764,32.01839851650257,-7.622485259570531,20.42880420715524,19.318938051632948,6.799977616051204,5.774200050447649
-5.37308699665704,55.30224546410673,33.00013199490908,-7.082487110929453,21.26357891958169,21.45699050365134,9.195448069670524,5.80245691923282
-4.92682317134104,59.15086191245662,37.007555413944765,-6.510523101755529,24.45740956293312,23.1742582458881,11.94924676478422,5.777434145988604
-4.23728610250583,63.94211728380783,42.28470217033496,-5.953513741380827,28.61203223205483,24.478757991489257,14.396122213585354,5.794634367223159
-3.088058197700014,68.4342473306981,46.86989877976212,-5.344035935751406,32.220151442711675,25.650559075749566,16.008193848289704,5.969832180501494
-1.3475921280863918,71.94356665407308,49.62876074546176,-4.469780269328929,34.41637461704134,27.03964920366478,16.571620131884238,6.419245855680194
0.8897082724861504,74.3988490352315,50.72286276204189,-3.1132653256641447,35.24658288076372,28.72644908567074,16.16283928451981,7.184208140420877
3.2242877388377607,76.07031850311157,51.3036322919984,-1.2908456615449773,35.380603355314726,30.29140851095739,14.993576932196737,8.138187082394362
5.016715103985506,77.16240617385253,52.60513092411172,0.5900454813643681,35.48536366564948,30.888043483938628,13.25231229654424,8.958229318230632
5.616018994115311,77.48838762344849,54.974804782593,1.826475951405706,35.66682560405406,29.632025472598055,11.055283707027506,9.23339642194187
4.673858479031594,76.49754700746517,57.51557387352067,1.7787050322091356,35.383397756815086,26.12665661806138,8.545844686237723,8.697860758493656
2.3858432533882525,73.78133278066419,58.68008732306861,0.2909873812933597,33.94823749812813,20.840967837131956,6.06653993848772,7.459924960882389
-0.5049710041874551,69.75546451096898,57.4580766711407,-2.116916128231878,31.28209127467176,15.094419191467322,4.235667042182897,6.049542670788794
-3.002889086063175,65.87633511100658,54.2693522046377,-4.454737477553216,28.302373675606614,10.585646387638484,3.783121878434441,5.1952256413229225
-4.334218315469943,63.993010465489064,50.84187190423072,-5.768927068961103,26.54585333507216,8.663169857107329,5.170917370353088,5.425267042886097
-4.342407146719827,65.18576583957744,49.139875009315325,-5.650550479806601,27.219481566590094,9.723844302741393,8.23136528459682,6.732123059839124
-3.558465619809132,68.98391300950212,50.13477397957595,-4.438357010882028,30.35761556933794,13.085966434530164,12.110424232951083,8.523395587733917
-2.885580402321257,73.59649222804074,53.26517286448872,-3.003236615457545,34.70250510973654,17.40395748431369,15.6205424396483,9.910178477667028
-3.0716676097309183,76.96205191315836,56.850456063263806,-2.2474796671588155,38.38336156048563,21.355569747156874,17.816634207732147,10.174218367083137
-4.268941643260401,77.84006083493875,59.077224310700636,-2.6033912880768657,39.92557286517601,24.188698157862984,18.446095351956217,9.147856016704525
-5.9230324394312595,76.30499451775225,58.944442953996784,-3.803081729777835,38.98125374086088,25.85532456284258,18.010806443973458,7.29380840540754
-7.047054624450011,73.55298920972646,56.723072690511984,-5.037793055889527,36.43266954649418,26.75159755520772,17.43072517644476,5.44512708056587
-6.7298307807550355,71.29145455034198,53.78097884067369,-5.409801920047333,33.89834578236191,27.307555766700077,17.528682268853633,4.36013213727225
-4.604516683913823,70.99493567138349,51.88868035550016,-4.412639993689106,32.939249315298945,27.705307519478016,18.634123351437903,4.354532672750747
-1.0269434055136095,73.26478153799194,52.35522667702471,-2.1619077318753823,34.3645370134417,27.872967122445065,20.511393851663392,5.223085050357486
3.1192630172053715,77.5785597913228,55.46148305180546,0.733856212865681,37.96965553399442,27.703223003683362,22.61614206382572,6.473828314279577
6.851353033214513,82.62758074248583,60.484402092804615,3.5327750202620227,42.79340287665248,27.29128177721864,24.478612661249812,7.6894083648989175
9.48055385349352,87.05396453082358,66.17918609578051,5.689096470933218,47.65464897316225,26.96951806351119,25.933566741364928,8.753576880206797
10.75940265213891,90.03618714181019,71.27786782414582,6.9667639900208265,51.57244712271053,27.065785768686514,27.03934083549401,9.795663556205568
10.772196016882928,91.31223629643463,74.69734010902961,7.348417566039467,53.854179187795246,27.544418953428284,27.78407324012697,10.921554518781509
9.73092764608593,90.80925445160727,75.56532580835473,6.889773785848617,53.99358691701412,27.82610920146401,27.86332218276135,11.953224841533839
7.85325910423755,88.41961879156243,73.36036421409116,5.65114406764064,51.67597248881181,26.988726987787,26.758657128392596,12.386990729853958
5.373844669300058,84.1831073491974,68.19765126750227,3.725471042211422,46.97589268179003,24.274238855282977,24.087724512871798,11.626727291073774
2.614645519589271,78.57202124090476,60.95218462526735,1.3035254473458449,40.5241994811833,19.59109126789286,19.966235318423557,9.364670265748346
0.01910726977242405,72.45983710827169,52.99042927646349,-1.2796143839228609,33.406230711563175,13.705590094954095,15.124611997321397,5.882582074042504
-1.8863185403581821,66.80657954791587,45.712300438526306,-3.54304491874683,26.84288877881259,8.033307113249418,10.719917362800409,2.0782520067858057
-2.59406676493685,62.462278004044244,40.30667567467386,-4.92886044175903,21.91505106436809,4.160633446311506,7.962047471288676,-0.8389412629085657
-1.7670572644919105,60.2462963259246,37.79067343496237,-4.964707051952129,19.45243030847343,3.2953672549769726,7.702431740720201,-1.8627090667587405
0.5906327294416689,60.95333323123837,38.96466303219728,-3.482978055140385,19.938321349088092,5.813101507414891,10.09335819137632,-0.66263964088689
4.030108010508822,64.92613480760191,43.99212013675923,-0.7699277962168226,23.282883011223095,11.050711435385425,14.43661224866695,2.244972930871501
7.732935667048143,71.42437500742419,51.86951025187506,2.491825455540681,28.60971195995579,17.485441821525963,19.359164627029536,5.742957526560051
10.796607930683077,78.46262803810122,60.3938519072372,5.503562050172662,34.37541199647395,23.309713559991025,23.339881475638137,8.656743601105083
12.609734482972941,83.46849816023885,66.89471048530791,7.7097020629472155,38.91126309460653,27.1643507889683,25.366976240795672,10.298693487657323
13.106724245670984,84.37056880301365,69.33163799613462,9.032212738800029,41.07586946181029,28.629158108790143,25.348238959785217,10.719306793810869
12.75328579342332,80.43251083502554,67.09813005571354,9.855649557975307,40.60923229612159,28.194807091421307,24.024312553134195,10.554594394411883
12.276454515974097,72.55285620942574,61.21246412787844,10.774352477746957,38.081335227126374,26.793849487266034,22.473001430237012,10.591748395706468
12.284247953063858,63.185941337186215,53.996134147393036,12.213488524306465,34.63710839452935,25.245409022320064,21.54139606496679,11.30514908322864
12.944938192220379,55.90084041275968,48.36779542861117,14.083606399885126,31.694936591837834,23.932569713044348,21.501610122114467,12.588045278324202
13.84712847930569,54.23161412480254,46.72068344012956,15.643392617340048,30.509534639671138,22.76723110795808,21.9947251975146,13.781063705505929
14.10133536851056,59.73558722846761,49.536993287887306,15.702112009141084,31.50826250771885,21.295240729429825,22.161921120146882,13.963887819594316
12.678491039914274,70.15831855373612,54.43723564925149,13.147026259423278,33.67082806215597,18.825804756171802,20.88093836409459,12.377129213075772
8.887117087510056,79.27538823447854,56.60177359091209,7.5736926188056275,34.530770185532354,14.621598729693986,17.11585652255233,8.793454191266415
2.7923023987428253,79.30843224302176,50.87487833002753,-0.32614970972005825,31.16248208400799,8.226700592143288,10.37264442709481,3.67527981909392
-4.647776623173445,65.02076518779724,34.655914785786116,-8.881804554134565,21.817890265120326,-0.1413113136050693,1.106771517638172,-1.9568723802428558
-11.852733571698657,37.089242383066825,9.852816221860245,-16.064921562706438,7.245415708186701,-9.394107774391898,-9.192403624564099,-6.897301755757023
-17.222418159274557,2.440632822141975,-17.510401110714227,-20.324221915386815,-9.270133967187446,-17.82418184801068,-18.434572626146704,-10.212630489619483
-19.79657124521407,-28.94543029092227,-40.04615759130955,-21.205488023601667,-23.359518606618764,-23.797051711977467,-24.771634914435932,-11.582015577326743
-19.633489978717467,-48.92423489457803,-52.56371249827559,-19.441961998052978,-31.710182061098457,-26.530391220428687,-27.421932253810887,-11.366904727031404
-17.713868130675657,-54.78640743688353,-54.31338099341362,-16.511542865004188,-33.58121019142597,-26.472640184118223,-26.986108072405024,-10.391926614504177
-15.452954712799064,-49.62900158103231,-48.740784259477344,-13.95729225212202,-30.834950883494134,-25.032413254673983,-25.0737008003224,-9.568044992837251
-14.108817640234268,-39.94538463702879,-41.32040874269986,-12.8327465408573,-26.709502402630036,-23.852871614757625,-23.509494795697886,-9.548860950238819
-14.352375094785723,-32.52690322231047,-37.08312488257872,-13.441471948469076,-24.305014438399905,-24.08906604912992,-23.593346076186414,-10.540785328572415
-16.081656582332023,-32.34006037871225,-39.015410261175724,-15.313036092648364,-25.56374210299056,-26.02248993414163,-25.703117894230875,-12.268724953687535
-18.43514553582427,-41.43950412729201,-47.36623152510922,-17.32090465250993,-30.802996519347627,-29.03346649961379,-29.221087711747405,-14.051367995883036
-19.99477811728639,-58.24223780500919,-59.447717305782916,-17.969728945604498,-38.532945279150304,-31.80565834770959,-32.67843803857139,-14.982200368499353
-19.235703438758467,-77.3156266646043,-70.06970537630481,-15.91860361927809,-45.63985699284281,-32.732493161813125,-34.15245626421701,-14.238054839611507
-15.18438623177054,-90.76538321560308,-73.20701814750772,-10.627131550902382,-48.35651802296196,-30.55902481339948,-31.990797895132836,-11.456299215775854
-8.010483396434436,-91.66387068600856,-64.83679334471591,-2.7754552396063485,-44.05183042438515,-25.10433810643342,-25.67931045730009,-6.992812864804987
0.8461681719124413,-78.01358074624196,-45.54617561100899,5.890754846210913,-32.97432289281106,-17.637221188252006,-16.348715255258895,-1.8542940263170566
9.217322436822213,-54.508117999427554,-20.974641505196665,13.314920303391231,-18.65133406785278,-10.49802248761663,-6.446811699418058,2.731276323458738
15.193321157687594,-30.351744494477284,0.7321345067664892,18.08585606465173,-6.3065194747936255,-5.994418243926321,1.405899745138649,5.889214561453524
17.992790842471035,-14.098287083606893,13.20750867771148,20.01532343260137,-0.029082004638768817,-5.147740510040202,5.7542983884509695,7.4684335446563805
18.17746802586437,-8.81591299440612,15.195339979703396,19.975578028277354,-0.4679949856548142,-7.087595398643843,6.983694375037499,7.9662581721982875
17.075569876581635,-10.969809883378137,10.626360677987313,19.1212953920988,-4.673903527294342,-9.56994728781379,6.840044823324492,8.055272305319155
15.797866746624571,-13.913054896116279,5.29134666427041,18.038688987213312,-8.324734505480361,-10.386671695732382,7.070040886493282,8.034378147379616
14.512750902668278,-13.47050783016421,2.4301659921246173,16.411973741590664,-8.85417983869838,-8.798033370061132,8.101971872804658,7.589442583803533
12.469604251135719,-11.444654664103096,0.4232121284827044,13.422688679648921,-7.272017554300377,-6.03589334071802,8.70480155811857,6.0388771552145615
8.725381090014395,-14.421487239678862,-5.77174981566746,8.564518718836913,-7.386165511316695,-4.523206389187005,6.877687019972876,2.893182389216295
3.0246566960448575,-28.82973351213922,-20.591077743060673,2.259931174238038,-13.036861008120447,-6.330042867720072,1.3330954197583629,-1.6723227009414623
-3.810149646213411,-55.95083757488009,-44.24568709725838,-4.176268185329587,-25.34831985520193,-11.890467009442949,-7.474537138395354,-6.771065984800916
-10.242770388518396,-90.45082116420662,-72.06207646733262,-9.196859604653785,-41.87645985991034,-19.782743129636426,-17.46521298880141,-11.220008574550008
-14.858298148476814,-123.32628037490771,-97.10049764890579,-11.835357069429811,-58.09870181097704,-27.627856799996415,-26.06718714358105,-14.133645994371317
-17.082501469228905,-147.03868609930544,-114.08591151428017,-12.12696141411511,-70.07395408068722,-33.43948206336617,-31.57221095778951,-15.31431813079107
-17.33659388129443,-159.27855179825391,-121.96104645882299,-10.914043960755235,-76.4316974161399,-36.54557595175177,-33.845689583122834,-15.225798757088032
-16.614970438736545,-163.09515607209465,-123.59718965861046,-9.257510952930096,-78.52224123587553,-37.5978750912942,-34.049540087197585,-14.630644341067946
-15.854276419065384,-163.9216912590159,-123.3308195878621,-7.892804405530953,-78.97677977143599,-37.8548905757116,-33.72817305215942,-14.165752519573516
-15.518535744462351,-166.0484077662902,-124.33654521022616,-7.033313604863761,-79.94531248170547,-38.35070490498135,-33.94777506571114,-14.105129764656668
-15.581140839186594,-170.86942629461242,-127.48189153182702,-6.518208939154821,-82.18170731839504,-39.472838045729404,-34.97336943940244,-14.380904778104986
-15.793337523404928,-177.38520985703764,-131.8757811915255,-6.103897477925718,-85.2462532814463,-41.053608658632,-36.491863521514595,-14.769683266299591
-16.005696042995748,-183.88828658502388,-136.22889170597708,-5.70416763826351,-88.32499171381153,-42.741995300918376,-38.072716341460534,-15.10294519895844
-16.355482499213554,-189.57903689998608,-140.0729143296147,-5.477323731158775,-91.04792628670484,-44.373989132699755,-39.55924133488836,-15.397590439831822
-17.224932518830162,-195.44970413442164,-144.33331059285416,-5.719947077008505,-93.94720179532996,-46.16959968850676,-41.22653730623377,-15.85055456323185
-18.958386884629135,-204.09982296817793,-151.0100565497479,-6.582066260544621,-98.35271628562808,-48.6619234021798,-43.63507912993186,-16.68501025383921
-21.445370335518405,-218.22842298101838,-161.86560630818664,-7.73774361926703,-105.59645750605699,-52.324025627678644,-47.18870552504052,-17.90872518995001
-23.826772322692804,-238.1757777538192,-176.5608607880869,-8.265238805687522,-115.7463588769094,-57.03195573964597,-51.59179799486836,-19.13349459474898
-24.621539572179785,-260.057370236657,-191.48968966736706,-6.941121783861667,-126.67653162965716,-61.73552324251644,-55.607096901342814,-19.61977233234983
-22.365972443306077,-276.4621232321597,-200.68672876770225,-2.8787711880904907,-134.46493360423892,-64.7305458348449,-57.467740267113484,-18.588955687658604
-16.482834781308835,-280.27205787129213,-198.96758469650203,3.864656322434668,-135.37459050829457,-64.56371138560854,-55.875614101619576,-15.649927484554242
-7.837781058186029,-269.58857083272505,-185.5827434289857,12.146472640181928,-128.3858081363066,-61.06078298435809,-50.992993059912386,-11.071854080936669
1.454528578841144,-250.17561766975112,-165.71695132271037,20.21360092254923,-116.47033970834637,-55.709304850251954,-44.66586143038315,-5.708504865591938
8.964002965575384,-232.90453061495836,-148.1925910063675,26.521303876851565,-105.33945021195726,-50.94385305913388,-39.530455346328644,-0.6007264035768977
13.109748238520732,-227.02235808857847,-140.26596767764366,30.37475387819341,-100.06012008222183,-48.62924464018958,-37.4229714791672,3.5001876156665617
13.854154729721438,-233.41419163150937,-142.7248351029818,31.995760034775536,-101.60571380191205,-48.70457159064657,-38.10466453877166,6.388907532973255
12.500293847359833,-242.7891948889905,-148.80204301453935,32.03161818879957,-105.80278062955735,-49.00366765926008,-39.25151194145269,8.29576493503514
10.747138809666074,-240.83749934517297,-148.14282920424472,30.92310146905293,-105.73054955856215,-46.551111743967304,-37.87404028918986,9.525304688632485
9.639643633048014,-217.53327502928747,-133.55625793272776,28.621777324285453,-96.23504826540487,-39.58302607512529,-32.31905470882548,10.134977594096048
9.085910677882643,-174.43608099554427,-106.09014966602636,24.836299174161574,-77.571302410293,-28.937893156920783,-23.5142745909143,9.89509269100665
8.190524084769246,-124.77654273767453,-74.86530960332723,19.55584110999247,-55.610186891416916,-17.80894426813606,-14.564612661049495,8.539994567102646
6.100906914212836,-85.84536505570526,-51.56385499228352,13.399216465403335,-38.321890490178205,-9.932186178197735,-8.900143810337006,6.100415576773586
