FZ,C3,CZ,C4,PZ,PO7,OZ,PO8
6.527061302789526,-21.887471457024166,-7.9511993292782925,6.778835895073903,-2.877169303400686,-2.816497705298629,-0.9318760761224579,1.5171927682983628
-7.391394282877976,-96.41943745333565,-62.90188118292891,-0.38130667274606705,-32.44685715077571,-17.390477134000474,-15.42257521374162,-4.606557963199352
-18.231668316764978,-153.22643241357457,-104.96831675816257,-6.0633452707384405,-55.32062236379891,-28.515862951098995,-26.359102712432637,-9.467575934142547
-24.25490990503719,-182.2779615597132,-127.34384828258531,-9.51400701216138,-67.8227860311541,-34.2998450291032,-31.85418160102835,-12.411790929788353
-25.656530203915263,-184.87141899334998,-131.84069656652278,-10.940111667358943,-70.61133442994996,-35.093794697561684,-32.39863494656116,-13.639056995795311
-24.16247377185023,-171.39079124498764,-126.61202908104401,-11.179712099118618,-67.63819562467569,-32.96661694178093,-30.246777392607186,-13.962339251332319
-21.996345897030412,-154.98987017176887,-120.91845980991636,-11.12479178562479,-63.62093481674417,-30.40157317314234,-27.972733915031267,-14.262821306128014
-20.86887544734916,-145.16343516963443,-120.38791157863689,-11.306246702174683,-61.6800799880378,-29.07121260692874,-27.139720655474424,-14.98859715273794
-21.456904362228236,-144.57308288893606,-125.29410724801551,-11.815461098341384,-62.3839744406408,-29.33033668089688,-27.790427738241736,-15.96672088379886
-23.438235793947435,-149.80805390426042,-131.94819942831478,-12.465263704250171,-64.28519139108718,-30.45424134732566,-28.810429227319137,-16.576997063486022
-25.881299330988497,-154.42756320601185,-135.50268016821852,-13.017511949521763,-65.1711208733045,-31.219277181470424,-28.723609180317933,-16.150137767539707
-27.76420499484093,-152.36440535899035,-132.48354013768318,-13.376320851035002,-63.26546546561975,-30.48209089420614,-26.462439038539763,-14.385237081093303
-28.46137350105489,-140.86914769534357,-122.42698725224089,-13.68775903267763,-58.11416657345797,-27.69250815736056,-21.90232043333281,-11.596616571691712
-28.040599909736095,-122.70199571811732,-108.59499443431513,-14.268470124693708,-51.11681138226539,-23.328834273360844,-16.08283557680822,-8.661449505575987
-27.214856800072795,-106.63385524995884,-97.48486366187569,-15.338196838538295,-45.46046729872571,-19.037306165096822,-11.001927559769111,-6.660701744641187
-26.92635300919153,-104.9360463951377,-96.69450402641354,-16.702829260132066,-45.11637773393653,-17.17201844303014,-8.911156678194397,-6.3719919924403285
-27.777807030331434,-127.88171099534755,-111.49844708880866,-17.660949391131943,-53.02200606874573,-19.74140578725829,-11.307798888372794,-7.88414048463413
-29.662439559498672,-177.7252782314485,-141.73532894541626,-17.298564666507236,-69.30884357990325,-27.267076877865485,-18.119539552142925,-10.553935428823122
-31.827840982095957,-245.89109857402275,-180.99129468380528,-15.036154418675366,-90.71061130168779,-38.27544727530822,-27.58797698582373,-13.327373539147832
-33.31645628218561,-315.666004719209,-218.93928565831467,-11.058543887169336,-111.70968811169993,-49.822880089619076,-36.98954984087188,-15.236168751400694
-33.485267899311175,-369.36496471082177,-245.77950568490982,-6.306112956786223,-126.9183229588533,-58.813166313448505,-43.8307128726816,-15.798687116110584
-32.28978571329008,-396.11070012933084,-256.4154077596438,-2.0069164422735217,-133.4149429967926,-63.37074141463697,-46.87432828964462,-15.141075425910591
-30.211760929532417,-396.00694763915965,-252.19544860566387,0.9472614001633094,-131.79737837721174,-63.523535897977254,-46.481103935083055,-13.832049700001715
-27.95384220707568,-378.76091428333075,-239.55472164911293,2.3761943605233666,-125.50946338310135,-60.90394699971437,-44.178421750102544,-12.570478693046043
-26.132890473373553,-358.0898488709424,-226.62352793190465,2.730387909397337,-118.97618815293741,-57.758200675163714,-41.79621497199318,-11.895650957533057
-25.116206090929857,-345.2876214574706,-219.68484445769866,2.6843250482869085,-115.5980565273244,-55.86982691090096,-40.6604518702247,-12.016510382454312
-24.97867768437638,-344.97018599421494,-220.92133099924249,2.7325712900238117,-116.46802944984223,-55.896140740592294,-41.16753465332538,-12.764861341413146
-25.492080085809498,-354.08076326473946,-227.8784626637659,3.0270653844781834,-120.1090155365436,-57.26858418946445,-42.78053080611426,-13.646626834157379
-26.13851176825802,-363.59093880922563,-234.42791152534744,3.441691945507096,-123.10638263741623,-58.53358590880645,-44.32548473005566,-13.988413009445209
-26.236243413558277,-361.9652207810841,-232.9561511594137,3.698787780267943,-121.40412502529594,-57.94784772232427,-44.464720411829504,-13.180935811966567
-25.227130533376457,-339.6500307579559,-217.427473723908,3.4529368013613193,-111.98125518243172,-54.17000616473462,-42.24309204165873,-10.961766180019714
-23.014109553795322,-293.4785015983049,-186.41272179762814,2.366353829344308,-94.38454391333369,-46.85592405809217,-37.54058314293162,-7.603740557624493
-20.12202998007252,-229.10462939991413,-144.5767725798086,0.24180332930887388,-71.36015236048642,-36.907061603791284,-31.203918285860752,-3.8749840017447346
-17.522151224587095,-159.69891712607182,-101.39782419652829,-2.81747989817541,-48.03497948393028,-26.203207918840253,-24.724911510315824,-0.748998282195348
-16.178534125771073,-100.85454255993534,-67.30560046872625,-6.3459601864924915,-29.843494222038892,-16.904992478710817,-19.58825217666146,0.9981838515405208
-16.577579692730126,-63.999250837795266,-49.10139035503057,-9.656581113239675,-20.20773755488277,-10.661434254272567,-16.639795685338317,1.0823452466990904
-18.529727582054527,-51.795637541161774,-47.18005307476752,-12.155053917665711,-19.224926774064407,-8.104171204641732,-15.830727406260202,-0.2602031032057182
-21.351227793001815,-58.02206968824619,-56.106969046225,-13.648377725000206,-24.058443377131148,-8.822136149966024,-16.449263638633614,-2.4903232131731925
-24.27173116503422,-71.77601773980442,-68.06617696760728,-14.428054922917747,-30.704066201007194,-11.726827050352805,-17.631024518177,-5.053095046760227
-26.775695886521635,-83.25751447388623,-76.95673555109055,-15.044726874620755,-35.99927870678645,-15.531003530248986,-18.78185999539654,-7.54343711481494
-28.684502869146428,-87.69561016174498,-80.7112658167462,-15.923460023965276,-38.72139702644908,-19.092734873954914,-19.675789426014074,-9.697136734533673
-30.02487745078715,-85.66548170975032,-80.86322069548403,-17.102158580420046,-39.375270577029404,-21.57293935820122,-20.288593711328108,-11.311843724644733
-30.88291122067212,-80.67207816395766,-80.30634743450165,-18.27801634968093,-39.18225180556061,-22.51797539175257,-20.618953236753864,-12.231379880410472
-31.382472751341698,-76.29147697470283,-81.07794841762316,-19.098604970102382,-39.13332097496403,-21.947975623463396,-20.667693443895352,-12.413532908023381
-31.7471823351836,-74.53721222457877,-83.40818592402606,-19.45724347393471,-39.60740258122438,-20.371857002681388,-20.51488580146124,-11.982435230311427
-32.30856535057317,-75.59860667325603,-86.07272930741561,-19.586761122941187,-40.474800460255146,-18.592206057961395,-20.327187089898302,-11.17449765404007
-33.39264063944225,-78.2927977303894,-87.37372411973952,-19.92340797447757,-41.35894300205273,-17.322920649659448,-20.250626873910846,-10.207942077059808
-35.1490785586713,-80.79636880075832,-86.11218257544789,-20.860499887654445,-41.869450512637975,-16.85579123807014,-20.32213878512728,-9.203864550333748
-37.43973396448179,-81.55611947669371,-82.19497651411187,-22.539003223405498,-41.79293171051534,-17.01864482142637,-20.533514189689694,-8.251139907169433
-39.85539005670238,-80.08889523004018,-76.6649375279419,-24.77072496927214,-41.21078855558402,-17.4311342818733,-20.998309987621575,-7.564235178424997
-41.85827956544665,-77.13354536078437,-71.11253833441786,-27.125516763077915,-40.45088848179562,-17.82612792497849,-22.026905770130767,-7.56665763691894
-43.001776400720246,-73.9945227035752,-66.80295404125184,-29.145073560944574,-39.87663372301378,-18.19739461389436,-23.982855372790983,-8.760179138595191
-43.139246423879726,-71.65514939351311,-64.13296326451717,-30.567960605556717,-39.68665048012793,-18.7219407714662,-27.000725418257908,-11.403909241778557
-42.50002785520059,-70.41604659180818,-62.784969131846864,-31.41712929252622,-39.888795055429775,-19.566378276642418,-30.770095249836718,-15.19967482444121
-41.5435675569268,-70.15304305078902,-62.304462113015404,-31.879975625752934,-40.39872527110381,-20.6978316340894,-34.524747201881425,-19.218616258489465
-40.640935509761974,-70.61041724664963,-62.46661777551928,-32.07084954970828,-41.069321961878664,-21.76448816542842,-37.22662889461006,-22.17124731748841
-39.78899674372913,-71.29485913149666,-63.11603486167997,-31.867934668173184,-41.58324644450191,-22.103765012941306,-37.85890197430261,-22.914576717242337
-38.576259113257784,-71.24839679048559,-63.76632391150042,-30.953334707528615,-41.37281626010818,-20.941364161294253,-35.754400915183815,-20.945216086899887
-36.44023819806662,-69.25208864046982,-63.444703076318966,-29.012021789535176,-39.752124500373604,-17.752830474990045,-30.882128851784895,-16.62714273096307
-33.0341590896584,-64.47595093871732,-60.934132219088845,-25.932437315899993,-36.22036255638181,-12.601716941041014,-23.968706982531028,-11.040104347675435
-28.461202944859004,-56.99234318716478,-55.21296162199157,-21.89644816404288,-30.717798245603444,-6.2259132367035885,-16.34684528433516,-5.537086370078858
-23.270262421137197,-47.72269147342884,-45.91196024278319,-17.36579563601085,-23.70161219611715,0.1944749182799141,-9.557609414464578,-1.2509660633133
-18.27505097005062,-38.04872631415898,-33.766800757713085,-13.016730089178976,-16.100998182453814,5.435672598903922,-4.881177789424359,1.2102342196059923
-14.307704374237593,-29.558149462138925,-20.917364817013976,-9.621861101261779,-9.222153462702641,8.578177587986403,-2.9911409179551014,1.788396451355327
-11.973603771080434,-23.917076717333327,-10.60847830662419,-7.84745939485377,-4.512931445415811,9.195187713458242,-3.8284060323474063,0.8015563296881079
-11.454234656340468,-22.434749601552465,-5.967320453801196,-8.00620008840413,-3.0699447651916287,7.392169344933399,-6.69553935893765,-1.2775634863419276
-12.43672731997559,-25.250233310921747,-8.285254186774297,-9.90147422997395,-5.038338650678706,3.7259899943886485,-10.538598476952759,-3.9831028522974994
-14.242997677645961,-30.836853830390314,-15.969582494260735,-12.886444962854016,-9.349336413926816,-0.9937217698289531,-14.349525823761363,-6.927600561064577
-16.130179976568463,-36.60138940827618,-25.164034786233074,-16.127801129003497,-14.153202217122276,-5.980584266672805,-17.540679316139308,-9.801981319114162
-17.61033048144157,-40.416475856302014,-31.886738034173675,-18.9334249594073,-17.800285120284457,-10.698963117993824,-20.09003661519745,-12.341867166300146
-18.6135689351984,-41.93129438774795,-34.345982163148676,-20.980674365132906,-19.743109402115156,-14.908564782472123,-22.347274213297645,-14.304927254791242
-19.4230067813572,-42.60046686629279,-33.91255236497256,-22.355479585648062,-20.743414439817993,-18.520154471700845,-24.613047001022963,-15.491762907043983
-20.450546437863444,-44.48639445207829,-34.172755607166835,-23.407498740518584,-22.26801390320166,-21.41427965056046,-26.78142681809561,-15.805520230993308
-21.993208487816993,-48.84442307355846,-38.728663069598035,-24.501267305433533,-25.502345227874677,-23.395633820070632,-28.29972795233406,-15.307243127297994
-24.085924981513564,-55.41963010567454,-49.05442727301206,-25.790968489420447,-30.586116551500858,-24.3110808170725,-28.46825199797259,-14.219322204199335
-26.49869445652753,-62.62532246273636,-63.52862269271897,-27.143998181251835,-36.45691862255946,-24.201543385924012,-26.867952072384966,-12.863004909488696
-28.861177761228937,-68.26533343853735,-78.08122829837265,-28.254588766288666,-41.333222525262364,-23.344484722126346,-23.64508537381092,-11.557379989027405
-30.84447537974668,-70.48725272178508,-88.10979306172764,-28.854274934574317,-43.583353222795516,-22.159486864109105,-19.503371398449392,-10.52254598981601
-32.29448206238259,-68.71342672853457,-90.6804933105795,-28.850101644083583,-42.55324346728568,-21.049391909934645,-15.425413952449738,-9.814636868986042
-33.23176650974111,-64.08834524435277,-85.81590214103512,-28.292866830094276,-38.90161923273063,-20.25408775328983,-12.262274529885703,-9.30409885803166
-33.73181143396175,-58.9506178138366,-76.15569066717045,-27.248840049688923,-34.220981643179776,-19.765891080952713,-10.387083150640462,-8.717445580385132
-33.810895358643975,-55.45104234654692,-65.30793136443116,-25.752059176415738,-30.171341463994914,-19.36203286754541,-9.609846996079908,-7.7754986647753634
-33.44587483755772,-54.26169625927389,-56.05131995330929,-23.92881751977351,-27.701401032798472,-18.796120327774467,-9.441917813341933,-6.420822610701353
-32.718895366414266,-54.38357259749577,-49.48675056626027,-22.182689538609296,-26.83821241471793,-18.074999710445663,-9.566282943867847,-5.023311863021704
-31.93023929115998,-54.13803029905557,-45.36569302469392,-21.216008942412813,-27.049063233558904,-17.60195902617041,-10.165118676261939,-4.3758061653531115
-31.52431391369411,-52.45867637785696,-42.98808532898427,-21.76545832266945,-27.767857677282922,-17.98378309562812,-11.799633278862707,-5.357820476052407
-31.828869465294538,-49.56365314092107,-41.93023765753077,-24.15177999604281,-28.68446169700849,-19.54481040057194,-14.86161044996302,-8.360122511065262
-32.762452535767544,-46.81310832254082,-42.26658569845248,-27.89288812024938,-29.70587796308477,-21.87369454966072,-18.97290485801435,-12.782997211568796
-33.69031621849715,-46.05974076961999,-44.28856280135944,-31.616424165239884,-30.735758692667225,-23.77176603547677,-22.790829491798412,-16.96869530146776
-33.52220227556201,-48.65422339861011,-47.80052745494527,-33.38477929731324,-31.416425961674374,-23.706406649247178,-24.412522841032875,-18.7348287220462
-31.041925610387405,-54.10765766339456,-51.214460492475574,-31.383172529982247,-30.9089353575913,-20.514262401589413,-22.17662966707171,-16.332420305080575
-25.38067507509338,-58.89752117360558,-51.04446473223539,-24.741132327822957,-27.839308895828847,-13.938600527018302,-15.425862446053113,-9.360029906732503
-16.473426930467497,-56.58334927670496,-42.58270450159568,-14.109387714584154,-20.615548899755048,-4.725583477663512,-4.846109823610994,0.8806806905656881
-5.283753655233802,-40.13089271288741,-21.972782759048524,-1.6266044869889853,-8.178326188243629,5.700763902485498,7.7495320491455235,11.83631591221581
6.377070788074525,-5.809375120634867,11.235124721041121,9.826110348654161,9.12134499771489,15.748208543083576,20.050631090920845,20.763213951959955
16.433756243927785,43.599749399698545,52.71263932187065,17.779154936624316,29.103055429003394,24.09709889349233,29.99872574565231,25.852735914006338
23.30123867276994,98.68010123420848,94.38969779807512,21.159846494638973,48.24598948445186,29.952038181076624,36.368769373928714,26.85174430042398
26.45294110870746,146.98798066832376,127.65890507005858,20.602001661065394,63.00097949655183,33.12282519420857,39.013072003041806,24.92217892117903
26.522482539905386,178.57495103245313,147.05008488897738,17.950222647060677,71.26944963969912,33.98762636770849,38.73687231570098,21.909555126678356
24.900134707263742,190.2329428421791,152.29380649946185,15.276603267510668,73.2084948728823,33.34129309421108,36.88217681263825,19.461979745038796
23.057872512557548,186.0395615414674,147.69779162977437,13.972559988110142,70.90246935710621,32.11698426182919,34.781422497722296,18.43554493652571
21.973157272101826,174.23224164813738,139.47088518910013,14.373566662179163,67.16133690052558,31.056553967753707,33.30367391803982,18.796860357880874
21.92276346160439,162.7668770520518,132.80127929435608,15.993297509314392,64.2369282581367,30.49969836132047,32.68913969067373,19.94514564790385
22.651533764059643,156.32760802642457,130.284275739921,18.062687093385406,63.17164675430438,30.413298629425768,32.707554114275474,21.18348739828706
23.69689907540057,155.9025829380784,132.0224175510006,19.9682138999449,63.91267269242999,30.597026294132867,32.973030261815815,22.060965319645984
24.636758071426986,160.01655770755772,136.5899156646077,21.39382506379584,65.79315928348994,30.868757240544678,33.17908162206016,22.458100211580053
25.188086877971134,166.10391405926876,141.94695249838819,22.25189578866576,67.94108157130006,31.101791951485787,33.14769899723404,22.473317994304704
25.227046786515142,171.38562157845573,146.04484950489254,22.587831765042573,69.51174910961436,31.170153100353623,32.775610752510346,22.261028297766746
24.80358055620348,173.5550719374134,147.3521145769721,22.545610404462664,69.88695409904292,30.94184570074998,32.01681552676727,21.939681511858623
24.142095049672076,171.5341035057272,145.3998921039369,22.365395018218432,68.90476921824632,30.363654933544186,30.936570008008776,21.596169860333344
23.58535858840581,165.97965930044865,141.09955636188698,22.369473265612438,66.99118245487706,29.547665572479975,29.757702158162814,21.341852649072102
23.481502716689484,159.12745699036367,136.5733230041869,22.92314165499389,65.0586262256344,28.7635846547283,28.821875122625165,21.351957603078297
24.0538252613943,154.05683058830547,134.51206529247446,24.342058258954847,64.19882479717387,28.34053210733198,28.46820262577234,21.829428180150927
25.27995368062797,153.74036237867608,137.20848875850874,26.698048766599726,65.2819025405844,28.538642684898708,28.87522548006541,22.870952029988334
26.795532375240217,159.93151464662157,145.35075446752836,29.561046877722873,68.51188177167309,29.41305371650103,29.900978761568357,24.284260213529638
27.88645374719259,171.7510559734872,156.81138488792047,31.879457413524552,72.99311769383024,30.670694058695737,30.972050189289064,25.485489246951868
27.682169843843866,184.465265629,166.17057885218156,32.2457135016927,76.562958321392,31.600037290675605,31.139048212615187,25.618894812218453
25.583986674132294,189.82295589933113,165.9614540029357,29.571988394263492,76.29372979647822,31.234098650419348,29.41700650094492,23.931305146688494
21.74759197090921,179.0196570991137,149.87191284433555,23.837874682869735,69.78798281795736,28.809018050277633,25.35533522344871,20.24278376076646
17.269701021486746,147.46999191788944,116.57605661649661,16.386939153688175,56.72352923270363,24.309294948535943,19.521973811604635,15.221230895989457
13.814578150088819,98.55706881215623,71.76912361326555,9.452670715816895,39.61641422779832,18.693966736101736,13.496656669654291,10.221565156992963
12.76620768770436,43.4210373241849,26.562268239693736,5.08248289122012,23.02982849762524,13.51994464723627,9.21362376447732,6.695290929890033
14.367208712036549,-3.832915588244568,-7.430264899402433,4.0615606579848285,11.426754754971393,10.086125569382036,7.945293264796236,5.467317712860267
17.40575634869998,-32.977739396561134,-23.688206201133525,5.495289672636225,6.859089243737324,8.610465398018926,9.532979410664838,6.303673470970085
19.720559595099857,-42.42888278361775,-23.763492388873196,7.318543593381585,7.928741302667779,8.007037266512516,12.380526370614627,8.039694471702619
19.28461277146221,-39.033011100160266,-15.877474906599026,7.41569649502973,10.702022733084275,6.475380087883426,14.261824504039883,9.192233304852422
15.250489886555883,-33.256576506060114,-10.114727403294602,4.673192151714159,11.003065729827767,2.5727108395367657,13.467092228847694,8.68454161534507
8.36237198273801,-33.095198078458886,-13.202458859149184,-0.6040520500466017,6.647906926391507,-3.9054558379185624,9.59959256929106,6.273584074720993
0.5419280677116711,-40.48146551997797,-25.789762811049762,-7.028651409953159,-1.6747969868875328,-11.784695301121348,3.5924402748617577,2.4940316954449107
-6.056644551134979,-51.790621021307295,-43.25082004436267,-12.906209882471966,-11.182147768552197,-19.145190036543834,-2.952096253294171,-1.7565726166749824
-9.978627074596481,-61.21716979157651,-58.90090918782137,-16.993838286556343,-18.712496204159976,-24.2708811096126,-8.600673681990616,-5.684185045398764
-10.944388337283451,-64.51225035630523,-67.56340076574477,-18.909499921678297,-22.308968220958874,-26.355148238562503,-12.613861245064824,-8.84977854329936
-9.728841283935797,-61.21518273590185,-67.82951459569759,-19.078927630442823,-21.9674274972661,-25.68031151488181,-14.986843900818187,-11.134953269811813
-7.5907209039787755,-54.7654364192079,-62.290364717968785,-18.304796475341714,-19.406769193087175,-23.318195133687254,-16.13960671596214,-12.541286627197737
-5.553715348374528,-50.61692733312882,-55.8154876550804,-17.200397791533764,-17.067533849259643,-20.545414744092295,-16.484931612849014,-13.009840442952727
-3.875299386245507,-52.93016629589769,-52.61674688191981,-15.812700162147346,-16.729232069400418,-18.188599586246905,-16.062161884534493,-12.384739970232305
-1.9645905261046088,-61.239914832243215,-53.50419910893776,-13.677702462181468,-18.344374054682905,-16.1595053061437,-14.394650180402634,-10.528744695687125
1.1898522787617043,-69.24389878980831,-54.9901578458623,-10.282808410879799,-19.78861160549477,-13.463403513816367,-10.694563564739848,-7.503897553287104
6.303627171473428,-67.24176948654097,-51.09718188127664,-5.6146159707315375,-17.883617800085613,-8.788534952190172,-4.387329048923782,-3.691699037394906
13.213084646090643,-47.46465025971547,-37.02722568602527,-0.38716164113062396,-10.263195189458761,-1.410019707044174,4.315125809748656,0.2445706239124278
20.794283661056074,-9.17617590783655,-12.441247629673462,4.233955016023067,3.0243304640063804,8.147086940816232,14.18632181298001,3.5650807432120777
27.449237899679364,39.87886302344452,17.80591632697767,7.235897667751508,19.234067320527878,18.151087166642856,23.330782992367055,5.731283508838539
31.868419732756983,86.85510437100429,45.98500873516393,8.289766631895537,34.19314065059186,26.43163600840165,29.96216445212554,6.6073282022936075
33.615901101107816,120.03005587059303,65.38003992713065,7.871278906279449,44.34401257682732,31.414712880600888,33.17441973991938,6.474272682006751
33.218479414895164,134.1109728317344,73.34258921711756,6.925335706373615,48.326632872691206,32.806251139171415,33.261447098122474,5.85534801888145
31.76887118632087,131.66380861254834,71.84751590176961,6.331200027304024,47.24423529359708,31.55953561119215,31.430262028994495,5.259257556241667
30.34141989435668,120.38366647856489,65.63657599522705,6.520822496408423,43.66162725282262,29.233776990936136,29.129575520036695,4.984990330605279
29.57222689808509,108.4958370514588,59.481245442271245,7.436370262817134,40.139970406730484,27.20293570263928,27.41538331255274,5.074125946646117
29.570077425642538,101.22641840380331,56.25576424949711,8.74420275949958,38.20586624454703,26.170797378404412,26.672789682650016,5.393199690697482
30.082306670236655,99.83632383280991,56.52132116433027,10.085221258559697,38.13608066390771,26.14629356660436,26.72417934539878,5.760168611164227
30.733122545429246,102.70281407763888,59.20814570969661,11.21580133499774,39.33914815106099,26.717518796455362,27.12691883787449,6.037379448016717
31.20850214832017,107.03858086068934,62.61041571322904,12.044157040914747,40.90148386658979,27.37144995016402,27.4472885038686,6.16790771674827
31.358863914275876,110.30129424281225,65.22301950761592,12.62308050018387,42.032133305873145,27.71937873171341,27.421193900499173,6.171668843951916
31.223992439315722,111.09529296046571,66.29728522230461,13.111180951202625,42.34388986625503,27.612539514730237,27.00984760961954,6.118937345889853
30.975793167327918,109.53714907100019,66.0257820425433,13.683884443474676,41.94097896701832,27.15417389858144,26.366666437286575,6.0888344150268106
30.79803954775004,106.918124431663,65.2493008705406,14.426816211349118,41.26702619789946,26.599578609903368,25.723676601819825,6.126644523333623
30.776275399550986,104.73920540258132,64.82427142202432,15.296152282266059,40.7780537840156,26.182860768627258,25.247449975017044,6.225164405685777
30.876328496429714,103.75076284248088,65.100621201439,16.184164289134973,40.66533518943341,25.983151682099923,24.958042261146275,6.343562846629336
31.013214165703157,103.72563399086394,65.89049032851146,17.021347966842825,40.83018760388854,25.926480522278588,24.76500730344123,6.445217984086142
31.130519536678673,104.01534470784955,66.83723412494322,17.812391524678787,41.07588894093349,25.896804153958694,24.570360293269022,6.519748324774157
31.218078976424938,104.19986481945587,67.74023252125124,18.588609928920924,41.28779530106602,25.833041818650834,24.334723998818816,6.575225709554179
31.2789364840329,104.20820873830263,68.55677931615386,19.355951266311305,41.444123209423616,25.731224044524357,24.062687142641053,6.6196113377219215
31.308871308071094,104.0258812111335,69.24126675504286,20.104365996533048,41.52927137210859,25.593146797753935,23.759407985982076,6.655884530700769
31.31390973577313,103.55053103869457,69.72598882747857,20.848569356103077,41.51272358222742,25.41011989715834,23.42476158512629,6.690244827540112
31.32593312256701,102.79361891891831,70.05882212914159,21.626932939029157,41.41600412463388,25.195280992191645,23.079009721904242,6.733715562690145
31.377881518756475,102.04099516357839,70.43891272524331,22.451303472943582,41.33804198956254,24.99709295215867,22.763237605997645,6.789923865204831
31.463734654468457,101.622161292388,71.0281872760922,23.27910465255865,41.3648223396096,24.854768290756084,22.498343569730956,6.846021027624393
31.540263044923165,101.52875205938949,71.76127763622596,24.05622660918708,41.46804413927411,24.74896624943528,22.25564897888808,6.8834272379970844
31.577260730251684,101.40576007774057,72.42321905196312,24.78323766338083,41.53660323973372,24.62094433386698,21.986633938190213,6.898932320499139
31.596585645632597,100.97891840078832,72.92158222737619,25.52056180203337,41.515809790449644,24.445524557146907,21.681496698198835,6.91055201748322
31.650016027450047,100.3909307190995,73.40954941865762,26.323771545148116,41.479691402046214,24.266615537012438,21.383018420100285,6.939823462926954
31.761929442223348,100.01671576196705,74.0981065128895,27.187855143358185,41.54131547105728,24.147081666027706,21.136270594975194,6.990865333955622
31.904982214551403,100.00012132182852,74.99518874911846,28.062512444306353,41.713807829802015,24.09357735469648,20.935949003966023,7.048853319366172
32.031088105162695,100.10054048929969,75.89407946374897,28.905741745881656,41.89365440131275,24.047045462665768,20.73355020123866,7.094814954077809
32.11105932528299,100.0024708421583,76.5985995691896,29.701793923208683,41.97346639764185,23.943060409392118,20.487982095537348,7.115809068769475
32.13745352686787,99.63548087095327,77.08167492189287,30.435295549996923,41.93140969371137,23.76233013959382,20.193390662649,7.102881533516834
32.108594993047966,99.10267476762145,77.41353637171072,31.086892522588766,41.80219359820845,23.52095451009126,19.86124996200663,7.0518088676233175
32.04095254534327,98.42011432867432,77.64411002886258,31.68517504413828,41.614878662521306,23.242403654347314,19.50288216087923,6.977886821685286
32.004899001062405,97.547307896446,77.86918033037686,32.35096995890501,41.42016903639841,22.971354703727574,19.151196901255332,6.928338961644435
32.11863459309184,96.72271488784965,78.37850263314269,33.24433025654494,41.36629831472214,22.8055070550443,18.885619610351384,6.964289122100133
32.46229967622633,96.56100488588795,79.56112938830346,34.424766706731454,41.657571466265246,22.860718495252435,18.79338159364295,7.111761898290247
32.971169102609196,97.55395194926817,81.49964708771154,35.74690276869193,42.34845979958219,23.151824844485198,18.87179509181319,7.31968480755385
33.416418494246514,99.38448916521135,83.63576777385406,36.89990733130569,43.16148370330179,23.496064377121726,18.966805684906237,7.466654776839646
33.51770465408331,100.82920677238418,84.94330542737681,37.57603354529587,43.56170304030599,23.565857635786838,18.83318437397407,7.42151205292578
33.122074511363785,100.48427232692316,84.58565225492464,37.661376443667244,43.09307223712675,23.091338994332776,18.292670178611054,7.124460245502764
32.3403325275495,97.74770104801813,82.58086308788911,37.356892686763835,41.73652883029015,22.07612248583488,17.379188961175043,6.647517131484784
31.571467134080674,93.34858494632783,80.02299938015832,37.18881723716279,40.04474712867641,20.880933368894162,16.378788840154613,6.205142481942564
31.392146894989466,89.23044645379146,78.76650370755647,37.86766378399419,38.98951016315184,20.125179976459055,15.746553190677854,6.093470248165907
32.30323943471386,87.96688106848788,80.69586294894708,39.94957725821459,39.5808795780514,20.43304751639358,15.920764174089543,6.547144120152873
34.36778032628916,91.7320606753714,86.6833257163109,43.35906350114138,42.317014933974654,22.07286374524892,17.059173474896507,7.546505208131973
36.89284144341869,100.76515694497523,95.45942599350764,47.03127975151915,46.58328838248349,24.592150642932157,18.773817358973783,8.678951631755623
38.41270491649505,111.87416499251222,103.044299376521,49.020819428375404,50.33364178726019,26.66867354557121,20.04239509511156,9.190682437120472
37.155184851201255,118.31472428122068,103.59999395169183,47.220091444922005,50.50690727854135,26.437116647142656,19.49074647806295,8.291996137424393
31.876796107686747,112.11469143650608,91.9251706509906,40.41302595741506,44.31762797186549,22.337664191097787,16.051399554895635,5.616521597259862
22.629473790242113,88.23176403388739,66.5046290189526,29.073392721959486,30.88141897617003,14.123631323217705,9.690793071096689,1.5888637618056716
10.954720876160717,48.11479340153861,31.148006018690744,15.376989978385469,12.14642070055816,3.385076037970436,1.7251772902507434,-2.5579326608007076
-0.6976411305852454,0.06504787608570586,-6.199594354327278,2.3334612224460134,-7.655831823978057,-6.896226361928704,-5.5882885772114,-5.219728742354459
-10.039601806049195,-44.28699003028905,-37.08988017039288,-7.518269152677139,-23.903273705850975,-13.670640008295184,-10.06151430658533,-5.169307177127489
-15.889631793576848,-75.42875592825054,-56.51608400205969,-13.128328484618674,-33.73880773132725,-15.32490077659855,-10.653022371690724,-2.2640160481766443
-18.466141358364204,-90.02120363202437,-64.73385918997813,-15.133071017930222,-37.1811791023224,-12.480580450688006,-7.995549776612646,2.2747747450395033
-18.956152756125746,-91.24049796866296,-65.97645006676387,-15.230100728198693,-36.58785667462952,-7.608883663343194,-4.0733826844528656,6.220056472816433
-18.755126942039418,-85.70382804600432,-65.23880270116844,-15.215710419841285,-34.989435969669714,-3.7253895365826075,-1.2575353006095387,7.2300354372838465
-18.898084991946057,-79.49806274103531,-65.49445820322131,-16.257319741125613,-34.496474734510855,-2.9738736098467013,-1.25733857573894,3.8786973860040703
-19.925276859382834,-75.92133730721038,-67.02416829091558,-18.673471111489675,-35.71537668675554,-5.875146370935015,-4.518990203478493,-3.670197910819383
-22.042015001775674,-75.65310553839294,-68.67669754820734,-22.12830650523444,-38.20537081024172,-11.490557907992464,-10.273006816263155,-13.696327321846319
-25.28189596457656,-78.10115381903316,-69.53022068241438,-25.994785270292265,-41.290659668515154,-18.18604015183788,-17.077623606564956,-23.674178862476115
-29.521985375881506,-82.36575307200434,-69.61501886898198,-29.692084741144473,-44.55311505857978,-24.466845336026935,-23.527259654063172,-31.377678296582793
-34.403990297098765,-87.4240982031486,-69.56319200070239,-32.883416190022615,-47.85061935068277,-29.490013530530906,-28.792831287293453,-35.76216612827486
-39.27844883489901,-92.14584376191617,-69.92659789506843,-35.459599111477715,-51.108563389595204,-33.105363395304494,-32.74952397776879,-37.14729790906676
-43.22653832494895,-95.57551514828745,-70.79078070669594,-37.31129558992605,-54.115611480495154,-35.47010927709988,-35.619474771134605,-36.620182391364146
-45.168021629819144,-97.18660926652394,-71.72895625097385,-38.04586415267228,-56.36929861127296,-36.45722512814954,-37.33089510317973,-35.0570789186681
-44.0779018019525,-96.70605397557449,-71.8879903316912,-36.904714249535225,-57.00156919462629,-35.242838678838446,-37.05099953937047,-32.41167927166334
-39.319190522185195,-93.72955384001641,-70.17145425247861,-33.03417663519139,-54.92721147899471,-30.460635147973793,-33.3442925159015,-27.747495969743213
-30.997971084139206,-87.72002909992415,-65.58789999265964,-26.001723038836182,-49.30460853852305,-21.008022922182615,-25.031675672613837,-20.00407459678792
-20.145936218003122,-78.51452833707243,-57.63752945765722,-16.250553078437534,-40.116346419912475,-7.105879051458548,-12.298185233957726,-9.014484423202541
-8.56837738004528,-66.79555945742838,-46.4737949195499,-5.211543486049533,-28.47749854576666,9.078693118450005,2.677488697302418,3.862271438064327
1.6266893212664228,-54.043081267341805,-32.822829952794514,5.007443801622992,-16.440203518741843,23.761546235984735,16.085379362857065,15.902415613548083
8.620027171973017,-42.16346742816975,-17.978579911660884,12.230244138025618,-6.436540243783378,32.79318492128016,23.792426288904963,23.94416203865913
11.353685301327896,-33.29077928890902,-4.057489759296478,14.894223725327333,-0.679315439029061,33.27786720694335,23.021720127124258,25.661256029095217
9.747715863596312,-29.724573564934964,5.875441087645194,12.571765942689941,-0.6767609296464232,24.817900892442122,13.626137408407596,20.598075751355733
4.650235846533903,-33.40846139012744,8.469035646223093,6.138142553948221,-6.809781431973539,9.821767815119467,-1.6509973115172345,10.481841908383979
-2.431594108010144,-44.729932986135324,1.6284678384373528,-2.508099886839377,-17.991550761333446,-7.295283386479282,-18.11440570646848,-1.364948111466358
-9.75325972201677,-61.446992513744696,-13.928066757667708,-11.08975320675355,-31.671425971513646,-21.74098087396368,-30.91958747714295,-11.291624899540807
-15.800866167382987,-78.92417841458547,-34.292625486352186,-17.696921276702376,-44.45567748533964,-30.14591266234097,-36.97121208062966,-16.722666251435317
-19.659804635570538,-91.94719877341674,-53.64723501635009,-21.322631714909775,-53.24763768113257,-31.732121261857127,-36.03869431807791,-17.07442394318131
-21.17123725540881,-97.07531404262268,-66.57121293143487,-22.011268771034374,-56.39116740465532,-28.309180810702017,-30.564196977361703,-13.790424701885234
-20.865572670905255,-94.12839300126744,-70.2002546762562,-20.646685742956404,-54.25239266136961,-23.15658031333933,-24.310755021650042,-9.520837957981978
-19.742393858306947,-86.17391895638373,-65.30391744291572,-18.52695018069436,-49.01093644528164,-19.440119785090882,-20.589181359875926,-6.863273590536653
-18.966761820612376,-78.26043028799786,-55.89665902375233,-16.88379093202685,-43.80367622810787,-18.983830885037676,-20.94316524472358,-7.260773525195423
-19.525507658984164,-75.38385898096352,-47.467657183213795,-16.490591487626133,-41.52536846368504,-21.878947043711566,-24.816156410360882,-10.548845818360787
-21.915332997293515,-80.16257146638509,-44.41293960962972,-17.49945548354267,-43.642962979163045,-26.86679565259163,-30.16427031762217,-15.305780713063989
-25.99658281788431,-91.09006933505343,-47.84773202357149,-19.58794034125061,-49.4856375093187,-32.10252096892028,-34.57938782796815,-19.750413820064555
-31.128176900777813,-102.66828776392258,-55.16728266619201,-22.333079864812447,-56.48988261645048,-35.92814682068878,-36.39307701304427,-22.67127434171135
-36.544320621697324,-108.11647303466721,-61.89946914283665,-25.560212649995613,-61.50852527079273,-37.45475368052703,-35.34873292425814,-23.909658571734926
-41.74878871388123,-103.5337621526524,-64.81376719142774,-29.407491576529317,-62.586303364914826,-36.84347287227295,-32.62022269587879,-24.216831385108847
-46.66683343168466,-90.8334407929511,-64.16856961686881,-34.05546753947266,-60.12013609169227,-35.18821096113923,-30.188884411105764,-24.6645087576415
-51.466525818944554,-77.16174717182604,-63.46823330267363,-39.340343311451505,-56.59758134320362,-33.99148354135578,-29.85893010418988,-25.996646870517324
-56.20703144444389,-70.86748030472879,-66.8947521268168,-44.573017806069906,-55.04040919478588,-34.426643902032595,-32.38345003647332,-28.274638592543862
-60.59252894967916,-76.56710985064458,-76.25334670295094,-48.737301310760735,-57.16479680260783,-36.74815818447414,-37.137344028566815,-30.947349632494312
-64.0196009207806,-92.50543263504007,-89.54856986591184,-50.96033689123979,-62.433470168764266,-40.17951545306443,-42.48863920757854,-33.22724993740787
-65.88462734596544,-111.81019410295573,-102.07955197167003,-50.95086509659793,-68.53075351115154,-43.35590184589634,-46.644698565481455,-34.51750805743395
-65.94015491383138,-126.61621579185018,-109.20560139848719,-49.13151653829345,-72.84122711849011,-45.07397265985901,-48.50810856707978,-34.66546895665679
-64.48374097039438,-132.27477287702968,-108.9438990359753,-46.4200867524894,-73.93259635641732,-44.921764667603604,-48.10888302855914,-33.96512511242013
-62.305222781959465,-129.1625736395329,-102.91643308258222,-43.84756171837933,-72.19057342879739,-43.457190131011714,-46.45412963462584,-32.98149096444196
-60.45648956531451,-121.55363121940279,-95.39059565888837,-42.23846183931574,-69.41427927238392,-41.89256940907619,-44.96082629284929,-32.32414384955931
-59.92483161483496,-114.90359406811079,-91.18630983085373,-42.021558863596496,-67.78113089469575,-41.49306932719965,-44.79503771588137,-32.4477138298291
-61.240052025378546,-113.28315787866666,-93.41972711587258,-43.0962957177589,-68.74017344419656,-42.954294839227984,-46.376510733591275,-33.48948464108641
-64.07550847458897,-117.79866073208039,-101.7568390474471,-44.729947555484124,-72.21455241465537,-45.95703317227226,-49.16395579851278,-35.15410063008023
-67.04306185293004,-126.04607654929531,-111.7425797327293,-45.62401146598338,-76.35430379746059,-49.063202147876346,-51.7715046119285,-36.71125834261038
-67.95876397628693,-132.72530742213175,-115.87330129869177,-44.316409069315455,-78.06812708594586,-50.118623440535025,-52.45994550203817,-37.18907072371612
-64.67927929869046,-131.77023968113681,-106.70390276354688,-39.86616691691983,-74.39516555006507,-47.19494885922377,-49.94342396693325,-35.757474583237695
-56.21839721581963,-119.67961113194649,-81.06536435347363,-32.476626547899755,-64.27138910992859,-39.75524153213035,-44.20765744329256,-32.14902449315357
-43.53694137984411,-98.41757583357823,-43.17459702035662,-23.637100430010616,-49.717193800629644,-29.384930919836417,-36.84193421956205,-26.88030248256334
-29.45039414837821,-75.75024065932152,-4.368197937477462,-15.603588474502827,-35.506900207599415,-19.463329182091297,-30.50835193298212,-21.10322509985432
-17.55362092842228,-62.14309302681455,21.109095454815503,-10.435131205732391,-27.182684009316525,-13.70027498176619,-27.648853737533138,-16.11308128889799
-10.653207042215563,-65.60965260422769,22.381989863798992,-9.082584994031244,-28.3565150653545,-14.223205637790183,-29.07726381610093,-12.754601664999502
-9.529653500921963,-87.41049366990538,-3.0184701460084096,-11.00512919122005,-38.795601471375235,-20.317738089189948,-33.30744858832674,-11.055105719418881
-12.682387402138195,-121.09978201378965,-47.99590037177266,-14.480612784343897,-54.37266024530332,-28.637670178612645,-37.12247075494302,-10.298109044752506
-17.149452688762725,-155.4130398878097,-98.97860285497147,-17.396349522048446,-68.87547234376336,-34.84881382692751,-37.173971783344214,-9.49537060455892
-19.926779661485835,-179.28462949181028,-141.401061239952,-18.118658396273137,-76.67310533732447,-35.813555993858024,-31.772296710364323,-7.989180316018942
-19.281369125266348,-186.32973364607025,-164.9276647789085,-16.10927613159044,-74.94154871571834,-31.12196966581088,-21.892529011826365,-5.855881951921601
-15.402719231233723,-176.8826705808848,-166.5122094121517,-12.118564513291835,-64.58345171285664,-23.192267960833224,-10.851490178065841,-3.8932264252106275
-10.176196312247766,-157.2773118430459,-150.66178908447012,-7.885948170797146,-49.67204242005561,-15.979855744806434,-2.8177655259292265,-3.176340978516733
-6.207557051267967,-137.14926505435645,-127.15706258168662,-5.374571727044993,-35.75688612083561,-13.027679801824604,-0.8846571421518429,-4.376453086431402
-5.511187062008487,-125.69238915259524,-106.95104799188739,-5.782406892125435,-27.615584396587277,-15.810368667392098,-5.598492702034799,-7.1836080841589105
-8.44773305537699,-127.74643014564658,-97.51071116690962,-8.81787162158401,-27.19815689261599,-23.071115626087277,-14.588511148763725,-10.180622119368028
-13.45135989079893,-141.02108353412294,-99.48238347960653,-12.724726564016668,-32.619059493778025,-31.36325076801698,-23.461765453726237,-11.327673895136108
-17.74528772997474,-156.16758935513312,-106.51168078743783,-15.149014162950355,-38.84899421983461,-36.527100984809486,-27.60466138720431,-8.888734738689685
-18.71813450495417,-160.5999282701136,-108.70946990136358,-14.388555295882789,-40.03688510979221,-35.47912304839559,-24.134816335596817,-2.3398932363410863
-15.231064472956653,-144.76463893453385,-98.12533472550852,-10.281176678838445,-32.421762208387364,-27.543368037385566,-13.13020711624422,7.2510257604122375
-8.140034281508749,-107.51083507107728,-73.1688114892451,-4.21034434534223,-16.272297160023523,-14.71518357918216,2.452983393613897,17.619675708075267
0.2256532481325615,-57.240447666245124,-39.42623071866115,1.723426800071185,4.260577847134784,-0.7278986903236093,18.138013377043887,26.282675157835417
7.27700993950815,-7.9510681010856175,-6.535758278174419,5.8108766825366,23.277423413409693,10.608884278021115,29.873628454530333,31.57231720573733
11.352956265309174,27.544737320712862,16.826489401316916,7.460310544140775,35.98405906201955,16.961324377797347,35.59682758598687,33.19595113632787
12.260986873781151,43.27009848593802,26.848826728382498,7.205928682994409,40.66494813832716,18.171465424516672,35.70396996605098,32.09818759387155
11.010595693408805,41.5896871523674,25.396212578229484,6.1554345792069745,38.84862135412864,15.870890251465706,32.361010370200646,29.811036382011004
9.063651920512466,30.36180883334283,17.88635386094775,5.33339306613514,33.90337458819198,12.378006158832614,28.195389506151525,27.713911462083054
7.612487291933373,18.162748811281194,10.06489882551538,5.302469683978117,29.148286616508553,9.574794216746131,25.134060904949546,26.572677234367024
7.221772398953783,10.63287979052564,5.663744650452896,6.136347505534542,26.572575131043497,8.322443417056943,23.89963775687058,26.478489681828446
7.850258817111447,9.448802496692691,5.761873896411469,7.57985749849973,26.577955113023396,8.527173346046784,24.188171486131367,27.068854367335373
9.073486095638756,13.327131290560768,9.39230728366305,9.226233513431168,28.440841943461667,9.57206335802893,25.19189958139466,27.828245634770575
10.339793572251736,19.584785166990244,14.533233595405552,10.664325792001732,30.960140170098075,10.750097716342689,26.094139126652518,28.323379611931603
11.186758639033402,25.36089767707211,19.00430125157834,11.609928538398506,32.97887035733583,11.517719267830305,26.355130759149457,28.32475196310752
11.390040476571142,28.46745533408815,21.198539778559248,11.997240599889496,33.73503121618473,11.587673250294731,25.79611393367102,27.82564018896356
11.01319469983531,27.993929525752797,20.590268390362432,11.98300907243465,33.051322933828715,10.934984906900747,24.553032782388676,26.99236096688447
10.350484076248275,24.49641005868024,17.846074336542078,11.87315354260565,31.327201656981106,9.752992705245017,22.961314471414767,26.089025831277862
9.809750731679502,19.637476999467857,14.50487809552478,12.0368562105174,29.346876969180684,8.383375208446077,21.42897293318541,25.41169477752461
9.793795767209764,15.56121313972154,12.44991532522627,12.8307554633661,28.021296724582406,7.256385628738511,20.346572555596588,25.2294953851146
10.580676250852521,14.394028548075749,13.373202898409009,14.472314331434482,28.155586396167678,6.838266272595815,20.02595514852699,25.694761665052937
12.164173893486963,17.782087288960742,18.155034022054828,16.82470946069741,30.18374798355939,7.505470204317883,20.596737241595488,26.706185632532282
14.083531718468791,26.026075401966768,26.04926280236645,19.207749203978576,33.78800961707637,9.278965267493,21.823673105352714,27.791340852728396
15.38963481982819,36.90052095720438,34.029671392493626,20.455372494026754,37.55567468797386,11.518803588573244,22.94980636799595,28.13622012385878
14.899160829773983,45.217210358354,37.10361578782995,19.326459715954712,39.075644880768984,12.854080396231097,22.773073184361177,26.839337281428378
11.70623225152001,44.30738441724258,30.083029753088695,15.098076462264657,35.75277720186549,11.57867811618523,20.0695887555302,23.31433860171853
5.68769742325196,29.276540092209267,10.205005844579333,7.981751489382196,26.086466059103426,6.43706782825144,14.21418122702746,17.626333715146814
-2.3236715066852507,0.16552311476426318,-20.95715623660953,-0.9069081245643035,10.665633638786886,-2.6121190283525317,5.63798896658584,10.549539004383522
-10.828565033600446,-37.28926194724079,-57.67874195023622,-9.989288676872466,-7.8267592349742605,-14.138230880781329,-4.192790938869396,3.2966919150090885
-18.232564424114948,-74.14994464832944,-92.42610235660693,-17.765368387670843,-25.686200522075673,-25.688845910194377,-13.302828872198784,-2.9182115549835053
-23.338195007135834,-102.5658384274671,-118.92795069229967,-23.121838168474657,-39.686131510524405,-34.71037684267164,-19.94194201478918,-7.226633431294237
-25.492251665776152,-119.01049070592192,-134.05544896344728,-25.31827258498103,-48.07584840736377,-39.41913877687409,-23.117557987737047,-9.206637376752877
-24.421415379762863,-124.32225282038499,-137.52211641129816,-23.868280320161634,-50.55526818778257,-39.184785137586445,-22.689648687041373,-8.796045153378143
-20.040115715088472,-120.82063618747328,-130.09307579633068,-18.610948833758503,-47.49469468940906,-34.36470217808305,-19.111242784410027,-6.20120089113941
-12.494134163395849,-109.08130472903407,-112.09218804294663,-10.021948651792444,-39.21194226717686,-25.88994507186528,-13.104613148617062,-1.9097469052037985
-2.424824155466626,-87.19569394799272,-83.5820740965832,0.5279758889192724,-25.965170211919045,-14.961334790766745,-5.507820220611172,3.2663794270349484
8.837867279646577,-53.19504664312817,-45.996545695836005,10.9420133395098,-8.605912411350761,-2.968512128228827,2.7060187997967904,8.278459359393606
19.454364428977463,-8.578930978710693,-3.610026044298092,19.077785299188793,10.806174774823921,8.533949417907209,10.417255766612906,12.120671289705658
27.652866655259892,40.11592321974308,36.76619973985188,23.607421755053362,29.146273361078215,18.014709119640013,16.52041701014005,14.18282879572256
32.409611243143445,83.27616651645866,68.10336053099724,24.542471918289845,43.249963025454676,24.355815939564845,20.245797447354605,14.466384811911428
33.82542064163266,112.58967196002355,86.14810335290925,23.101221646253524,51.239036203043376,27.24689223257892,21.455312072571143,13.525437054831626
32.96954653493758,124.9564895846925,91.1725848744971,21.009799695261922,53.293647041226414,27.30224485308102,20.694206627668557,12.1638551531929
31.2952584292484,123.43521722065142,87.39304074933277,19.668952020733077,51.37371043128642,25.765733608082748,18.92464261685871,11.063699694524654
29.98501245350797,114.88035887075338,80.54374702857086,19.656705689656714,48.10419025155946,23.944215930471362,17.08566816042487,10.545511000691624
29.58045521682245,106.14992662603035,75.22264968543728,20.76188519374604,45.563884559784356,22.700485141805967,15.74231219173092,10.557478934603097
30.01425172042648,101.35573051081172,73.49403367287296,22.379548917977576,44.66283807169117,22.276323181785138,15.001940482469134,10.838574837704002
30.89353586471512,101.3344096927842,75.09667538342062,23.931102853772213,45.26215035464304,22.457495112648576,14.667165745258675,11.114686155927092
31.79519745101545,104.72976740529829,78.5329654441506,25.08627962171401,46.685494153126456,22.87110407141019,14.453466459854695,11.21744020864833
32.43720150950392,109.38458509857959,82.12860635951392,25.786037868329906,48.19291512558656,23.20274403337461,14.132466015923002,11.10770133433076
32.72998613838443,113.3277402077766,84.67688015275607,26.170711483558197,49.25057541128481,23.278823980462633,13.585952144249385,10.84524165901917
32.75465536170526,115.3906809842752,85.73556735110016,26.474466689878636,49.65107226401719,23.07615492743979,12.818239495341983,10.540109235082994
32.68576061045127,115.5317956628075,85.64038994389549,26.89709015686921,49.524830162866856,22.70031387038208,11.939190154923587,10.295996843672356
32.67796287278758,114.65057063613543,85.17699539049146,27.49768717420746,49.206143575647594,22.31522329072514,11.095954166261372,10.159074119675196
32.782280168090296,113.8459385984827,85.02635621489996,28.193048249884605,48.99208328123391,22.03197656278749,10.373344298753823,10.102593262714018
32.96050730125311,113.66548148530207,85.38999339669455,28.876782836482015,48.97852839761654,21.840724089777343,9.742195417165775,10.06309745449361
33.179674479699976,114.03005978939926,86.11156667106194,29.548794532160997,49.123041973974146,21.6605177948628,9.108769226325256,9.998272193422705
33.47892296858747,114.81136327738662,87.10267465573588,30.31763663650476,49.44047659370679,21.46154175309308,8.415865697984698,9.913085092928892
33.92575322871643,116.27519949700422,88.53757772948742,31.26715153807293,50.0702196488104,21.32288629542248,7.690860065199506,9.834756720010706
34.502775261402284,118.77385983042402,90.56388235901666,32.32439803638306,51.097618016749166,21.352996981766935,7.000489333483332,9.77181459906526
35.0491189951547,122.02031865994262,92.87277794844601,33.26240344724961,52.31605488788141,21.553433278398018,6.377114885035932,9.703466305609412
35.32904106510466,124.83987634922761,94.66408527015714,33.83462877482423,53.21656934389204,21.76811293717408,5.796997209540894,9.603524757854306
35.18112806213868,125.79344204098005,95.11657087741338,33.93452261773322,53.27166058935396,21.76499554358793,5.210122052506413,9.464815182712996
34.647315039932145,124.16253166295375,93.9747286178258,33.69678142872179,52.3062325683116,21.373291681650137,4.562338489359192,9.301269389963881
34.01994218525258,120.55323899196341,91.8452142971891,33.52116440192466,50.71210585251751,20.587924621868193,3.7916550518512095,9.141229481114724
33.78848237641904,116.89113453160688,90.1262795315229,33.99092022005229,49.41758536524252,19.623592773868502,2.8496188025748057,9.03032501090708
34.46105944525052,115.95984609943123,90.63619379455335,35.619535285778106,49.6147200718831,18.91661083646192,1.778402250694646,9.029317829104613
36.24922977356458,120.42293143943266,94.85765415981903,38.436050486969535,52.21711881254325,19.008942159543018,0.7752842824439119,9.175848502477914
38.71895144554618,131.13360803845387,102.76511698126275,41.62107282120123,57.09729913670178,20.245920499828195,0.1361401064791609,9.416168098175437
40.65600500760438,145.2419711393865,111.74966984181133,43.527262505297756,62.45924754940482,22.37836227032367,0.068788936179755,9.564674748994767
40.380782258725546,155.63816651677735,116.67487094216524,42.25561556898985,64.95081220880375,24.356398274782205,0.5093170667863746,9.345310344596339
36.48941304637374,153.16373933573135,111.74047600456615,36.57408292529774,60.87431521706217,24.592029552799094,1.0977435558495208,8.501462092463502
28.658605496807755,131.2098465587434,93.54284705087494,26.66408840350793,48.10036439914814,21.67759574612124,1.3441934552394543,6.900694434621612
18.017152350335056,90.13196132749624,63.529688150112214,14.223994797261867,27.600854952579418,15.19269350925641,0.8740044603060199,4.572777938332803
6.8004821710692305,38.397303922990616,28.096189407235652,1.8288425540472815,3.5381625086417734,6.110138288550098,-0.3938978228210407,1.6857251981555037
-2.566896993370453,-10.749031430016831,-4.023859151336715,-8.11554675670539,-18.332636620455364,-3.4757991795883845,-2.2130056449788764,-1.492516169112727
-8.468573686885108,-45.377678423689304,-25.66776368808436,-14.267115178012384,-33.13637961022058,-11.18355527761285,-4.112427197362252,-4.6224406395107245
-10.646393028928761,-60.16447701586839,-34.21346214792508,-16.663059062320674,-38.86576213152066,-15.312989000932866,-5.579224603943568,-7.33737359673995
-10.066332321917338,-57.87575676074085,-32.011438465642755,-16.398024862366327,-36.85058972734266,-15.471302969311498,-6.2454425349305875,-9.335981642369099
-8.265962035052944,-46.59248456648623,-24.333689108239405,-14.949782982390714,-30.626121749214757,-12.600593196226754,-6.015529743828432,-10.501201651349657
-6.595954367986467,-34.882896500833425,-16.379300192814746,-13.538579995581987,-24.029674234135243,-8.479110592661133,-5.094802425896378,-10.967733224536257
-5.7300744860023665,-28.00094695611983,-11.160689389223286,-12.77028916540993,-19.625124420539798,-4.984847242425007,-3.901381208733481,-11.066448615377
-5.58806601570411,-26.838521070499045,-9.122197453665978,-12.611158820151624,-18.106305569635065,-3.4226511894307254,-2.8695323941136173,-11.147539688510205
-5.593033049568888,-29.211655422794134,-9.064810061930306,-12.614104981233215,-18.631337173708904,-4.1122882628438,-2.211095605184666,-11.371335358099953
-5.0885940883266265,-31.932339266513246,-9.391957787789606,-12.268605690672947,-19.635224854491444,-6.345337464563174,-1.7763706920442157,-11.592037365750935
-3.7415737715061055,-32.47514203557929,-8.99848029487183,-11.324230592400147,-19.68561428824015,-8.750508406134765,-1.153172659325734,-11.414943343166009
-1.7755824275634253,-29.892400626750675,-7.647510790339411,-9.940767178225478,-18.114356958721977,-9.968097772780604,0.004524545242720501,-10.407998987766073
0.08201887236141107,-24.97399778127302,-5.882823674514775,-8.59265265578958,-15.244240327797925,-9.327990064176182,1.6329039633710123,-8.360830161884275
0.9472770689558395,-19.608319257423876,-4.529507761294013,-7.7959667811432745,-12.109107158726143,-7.134890691708307,3.1808266097080664,-5.463901454320731
0.2608099623093887,-15.544096330986473,-3.99515153862721,-7.832160175875767,-9.788590415457,-4.361000799712964,3.9061458183519537,-2.324284384544492
-1.8593830310485382,-13.2792624916308,-3.8249547436963356,-8.617576218012847,-8.744819771887625,-1.9413048787309646,3.3688852037489583,0.20213249032667055
-4.591061852820129,-11.879990964944406,-2.8840432075113753,-9.7433333659657,-8.575852230039139,-0.1469342778708451,1.7885654406455633,1.3244360593032016
-6.719809057833787,-9.812566750414012,-0.06259140503729235,-10.619623700213367,-8.307111790350552,1.5519616440267021,0.01898420792031029,0.6722136837883916
-7.142374336965835,-6.033090180922839,5.010290667480565,-10.672115505072437,-6.986856726462524,4.061683790390224,-0.8694313151356209,-1.480164683315589
-5.357586046137519,-0.5279445595568018,11.6721697831789,-9.576249360871806,-4.231544737958997,7.956788267387067,-0.1866227607319871,-4.287229586662315
-1.755322300247681,5.811009802212727,18.372308832564894,-7.471502383300444,-0.48742915869800985,12.918998176031733,1.9220364648111756,-6.720384407922754
2.4439013098984614,11.561369050109587,23.06397246471844,-5.010529171513342,3.074613096617938,17.67180010097116,4.445620659905624,-8.062759820586068
5.645342338208156,15.157465289526616,23.789201452083994,-3.1189237896609434,5.034370184243582,20.510985553915994,5.995725971250748,-8.19928046961087
6.591597461686925,15.457137174542133,19.502005886596965,-2.5244232722262128,4.458994737914717,20.21552481662988,5.6139364421969535,-7.52363030554721
5.0010214902926196,12.53249386102787,10.910800981053816,-3.3149090855992895,1.5828045761932545,16.869858941587456,3.455497495550793,-6.55790165326505
1.7763721954929517,8.159413825580248,0.7460086709573468,-4.81146364097096,-2.0242054786892636,12.094929402839421,0.8989435753736043,-5.5742353728596905
-1.37474411499885,5.312597014208719,-7.058431633394728,-5.865720827747686,-4.069608548939841,8.455061294708715,-0.07088090525845729,-4.479504738932507
-2.7514562320735165,6.663765353206681,-9.10131400293165,-5.450249916005704,-2.716744640553168,8.268887381369755,2.0840349625628747,-3.0160556616745944
-1.5134352503320252,13.002709441810618,-4.268427462393631,-3.2577029949853635,2.323116534186902,12.419664446718402,7.546511841786548,-1.1083565502418813
1.8400678945262687,22.66329762517214,5.516627589526086,-0.007019996775909429,9.446075495505957,19.7888483561838,14.897868335416485,0.9043066194422648
5.615013365854792,32.28176087421399,15.994685940236332,2.7457802021850686,15.791030428610364,27.62373513450058,21.687949165507547,2.3292743869098262
7.665446490137712,38.341129374799664,22.402078646755644,3.2903467980297894,18.547172364195724,32.700504666251604,25.550311472648847,2.4729037419333144
6.42360104895721,38.68930382707174,21.606740529738264,0.6600752743187482,16.30087556426578,32.77378211111967,25.319525034514466,1.0924658242717138
1.7216210078264356,33.459242136875915,13.601511283659754,-4.740235629009522,9.777406311270138,27.638873128397975,21.587254987771587,-1.3408545888780057
-5.046807350145093,25.07378943954195,1.6018693859400026,-11.198847334303782,1.5824472009449682,19.255048788840714,16.381414764425337,-3.783139915940451
-11.554988698748184,17.210159212244147,-9.447005936597352,-16.488070561747357,-5.000879690830336,10.813273879665731,12.105046439062374,-5.135195315748205
-15.640192410444522,13.037343038518515,-15.29174373913775,-18.94354573508653,-7.584060017415395,5.217382408557246,10.31789909584877,-4.836030664387149
-16.262892795168273,13.65461773965354,-14.38274698165714,-18.200598988933766,-5.7509752673827546,3.8173262073987386,11.0739624395148,-3.14539433275711
-13.820565004935146,17.783276682448538,-8.284007326414029,-15.199150916920374,-1.0179496993134356,6.077408668608774,13.182435885218684,-0.9269079904458424
-9.723412935275855,22.95028581798651,-0.33500848961811064,-11.546077178672238,4.241196265807495,10.246996656518917,15.141669738246977,0.9079371487454848
-5.569179891125804,27.223497310457564,6.403918981436636,-8.675126643121303,8.149812734199912,14.472914854086373,16.065201695129787,1.9070887663049596
-2.414735203327096,30.16383813783167,10.55456402975799,-7.2653863163816625,10.105677873649398,17.61722912815664,16.0071303618401,2.2155471837125145
-0.48368404266545667,32.473963444077505,12.51357637360449,-7.142302795884001,10.64813313568913,19.405182451007228,15.603573344290853,2.31239135206281
0.6535594985528652,34.98576221830904,13.589983921843311,-7.60116923804865,10.744767884285656,20.069684529048786,15.439226475712989,2.588879416938238
1.626706702227514,37.969153258641036,14.987981643634026,-7.914489218807747,11.088134011391617,19.930031098185747,15.642705331171301,3.068939547750243
2.816749967313018,41.10880119406601,17.174707093537833,-7.746224250912193,11.770617222839105,19.204345788965686,15.914130619100682,3.4198535792964213
4.132068838293481,43.79181859397368,19.734729394114648,-7.277722532170869,12.348407707553111,18.04401837711065,15.820551224239548,3.1893344008680193
5.091039127047731,45.32836872794104,21.625225121116653,-7.020422404179659,12.132268123044582,16.605254996050725,15.064550009148663,2.087770667606051
5.122710542192562,45.130294332167566,21.714707625295713,-7.47415556743966,10.546930262540974,15.026057630362553,13.562913549210727,0.1506814134543016
3.8789940466655506,42.98263892411557,19.369509711815834,-8.866436377769023,7.416616014854584,13.32235575945255,11.368715394718734,-2.2880991339933336
1.372831203820089,39.245606955666744,14.737464683264932,-11.11104405971229,3.036019450902374,11.304751325426691,8.559725752211534,-4.775584297420181
-2.088641742009789,34.69825605613996,8.55434283837114,-13.936006699071084,-2.0133205639717544,8.614220254021227,5.189345010694176,-6.960555093262594
-6.051353912998097,30.111501607787147,1.7188356492374317,-17.022945020005604,-7.144398489063611,4.918020449008727,1.3322723018488771,-8.732371976744801
-10.002247575769333,26.034435642961522,-4.915660293105344,-20.054479222127085,-11.895027943585513,0.2163615211177381,-2.800047585639963,-10.207318870949353
-13.379716695730409,23.056285720038876,-10.39755443573741,-22.694170654217544,-15.820883835606661,-4.8967466981930325,-6.748867253644756,-11.579385664893108
-15.599986420770982,22.14597249277059,-13.54062613116156,-24.578862306235756,-18.336365417090693,-9.225670610916954,-9.800517243218218,-12.921294839744602
-16.174596007275724,24.437003579459866,-13.210959282119864,-25.35659309945925,-18.761993947648055,-11.330024604360423,-11.140615004680262,-14.045299701160642
-14.884240897724231,30.420106126754476,-8.96313408090323,-24.749296295195844,-16.622081755460727,-10.136613109524976,-10.136814104735867,-14.514341689194257
-11.904441765176452,39.26199656018474,-1.4841485900056564,-22.628033450940105,-11.975988537083094,-5.509723586150567,-6.637316332390527,-13.833801413109382
-7.808384223597112,48.96385321595801,7.589342664912512,-19.11187238125005,-5.534309389101124,1.5230486648140733,-1.1547465948545947,-11.755143006539678
-3.440248946882979,57.31189420464727,16.376750537416267,-14.66390269431098,1.5104560176035406,9.034209783329263,5.166364425408515,-8.527008746433545
0.31240205077648725,62.94791564487567,23.520953603826822,-10.08897838121389,7.853525388396409,14.895550226089775,10.853629968724382,-4.914105383629175
2.799594089002045,65.99435959098048,28.66598279334695,-6.349771167434516,12.5369929606191,17.68733884873296,14.648111121051477,-1.9160506495798948
3.845264784414058,68.10409094817147,32.54798791324182,-4.246101296978148,15.366380132003354,17.440031741455414,16.08772664651148,-0.31017365195119523
3.7944651198772585,71.89258489670235,36.633662368155406,-4.129144318217245,17.045023671411883,15.765610230103249,15.791381085022755,-0.28200237960873026
3.287016274873239,79.56488347551876,42.20690978742292,-5.803161139009539,18.767335495778227,15.118915816948583,15.158010628145906,-1.3715689714356307
2.859501103416205,90.90549226972392,49.12134944179341,-8.616014012894729,21.31201575187979,17.408442090561742,15.531503138703057,-2.7580999891107996
2.64423208360553,101.76300139998595,55.01831969676818,-11.622635235692226,24.174957742193502,22.692927111594773,17.300715750101716,-3.6856677105345055
2.3964208416722825,104.67444023891655,55.94484139019045,-13.743174696020793,25.485985116484034,28.82466615993971,19.546662692121053,-3.7700373896459602
1.8282926797729893,92.24977141181972,48.48480847267263,-13.956341767127237,23.008615049207133,32.41607370610646,20.535604678636428,-3.050572888427508
0.9705461529796602,61.77641587502678,32.228228402479324,-11.59356023406133,15.682337100867718,30.66676785733072,18.782271310156577,-1.835370984241811
0.25338812166413993,18.033208019436316,10.814162316558187,-6.670643667397804,4.638713082674639,22.97629199399784,13.999229399174343,-0.489693518498661
0.2326731126041479,-27.968503698030663,-9.428144716558045,-0.043228949867978914,-7.097294005482888,11.350675240039068,7.31796382972786,0.7061305282604576
1.179937836430103,-63.990045619970935,-22.569834437410105,6.8154847339266675,-16.102623400792247,-0.6332184431004243,0.6653540443724786,1.596742106367131
2.862697528908073,-82.40295143540276,-25.992779804004215,12.397380536729314,-20.28982140227605,-9.63201244249365,-4.260668447063536,2.1345171584802776
4.682394757942859,-83.30996018848525,-21.312551158939243,15.81081803901057,-19.7766973290545,-14.00795249823951,-6.754006560613054,2.359147402612865
6.050997421824848,-73.23300377030162,-12.885694077715636,17.108632513372413,-16.432868563482575,-14.195249392576804,-7.195810344193357,2.3834246505601007
6.712730953595431,-60.64047041320241,-5.102548736252619,17.09068430216527,-12.5697472003746,-11.973128839302781,-6.5713618406054515,2.3590228805828595
6.794018610618808,-51.48705231777289,-0.31619764052386595,16.738459608295404,-9.73341211216604,-9.296410152069258,-5.8344433233154644,2.413878750492184
6.606829521105335,-47.36997865218046,1.5092657952624793,16.680847720469274,-8.286992372665985,-7.41633256428075,-5.512852568284119,2.596771424318166
6.408600438854111,-46.603132156682435,1.7544437760631926,17.01513897517617,-7.767760940042188,-6.637298896177018,-5.673364765364001,2.8715995122692317
6.292479451748958,-46.60184419294939,1.825729220261104,17.504030914710068,-7.524094538829889,-6.605936283764271,-6.1265679734244305,3.1594663106497345
6.2235559338896325,-45.81714824703026,2.398229101945076,17.91952474257681,-7.182464032845153,-6.81869397658902,-6.691322452282543,3.386119775089674
6.133495073617266,-44.48206314546686,3.3275420125335544,18.286168468687414,-6.801719543970726,-7.050684286564108,-7.380527000021638,3.505005832223197
6.006049308180705,-44.223614189277676,3.9909782713684194,18.912184984933546,-6.747330244616482,-7.496831365195621,-8.408454520372327,3.508586441338553
5.935814336663357,-46.72791151625327,3.9023467399606564,20.21207441634983,-7.326184074014285,-8.531945093459813,-9.974650517131748,3.4498199826783496
6.131866805800535,-51.85605793151591,3.41833074486421,22.375745009860502,-8.304931668089347,-10.196532377083923,-11.916978683104718,3.4583949466002775
6.813446043691275,-56.29757476629877,4.052498380501278,25.01405189185948,-8.641520328105546,-11.751894148000813,-13.486312515305386,3.7090566022698193
8.007901107672971,-54.17988716192894,7.862839466015276,27.01980914005034,-6.79439072735218,-11.70909991480882,-13.498578963156678,4.331465797935606
9.390526760800379,-40.01572601348526,16.01725155543764,26.875224413378042,-1.6017207476704367,-8.470900190851397,-10.883590270492215,5.313679065524805
10.346420499166138,-12.401732502818613,27.527055489175176,23.38515153515608,6.816267016613876,-1.276504902219259,-5.333976275326076,6.469728761729296
10.28602285318129,24.219160185045492,39.3059562268855,16.447501795347662,16.84588259209577,9.136754869371195,2.364665698198597,7.488826396455974
9.013467550643265,61.35378906491313,47.789274366424095,7.314630339433934,26.11920505175159,20.602231789704874,10.549904040124618,8.015243227202138
6.8538520698917,90.85920377674026,51.057021370156534,-1.9351076851474978,32.73185406574826,30.312072054948626,17.31483151967393,7.698896383323564
4.40693016210796,108.95975492678191,49.87198380456317,-9.450250718275342,36.07473075999906,35.87121523949377,21.17726182593574,6.218056778296409
2.096640288275269,117.06130193769214,46.768975310308036,-14.501429712728978,36.69847776917744,36.042999302185855,21.438972366729146,3.3405503509032677
-0.12079297699518571,118.88754282642333,43.80552819059766,-17.599158280555752,35.382220627464754,30.877194668626945,18.154554696608425,-0.9234668222890905
-2.622121615278096,116.28797772915736,40.69819676326238,-19.754925433900716,32.21846975394215,21.34993054125519,11.905561607582008,-6.12898270265616
-5.625794088514623,107.16167329285858,34.896577900512106,-21.442959539822052,26.523334451467335,8.913651266081432,3.6354254757963624,-11.32538368970217
-8.735653841612379,87.29079949547933,23.692677092113605,-22.059990820474948,17.691492153246735,-4.74771035210081,-5.388970326625406,-15.26088174512821
-10.933164705720701,54.70111029261411,6.818227563746489,-20.312003440214674,6.28823215631487,-17.80145299902314,-13.65540875288229,-16.851503092870765
-11.102468622104247,13.059867351017335,-12.489234736070088,-15.249879641999874,-5.581890972864361,-28.446957677447646,-19.711873280875054,-15.691367750418616
-8.747675024829654,-28.697041274230074,-28.852213338877704,-7.180801472065782,-15.043671126991299,-35.33655824156745,-22.662599998498656,-12.295723457952086
-4.392092032718895,-60.480729564195514,-37.6585040830073,2.2218671773179333,-19.89153309001587,-38.065655237346235,-22.570549738753957,-7.900459753997147
0.6300343857392483,-76.1638416284234,-37.54258956537746,10.696309446635404,-19.731640699463487,-37.378834123949005,-20.459628828868226,-3.909542834492326
4.850831530074556,-76.32902191830617,-30.855870530089366,16.521224645367585,-16.07744241630738,-34.86523423050573,-17.846492574135482,-1.2963997135139396
7.367284278815063,-67.06239346698553,-21.985556377644805,19.255755940704358,-11.38716362613912,-32.25203717813462,-16.044186317926368,-0.28182211023465814
8.13274959386134,-55.96596459696,-14.816106388245087,19.675108902963434,-7.733270391565013,-30.68803741103861,-15.63549288641218,-0.42776901219037766
7.725601939254939,-48.24498035287954,-11.027338229090187,19.063454490671404,-5.960551358831844,-30.41974009078308,-16.397770278037584,-1.0322322834046889
6.8423502861591015,-45.16866807712984,-10.074276805973259,18.419402525078592,-5.731753329085557,-30.985951983016523,-17.656113422015952,-1.5513524044069238
5.908025727150799,-45.1268598740014,-10.385890728790551,18.08320940041765,-6.188139465084854,-31.71237655189461,-18.77820975852101,-1.804533924746659
5.036500174984243,-45.80736351174013,-10.654414961384742,17.913918708985396,-6.625828886540239,-32.1491312143707,-19.495977527093437,-1.8950362507194634
4.269010575609726,-45.89847634767036,-10.434919915892186,17.76352766214914,-6.789418376432058,-32.234001262602305,-19.928329056856597,-1.9649347127171481
3.8248343199603485,-45.6657761471589,-10.023162033665837,17.86413365147155,-6.78853240268958,-32.19951888920415,-20.388898845877506,-1.9801073810828067
4.1305932829376255,-46.50237679702749,-9.955987436978258,18.856477501086708,-6.842588499694662,-32.35628714732685,-21.13296430202356,-1.6909679702118559
5.56999032057563,-49.69914751830221,-10.407553043974524,21.396781643273375,-7.007538488582605,-32.85849370597153,-22.154757542531758,-0.801739511756828
8.070101659928838,-54.846830941618016,-10.704104416215843,25.493237798656757,-6.981634131953629,-33.52593968302085,-23.10876683931486,0.7316020198255542
10.751000304816023,-58.823594115857304,-9.327072607859266,29.92633851404279,-6.137392671980851,-33.82251297515182,-23.42189913943417,2.4397178538843547
11.906631291431854,-56.53348658353271,-4.71205805125643,32.214333088861814,-3.8970293807642222,-33.072760843890656,-22.599156950886748,3.3108937991646035
9.50870557336601,-43.592315106746675,3.4453243729327356,29.422992546115477,-0.29637955038198804,-30.8433325647648,-20.569657611859423,2.119205820301949
2.1682256833062756,-19.433830033461653,13.370242065337818,19.630625472524123,3.7308588624267838,-27.22738019311376,-17.80369210671423,-1.9588413436790115
-9.874804213185165,11.552727837442173,21.8363514759562,3.3009362622257714,6.765581433760481,-22.770504600989852,-15.02885538816498,-8.736460423603694
-24.368645856141757,42.11531130884774,26.16969718108446,-16.3571944270408,7.904963331926038,-18.042275626112882,-12.67736299219179,-16.806821176621604
-37.70006841727272,66.28086354704574,26.293737089497807,-34.49011232154031,7.6484386120793015,-13.185528453809528,-10.471795498644616,-23.95587108229619
-46.41551105207044,82.56865434582785,25.111580233748555,-46.71347004492272,7.853552413828123,-7.859032884589348,-7.537792306581477,-28.06424390712964
-48.857039735697256,93.71298104331744,26.5218330745515,-51.08647981862352,10.52241986741202,-1.709321972093481,-3.075844616160709,-28.045017720114043
-45.9898982321049,102.8662247399428,32.13079879718394,-48.80545932291087,16.079452981081275,4.940215535208095,2.826365755161525,-24.310382542875743
-40.91219026306869,109.12476084108441,38.971660212236465,-43.2461653983841,22.35686098963435,10.74834288252935,8.848397185204737,-18.51977918864397
-37.290962697780245,106.1331248138535,40.19293730636596,-38.00133109997286,25.21463307549612,13.749471116024202,12.904595694877157,-12.768250394731496
-37.58940036614493,85.45865454908959,28.7488865291275,-35.124963485631234,20.67051543553387,12.351981663418234,13.215585451220251,-8.669476791103598
-42.04252826818889,42.765755209748995,1.9204534271673759,-34.54156821863396,7.3128707332887615,6.33913975932956,9.33041594437301,-6.800372946702946
-48.85656273352004,-17.563805694976928,-36.29462323453194,-34.74265639674965,-12.54473616124026,-2.7904158051330357,2.4518189249225046,-6.721438308757458
-55.38284989531856,-82.85957100660823,-76.58606127352725,-34.10240907468056,-33.753846285756374,-12.400798013640735,-5.134094311226824,-7.450827075753704
-59.51608255769516,-137.6783976898805,-108.73124108352953,-31.910894537372506,-50.75671080340939,-19.896535183896678,-11.162500015135269,-8.058658752776717
-60.55882477966898,-171.0099055310209,-126.32303255362916,-28.592860856499577,-60.10629155155471,-23.82517012291144,-14.375828150435437,-8.060368610323122
-59.21350670081754,-180.80060083306734,-129.1212944172823,-25.195319139002915,-61.676638298219956,-24.311968406307297,-14.873860846675726,-7.473005071582194
-56.90105031780406,-173.43853264049645,-122.02266479195156,-22.6483657512113,-58.07485726014421,-22.67472208636519,-13.745232212467222,-6.613902278919534
-54.92697606278559,-159.22108370815337,-111.79101047563626,-21.30381439883253,-52.88441397068104,-20.561183888140807,-12.323171152229214,-5.833135929917707
-53.96335385133507,-147.0848461370072,-103.78069433915104,-20.930724556412375,-48.92325735959051,-19.16745090978766,-11.548307739996211,-5.337434711841793
-53.99875372974559,-141.5573301992174,-100.32523227797066,-21.003153812855,-47.39575262572389,-18.915909610033154,-11.727354810426707,-5.149570014594666
-54.602816011303126,-142.7073980768914,-100.9926464098164,-21.007392477164053,-48.040504425946615,-19.591817543850638,-12.656475589380701,-5.158523040220682
-55.257073638594846,-147.8992379431012,-103.82729033549033,-20.619925029223296,-49.80284779729098,-20.68291698591718,-13.896357865589138,-5.200709725162705
-55.594707297350375,-153.78289957129698,-106.63778773929367,-19.76223637479444,-51.524831653551594,-21.683315764281073,-15.020628299002508,-5.138235578497386
-55.5075351312941,-157.75285526401487,-107.90600740479715,-18.575554561924847,-52.420751448656496,-22.27907893831002,-15.776402317517144,-4.914637493750049
-55.123461663348714,-158.76650928199274,-107.23198743281935,-17.32267851916764,-52.297640332094396,-22.423452723321816,-16.1486524229988,-4.566966720831523
-54.67449012189742,-157.43637952067874,-105.24748066412859,-16.23575641153329,-51.498005437693145,-22.298817485624284,-16.313780725638885,-4.186448097645712
-54.32577865788364,-155.31003769614435,-103.02505826051456,-15.393205414833375,-50.58692284850796,-22.16831875555966,-16.496895844782568,-3.8548248852421363
-54.081626152968596,-153.73425227855157,-101.34478077749581,-14.715458677618981,-49.97036381087304,-22.199381080701574,-16.82330028647011,-3.6032721341799223
-53.83879841831731,-153.1599169244446,-100.3594813690328,-14.06925644589451,-49.721845283985296,-22.392082825531922,-17.27642056064038,-3.4162519746511433
-53.53078073846434,-153.39234952437428,-99.85219550693839,-13.368886868677995,-49.71847821214523,-22.661110022267493,-17.78033551399133,-3.2585152654622167
-53.22295210340526,-154.32049000921927,-99.69397494153182,-12.586676193737622,-49.885563786303855,-22.967535212594683,-18.30410219656092,-3.091012879703188
-53.071339128361956,-156.18089796539923,-99.95819063635246,-11.70562595703292,-50.264362800261495,-23.3533144540532,-18.877255289618784,-2.871803406194303
-53.18805310581133,-159.04079577177632,-100.61539128891327,-10.709762940961102,-50.85504108349449,-23.85387089148871,-19.51924644004121,-2.5664825566115512
-53.52605758068938,-162.17170605281254,-101.2481638759032,-9.635300864292626,-51.458400531863624,-24.404937593859458,-20.180623569858767,-2.178580784233992
-53.85514501692184,-164.1435077331719,-101.17794403499178,-8.601618861397645,-51.726540054510636,-24.853486918094376,-20.762323829003066,-1.7723263202246158
-53.83204261007771,-163.67274941578222,-99.90511054438771,-7.749822635495062,-51.38369256424125,-25.055366429775372,-21.17981781978151,-1.4515598212680507
-53.15073239941884,-160.53359556041934,-97.47162350467065,-7.12926921270316,-50.42071997263244,-24.96447091868706,-21.406199427005866,-1.2962557636149077
-51.75869417579761,-155.95648949531525,-94.54954845499353,-6.6409847308330745,-49.15700398298378,-24.669249515217317,-21.487790544899212,-1.2998951111698276
-50.05983240386322,-152.46984771591647,-92.33964839397237,-6.085937858981357,-48.20524581229443,-24.403999612445503,-21.567149632755815,-1.3512263486943674
-48.924746732066296,-153.23363634620225,-92.2926810838356,-5.263532011627495,-48.339882779313484,-24.53154225906541,-21.89518660548794,-1.2703407763460166
-49.341485255463084,-160.63487273267805,-95.44678562577604,-4.053091588811282,-50.15624032014026,-25.4154396696656,-22.746659146998333,-0.8840923414190601
-51.75018225735647,-174.16671012749313,-101.36912728879048,-2.4787292707643624,-53.50539643177922,-27.138392669428107,-24.20343537357652,-0.12404122539036601
-55.389897648380355,-188.67240627564374,-107.32320850836659,-0.7761652847934106,-57.02217569136324,-29.204758241711442,-25.924325753396374,0.8783151944826125
-58.102506453223974,-194.77924164524197,-108.6136053115595,0.6002367347361668,-58.25300159937116,-30.495122045805847,-27.107141613259227,1.756747607081982
-56.856812395789056,-182.44346577696248,-100.4452595861547,1.1460092755881552,-54.59164385882687,-29.626652052002047,-26.74209767260232,2.0100031001235665
-48.87562265704852,-146.2266886293386,-80.426146130919,0.6569969896275797,-44.60382599062924,-25.574329558586733,-24.038733140303684,1.2526382155354086
-32.89656159410571,-89.14220008152603,-50.13534933153628,-0.4453245716531864,-28.925412107915502,-18.19408766260697,-18.783915995304827,-0.4876107436166398
-9.964596067380652,-22.370072550893937,-14.681922252018822,-1.1116796966126516,-10.13842915333344,-8.350460648771033,-11.454765433399993,-2.6191523535916232
16.67809245783863,39.32216006179293,19.481797746410727,-0.11138655529497898,8.300073776965803,2.382367591825798,-3.0781266564147005,-4.133802568246042
42.6201981075739,83.86873850556151,47.10811606723702,3.274384336962693,23.406664239159188,12.236611720968284,5.054768628397906,-4.031035251756049
63.77929960655778,106.34097523875327,65.594210444438,8.738047657555397,33.53813952927132,19.725878912876382,11.708409886971953,-1.8068699662499585
77.70137246808468,109.38559419831017,74.80380140198703,14.97618255763753,38.458253554961246,23.95231167535894,16.011467919747265,2.2759623464729684
84.15157472781543,100.22482132174058,75.97619786019764,20.31112905765558,38.88398961990837,24.777415379148046,17.73608532643308,7.304966671654152
84.87122890757344,86.70775057099164,70.8987617039743,23.565368251066126,36.04559931146949,22.90928347288814,17.46837949931263,12.15280240930774
82.71676462940698,74.7208558861504,61.87781702773132,24.66283107676953,31.519395745187772,19.828514280267385,16.50294066761456,15.963538850001287
80.55739007875638,67.51702472665873,51.982404787016215,24.58977238273554,27.12117933010809,17.38213590085668,16.340473392797293,18.41220651329413
80.31880465512342,66.03565117276045,44.657206920096556,24.753245986093322,24.5124238172148,17.027415820505,17.921160707130205,19.637981725351906
82.47238570993488,69.26313385629265,42.46867248750711,26.13622340249168,24.52091564439331,19.050918190789464,21.016519466192648,19.970478190038552
86.09809029478491,74.59379417753966,45.72801946898374,28.727405485350754,26.615246474981458,22.285074237527116,24.227473580443363,19.662728515190043
89.43568021498989,78.64102839148842,52.039678607013094,31.504354012381565,29.01051302293972,24.620815628920006,25.686298800384822,18.778588470113405
90.67566554430765,78.51934262576076,57.24041550511014,32.95220357667019,29.47561552364851,24.094180052972053,24.082544769195756,17.25440439294022
88.69739239191775,73.01107095524613,57.333830575770556,31.864888649799493,26.45065249408805,19.933393924984085,19.413056695328542,15.067118136549064
83.51624066375622,63.045957120582486,50.51875452126488,28.050449751921974,19.919264578942364,12.992826710476114,13.047091375371238,12.409105099127785
76.29357900386799,51.40047182510148,38.362609742237396,22.5681025011073,11.618725959506222,5.384961211657302,7.111502141812222,9.764240043535294
68.88285181207472,41.797965577716596,25.429141753477126,17.31237942857049,4.431886582787166,-0.46386593682395133,3.538008877626461,7.804893251012543
63.0622977451341,37.54388453235297,17.251688678333363,14.10990989317377,1.1194973319855832,-2.88027432239908,3.2258500702161648,7.11626831692763
59.791378663169986,39.965197559868734,17.451794711877863,13.815397350810136,2.9150777240324444,-1.655531025130463,5.688142914108181,7.8802967029086615
58.86945324009565,47.39576839484362,25.566036731153073,15.92553864801192,8.739214477541655,1.9318176804046514,9.33703359941102,9.718926055613574
59.16849389448558,55.60436056723218,37.000916706601615,18.907816914955003,15.591921529140558,5.810744360684917,12.270127737274757,11.82405092816263
59.270802007430284,59.78964156479897,45.29918240433917,21.00366573204586,20.0131198939149,8.176993887651275,13.155734750171314,13.324765731446746
58.128663681387245,57.034058024275794,45.407177524780835,21.040196927323542,19.800834830909373,8.33895822130725,11.7544528091951,13.696307519693478
55.426610045758956,47.63750469203963,36.05624867242067,18.879237139857363,15.010362180807926,6.904241081379407,8.846302895245248,13.000595672141438
51.56803790343196,34.606630545071724,20.095479715872123,15.384349857524587,7.758151204358787,5.281762123918862,5.706643740236509,11.848388566764877
47.40658158383784,21.939251156240374,2.9269966966967305,11.992074931971496,1.0923581635214565,4.870039566122598,3.5029738859051083,11.100663079212532
43.887348627165636,12.933740246431073,-9.910205537056065,10.080317509380423,-2.382487050064393,6.398302355761869,2.9150017429423745,11.425347796192227
41.71510595874591,9.252979197444835,-14.869418416332696,10.382743648206352,-1.5008571240253499,9.685683230745616,4.0363628243279726,12.891981812068602
41.129739091927824,10.717340474667786,-11.487379978696305,12.701470199995551,3.1598015374157478,13.811285479934417,6.449566617759197,14.813247855861816
41.85648360086992,15.597994714413627,-2.1543589207067666,16.05780032006818,9.684085300285545,17.537505013463104,9.38354539909634,15.981327193283596
43.24940956708498,21.36393667170359,9.237702065081667,19.194860753190518,15.724883913663582,19.80025270220502,11.946223219580961,15.265023955973126
44.54896126483205,25.7460276842892,19.064507401749136,21.14269389879862,19.498451121580246,20.078742091931577,13.41322778082514,12.293488424296216
45.10931710428747,27.57731072292562,25.207404490751134,21.53695794598829,20.371537847713757,18.483372333133705,13.461047292512943,7.817987347878715
44.49613145366698,26.827691495545725,27.18246557734603,20.566952642055085,18.760473415895593,15.535698643359671,12.214320607834978,3.46303591566295
42.47347752384824,23.91591830857106,25.417294043726073,18.66829273361333,15.526039219901673,11.832599821038059,10.10452769902885,0.9313138467306616
38.973804215256415,19.094608564580355,20.518641533881542,16.197647261257526,11.389263317968696,7.88439837620071,7.682038420015074,1.0907232721638558
34.11478095130386,12.566959260811535,13.160161862879711,13.284341765009474,6.784881800476193,4.235378009860419,5.513479278478291,3.48306427950736
28.245548965460813,5.089145269516328,4.459351607599609,9.919482621857874,2.1159591901497197,1.6488078906551813,4.1452451005638915,6.561055336602908
21.95968291213734,-1.803483246626546,-3.796859829868096,6.202139852804998,-1.977894630090384,1.0098095110994574,4.011187718548159,8.530329256123656
16.026373449442282,-6.405283573351904,-9.519626096211036,2.5607382872740816,-4.668171405967508,2.8466453365597726,5.237411974225458,8.314680486008172
11.23107763309912,-7.823940116840345,-11.134178188105112,-0.24506801947224927,-5.293443126094149,6.780735061679732,7.463883659306355,6.095394434552151
8.159347732049998,-6.5151947090615625,-8.348028551581086,-1.4124528451671101,-3.7578371640582957,11.386597097197999,9.86911483141208,3.1397296800534087
7.003757864842238,-4.045544972552656,-2.465547029318286,-0.5254024811228379,-0.706571694666042,14.695946276193924,11.468536960226547,1.0593541622875131
7.501255995073009,-2.402758319886898,3.9038587178949267,2.1654598466615615,2.6334155311085086,15.120900933870978,11.558444881606771,0.9501557026566219
9.06487872533272,-3.262532940781519,7.722077741588008,5.822763812422798,4.910871672147923,12.26729896766507,10.059647623184471,2.876346793073605
11.052067489565705,-7.345186088076186,6.7696672121067305,9.409569757593367,5.244901694567193,7.165162114335233,7.5614493532864016,5.913672169600637
13.001938545218868,-13.973902849219128,0.7398245494468543,12.12013092163756,3.6753988264852095,1.7851255825747385,5.037478556094688,8.658538643340187
14.692021009709933,-21.196223120416096,-8.508400635868082,13.609740710452547,1.1677653572826363,-1.8971480518598738,3.390027187401061,9.91811544697925
16.016448121033275,-26.733731634971374,-17.854430101020714,13.97321208909739,-0.9146639648244395,-2.7991010798084397,3.0716582132054175,9.263943309360156
16.835644618033918,-29.33094026151803,-24.498148598253188,13.582107025929972,-1.5827310862596502,-1.1421555629657067,3.9782502837550187,7.2128062183627675
16.949369328014175,-29.48032463890684,-27.201077246110177,12.89734063269265,-0.7328934159613711,1.7993845131014297,5.633862619575503,4.9503843483513155
16.207826136721042,-28.85478542644003,-26.447972159508392,12.299412014289665,0.9258343665572598,4.426277337677724,7.505729167702858,3.711523647856949
14.647572496827303,-28.897022013242673,-23.649525827600105,11.956761919061409,2.413644072744554,5.603149687647802,9.236005687426617,4.121566373921558
12.538879854104305,-29.753055443428067,-20.134948239321474,11.793942300800557,3.078935098930857,5.129672992076838,10.69989077631824,5.875034848845844
10.322030690281858,-30.34050439791225,-16.59458521725766,11.613610388955736,2.9104853737127425,3.754950931454275,11.970317512266034,7.9770655321222925
8.472472194627573,-29.335435226494184,-13.126692277032317,11.313842547095776,2.475951625093524,2.8207416839361,13.300508450784616,9.429200660399113
7.332319744690226,-26.31016109933345,-9.688004428637914,11.032985426887295,2.567340852079319,3.693047422414324,15.102643979629702,9.918452250774765
6.948017326984815,-22.43874364103553,-6.6666254765147706,11.09239804459674,3.6848431845581486,7.135801823780901,17.79240462547697,10.025685055869946
6.9973874894130255,-20.479180637884106,-5.221949265016905,11.772568809541692,5.5813882169745455,12.8270027085264,21.46345584080464,10.777478344249255
6.899006753426892,-23.73512567281438,-6.9442851948596225,13.078322718735508,7.2106645024965825,19.288250063400483,25.586176790968917,12.820456239917744
6.096511172878621,-33.87917004596094,-12.649403591294325,14.618860560717188,7.319700922435936,24.414202909662116,29.03200294649192,15.774102962164289
4.359247057234447,-48.4313362655325,-20.8848769800066,15.628886395905965,5.474967040918185,26.464564408932272,30.5433654299357,18.221724562383052
1.8927757630491973,-59.76369666218994,-27.393842917427527,15.118634242803049,2.816229174172965,25.00706859786431,29.419660371968448,18.393684695593993
-0.8193709138214877,-57.33567926666303,-26.500977061097622,12.160216918517738,1.8205209908408848,21.211917668343375,25.97261494904689,15.148732355290784
-3.3194416527953092,-32.874926876385175,-14.059230773089578,6.285432913383947,4.999776949034199,17.251660728818106,21.421838463816858,8.662142489560905
-5.401636979083772,14.282623184471786,9.780965758142845,-2.148721841830221,13.294833008821012,15.140000873102961,17.27743556814983,0.41539908022590366
-7.117659722519407,75.2923729426722,39.91970754314401,-11.860486352158416,25.26078349003415,15.718210865693074,14.603885077973286,-7.479707936484342
-8.59888688952401,135.0718697642114,68.4386655666007,-20.968571462231537,37.652491475238044,18.383538197530783,13.61541894506279,-13.207293227719097
-9.864700085074915,179.13783235298882,88.33818812444534,-27.667366617387138,47.06732895510872,21.641157811356358,13.78943544371296,-15.92611095797129
-10.776449369565588,200.02851946352493,96.64306046100506,-30.938941504498732,51.59765781606499,24.034736813680528,14.323318614473667,-15.91916674470051
-11.161086723347392,199.6546821919397,95.12282141967286,-30.921439995243865,51.49982268695245,24.84455360283388,14.583499509996248,-14.249580264009154
-10.980210116277723,186.69497210843159,88.5205836238006,-28.727466100263502,48.627130224455605,24.213603497979676,14.305036046527174,-12.176576678081256
-10.38823989058255,171.29404052067835,81.74630286164174,-25.82995845581034,45.202423022842254,22.804929497277463,13.543833158464784,-10.63156310233772
-9.637391096269422,160.52678506556413,77.82205843811764,-23.39009907839938,42.78768813061154,21.343261402108695,12.528253338922797,-9.961787390050356
-8.931326311798763,156.7418599856071,77.40608457261936,-21.897136669482936,41.9253251455463,20.316317025889436,11.523129791249433,-9.989018589005658
-8.355875304442256,158.52411671320337,79.49212617568445,-21.230689257406507,42.34183011240252,19.88406281773924,10.725233026053386,-10.277377519042147
-7.910879478733302,162.69329367878717,82.41683521230375,-20.969201842222628,43.34818985112883,19.91775939504833,10.18853232427817,-10.42723573260303
-7.565738446760755,166.08342420913567,84.66505186897206,-20.686214768530068,44.20802335695338,20.11432824713699,9.815453115212918,-10.245900862691373
-7.274509842572729,166.73820409762666,85.40694688417248,-20.107414894491466,44.43357135794775,20.166819563814915,9.440474226134116,-9.756158540994242
-6.971089090493904,164.47601158108836,84.73625218420042,-19.15503766319984,43.96685848298766,19.927721448717687,8.952156153020317,-9.104280140431687
-6.595132255874949,160.63931821658485,83.4641525012649,-17.933306110573437,43.136794351430034,19.459290733198916,8.350960987685912,-8.454805944622455
-6.140217512684053,157.04769188930766,82.50974673312612,-16.656383557241686,42.382726683984956,18.93412774885029,7.702704759642621,-7.920752358064517
-5.66275560627073,154.80680925943818,82.30808783312922,-15.520508436513914,41.94812968380669,18.48345213986754,7.056097214814547,-7.534463911181671
-5.22783748562807,153.85990021452423,82.69718277413942,-14.589935484905693,41.79346556093523,18.131101928684938,6.416226644934161,-7.252566038690101
-4.84913996834756,153.49673345665897,83.28220075930778,-13.788025794602687,41.753066903032874,17.84288796547296,5.780868130136375,-6.991699984172621
-4.491261685752137,153.12885574740156,83.81947829854316,-12.995717448284989,41.719157090779625,17.596059779806836,5.16857716249928,-6.681057774618558
-4.124721185867465,152.5501594552712,84.25450858927086,-12.153297355282984,41.66409384262378,17.381904524570366,4.594892450083491,-6.299949327605405
-3.759465004216374,151.67549711941376,84.53556762111594,-11.270897130116388,41.551647532611625,17.167527315714125,4.037543961267464,-5.87470448308371
-3.4174452984320873,150.36017982759105,84.56597135419307,-10.368054481177555,41.31703725993411,16.89974203894702,3.4510352585576496,-5.443896209546998
-3.0895490522021167,148.61286983542365,84.37567592372021,-9.437574249708392,40.95953009609603,16.562452325406863,2.8192467264304466,-5.02815061272328
-2.741238605197897,146.82402683498023,84.2224346355818,-8.475070210834005,40.60128389514671,16.208495565589246,2.1754226260710547,-4.628785660896288
-2.3607493381898155,145.54249009451956,84.40266684667887,-7.515852187075547,40.39542696248743,15.910752174549689,1.5585546683168525,-4.243808211870868
-1.9825111172688705,144.96161511243835,84.95905568825518,-6.612790863883088,40.37389064210488,15.685210971996485,0.9614121551283592,-3.874560176699477
-1.6510718791414005,144.7256552377211,85.63992888116569,-5.777785136198119,40.41908754389018,15.480305753356584,0.33916737345123293,-3.517006449437804
-1.3714791157902164,144.2927024266624,86.15412573399097,-4.966581302151946,40.389612813162195,15.242178229573039,-0.3319640875368091,-3.1564710813854813
-1.109464564785426,143.39841399219065,86.40042945951535,-4.130382739809491,40.238694178292995,14.969104263227896,-1.0222870066577432,-2.7791059724540577
-0.8360967820293944,142.09931554686364,86.42840126600768,-3.266493234591743,39.995187241152266,14.690694960977766,-1.6823535915802943,-2.3870547335632053
-0.5531190615218609,140.50134759859912,86.28274632459808,-2.402286723087768,39.67916560505744,14.414638023101084,-2.295848910886797,-1.995928936941709
-0.26783471993333086,138.69803047448875,86.02813524117379,-1.5405883062935595,39.3079927580603,14.125144776320697,-2.885372447436826,-1.6160225789915428
0.03711986296387991,137.0512817316892,85.9334770837102,-0.649773828068737,38.99281259964323,13.835676816319706,-3.4754666219872323,-1.2414214043238374
0.3832213952985434,136.30184189645473,86.46702273197968,0.2803743112079114,38.95139481770811,13.61021430021058,-4.075108306553965,-0.861460362883569
0.7429239868342816,137.05604993732862,87.91565840146241,1.1924942621796575,39.33269859889375,13.500755652864488,-4.704723817612552,-0.4788723154647922
1.0297556956155893,138.98610638562002,89.93638131645442,1.9980939206891586,39.99567771950523,13.464567202275349,-5.415108826687938,-0.10929710391785188
1.1649714873483996,140.6071019331253,91.54498437448795,2.667132345028109,40.49265072666384,13.366675638180533,-6.243460202406215,0.23862299186753247
1.1610694520995903,140.04597735604608,91.6709933990909,3.2724636074016122,40.32664383558236,13.08073692740142,-7.13864602155035,0.5772224436657467
1.1368919715895192,136.29748458178832,89.89190863835235,3.9434670639953158,39.29480674806373,12.592115563794826,-7.949951028731188,0.9298298076405245
1.2504135486480235,130.09804703280307,86.86128318104836,4.783313422114692,37.682445377311794,12.015800049858846,-8.521011200153895,1.3092712806369298
1.6098714341013847,123.96839352759689,84.24269480171047,5.822344914998669,36.22802440570712,11.541419360768764,-8.820156004203442,1.7098861772723826
2.2161492274113637,121.45844642427102,84.18711053443536,7.008772753053588,35.89451702257122,11.366530590952097,-8.999573579688755,2.1172596356822364
2.935212431888892,125.66039158406173,88.36492545507761,8.195255769527494,37.45324546917051,11.626097265704669,-9.343221670029893,2.516450168232557
3.493779626237108,137.08718759021264,96.64894595565924,9.133661132946527,40.89811258434664,12.280035774952168,-10.142835590784326,2.886784750016421
3.540637070431432,151.6689429589867,106.0199521727295,9.552562954280479,44.92498349055441,12.985950231513511,-11.54927981925411,3.1977443905944045
2.819193690129097,160.46980729982266,110.70828536311325,9.33887283083535,46.94444276885172,13.090027782817534,-13.422053774592587,3.4252065326597
1.3930761479746516,152.47827029740503,104.22293534287945,8.703003504174868,43.96042214753191,11.845905786706826,-15.228932687911461,3.5786100077136616
-0.2517592631920107,119.93073552737258,82.64504249979188,8.146772931112258,34.06265786352504,8.785184703160995,-16.11018899976252,3.705135866674461
-1.3798589293322028,63.347649498124056,47.317517336342384,8.18353704023267,17.687226568854644,3.9944349616102626,-15.191169329151396,3.855318933450603
-1.4071430394975737,-7.125303682690129,5.031237378944216,8.982419911428025,-2.2325891375925893,-1.9009055249721725,-12.047781683525045,4.040874649803439
-0.270279163130329,-75.49285759390911,-34.74382719894242,10.213267014830818,-21.4449165525796,-8.007890331696302,-7.039130271645732,4.2344232790537815
1.5204467312600964,-126.93074313922905,-64.08064464068718,11.24634078705303,-36.22435737886372,-13.457044377943571,-1.2333228101435882,4.421389928370657
3.2162960884291305,-153.99306577667346,-79.7624722053982,11.594561579406799,-44.7848229769997,-17.51713576847559,4.084349638938151,4.650723199056626
4.325201780423214,-158.5308269599505,-83.63066681184117,11.278632945447901,-47.51003515852696,-19.571200009450394,8.015876895749873,5.012385639450131
4.897035719375123,-148.7953448630218,-80.3204524194462,10.82380716108823,-46.110379642492255,-19.168417811542596,10.368067674136299,5.530601791828915
5.38410423230789,-134.2775739700032,-74.27239383500257,10.873253072681608,-42.495312449290864,-16.27999520880911,11.505451265567226,6.058798294957981
6.205248723253332,-121.7162193927034,-68.00376924294483,11.717237913158407,-38.124219176686275,-11.599357321425293,11.921489685965746,6.299302736314702
7.378980497770823,-113.9954568914888,-62.24215918394873,13.104587777568915,-33.98588296289874,-6.540386937747985,11.904089053462092,5.987689777274167
8.506986395134017,-111.19526253323144,-57.04239983420218,14.448871308332652,-30.804227607799536,-2.7480359806776558,11.529296175327403,5.127585146528457
9.072791155587737,-112.04517681609238,-52.67180980492087,15.21156425388742,-29.072330927222534,-1.3485173643965305,10.877775220099519,4.07469526861992
8.778574669479363,-114.83345291010163,-49.78600486922628,15.15270419937831,-28.925010409782494,-2.446884909566146,10.163123310120035,3.353214352769095
7.679441221783637,-117.96142156990867,-49.177789525015946,14.331252115280103,-30.120762878964868,-5.232060696617052,9.589626471168245,3.29850281650112
6.093915906418545,-120.48079028793687,-51.45950893400847,12.968653574756189,-32.24350361604512,-8.58356329774159,9.077298626680788,3.7814913624870283
4.4258296492814395,-122.39617695279912,-56.73985864840352,11.33498314002043,-34.93423759640434,-11.709431481432283,8.16582066860765,4.234639672607022
3.0151571148490377,-124.39243032795265,-64.31750499823877,9.707149222949035,-37.93370659502361,-14.39061644711218,6.261356915410575,3.988784258564764
2.0467315528901118,-127.2142888122886,-72.65036141898946,8.360782933626552,-40.96542505714869,-16.771762366640207,3.0823126273540082,2.713504410383981
1.5166332411379257,-131.28208244078692,-79.83223109139426,7.5632403282797505,-43.65583747065638,-18.96254061011565,-1.0065057523549337,0.6869676308434911
1.2722449546116836,-136.6513871427738,-84.33619394150858,7.550703085954794,-45.56940980299641,-20.756048551870197,-4.987474269794607,-1.2728441513063364
1.1095316566546376,-142.80056655294055,-85.43099483350831,8.44028393750352,-46.25084285110844,-21.608323430641164,-7.516995761385169,-2.1970722491446755
0.8354280508545104,-148.01224123045222,-83.00491999573809,10.030737728286393,-45.21806489151751,-20.872243139415367,-7.456009414074812,-1.4959508996873736
0.20589583053172972,-149.10948383965092,-77.2365013032719,11.571892985579629,-42.06308544724348,-18.208319652887585,-4.434852206344554,0.6273707222936737
-1.2112376346884863,-142.61256580440772,-68.74136332153469,11.743534741896495,-36.821323305951616,-14.010989252650594,0.7597280473833498,3.112564352027877
-4.05457429031762,-127.20342330335885,-59.16620095616659,9.061054814208715,-30.434069011196335,-9.57677661970148,6.230184183304888,4.424803148283391
-8.913897154217066,-105.7636131852442,-51.426181281183666,2.6346916477811537,-24.817098187231235,-6.765335622748203,9.593642905853981,3.2557764111939687
-15.886284900419428,-85.00711455572744,-48.8507956281888,-7.141187413088982,-22.202942664999245,-7.18836295226835,9.009400576667979,-0.7980065041226689
-24.256616788334544,-72.37821170268474,-53.4613053087026,-18.472914938374355,-24.002178064534196,-11.341908721997548,4.090440524082566,-6.9639379856545505
-32.60074214593158,-72.04364903832843,-64.5282792825873,-28.814560379284003,-29.90928699985902,-18.234213832164503,-3.8539742528869816,-13.610226094586512
-39.335260020668386,-82.62746041868404,-78.55839277712322,-35.96524684825959,-37.90692289497235,-25.790917766108993,-12.429931614834327,-18.988813145917092
-43.416109593210635,-98.17635873144675,-90.90568897332237,-38.99449938929664,-45.23639206809041,-31.82881852030982,-19.28819209005291,-21.991318807872663
-44.768698984498265,-111.62566010095634,-98.04733055437626,-38.48299959248288,-49.74872363282873,-35.03492294975762,-23.132226249441313,-22.520312530268395
-44.20513050190685,-118.41062444587622,-99.09196022401812,-36.01165311537228,-50.80844691508982,-35.407070566707056,-24.079628100348792,-21.335786779660886
-42.92084928489196,-118.02002121965882,-95.67055752343437,-33.28622265527226,-49.2658862449127,-33.978669227073,-23.281471320484552,-19.546139026288408
-41.914158836839526,-113.0181319951875,-90.54137586796848,-31.42975406488919,-46.678285106154256,-32.10230019930487,-22.145688479877187,-18.07144941410226
-41.658810351205084,-106.85473602519305,-86.04649630967128,-30.75119882691632,-44.41522660824129,-30.784027902211005,-21.66847830151815,-17.3426944178692
-42.12455102964737,-102.1564858947578,-83.35475965350585,-30.938659023716767,-43.18714189649637,-30.407851418317485,-22.183136663325588,-17.303887442842797
-43.00369550167509,-100.1486427221116,-82.55774099686326,-31.422888418029565,-43.06458633128436,-30.843223831202838,-23.495288315391356,-17.613307218770597
-43.945243225084475,-100.75375903567195,-83.08077477043496,-31.6960897074465,-43.70814262336535,-31.703697771186594,-25.172202233656826,-17.889016526931538
-44.699607877122425,-102.83184677504639,-84.00464822556441,-31.505102303428497,-44.57441326547987,-32.56256023110906,-26.790141847859505,-17.889614903385628
-45.178937450571254,-104.60618141029241,-84.34128315931608,-30.90610709192361,-45.095063774752184,-33.0897354911863,-28.08058483556488,-17.58578197700853
-45.45020772582456,-104.48314340276353,-83.40714399424901,-30.173391079474047,-44.89174801606603,-33.1425914073515,-28.984909853386707,-17.120844440044525
-45.6591045083749,-101.95663964200997,-81.15243703197513,-29.59583132025418,-43.95254985048813,-32.79640498559396,-29.617859379361516,-16.692153940380294
-45.91542624154345,-97.91073472988128,-78.1593654446386,-29.280515745561182,-42.62213889327251,-32.277588983363145,-30.15385548155848,-16.42025703418024
-46.225995139416135,-94.05982044295122,-75.29806716538924,-29.1037153969068,-41.400907662155355,-31.83574528073513,-30.71413880152693,-16.283276529879313
-46.53982975670547,-92.02049984215581,-73.35320217153235,-28.83955015506653,-40.722867077717254,-31.655796256803807,-31.35050617561978,-16.152581068649344
-46.86078289307384,-92.64841188237321,-72.84199506611417,-28.350452152942733,-40.84174256901076,-31.85318304163819,-32.12587223541684,-15.89588923194897
-47.30212735424158,-95.72078802430373,-73.8783891031074,-27.69131262551127,-41.763030551433886,-32.47480836198764,-33.17196496233434,-15.474338958969518
-48.00852471955048,-99.69776403180859,-75.87509384179693,-27.07895560564965,-43.11498976852514,-33.41830313369454,-34.61150567735627,-14.978754678442623
-49.00362389551842,-101.70896931971873,-77.29056533854062,-26.780102021707457,-44.054313195460814,-34.32241913091143,-36.37903218475795,-14.594981790926507
-50.090260941858205,-98.42010295168984,-75.9656516593866,-26.97389246038266,-43.47252964187064,-34.5985484196953,-38.10144799665178,-14.513685637477073
-50.872271991793696,-88.0031216000429,-70.26156753836096,-27.60409787014266,-40.597253778415286,-33.69143740457518,-39.16385593708299,-14.806814408492096
-50.868556084568,-72.17376174743512,-60.40395870361613,-28.261460180832014,-35.66589283841064,-31.432249409935636,-38.93244344027547,-15.313775289581582
-49.659081766757346,-56.53144551373177,-48.99756377112877,-28.212112541549757,-30.128688695214297,-28.216302835811014,-36.99882963693612,-15.615392174450692
-47.03144921546544,-48.29747209805919,-40.12653223398029,-26.6721409683307,-26.093367850461142,-24.84487733681178,-33.33230540918886,-15.169727032983946
-43.10159626458811,-52.46460885023626,-37.433088775290024,-23.252525303923196,-25.261218340101824,-22.115319710936014,-28.30907618421571,-13.598233590324508
-38.34610923696694,-68.73093696470302,-42.266516724640375,-18.299275944052383,-27.9808477080621,-20.415862343218613,-22.636004403248737,-10.982829813093504
-33.4827167370238,-91.2652769152536,-52.95124537293302,-12.84626401418996,-32.99416920739475,-19.568584667684647,-17.192778670123175,-7.969314543795391
-29.21577873256224,-111.56519275695005,-65.54952538701124,-8.138141413509224,-38.030558021313155,-18.998058482560378,-12.819560049260467,-5.547473292664296
-25.964238559012188,-122.6630641756062,-75.63202013960861,-4.992474183822128,-40.891615364672674,-18.0946297686647,-10.087700456176435,-4.570000897897858
-23.72214813408218,-122.1146956593273,-80.04627740715696,-3.4085910923559024,-40.39161405693774,-16.52875506169601,-9.108761000245751,-5.264272151192784
-22.141899262409606,-112.20492935733286,-77.83891682873279,-2.681159702548385,-36.68033114939267,-14.347645813087823,-9.465754606874146,-7.041908899488922
-20.806305968319926,-97.84365388917676,-70.16379970009642,-1.9331567153378486,-30.936882475765273,-11.876136801145224,-10.348075439669051,-8.753386851360974
-19.523942169446215,-83.97844018404395,-59.55972985624191,-0.69025267552842,-24.772816716085078,-9.55321458721381,-10.873302736647013,-9.253757914917761
-18.437305767984377,-73.9929863751545,-49.0042163693789,0.8934757026926988,-19.664351340362003,-7.7766087671880815,-10.429186641789205,-7.946456818234062
-17.852903714283485,-69.23861486428851,-40.92713732623469,2.2632271770861356,-16.524333038924542,-6.739669181876796,-8.830929981375524,-5.010482904132648
-17.92574832897658,-69.10697720875899,-36.384844337850254,2.9082363573615932,-15.449633667893028,-6.287372829376587,-6.242746840018836,-1.247054911001213
-18.46251472633275,-71.38682105133282,-34.793098243468854,2.6768252177000686,-15.758178846172786,-5.926848240918883,-3.0138670811341868,2.2918471808275522
-19.010210252682278,-73.12029563203794,-34.49631505646539,1.788228633324307,-16.394801172494866,-5.096184717227143,0.39091973942571534,4.665461812366363
-19.156156603754773,-71.90500899995554,-33.88377564905535,0.6188267018045143,-16.531761580999564,-3.5807240365281543,3.3531635325811813,5.261527099429721
-18.805350837571222,-66.97086724952256,-32.311809130740095,-0.5474285528151724,-15.984183812215658,-1.7831136584523162,5.106769416399416,3.8696736540088432
-18.244453301119893,-59.38378682921812,-30.298124517559145,-1.657467096240636,-15.189561418555515,-0.6178862373337661,4.92046751043369,0.6875435124725253
-17.959821979942795,-51.46745064989423,-29.083553082413236,-2.846728668299422,-14.85182085743528,-1.062768683086531,2.4249269000228972,-3.678116254641885
-18.29828259840341,-46.01324401319481,-29.9759215336957,-4.206326797712583,-15.533776067252083,-3.608589561285031,-2.075928196108759,-8.224722227145513
-19.109272372190627,-45.470047336200295,-33.65629227184044,-5.451468965327652,-17.343140563941688,-7.859213120347635,-7.4685198895775615,-11.658238736836951
-19.543663867805336,-50.78263886887479,-39.39389950565966,-5.72533260439541,-19.674839200815764,-12.429782245450257,-11.959063051910677,-12.667830946406266
-18.197721505341477,-59.92546590470316,-44.41083953345816,-3.800652315027878,-21.05239001312469,-15.218918422219138,-13.501650485039423,-10.358811155392713
-13.675651740389345,-67.23476064534324,-44.1252753606854,1.2859408156405123,-19.335105419100504,-14.070894199676932,-10.47820498894245,-4.6857126853784505
-5.375708696414259,-64.92814204863875,-33.829551689910815,9.502101985579436,-12.51499639487457,-7.680636153488204,-2.4277004812286314,3.3655486673307644
5.938920087583383,-46.842122805346335,-11.304167662740063,19.511639333119103,0.12250764677298041,3.6427182619910647,9.52975958986568,12.027809656325752
18.197514694120645,-12.392348150453113,21.200385334122927,29.094527509955864,17.17317657196553,17.820833921407235,22.892986073381074,19.38625222932039
28.77745011501813,31.999849570660377,57.158632398389344,36.11544685896155,35.306935385781934,31.679276904678755,34.63192685260417,24.104677481931372
35.59355866804397,75.37671892147685,88.39383589396014,39.48172423151965,50.56787947735436,42.19959197724671,42.33944822973734,25.881051516758703
37.93991869681164,107.40068079124079,108.75413223460686,39.53539631580335,60.12267696724522,47.73184591883094,45.124704988219,25.419486017332755
36.64957146774402,123.14905892133622,116.71055495003503,37.69258505769253,63.45363391323915,48.5394733354207,43.80611390388725,23.971931262263247
33.54236463143903,124.71945381308943,115.4178311514135,35.609107820018686,62.31318037537346,46.41725516835989,40.336380361382005,22.717324753487052
30.52380451496946,118.95966592132109,110.41195896871915,34.39812383303098,59.53926391374542,43.649082993604054,36.804698108892296,22.295674401600273
28.82806018312843,113.14923009713978,106.55364127188051,34.30681551901239,57.52882490131939,41.922109756150576,34.55867145535795,22.69047348591771
28.71421341494814,111.48549834566218,106.04973283816075,34.90452558209431,57.27656724249386,41.75981579904466,33.84840348398843,23.44387146215967
29.61172271218871,114.14345494702195,108.36227600557613,35.53678527103428,58.37595812768848,42.644383915227166,34.03847977414284,24.02687765470383
30.519760853089423,118.66176286088066,111.5101267416704,35.74760966000617,59.72270180840022,43.5894275853428,34.13827777611447,24.155613847313546
30.47718246811059,122.2063349889392,113.68915492584543,35.503557565932105,60.369135070868644,43.78028617710099,33.34924224656015,23.92399154566972
29.002796623024228,123.44105972343738,114.40252902429658,35.1813044570134,60.11568625122747,43.01395106645282,31.449731676466556,23.727369848252728
26.407365164373097,123.41909612301328,114.76722169610412,35.3310144730177,59.66654967797329,41.82625465543131,28.939292505521657,24.02270214329688
23.821553363650235,125.2041812604462,116.89284370201165,36.28160873488243,60.28700100367694,41.25968402950932,26.877286713811486,25.017597153202008
22.820549973403207,132.06349084522458,122.42690307573451,37.76954988752631,62.997744948654585,42.290205604720434,26.39291671293677,26.42639900579297
24.724758750463106,144.76316933620083,130.8581538089591,38.85066948726241,67.61349498104997,45.11253017006474,28.015591274888312,27.447551161026663
29.891505100904517,159.56157055373748,138.68556751685628,38.24588662446816,72.23422782255632,48.686865943893764,31.175175830571973,27.043762229632314
37.38773149367226,168.71890848165648,140.38131525036772,34.99193617417932,73.73254443045619,50.92975329797355,34.2304202426581,24.440941224037562
45.26944366137637,163.94507583350594,130.98731243439966,29.030036561259333,69.20067602172017,49.586012991800764,35.11386647883394,19.598034888321077
51.38160462783043,141.0334269107439,108.93784246481458,21.37543940450303,57.60534358727133,43.360769095577666,32.29798726448551,13.367034028147115
54.30819622043865,102.79672581887665,77.36544573087471,13.769121784249446,40.64287887735491,32.675479492012556,25.568290452092572,7.21282826890416
54.0070400335104,58.3739771108877,43.0718847520477,8.023387132480003,22.24014963603444,19.620652164517562,16.195554455585825,2.616841824740329
51.821807777111616,19.336694269501084,13.836120346294933,5.41541448486462,6.989437173777407,7.165554089445831,6.457672165904721,0.481060861502493
49.87953003138057,-4.981506337109762,-4.338138443662404,6.374809119711702,-1.5790712373684963,-1.902157600563192,-1.1836765735210009,0.842492886999272
50.15354057191705,-10.346690028397504,-8.715725073631464,10.466553534090083,-2.0287148395875647,-5.788323140421445,-4.845937646761992,3.0017833986347924
53.568183582781415,2.195468281608012,0.08848130400661913,16.51562191921382,4.888363218435059,-4.048715807446716,-3.707769909245745,5.916651497639294
59.47944071903827,27.63803976958332,18.619921858495484,22.78724225624976,16.68137192169399,2.370646944948035,1.770668539313712,8.598731114145428
65.76750223739174,58.12076659163487,40.97680015589008,27.310491187091547,29.635008899971492,11.22859261467899,9.833601234802401,10.340775348822223
69.60595970947821,83.5068389898592,59.34421318870681,28.451216553496995,39.346551203830934,19.292457254280052,17.716895094550832,10.776772009407782
68.67955242479097,92.73692521685163,65.55495419470371,25.605330496142034,41.62504818579339,23.093626562175615,22.3870368500347,9.875101639773765
62.31331624036221,77.11323337086019,53.93005734010369,19.616397334239988,33.87836341652973,20.140934097593767,21.638578783620424,7.92506099025493
51.904550469391054,34.62305272600621,24.22054347830454,12.544729034977326,16.457685829528028,10.100271062219624,15.07942411247,5.48437359746895
40.3662776092672,-27.476780091843967,-17.323544405055426,6.79097429744013,-6.965358423120672,-4.800598434876972,4.412433302043448,3.230567329177051
30.84012853379104,-94.2676411276913,-59.94508967233058,4.019435338498117,-30.540211326795294,-20.55208860189932,-7.24746989198781,1.7307774248489158
25.354148768356982,-148.8859311240883,-92.73595143276017,4.4784405597697345,-48.52012991058778,-33.025205581172926,-16.712136293644843,1.2339339707637396
24.112598125705894,-179.49057069294926,-109.10340681879622,7.067633475545125,-57.53920383036083,-39.657475078580816,-22.0175432297684,1.604000464749804
25.718874724514873,-183.72905688545003,-109.0067595225246,10.047720255585201,-57.7071040813175,-40.304678608602615,-23.04066101875406,2.4337312683399137
28.105660750009356,-168.5428818410844,-98.02615736231195,11.940949744941145,-52.066811830105564,-36.928984002742276,-21.23325493304426,3.266981499420277
29.602538194581083,-145.99566921550203,-84.17724789699335,12.140436957824212,-44.9057494226024,-32.45513146534802,-18.76118347791253,3.800082278099817
29.59569126922509,-127.8235448851214,-74.39531598582128,11.004763458892754,-39.920365751547855,-29.47608389264408,-17.557585040033953,3.9680847947079645
28.55300832293371,-121.32248788364488,-72.24064357337055,9.529358687040592,-39.02995111909237,-29.36479212384734,-18.665277409922282,3.9090932370741247
27.54170769062525,-127.56962132387126,-77.23668831646386,8.830556647448637,-42.03489424979781,-31.967998624080984,-21.965004807583664,3.8610685858423315
27.539646514762445,-141.58037118569388,-85.45068704692659,9.632201572610049,-46.898985940806526,-35.78500374635941,-26.234418727981993,4.044061442161836
28.829187255178912,-153.90405852247844,-90.92669452581926,11.871402378155619,-50.45492542100952,-38.51466133014123,-29.515721891085697,4.551887836273652
30.692805337241296,-153.68458491541273,-87.83462042560681,14.555332513713944,-49.494147758015785,-37.908546958242624,-29.80197550816252,5.272365584633342
31.565459690889302,-132.95962654408385,-72.96188802362397,16.022090615939277,-42.091893004917274,-32.761848913106654,-25.910178404412456,5.87422074195167
29.671570492519358,-90.69829430393841,-47.51901868414311,14.625801031526228,-28.649589284950903,-23.636993866083685,-18.170530655034334,5.895155124460026
23.933435914595158,-34.157847933802124,-17.01660741473171,9.58372599951607,-11.966651255278649,-12.838073772478586,-8.491299678939347,4.915058528641326
14.701930075292477,23.95405880198588,11.16973845811357,1.5134864051031223,3.94427021309605,-3.45922727000235,0.37485283567030503,2.7381020683996216
3.849465699975877,71.44751090224071,31.400883702817378,-7.717203056866152,15.77681928102105,2.1017300660636864,6.059134753921808,-0.5050186682167072
-5.927652651382984,102.28933795309909,42.374224973189555,-15.808407453680182,22.458024558714516,3.3431204851158434,7.641069209030406,-4.375938352477423
-12.286239606475649,118.27339929426033,46.99183220414723,-21.055172020730712,25.292230827429787,1.8252282890003313,5.942631116685386,-8.24430836274518
-14.266580621182637,125.62637518027682,49.55930160298735,-22.973987716928622,26.62093484704665,0.16028872690045842,2.9073608131900857,-11.440852527648556
-12.60975349328295,129.0854610423297,52.307364080399125,-22.190060718298447,27.94753456460968,0.4447196755686964,0.48690792754281925,-13.397999674708824
-9.212275932498383,127.92732493866045,53.780513738550155,-19.759353415127837,28.879573280541802,3.1223451814931846,-0.27262960342605347,-13.761207926736327
-6.079842526730955,116.95414559477929,50.249197097400746,-16.46600783449181,27.627701826581458,6.955323140985207,0.5361826737247984,-12.473053649406513
-4.4071403126630555,91.56249938319519,38.99619578294428,-12.574576552351596,22.617500619615413,10.007457786245,2.1063780915279846,-9.817558578272827
-4.258745154800164,52.842641587805666,20.944956832598486,-8.09782246484411,13.955818847829613,10.893237948967077,3.5739791725451866,-6.387163211386903
-4.891062708748676,8.714515668644232,0.7019193329568539,-3.225632761194399,3.67223649178335,9.477938543357745,4.451221579142112,-2.9425395245676147
-5.365146378974442,-29.78941665656806,-15.914905284870496,1.520071746116961,-5.373719863988731,6.710971704267038,4.6612703242875515,-0.18573286760966917
-5.015527937040459,-54.38655619502459,-25.008148189401947,5.551665813860948,-11.061640086337075,3.9010263989306493,4.32794137718931,1.475898583888769
-3.5710838776064158,-63.433487589486006,-26.249913880562364,8.651380634605278,-12.941329899125451,2.0311514456967976,3.5979777160862447,2.0732047957845645
-1.0509162904684788,-61.35757176360211,-22.159368290920824,11.141927841974283,-11.986218544348572,1.5165119787314165,2.64109235363201,2.0466709323185057
2.2903654809570186,-54.450669124876285,-15.878971727195124,13.549069789090453,-9.541861798641207,2.361450508224952,1.7397598582070164,2.0312997622522206
5.834126882882747,-46.3157007560758,-9.244012621029995,15.942311518923631,-6.378266654622387,4.373888764255256,1.2736189328271053,2.5312695101960543
8.445465655534171,-36.12228719708093,-2.4093629245714827,17.466318010577265,-2.5275223454005395,7.173827767872257,1.5217663347244332,3.6341987394785025
8.61221835103055,-20.42172944097301,5.112460818900631,16.514013811147887,2.1480811767541717,10.061081329428946,2.4247476780567045,4.916971016785662
5.02380512974614,3.3271882128099057,13.194607712435372,11.559816974848184,7.3000299810167,12.036115903339242,3.539961967617245,5.60882326990849
-2.6409789546674443,34.21987265156079,20.725267975702224,2.1860949910246585,11.9737845317254,12.170024193424785,4.293311688314234,4.948411018060474
-13.220319515743308,67.90098279181153,26.304334913993827,-10.344455314956411,15.13405532175348,10.192329452333242,4.394858674897082,2.572777768207035
-24.28533163417643,98.72180797852116,29.322087266584756,-23.36993997076327,16.40905944382788,6.9032732964620775,4.141120663245259,-1.2469362819644731
-33.0635176570812,122.42121038087106,30.54410597605719,-33.86110651243649,16.46654392311598,4.041714068533235,4.370084273033004,-5.651410562073513
-37.60820111850834,137.7239301685992,31.802201303097544,-39.67066508854819,16.717212189867126,3.552135483073875,6.036007065281633,-9.529941841552308
-37.57983989160029,146.3011295274115,35.08246054864263,-40.37088836602182,18.539310899458293,6.597566556285586,9.615498629436928,-12.013126043170908
-34.24607482066905,151.6343748528185,41.647759593195886,-37.31955297499542,22.545567219756375,12.875296082473584,14.687692953548686,-12.885548055796665
-29.78437828458047,157.53877949247772,51.56635408941983,-33.012561425621385,28.299547967919008,20.628528220929347,19.939139015233213,-12.697050310159806
-26.33626729630062,166.54767659111738,63.499239866649944,-30.070731483260122,34.47057558847841,27.316950764084933,23.587992879715912,-12.49307331136327
-25.283993709020596,178.15133850505362,74.51706238110881,-30.262381279651173,39.15208354623509,30.551924260730203,24.006510767198776,-13.28294169950306
-26.966496277907474,187.62716099600857,80.22585092194039,-33.879477301435045,40.21140003724251,28.867038206215682,20.285693500423513,-15.511176427904946
-30.779568594572098,186.92611739417293,75.85399809506055,-39.673224735906864,35.812729855178475,22.109753354556656,12.575986664388804,-18.8081049059753
-35.49915156182997,168.30569771018267,58.42519768712892,-45.40100782538028,25.202910149006776,11.446044148480311,2.1195343363093593,-22.15635016744676
-39.703070062083604,129.18831242743013,28.970803791974145,-48.799066157402116,9.438015603708859,-0.9721667844786304,-9.069477947732706,-24.3878777818096
-42.21614929048301,75.04089549114552,-6.903644721639165,-48.563604174856515,-8.569323677662732,-12.634800196128355,-18.84603004506698,-24.75087187065795
-42.4927618228346,17.80622785929293,-41.02181575380499,-44.877928970421884,-25.042408069338048,-21.48540616466398,-25.717760914205257,-23.262180716102648
-40.80880313212897,-29.651348130167353,-66.3709682198407,-39.23971509123263,-37.00687730588862,-26.64752820929699,-29.43853665693261,-20.689094833185678
