FZ,C3,CZ,C4,PZ,PO7,OZ,PO8
1.3220966356233574,15.472398404090654,6.037068898851055,-0.27122616188299375,9.263730959506756,5.9774929417103,3.658590705562876,1.7687745694248238
9.255279490543865,123.53679678578892,88.66386227608942,-0.10093265677018406,60.27946978542684,22.311439595100165,22.7142696908922,2.500281800613651
15.28830561915848,205.30892466159915,151.34856044334475,0.14424496915584814,99.00450640105471,33.84148978763514,36.51790084230802,3.015758059141846
18.418881709912597,245.90463920158868,182.8064355640367,0.5772173364728358,118.54977471995458,38.13126601911055,42.31052780207697,3.290583392476785
18.871415244828405,246.91158670483566,184.20241983281232,1.2691173306414705,119.75118136416104,36.047481728040104,40.83801032343201,3.5252978956517027
17.73422655904106,222.8221630997385,166.39811814695747,2.1142862774764586,109.36218003273332,30.816010757754476,35.41959657789846,4.005929711925866
16.267184469146287,192.0237229386266,143.16262978978716,2.8162279115325073,95.75296987729354,26.014338139446703,29.895328314956426,4.915708795924766
15.37240623560981,168.25266508684726,124.82457174389994,3.063971044924485,84.99864239033468,23.857096086941176,26.815345389785705,6.228765676871674
15.447043348299356,156.83375510725278,115.51944007007519,2.7546259999126725,79.34389692290029,24.652524375635807,26.761884176325893,7.71478546886822
16.48889182791809,155.9784777722424,114.13161726050487,2.054985428472801,78.00854193952917,27.342469398885477,28.765354742983398,9.006572896312056
18.228194529680785,160.45540805839,116.925919989002,1.256983454111751,78.92515994441537,30.427841299501445,31.195472678022956,9.698046541588276
20.209331626127085,164.91431850244575,119.93840399280613,0.5770556059330398,80.1161533510845,32.67262542162365,32.5677202883402,9.480370153066348
21.88889766319759,165.8458701243553,120.43604393434983,0.06768380733529897,80.34267462115939,33.42250656100917,32.0547244467823,8.297570093332393
22.787650531495906,162.33948823299878,117.53865439890535,-0.331795043144801,79.25316161660207,32.64917855459617,29.689362773406486,6.434144621168676
22.62785669651316,155.80197638812703,112.06738402282686,-0.6932180665020377,77.21594219767846,30.816554160719736,26.247852875486284,4.445608121231155
21.377608367327632,148.69134329791802,105.6605956743936,-1.0225248422785274,74.88219096718976,28.60839228743629,22.84419999734992,2.9457151629584466
19.216387786193653,142.87633060003222,99.64108868204505,-1.2232424529947086,72.68658369442035,26.625297076612572,20.42974623421134,2.3723308349599415
16.490765238463347,138.7397936233271,94.4332163637364,-1.1084482214035403,70.65738130753937,25.221588390801518,19.473178702369704,2.8556343160085906
13.675394009447995,135.5939415329096,89.85722714451063,-0.48578814258141556,68.65944932329027,24.539634863560646,19.941429839975726,4.220317422508981
11.287168341534723,132.7355878921495,85.76550265911744,0.7042792391910964,66.72820780089504,24.604848785172674,21.457124857819743,6.074760959993381
9.732230680078265,129.971965407337,82.25393483569633,2.3003923692384727,65.06921090759141,25.319745932130417,23.44484053454965,7.936334423767091
9.161914271870726,127.28449945230057,79.35134977575389,3.985302568189852,63.74953623728923,26.387261489249177,25.23315172890717,9.371318411593162
9.441199506377767,124.38036310434804,76.77844280657465,5.4779423672897805,62.52767125121516,27.34930862955453,26.21106892666021,10.126629248321128
10.245556422481942,120.85666393083048,74.19931271481451,6.695841371538287,61.100735826236836,27.820418089414225,26.056972639164147,10.204152250154161
11.202591341925727,116.72074911198244,71.64418980416868,7.753697486818698,59.49563208146358,27.74257535460607,24.884576784412825,9.83408803628914
11.994745665482315,112.46330462998671,69.49349533944238,8.821638923778545,58.10931759120416,27.406977590159343,23.14619788150979,9.359071630718
12.412905580546893,108.49343802135836,67.96852242851051,9.982460496045878,57.304541304369074,27.195930350199934,21.341292852670392,9.092019580247653
12.386551240016935,104.63053068313003,66.7159452233422,11.183038804962038,56.981770251171525,27.258023087149706,19.7541656120983,9.203931253140992
11.980285881067728,100.27614225537128,64.94855180558474,12.25282704537981,56.54223124302639,27.361916843176456,18.381644713424187,9.655029233155004
11.324421041044953,94.98327326181243,61.913163725903075,12.924292267175542,55.19162880470201,26.98951138502586,17.009271423815086,10.170202596914349
10.50456760100964,88.66904306906312,57.14440595743466,12.864282712504604,52.23709670102292,25.566839778114936,15.312013483004034,10.290126551875987
9.504578431134846,81.31018908489689,50.40475687075662,11.77839052248859,47.22903533552797,22.723711678658674,12.956348854934747,9.535048366695802
8.263971936880413,72.74179458189313,41.71413108111782,9.580978887409424,40.11179798304564,18.514799377882568,9.763655271047313,7.645508515508205
6.787423259551068,63.01315194391423,31.67696935040877,6.510705666717928,31.468624756232032,13.502208794495978,5.899952547268484,4.766099225711785
5.1788500496975765,52.85897279778662,21.69004359475653,3.0744628509689176,22.59359970963417,8.572966931820373,1.9130624527530575,1.4313966082043839
3.559911042555642,43.50693405708766,13.501199539552523,-0.15631008353010697,15.07669824109651,4.504970298697993,-1.5055630526387276,-1.6624840852661624
1.9730595464872598,35.81960502011894,8.270888850550572,-2.7497018906934114,10.044263578739288,1.546307767022922,-3.8983336491174345,-3.9631453072322933
0.3867260278779674,29.6670126085395,5.934633051876789,-4.501607016895115,7.630077728236371,-0.649796544927337,-5.254701670336932,-5.263444318680899
-1.2093593456019223,24.227392972730936,5.419802512528919,-5.422325775569194,7.087421213912709,-2.653678732899959,-5.901940009748777,-5.714415373537516
-2.7443323064089395,18.837255821311697,5.409582309373357,-5.700232771748044,7.350642553147028,-4.752951717400924,-6.222617779961702,-5.693291100229911
-4.124300185845152,13.433833815302812,4.916488712397738,-5.665223316997419,7.518633123932049,-6.7244906333276315,-6.470943294060113,-5.622970162574416
-5.35012738571868,8.246983147419176,3.3628600833351365,-5.710732113573714,6.995361063547549,-8.029037131486927,-6.789092377257717,-5.8142190892616075
-6.5731134293054545,3.3265742825607214,0.47867134841502257,-6.167756639228014,5.455919937627369,-8.217700141768338,-7.29928302797042,-6.3683593697748995
-8.04279560976324,-1.472331642161478,-3.680552943792174,-7.203719753993427,2.8536920677662825,-7.238507072289699,-8.124422128712213,-7.166722603975881
-10.001865213643802,-6.196304264744099,-8.746952997870142,-8.813554739265786,-0.5929868579068751,-5.495542194309169,-9.331368463871177,-7.951261730924868
-12.589628536332638,-10.759051972112333,-14.335323040151035,-10.872511919191018,-4.5850086902713825,-3.694769378821335,-10.874234059938832,-8.451974087872312
-15.761723463930823,-15.232120649633181,-20.411178927093843,-13.164658902926668,-8.978122362916947,-2.5581216876852317,-12.56461365711619,-8.487395142619194
-19.23199536032124,-19.91652831335407,-27.220357051911698,-15.371391920721406,-13.75550764557968,-2.4888370724418483,-14.050940586111889,-7.999273188930187
-22.49838055373651,-24.906271530402723,-34.707190887954845,-17.10261233908347,-18.69101707612512,-3.3348174443100143,-14.850613931607034,-7.048279802615527
-25.01133278287099,-29.674701938238453,-42.05753621048892,-18.02848254116988,-23.10851250779089,-4.437838899666903,-14.530467694739484,-5.814776788953438
-26.421824076079734,-33.39000225906939,-48.00883254704714,-18.03350215344074,-26.14711835739267,-5.015452573936568,-13.015755168276625,-4.597414302517974
-26.724898497418074,-35.79310064278038,-51.72970863525538,-17.24322817450611,-27.387283201898132,-4.649410175998672,-10.800931904358613,-3.755812060064936
-26.16205027889302,-37.628741436301,-53.36889502188817,-15.880706523137691,-27.216404931821813,-3.5262185267597435,-8.806528992823681,-3.5757012222713547
-24.95374660411796,-39.98808786251144,-53.697772368614864,-14.086438888819513,-26.52558703418455,-2.2683877548886975,-7.891373227138675,-4.120846318249696
-23.097004553105343,-43.16010104256256,-53.26317431873307,-11.877751897857147,-26.01793332708245,-1.5333733819846607,-8.352869711059803,-5.178285846531266
-20.408209019067172,-46.202737414218845,-51.957113491364694,-9.282179541076172,-25.78349533665126,-1.6983421969248362,-9.788233396590002,-6.350169726037096
-16.7767903627873,-47.696798094732,-49.387475328910405,-6.517090889392792,-25.469641350223952,-2.7892699134066734,-11.40029550030342,-7.248416029930645
-12.434921912691692,-46.97598871511054,-45.616719962471166,-4.068144965200208,-24.798819081962552,-4.587486067807093,-12.510326614868506,-7.6927632024215775
-8.062150152596576,-44.86819205878581,-41.644972816597566,-2.6160417622180976,-24.000348623194466,-6.797268590527334,-12.965269567127388,-7.820346506238218
-4.655356071336243,-43.6541007234955,-39.40887106084401,-2.8320525078217265,-23.954539979830766,-9.231741951847786,-13.260380400365568,-8.04590775880057
-3.182264470580417,-46.44168467011616,-41.31251297102233,-5.067351641980326,-26.019884251085575,-11.962579827797901,-14.3261785528803,-8.84815840240212
-4.101505295042596,-55.94354292747446,-49.17724562787068,-9.002449281108422,-31.441236199960873,-15.273954781835943,-16.993364829814627,-10.433008839232434
-6.938614596076835,-72.53485127460883,-62.61407407911448,-13.449982740714812,-40.30210416899534,-19.29531279182991,-21.285922853000386,-12.441564247155023
-10.20520300169522,-92.28111966133659,-77.58952961687822,-16.570212210903275,-50.481475007103306,-23.478590242308186,-25.927880432691456,-13.932792246734614
-11.86988661668191,-106.67634460338844,-86.64227114650087,-16.578584768965968,-57.57172758006465,-26.383005308914928,-28.53458927290793,-13.758582261680258
-10.27123907394791,-105.50429256792286,-81.64214458546205,-12.65197471565366,-56.432188785837134,-26.14979283024287,-26.63679077318425,-11.184000969577255
-5.004373858566827,-82.08400516937365,-58.126022844077575,-5.486653476744094,-43.89176113415066,-21.539549854883543,-19.077028501355898,-6.385100611242064
2.7703095305722467,-37.856590628870954,-18.596792521708636,2.9042262011439206,-20.990008058371977,-12.879030830046695,-6.914482710621026,-0.4838682284677937
10.833316011617256,16.95874030682525,27.63989040464685,10.099599265428896,6.859564429385876,-2.211547008486357,6.8212527670880405,4.9372189647283315
16.95797460772051,67.56623316423483,68.41027069145962,14.374465755123836,32.13598451687109,7.547087766955357,18.469079290807958,8.563874816006908
19.902670607907076,101.37700122091235,94.20107823030494,15.370826456492948,48.65530973116125,13.96495710589034,25.400660533515396,9.89950164341299
19.803418891120447,113.41190682544526,102.08140867607592,14.005575961858169,54.182109046043934,16.14213793005371,27.05342734305564,9.348961830489422
17.833379192052764,107.35813642461142,95.94699512527615,11.77694428655936,50.79823207636126,14.867431918345908,24.820633877794158,7.856523787505335
15.445473879252594,92.2115888393483,83.42685708625271,9.964568448529214,43.1086780202349,11.915070372090804,21.026060127927472,6.374351908131783
13.69410073605253,77.11708415302486,71.7338608446559,9.17463966017929,35.65287453155205,9.035491647274728,17.712984241556082,5.477329938937766
12.956973215563632,67.59486408912738,64.89828897641905,9.35070749728727,31.08704817890791,7.257661792294066,15.922044951932477,5.271850087297144
13.04764033359761,64.68447446462592,63.35786614686538,10.06018609329659,29.829483356270586,6.756950932544178,15.658066432691527,5.534827793263717
13.50448109054006,66.32758064371849,65.20874311348362,10.802205149181352,30.78558963547496,7.12577609791031,16.293682441959866,5.925852166146745
13.862627026202357,69.36398504503258,67.83404196129237,11.213918209831752,32.34980184134687,7.7447704120225875,17.045745446488944,6.158926745913522
13.834674281057007,71.07331554514971,69.12581320386398,11.172615215290172,33.17516478641269,8.078470380507989,17.324040997562268,6.099465367570973
13.388386831016618,70.07321990037995,68.15825151783439,10.79982856597634,32.61628816162991,7.8630025514071855,16.914873595915772,5.78472444523593
12.707526349192225,66.6142605375459,65.32297038310182,10.355868290465745,30.85232473000483,7.168469697904491,15.991741373239245,5.367902055375348
12.047622800820026,62.15700364187688,61.87501993048442,10.06612941684464,28.640531004182193,6.299076431797921,14.947026281200072,5.0107891458913585
11.572289940715395,58.33031830226539,59.06281320415103,9.99505774700771,26.78068346780683,5.569608833136388,14.125609180395376,4.7903161542463195
11.284921111006506,55.92226104250413,57.398359739386215,10.05897185579433,25.631930503652836,5.112529748126538,13.63691263899409,4.681194163029356
11.089560890064435,54.65359504544302,56.586143965660725,10.141463832149201,25.033898044381647,4.858608543071536,13.371196945835097,4.612130075418034
10.89756336142601,53.78317868055275,56.040237645023765,10.185472940271525,24.62033069917364,4.669814419243574,13.1619359499987,4.530614322434213
10.674609336468494,52.82021482247644,55.399240259158496,10.18871274638758,24.157078322561638,4.465565386606923,12.916678976570307,4.4202435383117065
10.413812322047546,51.67565373949861,54.594381568683154,10.151683007861035,23.5994725163124,4.230781131900376,12.616967676721034,4.27886195962603
10.105319323344446,50.35458831422667,53.61820590938603,10.065627357612946,22.943432363077413,3.9544516468143676,12.254909685031576,4.104251138180334
9.750755454759089,48.778327038654425,52.42645902036137,9.947226246698193,22.153037541264478,3.6137657903109113,11.82118775479728,3.9056718455171286
9.388396457139017,46.97144276931797,51.08398991637721,9.850321540987862,21.25503853808414,3.222386572387477,11.349081205603314,3.7127766437533065
9.073243663321655,45.23522885703954,49.849290302459615,9.818947639842277,20.407728215217695,2.8525301588694214,10.921568565445128,3.555530100335117
8.823271917061524,43.93138618862043,48.97275687450093,9.837000679923593,19.781146184339654,2.5741553607513663,10.600858204903208,3.433995310410108
8.599861273838698,43.08832962857884,48.42432486544107,9.844936944031497,19.372471967452963,2.378798595747717,10.361100839122685,3.3179800241678543
8.352415806606347,42.35729349834009,47.92034319357431,9.807882089155632,19.00499493486824,2.1900865405139838,10.117070463446767,3.180777089244244
8.07360976263159,41.41555314274715,47.24691373691079,9.7501357533264,18.531620720511036,1.953493692740278,9.820230821022541,3.026369567307336
7.797291795175304,40.31816957863031,46.48135309971152,9.714850526345103,17.991339284660757,1.6927362493352585,9.503750477880013,2.8775183387637164
7.546888134121231,39.36187910391534,45.84345272814731,9.706040311968477,17.52667722530677,1.464608844308671,9.224754250909626,2.743202252479944
7.305814249209738,38.6699544596938,45.39435477755105,9.689810485444571,17.18541871340239,1.2788551108509858,8.986565147948836,2.6092622428311696
7.047467254795869,38.05994446075222,44.985635318162785,9.64787999967319,16.87378357571139,1.0918942889174565,8.744338676182387,2.4623526362858787
6.7790286825739345,37.34505251345175,44.501673471851895,9.605486220288055,16.509717592902028,0.877439368825459,8.478885873459697,2.311527660309525
6.535345245828475,36.62044512302114,44.03607415146508,9.594309051091356,16.149197602046524,0.6704793696266654,8.230108596711338,2.1764957259532096
6.33013363303622,36.1231094069735,43.74942773089767,9.603772380938278,15.904261993913293,0.5202084289731068,8.040847042186986,2.059115110358713
6.132606922971444,35.865943083245035,43.6145441624469,9.591506150071057,15.77015167849358,0.4166815768567305,7.889940611301925,1.9387039491519982
5.903911790385794,35.57654488171557,43.423413294729436,9.541540997080714,15.612488824562226,0.29542968453326646,7.711486722712341,1.7989579341219533
5.645936077729533,35.05516765862095,43.069482899427,9.490902902601771,15.345915214453345,0.11852111633401849,7.479511675805496,1.6501807020959174
5.397857257074427,34.476493852799244,42.72644348503068,9.486145135294349,15.06539469947166,-0.07501363938567898,7.24565760862501,1.5162435896935476
5.186685750756262,34.214258586994006,42.66668146603164,9.525593019132698,14.945627994272131,-0.21637553075199173,7.078694257454297,1.4035817288244608
4.999142373136324,34.400239938191085,42.93947506032971,9.561937559364354,15.032382462688437,-0.28803723700205286,6.985266504246059,1.2938179258152211
4.809803498868941,34.77900073256912,43.31362583628267,9.558456390523133,15.192148373318693,-0.3328059033895189,6.912937882864015,1.1690398065379615
4.620696844461697,35.01629677317702,43.535835239944824,9.522981672191266,15.271773783716105,-0.3877001584174627,6.821825314364406,1.0343706752130772
4.452344329037469,35.02592400123198,43.55448019427373,9.480500566631019,15.246241680121553,-0.4423875647862421,6.7204592909894565,0.9073624866814038
4.297719863321895,34.90965789360466,43.45265987172782,9.433744426448905,15.174263159322345,-0.48123044654097674,6.620373587430033,0.7907152137263967
4.1090747766874705,34.69233454836772,43.27053077293103,9.375429649919298,15.068927544163378,-0.5410311707156225,6.487813957611407,0.6683578765612673
3.8487225348204848,34.33030150811897,43.04301527426655,9.334721103138053,14.910457470311927,-0.6842176254098399,6.2819139558729775,0.5318316364983575
3.547463116009196,34.03626767163974,43.01565116876224,9.378998559768338,14.802142775007672,-0.902230816752891,6.044128069892219,0.39974961026657313
3.2959098408250234,34.40150911303089,43.64557874746717,9.542672675124036,15.014838290561443,-1.0729993254849097,5.913166211416039,0.299785827262905
3.1712820204573595,35.93783439822511,45.19230818584406,9.756683197514189,15.759744994200757,-1.0467730615036281,6.014939199294226,0.23274695126125033
3.1749917229577274,38.40043006458633,47.25446029700401,9.86957896942516,16.883705586575292,-0.7835478525338255,6.329183619841697,0.16424808650030373
3.2339397589394787,40.645481442501314,48.801990052508366,9.755705504733118,17.83817844958444,-0.4051042961519888,6.669871507632772,0.055776084344238454
3.2408120118481105,41.290727457387796,48.804572471621455,9.415483084788967,18.014677946624012,-0.12471968852974381,6.794781710437974,-0.10144436851025271
3.08546436495884,39.66431781393046,46.98606636683135,8.992242943797404,17.176860255463765,-0.13738358185986266,6.541239547457053,-0.28549185195706156
2.6833759179454035,36.353150270788404,44.174782555188806,8.71681143997367,15.672342242776644,-0.5432239111468977,5.907154429023524,-0.46584408744517525
2.042070190577944,33.14269511806653,42.1112426920589,8.825209649344762,14.357553714812397,-1.284620971419578,5.090163873838037,-0.6135608072938379
1.3485697232267644,32.511112399352875,42.846045974044245,9.453392769108854,14.335967826682081,-2.0700150877603125,4.501537365226306,-0.6935675233018592
0.9769187836350482,36.69570706529228,47.790473641143954,10.497940211179909,16.524565051391697,-2.365785667121116,4.679936915850624,-0.6703064455677238
1.3347890099228503,46.24183144171264,56.50209312257156,11.509143496493088,21.01100738046538,-1.5894703513336264,6.018311789031236,-0.5428597773599442
2.608009356672669,58.505042166348304,65.7473330040437,11.760553921427585,26.43055977479176,0.5096370874076988,8.389128298602355,-0.3717540992773463
4.582182334172286,67.37284545338947,69.83077992594944,10.568721457767683,29.94192964636816,3.5295479126994533,10.953719486799164,-0.243494626013527
6.684975580068527,65.29685430830308,62.77075244181575,7.723618005264534,28.251781385443305,6.450652580386482,12.409283418677937,-0.17800097016235894
8.226279324324812,47.144682459528134,41.54175793124852,3.729359317502228,19.37745488880529,8.082116416148885,11.615910748560163,-0.06020053128264007
8.670620255951144,13.576149329011525,8.374538922410105,-0.36776667635898885,4.04779691405569,7.643058589092379,8.214817878822924,0.3196673037964213
7.777375794489622,-28.601269654365545,-29.71524953441015,-3.4994214373887425,-14.367268236175548,5.083951718979264,2.808078807698225,1.1196101503386129
5.5757417595706915,-69.75763094814921,-64.2412601117547,-5.107864496207167,-31.55313668614403,0.9611621766950958,-3.4193693970721566,2.299323089668451
2.2856108460116467,-102.37008703469743,-89.37003897995284,-5.328320611824635,-44.48527417896042,-3.959629370496103,-9.330994635292454,3.60495559670717
-1.6785501498733273,-124.05745202846964,-104.04075875424024,-4.717644888231843,-52.58744575927095,-8.98085335417647,-14.224465234565617,4.728282756304828
-5.618237615699374,-136.46951497225984,-110.6131113260793,-3.7828197599111677,-56.924952213784316,-13.377917434793668,-17.693806338979105,5.535991940893319
-8.549820146028836,-141.03913775168564,-111.21979930965563,-2.719090603128538,-58.100468801240844,-16.08467841597162,-19.179067650665562,6.178603740073595
-9.47683440435676,-135.35048553006953,-104.89569300787555,-1.5633501025077041,-54.68816737329501,-15.627881344380675,-17.751281296656597,6.960357761015005
-7.891652072834287,-113.6131308113543,-88.00450804041317,-0.5668479081701662,-43.734461240800925,-10.651416337958294,-12.512244338405495,8.048500508878432
-4.1855310801711365,-71.3625205182582,-57.7630146552256,-0.3675474101843462,-23.169607564216665,-0.8361989350446758,-3.4097596477159633,9.256175801102566
0.38710688898778806,-10.776607846845508,-16.009405213685906,-1.7213344988721386,5.714143592988802,12.456517288125946,8.203126141237373,10.094242644699612
4.256172532804051,57.863169676252305,29.97082151544405,-4.968134908653675,37.79127331962354,26.43772828088834,19.8433875849232,10.074875257578737
6.283613783452482,120.24325599579237,70.50496356984364,-9.672169125061417,66.25591987033057,38.05755095555714,28.976305541241253,9.047198232474678
6.24657699176243,165.10292545608957,98.45303603615687,-14.752312482421424,86.04200880831326,45.418363349315484,34.23544515397293,7.321029013622497
4.777030673382567,189.48345870280636,112.55591407942126,-19.030501666755995,96.18063773393858,48.532271248202925,35.970517028009674,5.4963754739969515
2.8531067841125086,198.55075189572918,116.92543969163219,-21.802800691044403,99.49792516003075,48.93221623816079,35.75167909512138,4.127561520969589
1.2243955092146304,200.296348143359,117.18669488698303,-23.03292225987264,99.94589927001766,48.421346274964556,35.17823705349914,3.4546913626361695
0.14877163074005786,199.07258557451198,116.14855239140597,-23.079330588289828,99.52088276076377,47.82689787331553,34.8130225363944,3.3634470081102723
-0.4638056450788203,192.60274641696813,112.0634662579023,-22.242310446682538,96.9349234964244,46.58144808054065,33.93959971166455,3.5509008956930663
-0.7281878146681814,174.3787173877707,100.48673872340379,-20.541907550372976,88.8492225256865,43.32911348807793,31.225213874465826,3.731229754307648
-0.6051146447562589,139.41731719116356,78.13964512081526,-17.902188722143602,72.64277021615418,37.040853727984086,25.755241013070254,3.7250385181619388
-0.0022233699744472193,89.16151204444583,45.97129749062839,-14.534521724490402,48.73735946045717,27.844316918763788,17.729505566847585,3.4118757932985444
0.9822144829263592,32.21666605771231,9.444692401714446,-11.12892101120121,20.97472636912368,17.062149480339773,8.425347003119937,2.650028367624741
1.9247449319936085,-19.41277298484389,-23.946141435816994,-8.632297911793199,-5.082163608587274,6.523199973630089,-0.4637135101053592,1.2746898007736125
2.193785848196359,-56.05415847785727,-48.22203454172202,-7.749882811659658,-24.766896746455785,-2.3448607352131243,-7.654487000826127,-0.8080857633907124
1.2529793315682836,-74.54436314565923,-61.38522794581513,-8.541372835959333,-36.26102478131883,-9.070793998962104,-12.781246701483527,-3.511944680767484
-1.047354285081103,-78.64688305993226,-65.587262616646,-10.411700246384877,-40.88360282900968,-14.080688222775919,-16.35958629953952,-6.546786090527178
-4.3590181810983255,-76.00310302105743,-65.2843372827517,-12.486093873359007,-41.825542682653705,-18.180508126830706,-19.319596257407596,-9.512755105633426
-7.9288239098961695,-73.74398699037701,-64.64817904487313,-14.068918827930334,-42.23143022565894,-21.945354439562887,-22.395816356953073,-12.03865061987902
-10.805641033782994,-75.02518023842372,-65.48825173801131,-14.864347968500184,-43.59965990882708,-25.30067813074229,-25.63119763642735,-13.853211761645085
-12.092591807810203,-77.80394808455176,-66.44885344483795,-14.897749266477927,-45.113225339539305,-27.426918312362037,-28.18541035925107,-14.760583384641189
-11.26174656210897,-76.30471320141503,-63.902570798983454,-14.354337977732515,-44.204260512853665,-27.07534901138743,-28.630322997103317,-14.617745544322648
-8.525838315663737,-64.95807553117845,-54.59081978435084,-13.556068156421812,-38.36123344088076,-23.331322941530512,-25.806753525256465,-13.426328974587578
-5.0880382757283025,-43.46489877245925,-39.112190654844696,-13.038355806070015,-27.562500442774446,-16.5897748154918,-19.944898614875044,-11.505737919666956
-2.9666947687776237,-20.17839970883451,-24.14749542267643,-13.480730202789935,-15.92340420627837,-9.131117362347489,-13.325696567142217,-9.55681425491931
-4.250983648488142,-10.753459326088983,-21.170760330141714,-15.35604421445424,-11.020252546092983,-4.6474130775891265,-9.769662605244534,-8.450080712721041
-10.051034819198904,-31.251496653173618,-41.208950103991036,-18.49572226179847,-20.51535364704319,-6.633625842467233,-12.900708254703638,-8.794543501940254
-19.734106496823653,-88.66807763583475,-88.0516253636831,-21.96554721458808,-47.59859992507752,-16.404485415858847,-24.038681978186986,-10.563864377975397
-30.970969086968836,-174.36487266805,-153.979641039194,-24.475182752116392,-87.94454134215307,-31.940954094603278,-41.00207584711529,-13.064530029833854
-40.65687335021107,-264.93687266597766,-221.0861271227324,-25.131827064921715,-130.31761805087228,-48.39924524191444,-58.665759859723174,-15.30451279975411
-46.23816873739831,-330.99254233041245,-268.1251500363243,-24.040563248944952,-160.91639615978332,-60.15025376477681,-71.09584693334537,-16.538050252851782
-46.734229680531776,-349.74035991354594,-279.5831602830808,-22.3056340517068,-169.35319355041236,-63.30125509127176,-74.15830210140551,-16.637108853951258
-42.942057061935834,-314.98941506965946,-252.33603763054097,-21.3749615335553,-153.1841940870059,-57.36215269429848,-67.24235762115207,-16.06103827690009
-36.80024834715508,-239.49209965342536,-196.56106705384647,-22.126044318577858,-118.68992797131091,-45.21179611876517,-53.26741523281252,-15.471096789007184
-30.347750526893165,-148.64658606725428,-130.66862033539388,-24.287966097269642,-77.64760443917324,-31.47624795663211,-37.09331454308092,-15.266807545718034
-24.868716001594272,-69.06871000647246,-73.09249774551951,-26.582364254560105,-41.93327451105458,-20.274913200345452,-23.261904132052635,-15.348739826197333
-20.618805005726596,-17.954844747944477,-35.16114415723762,-27.49373847971461,-18.781677913915534,-13.54830219409051,-14.241093192090167,-15.236392087246942
-17.146671679619207,1.740608650414732,-18.32124542510704,-26.176640542646805,-8.93332476030195,-10.745821624613564,-9.948994262931159,-14.430462793101217
-13.894622919103037,-1.131547873178301,-16.33650855816809,-22.937623070679038,-8.121445306224397,-9.811647762736683,-8.565682520540824,-12.766731813338179
-10.6612992419347,-12.981509299117153,-20.331674211102094,-19.022474643412103,-10.476594664176446,-8.677453760588984,-7.943903820627485,-10.53970786523757
-7.677851643975021,-22.5253725239117,-23.402078572570737,-15.890012747664885,-11.619926942900216,-6.30842757415423,-6.724622726519507,-8.340655858624839
-5.3555205117624265,-24.328778317013644,-22.583550333532827,-14.455700505237505,-9.924017687237205,-2.8281045780270793,-4.646073296689072,-6.7379454006499895
-3.9686606927160093,-18.4355327399291,-18.199301513760147,-14.739515240683094,-5.945656651684886,1.0436539180664282,-2.1639948529465007,-6.003108075855289
-3.4975984961249607,-8.006555682764061,-12.10731578253092,-16.022515014851706,-1.1108655684278463,4.635774103223175,0.1267813654197474,-6.016937240824279
-3.6607177872775276,2.986410044018788,-6.260506317549377,-17.294847311563373,3.3104866564056463,7.62733712124477,1.8650082667206322,-6.358745505017488
-4.032669456525512,11.253654981998514,-1.9909815133950242,-17.700485460051368,6.619006857802068,9.995818608443392,2.9973102994343703,-6.501562715636974
-4.170834846397349,15.037248453198753,0.2166745198344021,-16.818945781707242,8.688673980244236,11.83245140135552,3.6650178897747177,-6.032776541817889
-3.7474259134553507,14.440968613112034,0.657176758872698,-14.764246046976506,9.783704568483056,13.186830013081371,4.031205313051391,-4.832941196119157
-2.678852543942066,11.136220932022946,0.09811111952651774,-12.113888587565183,10.303191398956407,13.977080995191072,4.14365269493181,-3.1398266828522403
-1.1843603540637602,7.607483762999738,-0.5602909900137631,-9.683731550546709,10.605784402302895,13.981555941445096,3.91905897056841,-1.446530194839549
0.2848700878060713,6.418538242970257,-0.39414499353622595,-8.228672270084884,11.058362045381815,12.94184609360633,3.2663920024009108,-0.27254323770217315
1.2075255579927322,9.657255937838052,1.5386864902531059,-8.210657239267622,12.168119107082456,10.73093550571659,2.2226008656457896,0.057678420865880486
1.1436396809004266,18.116276916711627,5.767241369588322,-9.714814879802075,14.379564555516037,7.439485848506814,0.9139413256097695,-0.4964457617985405
-0.16584699934972322,29.966160319655643,11.37452713487233,-12.447086474576938,17.35951997234079,3.2824250797766155,-0.6758806490838473,-1.7389476207768289
-2.698226294435541,39.81821805135683,15.177506331600844,-15.699334658165645,19.299084052450365,-1.5708911987329661,-2.8857540708329483,-3.3194650836607225
-6.01614008015264,39.78075372311915,12.393944137884457,-18.3110586511641,17.152334265257988,-7.018741012640662,-6.2175126942883425,-4.7740588051822686
-9.209680530825906,23.054295337309128,-0.8748437343133579,-18.825941167939156,8.16621164814614,-12.818401210723678,-10.846018686847854,-5.5608175476685275
-11.089437021843366,-11.656406925636958,-24.72162511648041,-15.987164128057607,-8.108184862565452,-18.341949281021183,-16.177253838645676,-5.179645684464814
-10.664223519733785,-57.977944582904264,-54.2652504890311,-9.416090113132217,-28.801012948407706,-22.599348232128413,-20.88671961819816,-3.3871873579529583
-7.677992096988536,-103.93146275826136,-81.43371055070692,-0.04675281080586276,-48.64999249868423,-24.633810810375508,-23.52390794687623,-0.38857462566948514
-2.8518031725710986,-137.3867505595403,-98.82454150894277,10.063849125380445,-62.4620959021313,-24.068404801955385,-23.318458193432004,3.1542704998156585
2.3782769492880815,-151.70940847876597,-103.27644530525237,18.55116813081329,-67.61095027450042,-21.417168205035587,-20.644913594345667,6.35934123026532
6.5144780557538,-148.25532896231582,-96.98056197146772,23.7583728166809,-65.04577165091158,-17.904874161563754,-16.826729814615046,8.500623028189963
8.668123312702367,-134.49179883363942,-85.64499172261038,25.374847927092716,-58.3156353803456,-14.87341239081892,-13.411735353477118,9.310614007293651
8.86334020045648,-119.36545958955355,-75.15203951833116,24.361253704561392,-51.424092771579716,-13.149257976166012,-11.402381334631087,9.034515180263822
7.838129619008552,-109.03547117696698,-68.91326807052207,22.28146920856382,-46.961068243603805,-12.772839470561962,-10.916784813499762,8.223908542771737
6.535470473575849,-105.242329532526,-67.24778325575838,20.503250202039123,-45.493007420883075,-13.208213994892594,-11.402340201255537,7.424483735234648
5.637841534105774,-106.330134776836,-68.46589628513684,19.718800514899034,-46.12954373864222,-13.795242201127339,-12.125880719495402,6.954346402436579
5.384940354530758,-109.3126762335964,-70.38226228703213,19.929350524117556,-47.48358001549886,-14.091534116775438,-12.557232539503017,6.864890410978766
5.661273173984965,-111.4959888782595,-71.30539426641728,20.723172758469495,-48.3695914882868,-13.947707031338727,-12.481311234970814,7.033135360407106
6.184679803616725,-111.29176353601903,-70.42081475778215,21.592068905464203,-48.12770386038451,-13.419830570031959,-11.936732323326357,7.27850320252434
6.662981398060834,-108.51336169272354,-67.86362525043106,22.151435870602327,-46.733171631417925,-12.680020859836251,-11.127593396768441,7.444238285174509
6.897033541436429,-104.23884108734758,-64.53550793251458,22.254037121758437,-44.71885926031447,-11.955441308056258,-10.333395421844072,7.445589287382361
6.844339506169069,-100.09642166973542,-61.55977193582147,22.003987742702932,-42.83371434829804,-11.437356486194455,-9.779612371377356,7.292868615432843
6.618781642353579,-97.2245700683589,-59.584110519783096,21.658425816004634,-41.56506294202253,-11.172432189520478,-9.512911060375913,7.07371284234622
6.401180544127286,-95.66404180343835,-58.466318474178216,21.453064251160594,-40.88486126206086,-11.041342408881109,-9.395050992261702,6.889829496821365
6.311134030178028,-94.67547987221378,-57.6116339988146,21.466387493687453,-40.430330100304374,-10.873305137820058,-9.241153168419979,6.789411108917101
6.344958396393149,-93.56980989508557,-56.57631909351229,21.621872893744982,-39.896403933975975,-10.591090154512251,-8.970914126636552,6.751449054738696
6.425751427902479,-92.16761056936792,-55.313322483990206,21.80133231275059,-39.22477532147252,-10.238293386618585,-8.625655595770771,6.728674263414892
6.495961462057511,-90.56111056703463,-53.9259025484888,21.942797199141786,-38.46752165168857,-9.880570110566033,-8.264297636787312,6.695977680349834
6.550460625925168,-88.71384587965989,-52.384266154849236,22.040766785892657,-37.60170015879564,-9.519505736712265,-7.886483217620538,6.654736638216233
6.596123598475814,-86.50317803406114,-50.60403367417897,22.093547352739627,-36.56849805463207,-9.122452077478982,-7.471044442279197,6.604092257288562
6.614828929684277,-84.07736333576968,-48.713634397181245,22.08999983744954,-35.44733566715256,-8.707269029610849,-7.052100839980573,6.5283623405616
6.585456320484946,-81.91271954934187,-47.05628698438063,22.04742933287297,-34.46826554666145,-8.35048049635165,-6.708872573914001,6.418864160388271
6.526326740167834,-80.37952404083886,-45.854968211702776,22.02660950954047,-33.7949865256302,-8.100555980426,-6.474271547376024,6.29557317596216
6.487488160830672,-79.34128968705726,-44.96214878610863,22.08050054662767,-33.34478460679291,-7.913247643717004,-6.28672600764118,6.19322546904673
6.495288611272653,-78.30681361126396,-44.023474072525985,22.19382286194235,-32.87900753511321,-7.696484390457954,-6.053297836650425,6.126931346324266
6.523897808230671,-76.93015756125996,-42.83510991391763,22.295449963328675,-32.242501826174,-7.403013118569015,-5.741027643059853,6.0818093574094485
6.535082914684305,-75.21853093779055,-41.43601260983684,22.334604858595497,-31.44720231067607,-7.049809829888892,-5.379837539498581,6.037767653511635
6.532714214273747,-73.26346780327837,-39.87900104598732,22.328103930299736,-30.53583980284297,-6.655134158215165,-4.990195733586762,5.991614140496777
6.554985169168915,-71.00563267599797,-38.0943065404033,22.325084466302783,-29.48173589655454,-6.205635262422657,-4.556935204041193,5.944165113408963
6.611533087286303,-68.47860070373672,-36.116969059013535,22.344770021046628,-28.3183377045802,-5.719703238460043,-4.099818309918461,5.8736988832296015
6.651203812834106,-66.21287777559412,-34.37099758090849,22.372354801286793,-27.32119457579768,-5.317847804414733,-3.7360434397229154,5.74317002769289
6.61032622706497,-65.09056805529299,-33.50218048181186,22.408985694583517,-26.909119141035312,-5.166696099697319,-3.6112573561686436,5.546446729875979
6.486916182188978,-65.54059885453267,-33.76362183156296,22.490506759111934,-27.24577987002881,-5.309262799269762,-3.73624653362014,5.341566806351766
6.352275418898989,-66.83813115279743,-34.55681111611549,22.6329655951053,-27.927849216044606,-5.551626374064232,-3.9036416912366763,5.2237348504167835
6.29095723782236,-67.29854832433308,-34.64801550704005,22.774005848160304,-28.119838147576665,-5.541777911615635,-3.792678820534218,5.254818966614011
6.34324596501391,-65.29050213270945,-32.918264965709305,22.80277306157187,-27.06419346590162,-4.990039669666537,-3.181227332567363,5.410696604926322
6.502059533834952,-60.288579739226876,-29.071988077391083,22.666502734284414,-24.57921466600938,-3.865017798803017,-2.1006397261690504,5.583435693400416
6.730338263660564,-53.36741651853936,-23.941148675587872,22.442667381277943,-21.270102575785515,-2.461881738184629,-0.8605964815857473,5.623592178081211
6.94579486837776,-47.103134990403845,-19.4083138606542,22.29932294641823,-18.447301510903724,-1.3491130539447318,0.023340960442410488,5.396730138286811
6.997624451533923,-44.92548996974191,-17.946286410784868,22.38459268933399,-17.76985352540673,-1.200270972263114,-0.011553067885634136,4.854100329328011
6.71530254514003,-49.66674756448649,-21.54362729141718,22.735168812994203,-20.500591508393637,-2.468558151570338,-1.2842833297536913,4.114880699889442
6.0398222634774745,-61.33049260215275,-30.069625115460582,23.227182261611762,-26.427315419502754,-4.948574198351005,-3.494209720278661,3.5046650869064777
5.121100951426607,-75.21846635948754,-39.9959781229755,23.530464274399066,-33.04498741761919,-7.49338647529554,-5.520819792209213,3.4638061008196654
4.2482312268690485,-82.32341315581746,-44.87029096747898,23.076377006927096,-35.906541507259575,-8.250271755013957,-5.717947594480469,4.308376361556011
3.62264324634674,-72.94812577808385,-38.100150373391656,21.141555993925433,-30.512615233000215,-5.513047988266337,-2.7321566479350228,5.964635711104513
3.1499567611202175,-42.10882678133892,-16.82000486264551,17.127051776794634,-14.928575917367345,1.2080618045978684,3.5821799834511503,7.874749509076883
2.444721680457862,6.599334619826514,15.62034423478146,10.948372834242656,8.52252897578136,10.60285896816244,11.78956900975098,9.193282689823675
1.0919678026067752,61.538890471461464,50.47927319267499,3.3033795503377092,33.80790074882069,19.96517815807082,19.406177504827916,9.204360667605794
-0.9851093346701421,108.1315580244912,77.63121382676289,-4.392809263033622,53.90581909159374,26.470601297989408,24.112577963128864,7.729014283947272
-3.2994303622497205,135.6783204260824,90.50154227425058,-10.43424270237034,64.18132362582013,28.615362585865697,24.942603029322004,5.277957222242763
-4.898618594091149,141.939902225517,89.02727440352837,-13.4348824865028,64.44520713410353,26.95599264356774,22.732390626406687,2.84787322090168
-4.776068683306261,133.10714704188075,79.07254437019014,-12.849150522148816,58.60741000922385,23.71707616335898,19.587833292722767,1.465041400947792
-2.3853789576856315,119.83664083793836,69.03239383148448,-9.18672794494188,52.39093716512426,21.546964976850774,17.74877325034468,1.7150979968885576
2.0129942490957244,112.16796432386658,65.87588119041402,-3.8691336394030014,50.62065553148249,22.186281853154206,18.538834252876445,3.483914842628861
7.3408355091919235,115.90609612118242,72.59630363803898,1.1832514736629345,55.44311234132118,25.7459881720046,21.89994987790743,6.006277839969188
12.03037109117022,131.20745616384895,87.59697107140929,4.115806292008684,65.86731458503948,30.807258069167727,26.56011054278661,8.179475116569769
14.581854652139327,152.73848237637944,105.47347833193999,3.768592302400021,78.26509201352066,35.0956481792809,30.582152919719245,9.01771573914928
14.184707421921793,170.97116140868485,118.68692136809001,0.24143056499082066,87.46823820052586,36.35011929060344,32.04954212268453,8.09179893744808
11.18155302705099,174.95154398193677,120.04564442843672,-4.860333946773067,88.40930231656486,33.12365478086005,29.762370883387753,5.785293762678974
7.119437453366135,156.59008141367894,105.68349097687295,-8.795316491537015,78.14601423241095,25.351455346024956,23.79753759628504,3.219760816200364
4.22644371700189,115.03443566726423,77.37719700619323,-8.74153946207554,57.54119792921069,14.50889841114074,15.666670537884416,1.8064669822550397
4.425154421989584,58.57981114267719,42.66702631027951,-3.1764229202201832,31.54318223934668,3.2038431564962484,7.838968785587146,2.569143137196033
8.314246320548044,2.334250648472618,12.129418740453387,7.114228602937012,7.520138871666839,-5.7467239550778375,2.7099199140620875,5.554224191693426
14.677505080931786,-37.74494125200373,-5.1389338499904635,19.034415105372037,-7.764596865446126,-10.395784183144842,1.4978258509742275,9.66828843022469
20.876677356281675,-51.49344619977273,-5.486738231541392,28.338241310899296,-11.01041349182926,-10.370958702288059,3.701211475898939,13.09904219235182
24.030403904841773,-38.331350570264604,8.078328058689376,31.469823556356385,-3.515476118657447,-6.823286302793147,7.479026848844163,14.162945148847948
22.4239737403935,-6.311796250538483,28.06683958515913,27.18345778874311,9.995950834550289,-1.6610188959464707,10.758330094483883,12.155648834016954
16.408240957556046,32.6598970153715,46.69506421021151,17.1081076731153,24.074514255296304,3.456963507269616,12.394319789015597,7.73541505702328
8.276771394392219,68.42973011894378,59.5752587802701,4.954657221390109,35.13976336625386,7.763094167664473,12.659972720414205,2.6039124674721754
1.1614948473636209,95.97487398309882,66.92047741967721,-5.218341713479116,42.55715963195496,11.34094274941368,12.796174928991105,-1.3539165691378114
-2.4600778255200324,115.31463972045289,71.98662085346209,-10.774430873787477,47.86748895348528,14.576713634347593,13.993044586693506,-2.990497509734398
-1.844460764544103,128.9296912848266,78.14323773429359,-11.420556505301889,52.98003864849776,17.597124174004428,16.53268960865455,-2.36702335958513
1.884476454257936,138.91048839114586,86.57269264579553,-8.912094850527923,58.635170884186344,20.11921328940461,19.65761239449701,-0.5524017898623993
6.51176220090322,145.72967291428756,95.90722525067056,-5.863021962140641,64.06666164433771,21.76051229925636,22.179812230868805,1.06086382985214
9.879557046130085,148.98367598568723,103.65063176166854,-4.4148506688522655,67.84864701005576,22.467375073192773,23.31536319556239,1.474263147693145
10.75300273955848,148.84152266482494,108.02072141932082,-5.4470333479981985,69.06936622952678,22.623895271414202,23.104699903765855,0.439141928747104
9.05026620133872,146.59031907679648,108.80103254628142,-8.558537865950669,67.87855126071881,22.703008260327312,22.155703917336794,-1.6505334387663373
5.53081003431737,143.82667096668425,106.87118584173591,-12.589020223656014,65.14351275444002,22.77250737557692,21.016020435721053,-4.136456173185981
1.289480462384662,141.2734367063675,103.22331997082844,-16.27427642098543,61.73390831679705,22.34704123709341,19.752852474762847,-6.458234865837918
-2.652310514621363,138.45355955912817,98.43523525047178,-18.740253037302498,58.114094817586825,20.78481591330432,18.070779012720376,-8.322057091092466
-5.568732805487859,134.46948782168698,92.84924679039487,-19.72549168013224,54.45534884359976,17.931861936122775,15.799412627511657,-9.666549955727202
-7.10320284543266,129.15543714319304,87.04789527031204,-19.535646323239472,51.00399584415001,14.492989733439282,13.304749049498074,-10.515040624241925
-7.23955442469794,123.80494257949047,82.19802146017112,-18.7960291199788,48.38114614541146,11.841375465614314,11.507767592090744,-10.823590645688096
-6.206627750923988,121.14918633646664,80.09211727910855,-18.13634409635302,47.652849406822426,11.395955583863321,11.506188342397014,-10.42632948755864
-4.380818823507335,124.46279393989386,82.71756218371007,-17.971964983746894,50.04208447190154,13.91718921108171,13.991253581360798,-9.143454636537772
-2.2524039501283095,135.67193474603752,91.11689053442896,-18.459462884731085,56.14293208268935,19.01650470159391,18.688769943455206,-7.0164098551727525
-0.4361147545655068,152.8914923934758,103.75804900907985,-19.54836370977727,64.81021554244265,25.043436194082474,24.070848033488648,-4.505114892022885
0.3902071546643584,168.93776033811534,115.52425875994727,-20.992439170570478,72.48378711023351,29.44948138842397,27.60180936315075,-2.4477938370143484
-0.2932622728673392,172.785944331981,118.74440956578798,-22.302684576475816,73.9076338553736,29.642202377545537,26.63838285604542,-1.7234453016388513
-2.5437624788893087,154.5058233317737,106.61319587321677,-22.785159890013603,64.48000375426896,24.114605636364853,19.725784192498576,-2.785824131574019
-5.785637759298842,111.53314874330965,77.45589370358154,-21.79907854021165,43.17961600314766,13.358375309266014,7.642375422573514,-5.365806949240871
-8.952587432285096,52.39422979618999,37.16205018823749,-19.1625588161773,14.225340545275774,0.013745987973961211,-6.489750017679595,-8.548608868934425
-10.920303229365603,-5.100936439030073,-2.159199783507012,-15.429535184733096,-13.88347416348669,-11.976595672080235,-18.26491685108445,-11.190398974970662
-11.014177217649143,-41.024459135861434,-27.066417128437855,-11.784482232987664,-31.781553902514325,-18.911099237933716,-23.798122797244034,-12.433454036780052
-9.329341211103078,-42.367012798101634,-28.818709425243608,-9.554713100862687,-33.42577256335402,-18.86007936506643,-21.39908489129575,-12.049371667649607
-6.69985646282834,-9.14742976185099,-7.388579052510669,-9.606503911184115,-18.84319262785073,-12.436036268242173,-12.278528015694075,-10.4692781523473
-4.3180764054643594,45.695224203592836,28.660142850365254,-11.956980071024946,6.013722949824142,-2.4179582895535847,0.06565542522877667,-8.527456523920002
-3.1641328493491887,102.52951417967637,66.32135642558016,-15.7817719590021,32.18399852092821,7.5852770433519945,11.469602950936588,-7.056363446517531
-3.5155717895693255,144.02120052238956,94.09395987153165,-19.78183572399271,51.80384396578962,14.761374249673189,18.91703041435171,-6.513669304921787
-4.810905696582037,162.2089053822078,106.63986390287612,-22.729083377760002,61.26911872943628,18.192314611145573,21.647721565574738,-6.807702814911805
-5.983731549709788,160.24863449259618,105.90773975170873,-23.95893513052443,61.94547280526332,18.89013148944323,21.054672920927022,-7.40534693088271
-6.107268919116303,148.49351790400752,98.54223013104553,-23.59612593700705,58.34259248061604,18.831801575392635,19.535995754866576,-7.6632271751057734
-4.969288717193907,137.72858911151758,91.48178956264736,-22.40662993289317,55.07872225000057,19.628078712820948,19.040777426782533,-7.1949975379093605
-3.2212636045237573,133.68121910007096,88.44068931465665,-21.360026279239477,54.48988286589714,21.637443789755835,20.154307653718874,-6.070931566500086
-2.017889782641232,135.57379968427801,89.00175284701616,-21.151160410081363,56.068115995467885,23.98036483123069,22.137852373398985,-4.754693749632187
-2.376027384677854,138.60935723307915,90.17644975018656,-21.92647644459952,57.61357988694792,25.294910011834258,23.705004026182202,-3.8295073130742305
-4.610344526116958,138.08989588173097,88.97887080458634,-23.292481745889138,57.05939246571437,24.66926310900816,23.946410764756042,-3.658692402549007
-8.109989110508424,132.64538056200033,84.50380043509423,-24.518537417406197,53.88968849197036,22.219896168504935,22.88860785099019,-4.1441877381386645
-11.54107419385285,125.19670067089612,78.66369212395051,-24.82076186763799,49.576935250395465,19.08663017090357,21.48311110934477,-4.71625831392599
-13.408432346407944,121.43665707196973,75.31151391935103,-23.675144711217037,46.91479692100302,16.891525132253005,21.08064560071759,-4.607467073116539
-12.781757483078655,126.35091363803932,77.90072946742463,-21.10526481600888,48.41044034965406,16.867571140835537,22.59456891468413,-3.319523122926067
-9.867162892587483,140.12784188587293,86.55592275019488,-17.801146071427407,54.32124267305242,19.00269402402646,25.70446847877383,-1.034551915363336
-6.07769996504887,155.75457348957022,96.29474305928105,-14.906056963346405,61.44722671288839,21.668070608417185,28.574380606570273,1.3175533315874455
-3.453337794208052,160.5590679071103,98.14658369270467,-13.48222937114327,63.813793138787815,22.1124412945668,28.44414831131462,2.4556457985887765
-3.663349862761328,141.98409069871857,83.36423506898804,-13.931683407915761,55.4156892802392,17.76710367411806,22.979471698522296,1.4252439687835294
-7.136099453913303,94.83605546539876,48.622637983898585,-15.752215877708116,33.69489704490524,7.724640450422246,11.688565261854645,-1.8441254876389404
-12.837539655562644,25.539723753971863,-1.0897249173118122,-17.818307305693818,1.5895668069177928,-6.509715665029072,-3.4906523537043164,-6.457564456218098
-18.83728099314028,-49.712294962643035,-54.048907531491885,-19.023144592618003,-33.34094636642907,-21.545037079048253,-18.90385577687718,-11.006937426667246
-23.313928108252547,-112.2701401020055,-97.19170327082648,-18.871685748698155,-62.38862590329026,-33.6773609495399,-30.85430724408617,-14.273666769690339
-25.39441765588116,-149.6192051244511,-122.17983225152636,-17.656928279229003,-79.75043060448118,-40.60096346574396,-37.27076349091129,-15.756814295390571
-25.367682766777214,-160.27670722551338,-128.5844777912034,-16.149153506680197,-84.79392171494447,-42.270381551131074,-38.41381634989062,-15.747988331931985
-24.249111609086263,-152.50755842277263,-122.61788701632493,-15.062304212499544,-81.39330139046925,-40.49951875166366,-36.31058618198884,-14.99014378253787
-23.07725031004553,-138.3746899035707,-112.74361270123624,-14.679667126086796,-75.10860681738657,-37.69892197233677,-33.418701084553206,-14.204107221905552
-22.41187614192985,-127.28223969139444,-105.22773357346585,-14.84065180023623,-70.19825024878902,-35.620931968552085,-31.413387647766097,-13.78014881463469
-22.259013561478806,-122.70890691279232,-102.13242063308924,-15.19010341974071,-68.17662541120352,-34.80804620632158,-30.73348486029025,-13.748655393887066
-22.324857572741372,-123.04292126073537,-102.16587508227578,-15.44301575951024,-68.28215322810286,-34.85033517942377,-30.909981892375413,-13.94515376212929
-22.351465556195986,-124.79010384039606,-103.0194054542845,-15.50761665870997,-68.99870824332672,-35.063012105293026,-31.25118847985602,-14.212480079145852
-22.33994632667239,-125.71038408333301,-103.47446294716914,-15.475377950869774,-69.4790573924471,-35.099400021768545,-31.420468622585357,-14.526618269457664
-22.573589387270886,-126.33573836670332,-104.26800373118226,-15.540611809086245,-70.16222266904342,-35.20605640770122,-31.652785021445833,-14.9984159435007
-23.419516120293526,-129.43086699689783,-107.46862748618473,-15.866450869688249,-72.3995592732346,-36.036862429817255,-32.550645218483325,-15.748531887684239
-24.96407797833217,-137.64848597479036,-114.61205633619912,-16.414356571088433,-77.24564835842327,-38.09087164426238,-34.534045153455985,-16.709634414523894
-26.672842325188117,-150.36130233753747,-124.42846125904454,-16.84136140589701,-83.94603858710408,-41.02091052209439,-37.199136638534526,-17.485317873764995
-27.35704748580057,-161.58693519846335,-131.6546002667281,-16.604627849689223,-89.08953203381525,-43.25810601804287,-39.0235442073019,-17.413719012797213
-25.60944116085442,-161.0798889883971,-128.35633314138053,-15.277947516692812,-87.38647216952731,-42.37617213012033,-37.79678588028827,-15.871729338050988
-20.54952228477176,-139.03433791757618,-107.77676168418019,-12.875681318455403,-74.1522086930282,-36.210091502323294,-31.720918025165403,-12.664037611061103
-12.43460422433185,-92.08179020961373,-68.6900395892158,-9.922749269421304,-48.23013151284378,-24.158200056061524,-20.576871775324133,-8.232809239836623
-2.7139418655306122,-26.62644420772937,-17.307235430008244,-7.194963237479211,-13.403372701905084,-7.822638886119176,-6.164511231036255,-3.5170724888857996
6.549601255241293,43.20095384693662,34.95184004585226,-5.322088727931711,22.902521158285055,9.513514336480986,8.36531831179156,0.46849559352418524
13.547034412887632,102.14031016068631,76.75184127489187,-4.550569157952906,53.03113256713513,24.313200458365277,19.925319210882524,3.0666353765541556
17.363440734825797,140.8501760460277,101.92781529711202,-4.809403325295191,72.5161148873592,34.242008763063495,26.77460697674134,4.157251286820896
18.07321896032032,158.87026331268498,111.16987242482135,-5.943057847127627,81.35995659113267,38.783584186698164,28.903420240526223,4.02250678020103
16.380767322165127,161.86179509372747,109.52101174337562,-7.816134377877755,82.5391829608444,38.77377173823911,27.42052646934687,3.0731788656673635
13.185291116730081,155.65502696745463,101.88549998625138,-10.120955867006602,79.08963944494259,35.39171381513763,23.55558110324458,1.6845941893857403
9.388859715441786,141.84472527576042,90.00275764393054,-12.052633470568209,72.05050540392648,29.45814146444359,18.07810993331429,0.23925625455006239
5.941160700365154,118.13212916788419,72.88629462137402,-12.252306935974378,60.679362871507266,21.497986439671156,11.46226861888846,-0.7571690113580292
3.849814349591959,82.61200390158119,49.81404512707297,-9.287109335656387,44.43364447267287,12.295599273669723,4.430717443299783,-0.706269618883704
3.9384998253798,38.10477236282565,23.03238582987037,-2.4897987089355476,24.853926031910262,3.25918821345595,-1.784540182982368,0.8307233021979451
6.43742121826502,-7.136533887151822,-2.143770984548654,7.399994185668441,5.727315844745473,-3.8585866398334927,-5.8023245139755755,3.8186085613539125
10.729846534522618,-42.969449434940174,-19.887379185038448,18.309610198810265,-8.613608487344031,-7.735616930293897,-6.820827255126402,7.6333776707222505
15.522110852892824,-62.56329300403984,-27.08459102591992,27.67771887986256,-15.574494751061236,-8.173852400891704,-5.134794562898132,11.282386010804757
19.405203460230787,-65.6528684725154,-24.90405086879254,33.598075090887455,-15.551434545479225,-6.193445503403875,-2.026319555528788,13.852468066421588
21.48613779344292,-57.88477254156895,-17.76704692992699,35.59317230488999,-11.396966048690176,-3.4556480858159486,0.9124662513366208,14.915266005749404
21.711730991430823,-47.13624654893592,-10.677732080119982,34.60713104287777,-6.644414901084439,-1.4124373358758369,2.564593173258433,14.652277637995752
20.72299526667747,-39.535663012284274,-6.838944158718093,32.31832966382222,-3.779761620365478,-0.7271038779885614,2.684703002156564,13.657534613808703
19.39595013660904,-37.51837223478044,-6.886730470501154,30.26311068575237,-3.547458922856384,-1.2460475236484732,1.7432518390782652,12.582262179904907
18.39706626778873,-40.29079445021585,-9.636936278478668,29.272532744604927,-5.3297918856362845,-2.377293791612082,0.4601878670463861,11.851782313778829
17.990768152287906,-45.45434248425755,-13.302273936013568,29.407699575817098,-7.9482095749633475,-3.514236320405892,-0.5949342001987761,11.58094932032611
18.101013901929765,-50.46819541344905,-16.347160679090653,30.236940886036997,-10.294148881703851,-4.265687613297602,-1.151455586414893,11.65401721563044
18.47626282252604,-53.549224372065865,-17.890901710551418,31.186634151487997,-11.667790479479992,-4.503350483355332,-1.2074073456407435,11.857401479331617
18.834852609444276,-54.17582942992029,-17.88863309349985,31.805204841159107,-11.946822214003523,-4.336037006239874,-0.9553906748415362,11.988673137042817
18.96951580685862,-53.1601793877066,-17.074844213824612,31.909016475590935,-11.57735905046422,-4.0400330390982635,-0.6913070627725788,11.928100930251757
18.821066708765837,-52.0546439627519,-16.50301117416138,31.607123558821428,-11.278495675686921,-3.9147218673135185,-0.6730183068964377,11.673496115133869
18.491132265270533,-52.09533358353948,-16.85089007709587,31.193198312126942,-11.563638548430895,-4.107712080091639,-0.9759240707797507,11.322556981806777
18.16174456781005,-53.46234958981723,-18.033915520341807,30.947832650399455,-12.440659819676023,-4.542173413240651,-1.466376024980044,11.000892404256977
17.966249786025173,-55.45116521161912,-19.45865255269272,30.976589625277708,-13.539747941706873,-5.015421346244021,-1.931560386646724,10.781104127610826
17.915939621081645,-57.25749000830672,-20.606021528434557,31.195064360788738,-14.494673492334211,-5.369132480288943,-2.244008156119185,10.654817479466995
17.93566424707994,-58.528734664581236,-21.341879650338562,31.442938657101777,-15.177003354918556,-5.5681825636026065,-2.408755807738199,10.569923803498712
17.949293403782555,-59.28690024959209,-21.770574722906073,31.601912746681133,-15.628809506244956,-5.651341184932274,-2.488411401772389,10.48203563116503
17.9193013493896,-59.64446208534456,-22.009059679432063,31.628087592492662,-15.919456205552184,-5.667416861481186,-2.5363596237076016,10.36824390563307
17.824704094622323,-59.83801626605267,-22.2318076634311,31.529741698689794,-16.16736649310706,-5.6898102927651895,-2.6182196443265173,10.210004588898379
17.645940950245002,-60.43166169669192,-22.812927312776644,31.366179952910944,-16.63414902222659,-5.851727354739676,-2.8463613523093216,9.990938345595067
17.400680316729588,-62.112904154516535,-24.151634461429495,31.265307485612123,-17.616779046306995,-6.284502279728319,-3.3156240657311957,9.724515893493347
17.180273929937808,-64.99583318405483,-26.191487707262677,31.383366993445865,-19.121194861913803,-6.968862184152595,-3.969997145624404,9.47204434444401
17.109902540824184,-68.1349910580134,-28.171900661833035,31.781962406513184,-20.66376252557332,-7.658138587798569,-4.559703406325631,9.311292414360047
17.242310342562256,-69.94200056949039,-29.03338436123834,32.31958896014659,-21.506155312769426,-7.996447428255537,-4.7817566319932405,9.27404233626347
17.485464399806926,-69.30751080452326,-28.221231516825757,32.68414476745892,-21.192912556968928,-7.763592574903339,-4.505785609675207,9.311459103987538
17.64044132556474,-66.52072739668448,-26.21174374945148,32.576591217164875,-19.950598165788747,-7.057848088147708,-3.9013998737710285,9.317875559818345
17.518363726213916,-63.336993429166974,-24.385700269635475,31.922128077102084,-18.666113247563164,-6.300831479467075,-3.388396976069157,9.186444875563696
17.047157621279375,-62.30104091922706,-24.435862616320065,30.97350047857138,-18.527503672796918,-6.089845958834101,-3.469673849500522,8.856650777351659
16.32296633690562,-65.71784995595372,-27.632617001410463,30.2596403613533,-20.52618192839007,-6.957809188034818,-4.516619256079385,8.347740838793266
15.617611845398228,-74.39405176229867,-34.033199126303636,30.39611484554867,-24.880954460678737,-9.05774027263809,-6.518101324119463,7.788388188468752
15.332861597606431,-86.29293080549147,-41.743400407030265,31.776128954528453,-30.461028003120838,-11.838326929289902,-8.850441711989081,7.417742528695087
15.8460932331109,-95.92163676165521,-46.79987121067107,34.20008822067798,-34.59947943261078,-13.938482119133532,-10.270594638134227,7.503041553909974
17.24432596508636,-95.6778034244705,-44.41295873943861,36.63158010308983,-33.8398358061599,-13.5719232900799,-9.343675135845517,8.167064692404324
19.096179807990215,-79.40267583465683,-31.496230250675403,37.35429590065735,-25.648019423399347,-9.397573469871574,-5.231330107552361,9.222982704985265
20.495334247277494,-46.38795840056445,-9.058933679593991,34.652910826448306,-10.189004180480621,-1.4240398165158783,1.6210447826764014,10.162910734941446
20.472878340074892,-2.9366362747305477,17.477884434369855,27.763855013207912,9.182615917471624,8.705675211784667,9.456293493099645,10.364120499104153
18.583991748915743,40.23479392605854,40.819340945196096,17.52733796669655,27.39781379451407,18.38695567202921,16.012300233021175,9.416298053948239
15.270927706087674,73.52189210752606,55.82393108615335,6.233075750961296,40.367113404507066,25.358238056267158,19.723035756943954,7.365925922935682
11.685624802510192,93.22980299081041,62.24260145228453,-3.381928946931485,47.08019254683911,28.79740380632358,20.504100840417635,4.707172448135702
8.99765442407968,102.15010484215233,63.99435165391237,-9.460622865191953,49.52651344360672,29.435284018657974,19.521452845916425,2.104024155150591
7.591922899835412,105.35560723821376,65.21865690826134,-11.897858167872835,50.36423834223844,28.584169510983156,18.047260550765927,0.007581429978332291
6.701515635581018,104.34264654128211,65.90333687440348,-12.229543959975938,50.02243157997984,26.80483044817616,16.22503641736553,-1.5840247179364488
4.785311995389041,94.21187329962173,60.548590027507565,-12.6227839349778,45.53830404499685,23.26243220117424,12.718734663036832,-3.059650949796629
0.47135152922050555,66.506260232126,41.313218450348145,-14.60809741127201,32.26781669478566,16.329149546843812,5.610132216351254,-4.868585972485326
-6.516510094723686,16.007225234492214,3.7568904473662883,-18.316891825742697,7.44508728211914,5.027966219529069,-6.036279895167604,-7.162378510133093
-15.045574668790284,-53.40791939781657,-48.793576573867526,-22.611243825215336,-26.921340698193653,-9.756207485256313,-21.06045299906559,-9.650833797318226
-23.078559395451194,-128.28999376762428,-105.4250874485278,-25.910597786132897,-63.96539880427358,-25.22167623823829,-36.37590474204967,-11.759744640871704
-28.679291779980865,-191.25097130252942,-152.47188436001454,-27.133515128302783,-94.92412050518945,-37.8511190042409,-48.36972536958981,-12.970350544641294
-30.916289726263958,-229.27684074685175,-180.0474340038384,-26.202108234485554,-113.33596548789359,-45.111624541412965,-54.66952441596639,-13.113690778896592
-30.180236991367803,-239.6303777476653,-186.37564583578893,-23.923442107863135,-117.93916862218141,-46.6094233153587,-55.22236064335077,-12.450451353988221
-27.83960762545009,-230.06604222665302,-177.67654070660956,-21.474455235267573,-112.71021076547146,-44.08070393439505,-52.133143541843516,-11.527490805886865
-25.540527219191045,-213.85082556884674,-164.2528494580826,-19.880584535053696,-104.35535667802314,-40.36729149261288,-48.49063471753012,-10.931649733723363
-24.551727560774246,-203.01219132020495,-155.4288647315838,-19.721330749309697,-98.95506618544023,-38.060747461757344,-46.90545596434753,-11.068011340981753
-25.37315207757614,-203.42288742381135,-155.90426588706794,-21.03068591163329,-99.50058458061817,-38.48335642937966,-48.435461289414064,-12.010351544856725
-27.61205635839939,-213.30035995959594,-164.53522316395285,-23.269532748206725,-105.07707229787863,-41.28619883376972,-52.1968268757901,-13.423225067344527
-30.08595367833813,-224.6317200715553,-175.19695565553778,-25.38023504892726,-111.49926357055327,-44.6160738839588,-55.6589686049064,-14.589544402450171
-31.18238579775768,-226.42501099708224,-179.10851479162372,-26.061632439829022,-112.9432878903999,-45.74459425013072,-55.53701549577458,-14.613120862059017
-29.479981207256596,-208.98834739634063,-168.19431004877666,-24.303298059792944,-104.2158495996779,-42.07654025506077,-49.11704414613324,-12.794836384468368
-24.439941866859993,-168.27354728638926,-138.71620353717108,-19.952513853695862,-83.11734862773997,-32.30299916250837,-35.59644806088851,-9.024540707084551
-16.795580026227046,-108.55687051215935,-93.64471725224274,-13.937539434248055,-51.91337728633107,-17.207719288804267,-16.778835847033424,-3.9407330122774353
-8.338775239052294,-41.663731926917336,-42.18199770990203,-7.925857740833751,-16.924374401073642,0.3863807434333005,3.3968077676893156,1.2910741451627958
-1.1442124863817744,17.532959872172714,3.8382760262337823,-3.560299118883181,13.903281718191463,16.648286854760347,20.407942113674764,5.4896641477337464
3.3561169762845515,57.33108511050868,35.01873601025458,-1.709726759016707,34.34519760786912,28.282763339497244,31.015431391934655,7.966396343299619
4.921371100167431,73.85242963037796,48.20489280237072,-2.1706749634105207,42.38819967317218,33.784400709815024,34.44363816222614,8.734383443164297
4.386823287619147,71.63410309681997,46.96065203548282,-3.9566217372625188,40.5189176173648,33.76125134880761,32.279444491157314,8.32480063513257
3.027397592490704,60.0778924247645,38.66944547539361,-5.929119401917981,33.78415990448974,30.248439946378234,27.27970384446132,7.3775760208660754
1.848213571674419,48.161879491946664,30.26776737186541,-7.344041764454212,26.934672259173368,25.51887560126196,21.903545357285882,6.299915193846725
1.2193497649601028,40.65338271192878,25.254125344019943,-8.026600518519915,22.400849630643485,21.116966255296916,17.43191771635712,5.189222966850065
0.9632398124157315,37.6491114266339,23.409950461434,-8.197349310209196,20.080284659976193,17.569023494462353,14.008433669518658,3.991800271817602
0.6936490286370641,36.790899853092,22.65800281669812,-8.17558059751956,18.587072137557644,14.715059157514188,11.27924172121707,2.709812505636963
0.12505165723663542,35.98423015055418,21.29334214105915,-8.162785606517184,16.78638505350668,12.26453440556763,9.027665946372752,1.4903786444644866
-0.7940408578231639,34.84779814814449,19.157710763505527,-8.167186523718332,14.621273414968075,10.192606237924021,7.410711016999262,0.5709645984906282
-1.9081849325212625,34.56529447955165,17.46606114540312,-8.03947323907817,12.996871722123732,8.821069326658426,6.802411539020153,0.16585318727658027
-2.969808369950844,36.77986939287518,17.788594649719656,-7.583071834966427,13.058354619863868,8.62319144340794,7.473742150466172,0.3820324367358209
-3.785413809453528,42.2044774652739,20.80696112185704,-6.696869865423768,15.313289508752757,9.87308865311323,9.319219669325127,1.1940379684549354
-4.338132514913552,49.44089186213806,25.380164125669253,-5.469691905854713,18.98936282190164,12.309097648137891,11.746199114788755,2.464407830261605
-4.81483233049951,54.664180456921756,28.493001810149398,-4.146838196565965,22.00886044129968,15.026781056315112,13.793281370158734,3.987960620668613
-5.5005095599888545,52.86328443444115,26.477523665255543,-2.985607434449024,21.81557138840375,16.753966754125514,14.481742399026052,5.534847851511984
-6.599429086054364,40.520279614890974,17.14456676074461,-2.1293787547478567,16.794558201480722,16.424337926867853,13.263147868555635,6.864005558441103
-8.108960732114626,18.295334333008938,1.5674574376794954,-1.6195374136464322,7.45248798808178,13.715276710400998,10.305604372369654,7.704388332987165
-9.827094800736733,-8.242156310267255,-15.844121826993854,-1.5192525546663043,-3.5267940455616293,9.202552462355602,6.4226310227646835,7.753519040220423
-11.46208220537608,-30.72758776904295,-29.302416844361765,-1.998098670225541,-12.54452082265916,4.05516017163494,2.6864493889579997,6.758895741792707
-12.750643181387526,-41.897310994240875,-34.52180539121171,-3.2646793419875317,-16.920964573144495,-0.4902464063317165,-0.02225512372871566,4.680220971457201
-13.526896668549318,-38.96329390269542,-30.760700523367777,-5.392567335025622,-16.150332574202302,-3.54559654939409,-1.2764533071668382,1.8271480001792497
-13.750169407352518,-24.596248883442062,-20.89057924124417,-8.18907985028375,-11.876664271246579,-4.718171398850126,-1.1088452979805943,-1.1631910415887357
-13.51495278768522,-5.255382078770354,-9.672296517231143,-11.209312393577521,-6.778925327114611,-4.056573585218534,0.1287142669474059,-3.551251153995242
-13.035055213700497,11.942172929193145,-1.387711771925092,-13.895392992999092,-3.157247094185647,-1.9474734801980844,1.9163512752684213,-4.817588748730228
-12.58350353094566,22.167581277513428,1.9322881877977642,-15.755435477170787,-1.9879264631360947,0.9629261320440616,3.679210940819094,-4.900800706873189
-12.407305323721415,24.398329589397683,0.9680352123794924,-16.516258147446074,-2.794862602519266,3.8472513289707693,4.879160562851612,-4.220127698437195
-12.667598341090425,21.01451657104854,-1.7849096657123573,-16.213150657551775,-4.251596619403993,5.819907384510452,5.094568763907846,-3.4763934307848983
-13.425064493088389,15.859989228988402,-3.7015267354763384,-15.17560212264005,-5.121183737088516,6.121492540043992,4.08544945017062,-3.3296092425543025
-14.633100565941216,11.961512954875422,-3.520750683296234,-13.881663267710586,-4.980778651234707,4.355609279531546,1.8629003538387983,-4.0953536978794975
-16.105050127900874,10.284389646735095,-1.7613290956578975,-12.732677756571539,-4.291186802607245,0.7223237925239709,-1.22648128485793,-5.59401728837879
-17.49595022595682,10.096552391413626,0.08288272326553242,-11.8832688381825,-3.8197033517895225,-3.8879439530428286,-4.4681939627642695,-7.232211337767566
-18.38123861226618,10.266224739943048,0.8242297924950739,-11.239555205990223,-3.9175877516826874,-8.097267816944214,-6.919518222029843,-8.291441533105765
-18.44276766354011,10.2616978391421,0.3487879831334483,-10.606258180496146,-4.23422088673526,-10.552078621750056,-7.750885701864769,-8.281545366957081
-17.649206570986994,10.222671397561152,-0.5291697246079111,-9.848450131585343,-4.022695402878514,-10.510174661952746,-6.6295507606704565,-7.165961946284703
-16.288463561083773,10.470464236498842,-0.7459993346868127,-8.951209777606183,-2.6887772492130644,-8.152224746558375,-3.896577049926529,-5.338173562355164
-14.82080276197313,11.147126672235919,0.4022643694832278,-7.976435331409342,-0.14058864719260403,-4.431130533747999,-0.41765155369831514,-3.3836677410640332
-13.658256773266954,12.190458232474613,2.976928850770994,-6.9963039386778965,3.1973622032548383,-0.5913179158177949,2.7810780174681105,-1.78539066866256
-13.00261372387891,13.37663219915321,6.36521615867758,-6.0591229745562485,6.55997858467248,2.3254238762628705,4.8739889146007025,-0.7378386849247028
-12.792850849559699,14.285745738489803,9.460673244026749,-5.180590414555516,9.0782072861205,3.7598621075222014,5.460619434120741,-0.1427043023596567
-12.738695476399146,14.406602721263983,11.131746964118827,-4.342565353361104,10.083269153431685,3.6879538448988005,4.64897229413872,0.24836549199774088
-12.41694076992313,13.519496432344832,10.864067350542335,-3.514837213720066,9.437267519519786,2.537615911759064,3.011315822188454,0.6379846974301739
-11.427203680845599,12.026202853433226,9.128223522562147,-2.714517539907824,7.6649669848316755,1.0111244896824287,1.3770222958800007,1.0351704049473325
-9.571441408253492,10.758132052725275,7.083175745626609,-2.061893186634251,5.6792290612943255,-0.19004061145736983,0.465160063751842,1.2284860633807555
-6.96383801511644,10.325554447416833,5.790382360533909,-1.7586796402866454,4.226390169327198,-0.6667684922101991,0.5111712504107061,0.8979282169108802
-3.9872679313471386,10.658049650306998,5.598521345864809,-1.9717483961723783,3.4827859367213234,-0.48263526783059285,1.1339541098583419,-0.1892744826287838
-1.113604991535358,11.230577198922,6.1721827768242825,-2.7035690235880834,3.1167152531533215,-0.06375320767562453,1.5647609609739066,-2.006934971598571
1.2930792671078621,11.687805143270953,6.968955075463148,-3.756008245784626,2.6818228796715924,0.09196202140038384,1.096657203080912,-4.221396333469009
3.0698966481947614,12.117125073744722,7.587074552266243,-4.813386223524838,1.9250538712686323,-0.31753003889225284,-0.542885602528573,-6.294414523908316
4.217526936986955,12.651445368716267,7.705814391282347,-5.5742403694519105,0.7706459392044581,-1.323123140132876,-3.108467267612023,-7.683862933693888
4.796261584423593,12.8785803843967,6.886065227041604,-5.846843081747529,-0.870404362140554,-2.796827675475428,-6.0328115584524715,-8.049014639602774
4.842393487622657,11.760429402380598,4.628331329986106,-5.5799099835619055,-3.168788554077051,-4.612239864334518,-8.73145524978226,-7.37697231935792
4.358273790294784,8.245317083478458,0.7400774595416709,-4.843379208835275,-6.216768659466302,-6.711384855949382,-10.827448543279614,-5.9806249924657795
3.385146168930987,2.1748735913049284,-4.250438416905728,-3.7724163889101123,-9.762204229740078,-9.024081849248539,-12.183960395717904,-4.361991184143129
2.1196179742174053,-5.010756196560538,-8.869739387540195,-2.4912801288052937,-12.996482861379791,-11.289928416110866,-12.745668245056859,-2.9931432197652144
0.9731464177274511,-10.12156972817216,-10.791857274031315,-1.0758279473039494,-14.52151132007261,-12.926458202608076,-12.327006263569817,-2.1281861568515867
0.4437952067266862,-9.02733172826383,-7.489750428896681,0.3668225948713406,-12.697273523310997,-13.14196047617877,-10.594629132053747,-1.77258795434875
0.7571146720231903,1.1723189820239366,2.2596081341591674,1.5092918065946184,-6.595273574321808,-11.416218344239796,-7.433654995975324,-1.8506089128563556
1.4447904663662627,18.9925417447161,16.28870047207699,1.6704553465317915,2.5977414166316866,-8.203014613383617,-3.5818941868913536,-2.4547861884414766
1.2097586583671611,36.23938939161228,27.700851048279215,-0.03723648696242972,10.594202984993462,-5.378630503960766,-1.0374173555777924,-3.9549695565108416
-1.6367684411610286,39.06019918825271,26.069097506394435,-4.217201403560009,10.649964826164275,-5.8873366604818225,-2.663549229050201,-6.808085425045137
-8.230220397622082,13.540600746319797,1.8407581567292977,-10.592389114748803,-3.6446712406356725,-12.429114142631569,-10.848834283053275,-11.129910292853962
-18.177896791244482,-46.09130456917629,-47.69981988154402,-17.724583643140353,-34.43087409210493,-25.72049815795125,-25.803274652581607,-16.304703773494587
-29.190538436948177,-131.23850138220297,-114.35970970100486,-23.35345862293669,-76.7511914999725,-43.34391353212848,-44.54489623554056,-20.94462661268986
-37.698419577950155,-219.1793644486716,-179.985078897426,-25.295012152733207,-118.95037922936118,-60.06808327084277,-61.434577305081035,-23.32954293759146
-40.284298654642384,-281.03363197603363,-222.97570842110966,-22.46914285386453,-146.8005133235552,-69.77006141561516,-70.29428340532083,-22.16991551145634
-35.2573784022022,-294.1413982893821,-227.5705214311701,-15.496638264186199,-149.62633775346765,-68.14034047143564,-67.17363839117645,-17.313532757334865
-23.544081733400365,-252.54183250041265,-191.13899907601802,-6.513154574979158,-125.30580745343939,-54.79026981276827,-52.32539070578999,-9.997554979453934
-8.401904649330389,-169.86430138541385,-125.51471947378333,1.7203106384376263,-81.41738784513505,-33.60000201515561,-30.27870854103856,-2.460346456677726
5.906397933054984,-73.04954768410087,-51.64781489718987,6.939363729286654,-31.878291220775434,-11.075704332280681,-7.917634199745118,2.9351730979083794
15.789548910119251,9.570499277086716,9.444718199014183,8.156673687988262,9.081146345803614,6.418850031720546,8.428577129568842,4.648491545892918
19.530512778316375,59.40788222075812,44.62533593199838,5.771197723234522,32.40924398728701,15.11429949107001,15.383469521618645,2.5264817631090373
17.536065377473413,72.59693576974782,51.79404843356528,1.097489977693013,36.596826755332586,14.820683865239554,13.313613763178841,-2.2476801742373573
11.73285222272114,57.55225645941898,37.7359225246829,-4.279765217845848,26.373887087160266,8.224683032421963,5.411767544148676,-7.72391048886179
4.6277885641409515,28.167986411042154,13.143337642383345,-8.924966717261666,9.284078243894653,-0.7864179075250686,-4.108744641373065,-11.93846949882777
-1.446176606556333,-2.55004051617212,-11.789851751731288,-11.640886131373088,-7.541178379130662,-8.707668160075448,-11.618964274520655,-13.507511660767364
-4.7111940206233625,-25.329580120668176,-29.30603244913133,-11.448641038390422,-18.943923862492333,-13.211517509609838,-14.836078467244626,-11.895905184749033
-4.102449571389528,-34.2683621466345,-34.07016068666392,-7.737871918308963,-21.775573440904267,-13.172413662889348,-12.821819962339555,-7.396863539234143
0.5872971253478328,-25.811061351151682,-22.998586788658283,-0.6160489584975422,-14.55104465991486,-8.410694210164007,-5.717490831986845,-0.942799463637761
8.571422280534312,0.8914054081579094,3.9798623044437687,8.822515986661008,2.4047707491333163,0.42375257006277217,5.40599142945179,6.166075084006414
18.143924202146458,42.504847721772634,42.84554180884019,18.648773594069052,26.485810405414142,11.827468685468999,18.620506555827138,12.585641452809549
27.13910992678736,90.93743267043666,85.66992495507884,26.751075741177264,52.89845026553133,23.594557618230887,31.432670328126843,17.273213636382497
33.68846693143299,135.34023462051144,122.96244978642568,31.686218539382985,75.95154968707851,33.3794321322391,41.458369480503684,19.76802411610086
36.9141614144344,166.29889279674393,147.37824661899813,33.23542839050266,91.19524401560412,39.52786366292539,47.26088180682318,20.283570466612243
37.16367698519415,179.83975392205264,156.68516690968278,32.33309329107159,97.2141446619406,41.70844975904633,48.86752419182748,19.540506739571512
35.65542677905006,178.64630917842885,154.12943702305216,30.447525832987324,95.91717056341525,40.91654165388962,47.599876128843114,18.40601378382953
33.781632138574565,169.7436178822545,146.04690218413702,28.839171063303827,91.14363635585707,38.83162393759419,45.30187533531935,17.5307128340567
32.50419580669753,160.40512592682063,138.4214193436746,28.13084404125734,86.56751431562753,36.95848019102722,43.463276765934424,17.172149759372644
32.13844663237214,155.04232969642547,134.56116365921412,28.321184078255893,84.24429247884949,36.08284877089887,42.751998849733496,17.253063572980416
32.5003922841735,154.5711979544917,134.84546188787363,29.05502258209258,84.43365102535955,36.25258078914186,43.091067420275635,17.54482151923373
33.1873879197633,157.61863565876303,137.8566656922719,29.895576535549505,86.29484250294524,37.08588513936002,44.02071612745648,17.826798019701528
33.80190402059993,162.00357222820443,141.64447183672638,30.492627927207636,88.66174425900496,38.0856638164352,45.02028170720747,17.957489348699486
34.08077664444647,165.6700155326859,144.52205974726934,30.67527034251596,90.5117467518073,38.82458600676668,45.683059518944795,17.887121515581367
33.96106014650091,167.27831258122976,145.54329047270429,30.488028150050752,91.24238964024784,39.05866547379951,45.816415243692425,17.65228389885805
33.57495165005211,166.6911988598467,144.80101730882245,30.13501536525037,90.87211043471063,38.81065274490997,45.50063146421594,17.350875049125168
33.150326413415044,164.99688825132014,143.30137820341548,29.83778221070446,90.00387357012605,38.35134419295826,45.03522963143405,17.087069947495092
32.865998691696184,163.7264608819738,142.2682274822164,29.710711909559038,89.4161061853614,38.028328419728965,44.74779009212338,16.91602814130259
32.77325814667304,163.75111345170384,142.3304191697902,29.757264847094316,89.53507922447808,38.050052662010714,44.79640759154595,16.836158895397723
32.835600105496916,164.84530792609505,143.28687690011304,29.957404903818816,90.24634799118331,38.402356491938356,45.12990071609551,16.828857050902567
33.009965441618775,166.24305161152972,144.56666355391167,30.31134242689285,91.1656301888862,38.93423271061037,45.60227507819942,16.887384493802166
33.25769143845597,167.43525332016577,145.7678924443731,30.771719862886734,91.99855659949819,39.47156251556305,46.07699616259358,16.99092379111659
33.48308612182916,168.32720781397194,146.70438623696657,31.159423013162158,92.60264279021706,39.8366280583769,46.415806899713495,17.05787053064079
33.51228115969798,168.83277449213978,147.1336432657459,31.20854720550296,92.82978573554085,39.83460826930713,46.44397383933723,16.95569117933931
33.19225534198609,168.71888639400777,146.77169148681475,30.75256615233844,92.53268123118404,39.35008305467682,46.041778220601536,16.591676163213947
32.54498968900278,168.04912960962037,145.73757317243206,29.9044038753561,91.84374555756364,38.54097031479817,45.334689555539924,16.017354827135275
31.831403397819088,167.5842693694463,144.85223503354385,29.078166139233936,91.35892936486502,37.91672639937626,44.767072824393225,15.453516343488799
31.453613599862056,168.3814104270327,145.2387994223917,28.83000556230215,91.84945687033787,38.11864352951621,44.9009523168318,15.204358894190474
31.75155058708393,170.79529167787425,147.43874612671166,29.59586106655244,93.63348235571243,39.47976453756188,46.03264728821266,15.502270386205442
32.791686299411936,173.85324108848877,150.79161891892272,31.403631924987792,96.1307882439788,41.64953643016991,47.88189993014666,16.345371957732777
34.20798485055479,175.54202734924937,153.4894929153504,33.63507814975705,97.92654011813046,43.52136476667528,49.529885232289004,17.382347911707996
35.150012851686775,173.52873291112945,153.04329415294885,34.98648325694175,97.18744516102761,43.50336745514621,49.61172513818829,17.91307398862687
34.44025107535418,165.6067759630453,146.7918168596869,33.81458170306311,92.12799514950017,40.04566151461085,46.707379887461876,17.08308807394237
31.0131760917065,149.94505511504056,132.5541815481492,28.8777867130586,81.49886181357148,32.31167292639297,39.8919174161754,14.273567722734352
24.514039972206017,125.825590410748,109.71151191687629,20.13327168647807,65.23786045021221,20.809717816759324,29.32503900777204,9.522433051362727
15.708147621144043,95.007422883136,80.4305910924152,9.040131542484328,45.133499604655086,7.657415774454827,16.577231059207257,3.6930865346628905
6.345993046383252,62.690130775321876,50.027828216335664,-1.971105977905005,24.93151134831459,-3.860315384877132,4.345277803884467,-1.8086289640098259
-1.5652180701095395,36.620711240629525,25.551403572724663,-10.650244055464208,9.344732271100803,-10.485553673106343,-4.520459030268101,-5.687568711747657
-6.71950615824646,23.833620425586734,12.696041134965256,-16.007345537651922,2.0404685005252503,-10.503616548576893,-8.308146506368201,-7.420471676373362
-9.12998441592319,26.27755353858894,12.461825809581022,-18.61279487049944,3.4784950604638643,-4.821706067562898,-7.388702378717013,-7.508463017172271
-10.00643654527503,37.96024571218161,19.611190293702318,-19.907802338307523,9.901385090117223,3.075269917119385,-4.2203635262783274,-7.138008497497104
-10.942483363021886,46.08177284136281,24.366464824564755,-20.993061375468216,14.43773396012298,8.472158766066782,-2.2719745285196313,-7.442974890824694
-12.908712421899683,36.56677595248605,17.01165814323778,-21.74305171826139,10.167279590283483,7.538982210049692,-4.3363645857508,-8.826086230679659
-15.688375300302113,1.5067996752813364,-6.8899743681402414,-20.889165556435596,-6.2965957249459885,-0.8374938732233194,-11.119498556320718,-10.7665015729093
-18.109771210074197,-55.6650533877774,-43.66301792424546,-17.047129058735045,-32.70463549429693,-14.49249174556853,-20.892303334857267,-12.221912004949129
-18.903684858954918,-120.50494164513395,-82.85788407794675,-9.995334148026554,-61.84531921243015,-29.00219731274605,-30.390383692384844,-12.343543894331589
-17.607092415089426,-173.5406586051004,-112.12397500378559,-1.3112747243901124,-84.7249546161984,-39.71939807107892,-36.427720709595455,-11.030075055566712
-14.920449959604936,-198.80341926311462,-122.931632926971,6.121921027901426,-94.56329369148204,-43.74370789350919,-37.32173303059102,-8.975087338705372
-12.301170365866083,-190.43486235056406,-114.06045984089134,9.497680976194491,-89.51480406968578,-40.868031656206526,-33.413916931703994,-7.209153251421837
-11.08101358208238,-154.18564446888286,-91.22741372605685,7.542644700013382,-72.8586053900448,-33.18239223072677,-26.554411064971937,-6.462059124937148
-11.694068367034088,-103.66632026290591,-63.55686249056981,1.1808147259736785,-50.900579389070145,-23.75725024752799,-19.01276466937646,-6.762882483301738
-13.497816848219955,-53.975208383008294,-39.24473934441736,-6.969682730266678,-30.010028587200775,-15.227640535284616,-12.507025581956341,-7.507867454184125
-15.246118017126378,-16.119185978814166,-22.727257801533923,-13.933102962424257,-14.358821669800218,-8.964592330732378,-7.802811921059232,-7.901907925928922
-15.84376707060641,5.620471328369349,-14.24656013067777,-17.746236991787132,-5.149136981212809,-5.035033676127443,-4.867868095668798,-7.45051448364762
-14.879352924990915,13.234648689838343,-11.159740255260724,-18.12029653147127,-1.1350063781948991,-2.695175671791023,-3.24968382558094,-6.191438344005126
-12.656698391693594,12.67970149869064,-9.699119650987354,-16.156627090753943,0.27754431271220426,-0.9936299263355851,-2.3564561470382057,-4.5704933542967145
-9.827829543049788,11.1443643571855,-6.307932159314569,-13.469157209954467,1.9613899219764945,0.8156028146477201,-1.5647049074019783,-3.1140622597136254
-6.986752623995625,14.621442311174421,1.4486277208932308,-11.350449307704174,6.185268384224217,3.0944014556659596,-0.31290256372271585,-2.1603133140839503
-4.538054109613394,25.787676287842967,13.917537301618825,-10.435045887418582,13.755433618273845,5.738287604982768,1.6340016192089668,-1.8188493153482934
-2.860364541760388,42.27727789056487,28.28245428033812,-10.853885717764276,23.20149072204732,8.086079873837123,3.792773441890523,-2.1170178458819056
-2.495275892817205,56.26081961998565,38.25383107004329,-12.527452986725104,30.542097421235294,8.917101151047996,4.777385406144656,-3.1364581805293605
-4.066145867276772,56.62073498262959,35.69777527235778,-15.271657815494187,30.348210528794755,6.757147033829466,2.6889476876945175,-4.977813775625169
-7.899244406775632,33.84366153377478,14.289916735483544,-18.69824493627877,18.16028211256661,0.5545876404948519,-3.92195555252559,-7.580365896959874
-13.640518897584007,-14.4910787755096,-26.554031834284633,-22.152798476511837,-6.848751235172662,-9.579031728244493,-15.045382927829875,-10.588150435680898
-20.235266767719228,-81.09432163893595,-80.14842271700451,-24.90443370914715,-40.70893620728618,-22.099785229271976,-28.886940865944183,-13.437557022984453
-26.37849204242944,-151.52110625302126,-134.9701645073445,-26.528904552709296,-76.07020296325574,-34.57309500972612,-42.59056683291901,-15.651928945276563
-31.152823857958776,-210.9127825495064,-179.98906556097634,-27.175581365790027,-105.60793869320564,-44.80696615375438,-53.63782088352594,-17.12738785196232
-34.374993224758676,-250.8427854974503,-209.59968828536816,-27.42498057715813,-125.33079002592055,-51.84719981524024,-60.99876329580707,-18.15664293846754
-36.3639161940473,-271.7418982399171,-224.85367952053912,-27.755183840427662,-135.60000729368159,-56.095647403378635,-65.20746085122516,-19.117079866971814
-37.310435109191076,-279.3228750619659,-230.2142216275213,-28.005976952457235,-139.22014815796888,-58.4156540584719,-67.29795253688206,-20.026701224246693
-36.79857320773769,-277.86548761066126,-228.40668959309247,-27.319845778315326,-138.1408754223122,-58.90494592840208,-67.43460518697695,-20.32533594560933
-33.95738709586119,-265.7336934393357,-217.48988942727678,-24.710814836034547,-131.4222113513633,-56.37500496874459,-64.37849470316277,-19.117420936800904
-28.221861716322643,-236.81279975952586,-192.58317365070548,-19.904713239202668,-116.14705588950328,-49.09782963905599,-56.33017888797783,-15.782297656905987
-20.149928455884186,-186.81233008621012,-150.96902825180425,-13.838032272644378,-90.59535140143076,-36.38244891026328,-42.60894629032148,-10.566782204375542
-11.627975941637331,-119.43255623039427,-96.55633998665432,-8.417545279516244,-57.1469856125052,-19.825192365172764,-24.92780065000262,-4.745917666209717
-5.200518910990785,-47.448945464301026,-40.12771631674748,-5.647640363968588,-22.550308805925795,-3.2303956860320695,-7.255122082639633,-0.18967075767639266
-2.8676396634582453,12.391379951752679,5.076856447744239,-6.639293367171401,4.835922831314705,8.901665019579287,5.782151357696336,1.4706320660453676
-5.0597462500781765,47.33976088237596,29.61007662784609,-11.061793519052591,19.06257001837789,13.464476382311174,11.033812243587331,-0.35568232570406483
-10.385037787240265,54.42262238147047,32.01585880743746,-17.302343372426154,19.343954225300845,10.207039096690435,8.269634076773018,-4.87078942518146
-16.26310550958245,40.81003885465292,18.72903847634536,-23.185972289768234,10.021292010347487,1.7906937919742494,0.1790796734102974,-10.17977516036841
-20.05690408919302,19.250771496921647,0.2855841767094647,-26.84485577531115,-1.9291473332576041,-7.490786330066706,-8.954612916481143,-14.083413524669917
-20.113393744676383,1.8243138527658076,-13.570318826205606,-27.343263588123833,-10.163077171558706,-13.573607728697665,-15.119597050468702,-15.003903781996387
-16.283907238591294,-4.550044882580448,-17.328659560529815,-24.878466401794885,-11.287907552900009,-14.163097634452841,-16.081845434052518,-12.639371699773259
-9.8241014034553,0.6840509095827149,-10.661401976674034,-20.590354355766475,-5.4819932983175015,-9.380990648236098,-11.99592064452812,-8.082054279438639
-2.8293989727928204,13.224097793684349,2.652257719465296,-16.10636733095925,4.306672717496367,-1.4393271587022836,-5.061169039454352,-3.3596082281495137
2.5400765026162597,26.665897360654977,16.81027702223371,-12.966006702327997,13.886321182289755,6.396468785355855,1.5142044608943717,-0.5857156469459717
4.787052071189996,35.32660960979734,26.29843261904318,-12.093871327142825,19.489041587851993,11.13664129416927,4.8335646848866025,-1.070872133301404
3.528009998794156,36.37743267021505,27.881639522881592,-13.508753987911968,19.154170099746132,11.212285928913968,3.449292108325976,-4.777883513465115
-0.48087391563495085,30.668767200548476,21.699346267856114,-16.389428586612418,13.406704920728657,6.998205675715128,-2.116880683153028,-10.362664145643743
-5.733947397244938,21.89413011710146,10.984714912720596,-19.457760892370903,4.914371524128459,0.496506219892772,-9.68854833721576,-15.766580589583489
-10.599381524458805,14.487302086171017,0.4795612728025283,-21.493418437884817,-2.775195792355684,-5.650136899830868,-16.42875628054627,-19.069809857044916
-13.909025851312501,11.417628167465182,-5.6885894514689,-21.76757844136483,-6.810969947937655,-9.318666357644004,-20.03863627957627,-19.222009119390535
-15.29959660983838,13.051575530502555,-5.670196418349123,-20.26283434413495,-6.172051424539475,-9.703270331216165,-19.63033093880849,-16.36660528254508
-15.216561605447794,17.423484958629267,-0.4832181405217263,-17.636870802315812,-1.9249622873800016,-7.460207634779133,-15.951892883725364,-11.677537768432265
-14.611510864618083,21.406490251937342,6.522878216366268,-14.942128566915784,3.3541881595517364,-4.232542917249873,-10.938771682350103,-6.819625156911618
-14.454167964483652,22.082424444862855,11.044062025445006,-13.17666303722896,6.67215445355279,-1.8156106518287172,-6.809768925506748,-3.269076347462053
-15.254805282642682,17.89500579259243,9.594837345887942,-12.839097335337199,5.831844331681214,-1.3320507574110592,-5.085305011963846,-1.7726470212398562
-16.820601128020325,9.32857926607922,1.0387611732319204,-13.713063148013816,0.3402967543336276,-2.7835880414895,-5.960674125577987,-2.1625322535959914
-18.38160404443773,-1.2157060735687886,-12.855328968112591,-15.010466671618266,-8.39149123323392,-5.192703137269646,-8.338513225095321,-3.5767233838342176
-19.018676458427002,-10.500165431822504,-28.200964509709227,-15.787825695721452,-17.701566307446104,-7.2400486217451085,-10.49478416414206,-4.9333904304497125
-18.135971854914185,-16.021409918735557,-40.71697405336745,-15.385649806528118,-24.85492481068144,-8.002079283121402,-10.990559225476426,-5.40036738972798
-15.703817797463676,-17.103124284990855,-47.39532600618668,-13.664228994569298,-28.091799464541058,-7.337804089787086,-9.3159205994999,-4.657667284072756
-12.177001521864568,-14.833156053459952,-47.2918981152925,-10.977801646383258,-27.042994108403303,-5.744179156069126,-5.97105312982084,-2.9081535125496982
-8.213700392358035,-11.087894640635751,-41.35001504444815,-7.97814944818396,-22.508032834786576,-3.8872502537021565,-2.0681405685961627,-0.7135540684200452
-4.40235176012615,-7.513530012398295,-31.725157650659963,-5.36670477499174,-15.954440417271035,-2.1953408543856443,1.2288488590252202,1.2470152027324957
-1.120731613326871,-5.077075820061678,-21.04034434452856,-3.669169160712858,-9.04182059048148,-0.7519776609102617,3.144828889105826,2.4293404344752063
1.4748239145896616,-4.094663805739648,-11.680035520554947,-3.081285561727423,-3.219414467106734,0.5591348712808268,3.5013397107807602,2.626465449967595
3.390216313608532,-4.341742091697998,-5.152733731270117,-3.434045769991798,0.6348646689965532,1.8574355092395356,2.6935976008576406,2.046884845724324
4.715153440212819,-5.1463106465634185,-1.7422804588426497,-4.29238209144522,2.4298121198207587,3.164722098093939,1.4728932772940535,1.221053392327833
5.5568244013838095,-5.66761165857867,-0.6962965821896896,-5.1306195928744565,2.760637278705195,4.422016256439382,0.6090733255318107,0.7691144948504105
6.006747277767477,-5.37825626816813,-0.8607217032281272,-5.494442752776726,2.50562619371709,5.578019433446612,0.5765435513162098,1.1377932503191985
6.139652896211786,-4.384795944194613,-1.3118305257512133,-5.10448689572755,2.3760771803006566,6.689749658920806,1.4182495718315775,2.423265941751054
6.011490924667037,-3.2626367349250085,-1.6072379434873514,-3.9214193026779336,2.68076550267238,7.956196638089173,2.8292079776992973,4.340277976813613
5.624337914096805,-2.586132566735035,-1.6997054628053119,-2.1913533688787368,3.3299935766138775,9.60005327848347,4.345741484660666,6.326113641678758
4.879119778634791,-2.6587872793198786,-1.8141533027078784,-0.42982971341404336,3.9283149959972428,11.603951698700284,5.488429275373125,7.727026188740612
3.5898268254676795,-3.6420232774728207,-2.404407756492433,0.7211385649012046,3.8840266910250696,13.480179284635042,5.82610750349644,8.01030257238808
1.6073341382172919,-5.739383261109146,-4.011539830598954,0.7524466534601935,2.620945974179133,14.331546743102187,5.054943455910179,6.951424579125215
-1.002808548783442,-9.046012974594133,-6.905599348746203,-0.461213005588595,-0.07563151296939997,13.29302417902112,3.1549076823990116,4.742461420562004
-3.864583133375513,-13.187200941017199,-10.746895613953107,-2.572884498686536,-3.78240017711647,10.120240254522061,0.5291499510581325,1.9674868787713415
-6.374811630489688,-17.241925967197336,-14.634952229677904,-4.8927999796727155,-7.513859498469866,5.506392852758482,-2.046939867009867,-0.5759656221946303
-7.9314461325008105,-20.159170350934488,-17.572413379290595,-6.655941699560493,-10.174811346337073,0.8621030206741083,-3.719824524666242,-2.1599881397273704
-8.173925022425228,-21.300662827081098,-18.950977035053878,-7.2931572464478265,-11.075798521441184,-2.333417002254483,-3.944482875969709,-2.3995641500059297
-7.116433782380963,-20.636270053965188,-18.69316137164355,-6.611422003533009,-10.167786543048724,-3.2209976901090367,-2.7364153756200134,-1.3929870352804767
-5.137202198160109,-18.58124811305852,-17.10615800608811,-4.845108874476951,-7.947283864981773,-1.9123501268727827,-0.6667870970055956,0.3375128950011459
-2.849155307269783,-15.83608537739293,-14.765407157530658,-2.5652232956652985,-5.237303040639557,0.6404098495949385,1.3672484324241216,2.08411827338006
-0.8997413551382714,-13.38361399194563,-12.54007737328235,-0.46563608255285394,-3.0014340410518177,3.1426899452432906,2.4878221071504742,3.2678446233236897
0.23124844195167266,-12.376661893777293,-11.541645675960622,0.8850949883329396,-2.1559292921672695,4.556108551719525,2.176246181437362,3.678965077227165
0.34791358369907005,-13.687400363243054,-12.809234332817269,1.194241754522926,-3.319999822672286,4.505962237521353,0.47854900335332146,3.5140712484727965
-0.48304878622692193,-17.389627727892048,-16.89362137292206,0.4328572723058369,-6.604535253444593,3.308707069039068,-2.0340251727112095,3.1863581455047147
-2.0424493115399263,-22.70022633694675,-23.664603189048147,-1.2622343610954185,-11.605174790569674,1.6477365590319109,-4.547953189296585,3.0308840504051613
-4.038294809500887,-28.48453402584276,-32.409059424804674,-3.6317042109824187,-17.591461211476602,0.1485542603152856,-6.3657060174381,3.103470474589713
-6.092520748519113,-33.82188245410457,-41.97959727892078,-6.242265203612198,-23.69229235213621,-0.847951657822418,-7.112271109176165,3.202476968513402
-7.713941172457466,-38.11881801081923,-50.84266599138355,-8.45985778389177,-28.951091741663568,-1.214959103465234,-6.704241550214238,3.0720680875785034
-8.39800610434022,-40.863716658516466,-57.22752363303777,-9.592166084121079,-32.37957525576884,-0.8502582978084311,-5.210248777004801,2.6169600984193107
-7.877928049494563,-41.54304650419766,-59.64028311116213,-9.188724847684353,-33.21005284489511,0.369635540835489,-2.793899625771259,1.9749341839044947
-6.366760817952783,-39.95419829941994,-57.59880017697369,-7.313531049501027,-31.29354908737893,2.4159313808828426,0.21275408718367556,1.4176395998395819
-4.5820235599600885,-36.5928439409085,-52.06743831863081,-4.600421726568326,-27.333154778385797,4.884546041712986,3.223106975254907,1.1612219295564918
-3.495250872217671,-32.73056149047395,-45.25109445747437,-2.0544136829165245,-22.738591711040538,6.945532461071555,5.422394829469439,1.1983145667753767
-3.941005823809022,-30.229028177306624,-39.94018464683254,-0.6976753201124879,-19.22620739096725,7.536313563385804,5.921699675698702,1.241661710577573
-6.26959100924753,-31.318297454657404,-38.793763098985956,-1.1722105501200597,-18.415509308088037,5.717901259631114,3.997156490620672,0.8369469135390987
-10.139639956410988,-38.16148392394604,-43.60272211461505,-3.38448833134324,-21.4351000364112,1.0852505925800524,-0.5968125668746499,-0.3606808070787916
-14.476614715797556,-51.72355293824464,-54.31171241921006,-6.321883733115128,-28.35089103361491,-5.865484058705134,-7.272752275610034,-2.264933949774774
-17.649700501415527,-70.06709789185398,-68.00087945374516,-8.230823068531828,-37.491674583756854,-13.57255413297523,-14.398419807392942,-4.206076073785444
-17.936572978574294,-87.35273683292714,-78.77241576894579,-7.250861688299968,-45.26571325622875,-19.670342758718466,-19.53201866016344,-5.123586234391146
-14.216722133994503,-95.13207137734385,-79.49629164294481,-2.3085346955166743,-47.138007922865704,-21.775557256604717,-20.253465803077482,-4.075080102503454
-6.605069954444205,-86.15772687004882,-65.17768045701702,6.2022577426339724,-39.71292263486564,-18.554272824869145,-15.31570718876162,-0.7917003671294359
3.3715279584994517,-58.78806417324597,-36.16912277301212,16.415152311917485,-22.848086522417972,-10.512856313206134,-5.472448604893793,4.072600408936322
13.273575766482672,-19.02287254635867,1.0040401068701186,25.759528330967335,-0.34952930941314986,0.022844751893944214,6.6128080869212935,9.186134624165692
20.747795961404574,21.631091077379764,36.18380811041109,32.1140209929797,21.476127453144738,9.854569992104924,17.46387850622116,13.157583786254131
24.5096026131692,51.576276918987155,60.284610361069525,34.69724630176729,36.75363812673567,16.33106562357547,24.343463718381194,15.167652121125347
24.76848863417744,64.6259777697082,69.42234507025512,34.21341064605779,42.74654047617213,18.457520413178933,26.38683753521758,15.256271573574995
22.890869683053012,62.224823084358356,66.01800079646978,32.25435902491724,40.71984049758342,17.079231377425565,24.692821903295933,14.143810303841178
20.565849987688967,51.26814678206888,56.44918210816168,30.408121938099406,34.574636243259505,14.109838393199402,21.416703703224076,12.759639204289416
19.00437349209489,39.424877815699695,47.099178948109255,29.61181037362468,28.358698876002777,11.373518450504042,18.523327596575992,11.791348901486861
18.581402314001146,31.26704948618717,41.419581621343504,29.998950689880843,24.336047168674572,9.791952708543626,16.96319342893626,11.476938947683276
18.968869997495894,27.282874270971153,39.41300598558232,31.12679748385413,22.586428323041986,9.27980476039658,16.603903436424545,11.657634444974839
19.526631685365622,25.402311696312378,39.0407383669213,32.32879373802021,21.872855119864738,9.182742904785188,16.707796778890454,11.972490533908962
19.69643347144525,23.265855071436174,38.1304096213062,33.03389214429185,20.861914562653972,8.84514251796541,16.530646794232613,12.074998115071992
19.272427608284833,19.860195729960633,35.75098925864778,33.01001448009354,19.00288362470679,8.010844711805575,15.753869403197072,11.806970547894585
18.50054023627167,16.1265845256877,32.73721689615581,32.481477456539906,16.849838218733794,6.962526741595381,14.652323626237546,11.283547769555382
17.954793517454466,14.473024980694408,31.251046532941412,32.029951873921064,15.770286572038302,6.3707037183892705,13.947790522898256,10.83768264088666
18.18278879790694,17.07268387860318,33.29517806275882,32.26642686228206,16.996804092734003,6.843034221648486,14.329327430677118,10.816871896657718
19.267351424469226,23.429790445672264,38.66058291159811,33.43093246867782,20.320526350081266,8.32664305272248,15.812813085954536,11.325426233196719
20.582074660939643,28.823159989110152,43.658538300707576,35.156500152721435,23.28554358109716,9.749629945214707,17.3532691482553,12.070896147017946
20.950302421222023,25.434224975384765,42.02559204076593,36.52946363831528,21.793738167493018,9.287034617026562,17.099962818147027,12.424632314321101
19.165266643278432,6.317282113480759,28.042824609159776,36.400897005741925,12.168063425845812,5.257667672537122,13.286773317836278,11.677408519385791
14.597297281714717,-30.00690540092056,0.13497965710868234,33.81376704577431,-6.462242892631068,-2.8354261263891587,5.270440884063039,9.366201068513238
7.572302196833025,-77.47369880804297,-37.40653408691806,28.41653374398772,-31.039102023722947,-13.78675834785737,-5.924214513941807,5.525640074994669
-0.6597745546148654,-124.56033372212643,-75.81977176555115,20.732563661062926,-55.57265302133932,-25.05975478387797,-17.902498183793316,0.7531535182898677
-8.356565741329648,-159.45622756273772,-105.67988441182779,12.127535268710345,-73.77958652579709,-33.87197397748332,-27.89552034579219,-3.963838047284475
-13.94166814941391,-175.34767821591856,-121.02715428927459,4.377242318294358,-81.91103556802567,-38.40956888938579,-33.93574122362194,-7.622802469148568
-16.618873333351953,-172.99825394710936,-121.70588998370124,-1.052885670158895,-80.29465608828245,-38.54715393347067,-35.63540555773831,-9.637428827027612
-16.677956468654866,-159.67090091765158,-112.98616531518485,-3.673190825565925,-72.94985152720776,-35.766305998808534,-34.23685588605334,-10.11152453958531
-15.348798232323428,-145.56558710148448,-103.03307661682298,-4.183251540243511,-65.70472218312091,-32.41120986850943,-31.98383030791351,-9.785622873445709
-14.239923776806943,-139.82674610944707,-99.58575613641432,-4.045412507486246,-63.82655801548356,-30.695087977566367,-31.137602948664856,-9.64170589415702
-14.56598226628277,-147.47150116163024,-107.00363137778471,-4.606285657338737,-70.0275602107034,-31.84506790449747,-33.012474111396244,-10.342205280599838
-16.4910615312086,-167.4777008220895,-124.29352165767698,-6.277028992245875,-83.26330077189792,-35.59688955830909,-37.3292764230251,-11.803678123531853
-18.9395265363561,-192.12975624713096,-144.63017837467703,-8.311974161375472,-98.5811035275941,-40.15408576207538,-42.126628349729906,-13.175134813485762
-20.065126349504446,-208.4274529903934,-157.0558268611964,-9.367713293750905,-108.3663715578971,-42.717224929537714,-44.39215071015124,-13.282418670911955
-18.21868253864574,-202.37357941498365,-150.56505629691975,-8.484238160636776,-105.0821860250584,-40.56524321322637,-41.32769352735124,-11.31178594725674
-12.907237919143752,-165.30345981279297,-119.32351760936336,-5.812053241329484,-84.71633409669695,-32.34578025330859,-31.7625992571016,-7.33088609853662
-5.1730984682998615,-99.21608483991882,-66.376340757233,-2.584600363670354,-49.247626781908615,-18.93467385720388,-16.971729298998774,-2.326612103378542
2.857111487537695,-17.56782127117215,-3.3731315625987923,-0.37650371206273575,-6.502754338348045,-3.296309766877611,-0.34702510002953485,2.2643831999244237
8.997044418088084,59.76978464588067,54.08193669286391,-0.1744585181714831,32.90692477087444,10.710823665869459,14.010899177970487,5.248330570031127
12.001525160198998,115.06384693965391,93.16189683378126,-1.8701051317810267,60.10401018681151,19.998325603269244,23.060568926325097,6.19020109477464
11.993792859343959,140.09660565069515,108.96891452206921,-4.4470670680681,71.49155460727134,23.482911472196168,25.992827888370694,5.49000142701317
10.154605715400779,138.36000931648522,105.41737311566865,-6.655522404593986,69.47902328227005,22.249072623071154,24.22166429833134,4.039419807638969
7.9611995657729375,121.37391918554225,91.83741987899178,-7.687334062111654,60.29406871764684,18.663703604875334,20.3343603437611,2.7163905150850622
6.478655326770545,102.00225654626968,77.7944180742552,-7.452187792713702,50.493304131534956,15.081673737124682,16.73151930468976,2.019993367349854
6.062093238437895,88.92236871715885,69.21348462512351,-6.399559504648248,44.25981344240126,12.910778391383694,14.733415229601507,1.9954923477645754
6.4847319728931545,84.73715373155365,67.3852174929707,-5.135173990033095,42.62282888184386,12.407704105156329,14.463807788282073,2.389068835453221
7.25902345800007,87.36010712802947,70.29722505040705,-4.119908880823703,44.2987904925189,13.039133816102336,15.280691473080823,2.8664201622661247
7.920105023273627,92.66702197063871,74.7067700620214,-3.559183146898776,47.099175897480166,13.99983923585323,16.323960830963536,3.1712821085596588
8.189172463096849,96.77189930405082,77.79869404102466,-3.4212506212168226,49.08570152520422,14.608882097971966,16.914006899929078,3.196436015752017
8.033138927625684,97.42907067473568,78.13594220890624,-3.5069668309974507,49.2374761379591,14.529778271336575,16.759636219172545,2.987076556348359
7.630518567124255,94.5791507316528,75.93932715254175,-3.5579455405073803,47.65388572213127,13.833222623506249,15.993925364567314,2.6891967998145896
7.243253993252414,89.94428314044042,72.65144621756265,-3.3927892200568928,45.27828751589513,12.886974066558047,15.028201809052797,2.456989280203389
7.052339217445671,85.75126005171686,69.91536424605282,-2.999102331956708,43.22602486655879,12.099433391755657,14.272845731057584,2.3655477002795164
7.0699590564498145,83.32427238335531,68.57764300598733,-2.5039843315764236,42.10605509892485,11.670759942685944,13.897651588309646,2.3877179919268583
7.18872571479971,82.55992293300746,68.42601107323439,-2.047750438953604,41.81217483039267,11.533576366328132,13.804009116072999,2.445870095836714
7.301650333697082,82.54756742563629,68.73926790114979,-1.6823611865038406,41.86558538455484,11.500166001737394,13.794466457937242,2.482295484233033
7.369864407413127,82.5310806209894,68.98436749558398,-1.3802554179290232,41.88910769117815,11.440904825985134,13.746444018525482,2.483876326176143
7.396268951085982,82.25863265839418,69.00514563846498,-1.1094027985019097,41.762266956733555,11.32580036302562,13.636124962535872,2.457254999373491
7.376918721482221,81.66751054683304,68.76004823205457,-0.8680369008133075,41.46025521853272,11.150268465524263,13.458526479341467,2.4041381347642843
7.306505039401807,80.62352970553664,68.16120999833556,-0.6492281467355614,40.932337053629844,10.89284687714785,13.194547521774908,2.329414933815712
7.217864811638073,79.14070474184014,67.26099569866507,-0.40906895007987853,40.20777400818276,10.566621815415626,12.867499660891148,2.2586285769371615
7.178671800273764,77.66649361045027,66.4286693941797,-0.10162761613430613,39.517673761649,10.266260360975934,12.579445982427817,2.2261299781549746
7.229568414885133,76.84779810917674,66.12668447690956,0.2599478801239876,39.16607691789075,10.107766273563328,12.438397746101185,2.240100708217395
7.337692517421483,76.9238572822237,66.46918585295512,0.6039260569954339,39.243269785446316,10.112542704536349,12.447899995348616,2.2696545142329567
7.428468569714152,77.47658851127946,67.10180794782353,0.8715380196830498,39.5302932967848,10.17984103429389,12.499652226442652,2.2749366181167625
7.458698016970005,77.86059530046697,67.56116532327657,1.0729824006730384,39.722006481496926,10.18698164274514,12.484059139840664,2.245301128472412
7.442515316753782,77.7773038348301,67.6676818770915,1.2613940330746083,39.69329657853596,10.095419729395427,12.383194337427174,2.2003749363628007
7.4096509980765415,77.32864194005994,67.50879157138249,1.4675823772063665,39.50358105211991,9.943899655960744,12.242948626335409,2.158932589485516
7.3675114194713345,76.65070018504115,67.16648282991287,1.685600983445683,39.21466665470177,9.770382707427432,12.090230177126328,2.121948448325277
7.325294991090965,75.79840946283898,66.68418319689765,1.919333856486966,38.84765954909773,9.595136028154245,11.929320662005159,2.091507118169861
7.337740646785107,75.1057232374171,66.35674143658466,2.2066698295691896,38.564325806778704,9.488939273012988,11.821150992161355,2.091305396497879
7.482079421565493,75.40197238674962,66.83750512043744,2.5659738559471945,38.76111398660397,9.596945600003815,11.90419028775389,2.1473783964469795
7.76510735594393,77.46104572774688,68.66073143156409,2.9263762745279362,39.7924193518725,10.018770942077552,12.270510849645422,2.243267602180669
8.062827730778311,81.02672246599472,71.527282990136,3.147628538690006,41.5124404565081,10.640412284131184,12.809079621122121,2.3078018668781746
8.179769253169967,84.47388599386235,74.14323685075135,3.1373483710083843,43.14080548349328,11.11994252518997,13.20890815834275,2.2634600186937495
7.990731006691391,85.66299149806879,74.93228612151023,2.9539188576490445,43.68733500855429,11.094158661207773,13.16046961232341,2.0940462048217023
7.545537693804794,83.39307632216558,73.10805175366265,2.793040409389031,42.62849653891647,10.451587046925434,12.590226934563178,1.8686593258269533
7.066452251824953,78.389784233653,69.34463796428552,2.876284148906886,40.341226464126756,9.46458137454121,11.749043448179213,1.7073275231995793
6.864914634203292,73.32899433999174,65.74371532957525,3.3354725203545077,38.08975226144181,8.715940311185726,11.131073724104679,1.7246714258389444
7.223178645495369,72.0426944272896,65.21389559337179,4.14151130496827,37.65105779800605,8.884137491010138,11.300121661263022,1.98102860414257
8.240264291955013,78.0226586678478,70.30072475551049,5.060673043730381,40.62139972012544,10.436122563399975,12.648081071265768,2.435392859124244
9.655098952806366,92.18608452460515,81.4488086084718,5.652789821164109,47.37299832475833,13.247416225024347,15.070805806770883,2.9024293098461706
10.765947244217413,110.54735715499318,95.28099073814184,5.401658658877776,55.97306799496843,16.293660239551155,17.68371065388951,3.066252865914845
10.619220171155746,123.5859980711522,104.3121334881578,4.025388147994803,61.92201663139947,17.731078393295494,18.879092484743136,2.611140706926899
8.495080433318677,119.06273963132806,99.32227666341548,1.8224491007647816,59.51704808521,15.597621981229395,16.939995646973486,1.4398116302920019
4.443819774331857,87.92970351407126,73.90743311230717,-0.2397350101223983,44.62453439852321,8.923812975316682,11.005532343963214,-0.16637893017561795
-0.5155268330817666,30.204238797465848,28.718659903850998,-0.8839052093729753,17.3600570783119,-1.4210943010517465,1.7785296274133107,-1.602716220007924
-4.758534382127008,-43.194828562555735,-27.52425256171989,0.8012058187745215,-17.163742931788175,-12.829110462307872,-8.593767601710871,-2.234314148377333
-6.833168080530419,-114.45823081510247,-81.34336770790848,4.773117028082336,-50.77778538887785,-22.115795395407094,-17.506009076719245,-1.7697345091944472
-6.208588855679418,-166.77846484221726,-120.44402008299512,9.929497696561173,-75.89113145321826,-27.117883239123884,-23.17199516888149,-0.4789788206605932
-3.550450850167387,-191.60389038250696,-138.89055375736712,14.582009381722747,-88.71699342828242,-27.748066543453266,-25.39715682558798,0.8963165657214571
-0.36830302365552076,-191.23161763068052,-138.70564564343874,17.242833437113394,-90.31074438120454,-25.85080672805878,-25.39497169827853,1.5046292678063475
1.740816395948549,-175.81376726358624,-127.45735544382316,17.27292351149275,-85.1126264625928,-23.984138036519866,-24.849059319261713,0.8137269493560562
1.816707163370681,-157.2735335141162,-113.8111986731798,15.05813695266994,-78.21960012284562,-23.938346392198106,-24.90338207530848,-1.1359331319086647
-0.128019083243656,-143.98907986183838,-103.81209050146173,11.698319736362702,-73.13147794823965,-25.90495232162069,-25.722459839341493,-3.7794647385338584
-3.2442073230782444,-138.7381330537301,-99.5297911232522,8.46594014585332,-71.00002846071555,-28.6896953897709,-26.76947690756665,-6.317683083520976
-6.295753873273184,-139.79668095754195,-99.86372330421,6.3294411621614355,-71.21287143703782,-30.658403204373585,-27.434122933776308,-8.0705909818071
-8.185516259092923,-143.41986045868921,-102.25648051481947,5.687971940684801,-72.45900615060475,-30.73525120688121,-27.503328167060957,-8.725911493096673
-8.363683951677736,-146.05169823158772,-104.23488235647602,6.3242180073430765,-73.56709798793202,-28.90681063679534,-27.221947955512718,-8.401394223025681
-6.9859311812795255,-145.61385301932765,-104.35280261606883,7.5544741509923785,-73.90385699255485,-26.085773321495484,-27.029082306747057,-7.522805069882928
-4.754234961334676,-141.87010016351084,-102.46959467328958,8.556621322645638,-73.40056320573935,-23.528012315538884,-27.209148194180187,-6.5780993401229955
-2.49664556588513,-135.95206501112511,-99.36539879499874,8.779504853634416,-72.29148554331239,-22.14099765009864,-27.65708930816345,-5.859180599142907
-0.702138069708335,-129.27640399673848,-95.89984930584029,8.230727935490716,-70.69603458431769,-22.015454225928945,-27.863402405650636,-5.326612577837631
0.7098561856051431,-122.5022684314719,-92.27499205225651,7.456544737369094,-68.334133227285,-22.404363935684675,-27.141362824817307,-4.67980164714885
2.237915694661619,-115.29870763860575,-87.97870403704306,7.210331126644042,-64.66081093810462,-22.16109390658651,-25.009048422065916,-3.5894609249206546
4.369988974407839,-107.06383620958735,-82.4286926198888,8.009542310590536,-59.37405409472194,-20.3880046608467,-21.51484905253363,-1.941184940122314
7.158822061370493,-97.86224959824472,-75.69802785238763,9.831853640474492,-52.86703876060039,-16.910753952134407,-17.27880858082393,0.059030741273891074
10.05952489650644,-88.67746069537326,-68.66277447368553,12.086120542000687,-46.196237419903554,-12.320608451900348,-13.194741581682425,1.9628013392351875
12.115734349452557,-80.81150976457714,-62.500215889573404,13.842261326833373,-40.55859806861149,-7.6328271798095075,-9.986448776393216,3.2772840881134107
12.398311880540994,-75.06680675543875,-58.0224389506794,14.21594560230487,-36.68067861660798,-3.8328321300407846,-7.912197991475399,3.6790200765313013
10.490803896436075,-71.37725037406405,-55.32019987824519,12.76338810949774,-34.52782898214166,-1.5573118824855472,-6.777191983082313,3.1555870098003718
6.785498522668142,-68.96560420181625,-53.79907096340211,9.711916006029183,-33.42624308703899,-0.9793817411734704,-6.186804107274424,2.014570045960904
2.4085970804146637,-66.70154045851014,-52.45173015302854,5.880049407108104,-32.43503039779451,-1.8454603168451151,-5.851797861628971,0.738634889152995
-1.2426445709072271,-63.477023411418934,-50.275579943143946,2.292203861538532,-30.78495876896961,-3.6156163959030563,-5.783941238848297,-0.2588447570430697
-3.1370750881679155,-58.64584517620522,-46.78160551084871,-0.29691863260967105,-28.249967270845023,-5.680653852175127,-6.298846473460774,-0.8403807760731787
-3.065673724102427,-52.41973977217428,-42.348037545800956,-1.6724915776377978,-25.280228282236898,-7.57987531469261,-7.806216377400264,-1.1710976540735571
-1.6544526909233166,-45.82974631243523,-38.051468948136154,-2.083884840236207,-22.726603814259587,-9.092120098562777,-10.450556102319736,-1.5374370591581272
0.03876778936094518,-40.04441882872346,-34.92367809116213,-1.94907519656206,-21.218961754564088,-10.139427895144546,-13.78853563339387,-2.0866124379740274
1.0567107723285192,-35.47683402976249,-33.14334175951542,-1.60011714264525,-20.605947431201667,-10.607375386217445,-16.75399686662636,-2.681781426177368
0.8864958303365617,-31.469055844060797,-31.84871301779838,-1.232323150542998,-19.932471234147418,-10.279544525077192,-18.038836262637407,-2.98335177216904
-0.5148032626175434,-26.880628211118037,-29.758854424607623,-1.0185893463923337,-18.042767324834784,-8.98518814828487,-16.737543645752062,-2.7029887078059933
-2.9192774182227645,-21.05542204042894,-26.087913848457955,-1.2398461922510104,-14.37453320408353,-6.852381240197842,-12.883609501212732,-1.86158223104847
-6.059026459155325,-14.324317793028017,-21.044734086886507,-2.3146669808131763,-9.362527589724584,-4.444838774631844,-7.546836699373829,-0.8844720475398272
-9.737140808649462,-7.722755721970384,-15.660772039118573,-4.694907472529715,-4.220126466773615,-2.6364061431654555,-2.4300460822497434,-0.4624055165082139
-13.773377443289704,-2.308960692167754,-11.226944517700723,-8.652517206092732,-0.3279784938490524,-2.251067647942962,0.8230868854397019,-1.2301432209098775
-17.84523940308279,1.3913756073884118,-8.718607961161727,-14.029934775145424,1.3926841478427254,-3.6223780202867943,1.2998829053920133,-3.4118504548577255
-21.36070229946182,3.6636983770944145,-8.347387307088308,-20.086123550755655,0.9052220741399665,-6.262309565679918,-0.7764881356065049,-6.6151950542943325
-23.507843947436065,5.7004074212401115,-9.265389346318813,-25.586800452030417,-0.7850671888786395,-8.818057539192996,-4.050944630927428,-9.900291771408595
-23.5323419388863,9.434376558051282,-9.598164277283336,-29.184238592673996,-1.82489661801082,-9.437519157113302,-6.4870048254834405,-12.116906310069558
-21.126604384857696,16.87750033586219,-7.038591835778982,-29.942219352780523,-0.13909170621230224,-6.505408246690826,-6.154076868248018,-12.359610598129034
-16.69678006973623,29.05766469260734,0.09534918075207555,-27.73895074532164,5.6511592249431715,0.5261243036013942,-2.061045790315313,-10.327926828230384
-11.322266924662186,45.184961651838826,11.889216896165376,-23.344710712648844,15.454018040533741,10.640828673596738,5.339817532893957,-6.441890110873253
-6.413086101425997,62.72246724724083,26.554852525850944,-18.165509102789596,27.541190625558585,21.423985877591324,14.23300787572957,-1.6996081565750065
-3.244149993660477,78.40451515820142,41.013757768362,-13.795453179076533,39.12206680366754,29.89285225997882,22.086755668360812,2.6354816612474243
-2.569019742854093,89.57195289643701,52.01328813830552,-11.535961660443988,47.38506372739368,33.65688932031559,26.607054901369466,5.415528139716446
-4.417390430816093,95.14235035411983,57.31204916639473,-11.99452426405549,50.57256902987296,31.920714626259667,26.641432894813818,5.975764081291429
-8.092184181793312,95.98043685181315,56.596445616732844,-14.874960612022697,48.72849878498825,25.908827509452873,22.69928520779906,4.3913583495375725
-12.3673268849978,94.7307421299655,51.84051332036198,-19.084913783993976,43.854391187886385,18.498616636357212,16.849107868241045,1.4937449071642597
-15.87808713799973,95.07814649801634,46.79268111099032,-23.19428206066011,39.291088460073325,13.132706948398319,11.937630387181839,-1.438398545404649
-17.613856012243136,100.36834813487498,45.509229241123926,-26.07043788382423,38.383873635009465,12.394890623328529,10.374534880910389,-3.2361706359519875
-17.312637575625207,111.95898234845599,50.45977383683584,-27.361142037025207,42.929321448448114,16.86060582481776,13.01978254741831,-3.387454397945659
-15.545522193012294,128.2323649899815,61.23625380285203,-27.56231778435352,52.22256921709907,24.800912753226047,18.762110283902487,-2.275013878444972
-13.421745704933771,145.12099926984837,74.71782452484175,-27.660250037764953,63.33186852018153,32.952938503431206,25.06006814059781,-0.9640979005726806
-12.048185920899677,158.09878392942727,86.69009333979915,-28.57180115377415,72.54198201992368,38.02842384229992,29.192323064366263,-0.6491143748263883
-12.00028461489745,164.59661890540184,94.04632862496794,-30.66866794448538,77.21869973191282,38.23838787084355,29.57846133618196,-2.0452283050533726
-13.047939038722623,165.5375870086087,96.42821317492498,-33.5882516683271,77.13963969380616,34.10582921537961,26.519798097275327,-5.023040788926179
-14.2709936746815,165.21022649707484,96.50833050808984,-36.41020637321596,74.65337089029977,28.19521675536184,22.02304483367931,-8.660890155015736
-14.546349295869017,169.43406236122257,98.69443197057781,-38.14764523291072,73.56086862510233,23.883125046524636,18.790978023026213,-11.701149284026632
-13.213937052463345,182.54996429080308,106.63252933238724,-38.341686730526746,77.11548761097387,23.70695617780286,18.819994304409274,-13.201951870136597
-10.581804285505973,204.3227516917285,120.53047871987707,-37.41541260897491,85.96934505749759,28.036685954423447,22.252560324865602,-13.044616051877057
-7.927338371410745,228.39074885394092,135.8271549773735,-36.494415103188814,97.15699891119743,34.744306227728316,27.108377018192595,-11.988564082128013
-6.879478110461088,243.82096254961616,144.51201374831012,-36.70340499525182,104.98548658174892,40.1486769667602,30.172240510805644,-11.200814421092954
