FZ,C3,CZ,C4,PZ,PO7,OZ,PO8
5.3370882452208495,23.270712688129453,32.48102163692434,8.904490598386248,19.06238422022037,7.253577645329064,9.853048815208245,2.8309505447546504
11.591632205875182,69.38067888201805,110.45018243186632,18.270805979972316,61.54532494606238,16.716927528869366,21.94838199554751,7.447592755204818
16.985070712767023,106.9563103480761,173.36766891581266,26.253808645064982,96.02690062408428,24.68564758609528,32.026379641722805,11.471708196322673
21.061575666856054,131.3337747720292,212.9719032094773,32.119377736381985,118.12156096334839,30.343962027245738,38.9969273796991,14.593469175209815
23.908799588638907,143.19830378950724,230.42704021628126,36.00493380179972,128.45626892333703,33.81621799902494,43.03598762693591,16.8768018212794
25.96584095465041,147.15200204712792,233.91089814887914,38.62123410949826,131.3656185843329,35.89983708542738,45.21062423238915,18.62144264157669
27.74266651853531,148.81432630979864,233.47400748907123,40.79786057066712,132.1658072972605,37.5636106587252,46.803487722775316,20.171410175826566
29.65536991757058,152.43440266192997,236.64754251430514,43.20073111450095,134.85762534741662,39.55799158101495,48.80788127950506,21.810590545049976
31.97647000241868,159.95746751503287,246.68765951813262,46.24411595553985,141.2138083055168,42.26448889176785,51.74199353317946,23.733344820041385
34.792921156904534,171.2144988962151,263.0487289345605,50.04185497437524,150.9977712920405,45.69852397456556,55.646904983974544,26.008080268583903
37.959465928605866,184.5677377572029,282.78245145441457,54.36243936290355,162.64947249526134,49.57300336815876,60.15280198165833,28.532756668974336
41.147239559657315,197.76707280298965,302.14020119738103,58.7156856370653,174.117727626521,53.432152586226835,64.6514107019726,31.066223854254204
44.02503805984682,208.98260197940357,318.2219427282853,62.61976907650652,183.77743118383745,56.869150026362746,68.59817202294136,33.36498146115893
46.449140685916895,217.6490567791684,330.2320899044242,65.87163688819949,191.15476827975272,59.730198146319225,71.791358918213,35.32752649916855
48.51040685645915,224.56556336973622,339.57798929810247,68.60516471673954,197.00478168112232,62.164813088165346,74.42410827590444,37.02906958327487
50.44569282164221,231.20071833065273,348.68582282964474,71.15153054173012,202.67653748651543,64.5068180043764,76.90734828530589,38.652705096171076
52.54849008942546,238.8568578613464,359.5198272721868,73.90644463757589,209.31989518129865,67.11582299809844,79.67098107975517,40.42012141898003
55.13191549255179,248.3191465439855,372.9359331303185,77.29130265493875,217.5289315798294,70.28181254910406,83.08232425817202,42.561142402860234
58.43404866876237,259.8570279908991,388.87896857154135,81.64668764498153,227.38302079044163,74.14356140535212,87.37439924180812,45.23919917888914
62.38449064904986,273.0084077506203,406.4953930738045,86.91956896023133,238.38960722543584,78.53656353429852,92.42984781418316,48.376309878356764
66.39376651397328,286.1397244469151,423.7822576723129,92.35128092314912,249.21791368601308,82.85983667958483,97.54377049359061,51.50560397098108
69.47515127823829,296.60532745013165,437.68764993255746,96.60564996147053,257.8279373063543,86.2079064106814,101.53639309081827,53.88314068811475
70.8054039255679,302.15486186017483,445.6817160247306,98.51254224309888,262.55155091656496,87.88291758187367,103.40409988522022,54.925754617751885
70.42617125073679,302.97014992637423,448.21638196436396,98.03528798261999,263.68156884672396,88.03879680119641,103.18494508360313,54.733369076962184
69.5830362689128,302.70856233595674,449.9671606580425,96.77062707594374,264.25553989002043,87.97399997962634,102.3954891704062,54.311492543395794
70.38052961422851,307.3551850129541,458.20729423826157,97.531046202385,269.03802977387954,89.7328026736321,103.59841173745163,55.2648123018173
74.79763837620234,322.12485582658695,478.7367281428244,103.05802869014332,281.93733543974656,95.07006853766535,109.16572444253397,59.02044906737657
83.38683981998874,347.7563181940734,511.388395352748,114.2805526067343,303.0561202735501,104.17351199142222,119.68948584645653,65.8474375269848
94.14786744389343,377.7269219895489,547.1229053163179,128.74607499772273,326.6667297690776,114.68991417737857,132.6544819606443,74.05273218181121
102.21551884252507,397.76057827061766,568.0073501924628,140.07136871537006,341.10099611357833,121.6306584504726,142.08603118079898,79.82538009678021
100.97719980870474,388.86663410610794,551.0449586258952,139.29408270689336,331.32852991956884,118.6043268284639,139.8580860184294,78.15857639369526
84.70095896207461,334.2850913574225,476.2371279549619,118.34404474570248,284.40542642217366,100.33778459569828,118.80524433909285,64.85947781382477
51.72151349437003,228.44388874117897,337.109377951835,74.44331278589212,196.38364783993188,65.60158018717674,76.62236426077455,38.89017130005787
6.387700673616951,83.46292328585129,148.8736882826434,12.998994777233582,77.35038407230857,18.96716447720418,18.45969190323287,3.700228570490552
-41.80211646023521,-71.68334628746716,-51.757977837441686,-53.2754655363894,-49.164286640447365,-29.996294579678185,-43.799403172636076,-33.552005081046616
-81.97491536564846,-201.15490489954993,-218.2070699906495,-109.33736185178854,-153.97911530408058,-70.24574801566963,-95.98510253966543,-64.85670549174024
-106.77143988416965,-277.8798049045076,-313.99644834886067,-144.57840296894818,-214.785648124716,-94.0231402371147,-127.91137096487645,-84.8915527603133
-115.53975794707976,-296.8691216819976,-331.59672178747417,-157.51278306882907,-227.27948203950075,-100.34007691239586,-138.048183064083,-93.20271309665242
-113.78088196832225,-277.9012349477801,-298.51733731517345,-155.37988171073883,-208.04563007022097,-95.06828519411638,-133.65100882328582,-93.63802170044002
-109.09377744816398,-254.553207351667,-264.3763865966923,-148.74952567585225,-186.12773965660614,-87.36082935041343,-125.98168819055489,-91.34422160086211
-106.2575556419725,-255.20544177075706,-274.3174545153023,-144.63184706508522,-187.1998227815595,-84.44295465531651,-123.4834289513806,-89.31382820507247
-104.72966098887068,-287.60904817301866,-344.3115344895644,-142.70427214704443,-219.72467250436657,-87.95727104861092,-127.2753547745171,-86.81713769919367
-100.07260403100747,-336.6155816704802,-453.77467014048256,-136.98334384252541,-271.66443949719934,-94.00859381638847,-131.7273947537257,-80.6757649584033
-87.98069161167848,-375.69459769783793,-559.5431420864611,-121.30941329899895,-319.2714530530422,-96.52328931774835,-129.29133845319072,-68.26017232223502
-67.89848540655117,-383.8494663754792,-621.2734952327287,-94.51336628710519,-341.619993777791,-91.44680025232486,-115.99893691881907,-49.9654417478808
-43.84859330450675,-357.08698233271895,-622.1881077659984,-61.8294022508842,-331.64158183374514,-79.10946137200925,-94.04945934976708,-29.509975436854862
-22.2443570865894,-308.5231122500673,-574.0576984080662,-32.05577182317568,-297.85466780678735,-63.64657583110211,-70.2893763328532,-12.05436462097838
-8.415033270610692,-259.03219113643854,-506.40651008821106,-12.750323468000056,-257.4617212574162,-50.328361690890404,-52.12721363499321,-1.5354162533282811
-4.076451402365654,-225.5789287436922,-449.09058708635416,-6.5810759751988215,-226.3950194373548,-42.7162691188045,-43.697360311484424,1.1229620068202983
-6.9971072999920265,-214.19181394751723,-419.19064116320084,-10.677645100329128,-212.42712741834006,-41.24206925461174,-44.37096481097388,-1.9210315874233703
-12.574340702718903,-220.0724418731906,-417.73704162031413,-18.698435418723836,-214.08477007284813,-43.602114527463264,-49.86884514448058,-6.764782230013202
-16.089153212116535,-232.4990475662198,-434.33120668342355,-23.952894736788082,-223.92252594457904,-46.26832504822713,-54.73705367986588,-9.54302860288166
-14.530613273666455,-240.4902463505618,-454.1365303179112,-22.02571950204392,-232.91544804366694,-46.14093806613208,-54.72799372806145,-7.848508577396745
-7.578152028440856,-236.83138374654035,-463.4584202180541,-12.287993300514952,-233.86079433571962,-41.772868138961584,-48.358409208639955,-1.5230386859608105
2.2412625312944567,-220.23096333670426,-453.5360558637749,1.7382511437718595,-223.53043383354702,-33.99944734616903,-37.52878773868564,7.174843884138815
10.286963283885038,-195.73729829971066,-423.09138628706665,13.326342139722936,-203.71733799583058,-25.81923415010496,-27.063683332865686,14.138910000253421
11.549175959140419,-172.7766297762932,-378.68835053065726,15.037614431771148,-180.56536095430172,-21.303616466869077,-22.91210410143976,14.876762920607359
3.0312930589091103,-160.55070724020956,-331.424576590822,2.2518633000081776,-161.59850501147545,-23.667486034719403,-29.28304879255828,6.576993116489537
-14.357813915047494,-162.5962144004844,-290.73486814774725,-23.92510399446484,-151.44073021371534,-33.335894317323316,-46.00734547726949,-10.17355910308943
-35.69409427004147,-173.96025699603226,-259.0031182410066,-56.33984479927784,-148.83098152523777,-47.21183527333443,-67.85942013706088,-31.15617205474663
-54.12708053385513,-183.47770947682895,-230.92856469099465,-84.76597207607296,-147.25332005679118,-59.84742692316192,-86.68969204000916,-50.19950965738846
-64.16652643537753,-180.30913459343859,-198.45438241335168,-100.7761995304341,-139.16970699524404,-66.05789246942311,-95.44051553072062,-62.00317867371974
-64.26194321825385,-160.67552206987656,-157.86433871029092,-101.6986716168089,-121.16592688736318,-63.50680085058427,-91.72682924846553,-64.51333778054916
-57.12482018225721,-130.1482525897406,-113.60473286611574,-91.28002608408164,-96.35830259370675,-53.70200392383869,-78.75867396917121,-59.466679093840355
-47.714849520692304,-99.74947157843137,-75.5158282314383,-76.81864908578478,-72.18180343219215,-40.84250479935238,-63.06941861965357,-50.89798034496411
-40.371760627172335,-78.73686920901044,-51.52625430063692,-64.89093462388887,-55.23273747177101,-29.402846265552434,-50.68503691713335,-42.73938295168143
-36.998040591526035,-69.56511425557309,-42.06221848176312,-58.52719146238235,-47.299570173088426,-22.12089961069356,-44.34436636853852,-37.104468261213505
-37.13979102075448,-68.47613419796185,-40.96727641392873,-57.207203251598095,-45.570630966654726,-19.509038813268678,-43.30755889727478,-34.09926021802393
-39.26727731923873,-70.13616008121406,-41.495183083232895,-58.737336184502006,-46.11449170314203,-20.669280850945444,-45.14434529914036,-32.760391572297046
-41.93323532647908,-71.63693914872054,-41.32075193254033,-61.04355940586855,-46.99459886877987,-24.330362721612488,-47.64930216153777,-32.09957195656683
-44.14459346877724,-72.8842305099442,-42.34137284963095,-62.798488723476126,-48.49232418802644,-29.312343679585922,-49.6143435683586,-31.59573886768568
-45.24990585898454,-74.45863375109035,-46.752092256539036,-63.241552490205805,-51.20688358688107,-34.48163064878474,-50.59309307747772,-31.173475036175873
-44.873833591606726,-75.83885494721301,-53.82814485032267,-61.981790197056235,-54.45090580851064,-38.67620491921311,-50.44906936245552,-30.979957093830308
-42.98462154842074,-75.23998615411959,-59.60527984371759,-58.99078241635188,-56.10715934331218,-40.825261341919976,-49.094289119840596,-31.11980273764864
-39.89241775709464,-70.29130637043257,-58.33628766871481,-54.56468328160352,-53.34955449723198,-40.16528723819949,-46.36949755282404,-31.430029845925393
-36.19278557208475,-58.98990940051805,-44.57837048454649,-49.296247130843895,-43.69514859594614,-36.50512031038732,-42.13564903705925,-31.51035019009992
-32.85547170961222,-41.51843686529308,-16.635454738363592,-44.32168481092443,-26.82706718816567,-30.607028882281515,-36.802394743771714,-31.153751193233326
-31.3296718546368,-22.76550951811793,18.681337886511862,-41.60618129077582,-7.059268245845115,-24.487131348319952,-32.02178270261307,-30.844028332416556
-33.116287955901534,-13.043157806867374,43.72454218888679,-43.41210106581905,5.737252018710502,-21.055444895857022,-30.580332654231132,-31.62597762858778
-38.558146961396226,-24.159703660297,35.20245663392657,-50.53745482306322,-0.5839173003400953,-22.73867447181379,-34.80494683027952,-34.06944364526712
-45.59064562880361,-61.64006274371097,-23.01712062388461,-60.3862096530311,-33.30653011611108,-29.681659440094293,-44.247612103604176,-37.04300539422028
-49.78642096011687,-118.43096965534149,-127.132505635431,-66.84737896568492,-88.38412511839755,-38.90676463792645,-54.620547064496186,-37.542133523227704
-46.30619266480767,-175.82613539939027,-250.75085022167667,-62.96129340630182,-150.03648743223016,-45.431884393983786,-59.409023978478324,-32.14402310214587
-32.78524721172318,-212.38251128604097,-356.1325162687897,-45.057018507032055,-197.84865144778158,-44.92442446360412,-53.514889533076506,-19.27976521247485
-11.185080825805565,-215.42415616935494,-413.0481326418778,-15.538151694653187,-217.2421749412686,-36.210268939683466,-36.51251030309778,-0.6885290934933959
12.816858300025515,-187.5863197659635,-413.39881867974555,17.80283153215413,-206.63802663654175,-21.957767880214202,-13.204638425637956,19.09584707680976
32.64582527928862,-144.30932823669434,-372.7888254542017,45.68425434067871,-176.96230193461793,-7.106568033573332,8.957638892506386,34.98701804694324
44.08633717562531,-104.4231555676427,-319.2208645845635,61.982933650428706,-144.40281235525458,3.867086880252956,23.863874119139787,43.87848865444088
46.95851711990636,-80.37009710968658,-277.35221453457217,66.23011890009448,-121.62799567583774,9.06147948769669,29.545896517969144,45.87921174570811
44.36406406112269,-74.094298912633,-258.4354734503663,62.662057769278775,-112.99819235870862,9.437497209223505,28.20066757206719,43.62950096594385
40.33663249220011,-79.82648856871988,-260.3748889535385,56.93875542819633,-115.64489009975595,7.46329514128659,23.90816115591063,40.40216346703288
37.6406052034149,-90.00760547593798,-274.453342841103,52.99846154420375,-123.88429345560479,5.363787554808653,19.996473372695114,38.37358532507597
36.97922128399291,-99.49293525082354,-291.9341486232596,51.88214500585878,-132.94306917175382,4.1804981671304455,17.790263841364023,38.035149268152416
37.609169409526125,-106.13744450574234,-306.70697981903095,52.56984737398771,-140.04128222382425,3.9234206345902285,17.024086368200184,38.716320702394
38.49275235420091,-109.29607349220889,-315.00354606040173,53.60834794786887,-143.73288764731512,4.258971497118481,16.990729027351357,39.52566247152929
39.18024579336314,-108.51388740487452,-314.8496161153665,54.372208259076935,-143.2207712514064,5.077811187532478,17.432294552230662,40.07421099154743
40.11613392351298,-103.20856116772686,-306.1503326996751,55.512053783090266,-138.2516393413244,6.676486573533663,18.81081071702861,40.733704315779214
42.33486178321797,-93.06512633175836,-290.7684040023705,58.535216611512034,-129.29314338024764,9.556738224099387,21.98516331655099,42.390430176345134
46.56875898199345,-79.09497898000157,-272.54231896601266,64.53734373370511,-117.95613661786003,13.870047534618365,27.33498883127085,45.71006501269233
52.08651019286478,-65.28241784768892,-257.8257114599756,72.51911907860621,-107.80322930086216,18.685238879226134,33.60519825243083,50.17830873830212
56.09544381021694,-59.401827881269924,-255.66564694255504,78.47650524014675,-104.71158035747192,21.646192690364394,37.34416802632637,53.59227318266606
54.580088450434005,-70.65851053002295,-274.9874080872507,76.54780091870076,-115.06032124199298,19.699703789295747,33.96793076522285,52.699583609387005
44.5427340367604,-103.68452762530038,-317.80109777606117,62.223398143257064,-141.26232546524807,10.913461848682928,20.470162662224087,44.96164221245039
26.337278752787554,-152.37577916767628,-372.36902238294965,35.769431554535,-177.23209234605793,-3.6739828902056977,-1.8120511895850444,30.417145058558287
4.347354588943855,-199.08979624281756,-413.28517993203894,3.322990511419507,-208.1094140820819,-19.6823162717537,-26.608444668997667,12.274472502559433
-14.773062883739815,-221.8655292102145,-411.92999867269305,-25.539831837317926,-216.35657668704536,-31.193687200398006,-45.301584706234536,-4.394347398151061
-25.38479613980458,-206.282273362877,-352.61208801528744,-42.518655113711645,-191.4449849663866,-33.856837895114374,-51.395475703083186,-15.172590470776491
-25.65067950041108,-154.3786362169238,-243.9210968743453,-44.68561729218938,-136.89433619571489,-27.334248736061003,-44.048207477718464,-18.466142363269864
-18.10721246688896,-84.38371051429145,-116.79697743901689,-35.43948507547603,-69.55542656881556,-15.441664389176237,-28.33665960978568,-15.965666905292718
-7.807396019623617,-21.09136871327898,-9.504444286698899,-21.929255799513673,-11.117596358188885,-3.8647975949617277,-12.117334945462819,-11.212584818095433
0.5713281471181368,16.92211400709921,51.29335763180506,-10.900788396464199,22.852458036203636,2.9987808535164264,-1.6561521422563499,-7.359834249820713
4.752832595333446,25.145489802188894,61.578781161164336,-5.714719316410513,29.456654621636055,3.9966478575768507,1.1188139077948502,-5.65596444572425
5.0477077003963675,11.9879511553292,37.28655123394716,-5.997954130728431,17.136875750313898,0.9295364612904011,-1.6623600252483748,-5.455381807588093
3.1865822650489224,-8.797639037568594,1.85894508126007,-9.277728846633803,-1.2886102110589661,-3.330990344355296,-6.219063326222997,-5.3442367829445425
0.9920260535583572,-25.890680097874256,-26.246811156772768,-12.888177856362324,-15.696383138093733,-6.719053764824957,-9.566943696241859,-4.330464498764555
-0.3623160158852676,-33.97287625658529,-39.011536117218604,-15.047588461799684,-21.801731551792315,-8.715224555542843,-10.596059415966458,-2.371119595603146
-0.5457418757538364,-33.20505504719997,-37.37684498259709,-15.159795811512417,-20.388971628751182,-9.964266039805018,-9.837916241371614,-0.2282208938540982
0.00107227517059455,-27.170221648095485,-27.300783277560537,-13.765774680643784,-15.059215674389193,-11.447145966006563,-8.697001266597002,0.9989132121196936
0.3819990349755133,-20.836763084055082,-16.43256828036148,-12.17594001086701,-10.195268327210144,-13.748362860904415,-8.620932865489188,0.41856752270117226
-0.14765770555549196,-18.421803683717297,-11.302971379001056,-11.660032922219019,-9.195423461561512,-16.609704898861576,-10.29846358191608,-2.160306042695182
-1.5940604737656776,-21.309666937521726,-14.604293568712102,-12.567110082729595,-12.939776217520272,-18.897320355382462,-13.13918871161763,-6.006674452054966
-3.184970717560005,-27.42555176127099,-24.07354779089982,-14.121740969172315,-19.427488490220266,-19.12413663462185,-15.511521103284354,-9.751934548020657
-3.987351125051474,-33.01669480373798,-34.567606006140444,-15.136439431537049,-25.319938788168475,-16.369226887457785,-15.7858324031785,-12.09072466228693
-3.626132486615043,-35.52404946119806,-41.99085307812966,-14.956844100039472,-28.362141687024423,-10.998118127948239,-13.4342629486631,-12.41553165786715
-2.4540381550508186,-34.98831812674729,-45.552417346531634,-13.763018693188894,-28.572422816120103,-4.608245061532882,-9.289242469932962,-10.943643545465328
-1.1496822838287148,-33.081053946941914,-46.697913633990915,-12.154806782232582,-27.38512084379206,0.7525833088608421,-4.881510952189677,-8.389719200322777
-0.29946369017294855,-31.4600682849946,-46.891652358182604,-10.722953789449642,-26.17083536922982,3.4499510290220594,-1.6385168062321342,-5.614922605148918
-0.35234106106154656,-31.430397468369417,-47.27846823124152,-10.081111437264024,-25.919588001177782,2.6579867561805877,-0.6040069845361138,-3.5035934229478842
-1.7142494256998222,-34.61381897695205,-50.04707799687696,-10.996214748589773,-27.938570166229248,-1.6442450093206786,-2.4776387457551716,-2.8687021584293575
-4.543331743738397,-42.67478333180224,-58.45497144556193,-14.016459667331514,-33.824718857933576,-8.658822292274392,-7.363898005825063,-4.114422708257916
-8.298595239196308,-55.44442647639083,-73.99127849958015,-18.727970105048843,-43.91644327591755,-16.65033719976768,-14.212726985443,-6.812336653095401
-11.603984698612502,-69.34310585433285,-93.22581486642862,-23.485389979721948,-55.70628016143074,-23.12395907183025,-20.691007638125466,-9.685160938804122
-12.804022705761925,-78.37546519181438,-108.19413692011999,-26.149124160505497,-64.29901080463202,-25.618888967970626,-24.049756678526993,-11.220989660859859
-10.907149778099676,-77.53387463173434,-110.89930842120695,-25.357213006746402,-65.08798175699255,-22.820463933410874,-22.57574895820523,-10.532746813613457
-6.25469319864746,-66.13654569475061,-98.62484766290454,-21.376798188361214,-56.7277931651327,-15.296272417866462,-16.612706628622377,-7.8478624912105
-0.5573635712663761,-48.9720940754568,-76.55543843131501,-16.090960155860547,-42.508495574376816,-5.4400213502045345,-8.562334631294155,-4.388810242512525
3.600838416260272,-35.07559756147667,-56.88335043354283,-12.371534068211737,-29.75271958474253,3.2439785174734954,-2.069357261593337,-1.8695114340965968
3.6292838436686843,-34.80491834315214,-55.09019809864154,-13.11042625625559,-27.605101052729324,7.2126513527654295,-0.7953586857860817,-1.869285399890055
-1.8620316595894393,-55.29880718698637,-83.36567582323903,-19.84897292762354,-43.150959978031814,4.1951984228808765,-6.879268398372346,-5.123336248205201
-11.79705164150856,-94.7660835280814,-141.5224060708186,-31.203827174623335,-76.15582011919581,-5.435239945636198,-19.27329656133362,-10.821415354693984
-22.16846304940503,-138.4688616399266,-209.4669125238516,-42.153647474376776,-114.90357342285917,-17.914726825722195,-32.878905276192924,-16.38374090599411
-27.279637613263137,-160.96094269858753,-248.59713334324016,-45.49263291535847,-137.3418984956882,-26.923046442409174,-39.77044294495539,-18.282863760767494
-22.5676072690339,-136.52566630936204,-216.46062956708948,-35.45705236551784,-119.73792214666325,-26.23946420561714,-32.75328295509904,-13.849440773599426
-7.451600791819192,-53.484299619065936,-89.46565051598883,-11.534645087537442,-49.53369184566821,-13.041971704888207,-9.558378075198666,-3.0596232044776586
13.786880326438931,76.52994540730903,119.9182531061722,20.273418186990575,65.39516437031607,10.190373904311661,25.081174835551575,10.99828826321309
33.92470014921931,221.34751287994266,363.9347957632121,49.986541533079695,197.84087357483455,36.57124062169119,61.17146916110372,23.501201661219508
46.442243274511384,342.53480363955515,579.8166764124729,68.6057652044022,313.0922327538782,58.11742964888486,88.21623717355341,30.350702269190208
48.65560535691125,413.0203067086912,718.3172141987079,72.4517320510621,384.8224363348988,69.52224137393347,100.16573268288454,30.18762148028817
42.51222316458665,427.8762018119235,764.016850621488,64.31085159457265,405.84111839524803,70.2098957295202,97.6643468817104,24.757276454787984
32.835031494177024,402.8072428319275,736.72321442132,51.01775072202017,388.1387470823674,63.70743391899711,86.57342535414145,17.55520809070653
24.416156782256042,362.8720997661459,675.654486621303,39.385078458467135,353.6469775284869,55.112385521976385,74.15366721888763,11.78886558224348
19.853844488445144,329.4333286648265,618.0870228810686,33.14065153943789,322.4551258079157,48.45001174031397,65.51174962324677,8.977355686914542
19.151967066917223,312.69893482671176,585.0180308179437,32.34041961138441,305.3129610154315,45.3664063136949,62.18572298159373,8.834498555869862
20.712531023382702,311.8774420073436,578.923284576434,34.7615248196809,302.8686502161326,45.37690591903594,62.90030225606166,10.082653782684208
22.627128884861303,319.8887483958497,590.1157325343007,37.72820578393311,309.4208824936786,46.906042685547924,65.2150581804372,11.377056349711422
23.498758941443576,328.4663567858083,605.1317563323571,39.27117276428732,317.5267730227609,48.28435344525651,66.875565319642,11.822007068809201
22.73961568700459,331.5994173677418,613.0764606410054,38.54445302725729,321.3699399903692,48.380832473024796,66.53857547494093,11.104295164825636
20.580743532418037,327.239805417021,609.1417034705128,35.84631604357477,318.5749974921076,46.906005688185516,64.04641742198055,9.455691278645606
17.848997354608628,317.37180155029654,595.318623498146,32.32426776892274,310.4891514138918,44.38277492591909,60.29382675842613,7.484965724037194
15.471368893619822,306.26445292756773,578.0399696237005,29.289318456462638,300.7748579261991,41.73309995762479,56.60779071488154,5.832116407849013
13.919062920510473,297.5981832302117,563.6708577681576,27.423306431414023,292.87567652514815,39.66398623253043,53.895665672173955,4.78729281564721
13.01135121293597,292.389078911631,554.7531870496385,26.481246918925727,288.0174539069053,38.2884558703145,52.17739368429893,4.175162629786172
12.238002334708536,289.2281525641528,549.69618210587,25.73731671797515,285.18364652473747,37.25854916141394,50.862001469128806,3.6105960412358202
11.25062239157183,286.22853126971427,545.5236456191482,24.69016309593802,282.7176604747052,36.20154607677527,49.41265250518112,2.8577612356769024
10.037403133048505,282.5635528170075,540.5663986757306,23.325280682531307,279.76448622007655,34.99215434887488,47.706760369702465,1.9378852543986287
8.710852126414768,278.3498869096057,534.7529303852817,21.814815226673797,276.3302369295647,33.665300829638625,45.84938974878095,0.9516315777065539
7.277893523454475,273.7005139030975,528.2704467653136,20.178427997320277,272.5085251981854,32.21527134454225,43.85267367879435,-0.09545956849033041
5.686593302463772,268.44450573731814,520.8993171840498,18.339987508616368,268.1654099475806,30.586314298474413,41.636143514067754,-1.2490509320897565
4.008168495988331,262.67303244390143,512.6739990467429,16.389948653001824,263.3513722963914,28.818087275330758,39.25930776445304,-2.462483201669072
2.4307425979507777,256.974356148162,504.35680024671467,14.585109652915799,258.5349295943807,27.072433316193894,36.95824171437457,-3.6011648877165583
1.0419323535596794,251.77066842859713,496.60719636927934,13.0402866409621,254.0854107612608,25.45823242716736,34.87623146309627,-4.6061588336901105
-0.28904082448656016,246.67076172578382,488.9525479606511,11.556747629563958,249.70202763128498,23.895205135473716,32.86846242032173,-5.578795251735661
-1.7378024370330307,240.9451121388384,480.32974131893184,9.87518953518994,244.76780754983392,22.234705299400325,30.700215924162112,-6.646471556357275
-3.2796873890270852,234.71109859161467,470.8896235648064,8.042975196861336,239.37365939556167,20.499174891279427,28.408770828235944,-7.781585297908397
-4.716569040337126,229.25697997652205,462.72171071791945,6.38668705889946,234.67409837292595,18.907560078213848,26.327519833979597,-8.82992921331739
-5.964003027866047,225.8312188875516,458.1182847588588,5.084836819270777,231.87940886261063,17.61137548795517,24.682780705672915,-9.730484041136432
-7.22626234174443,224.12129187665232,456.94894202774896,3.875548056709364,230.84271573723248,16.448710850388206,23.239940359314406,-10.642196052753821
-8.81369664847494,222.1079578351288,455.9394919356793,2.280419451601077,229.76634558570493,15.024319533350987,21.442186805890284,-11.799768578709894
-10.808662284058173,217.44849023310653,450.6428296903656,0.0812856089794464,226.34128778143705,13.040522192793484,18.895468147886277,-13.262434251525603
-12.966288006844348,209.01955295941536,438.26788743373965,-2.495316176206745,219.22827089810295,10.534467223714158,15.67953524237113,-14.845339308718575
-14.924854123426483,197.53257260610377,419.3757169342225,-5.010928595675314,208.8415619408423,7.842446306291869,12.254161300791253,-16.280674456168825
-16.43949441693685,185.44400054412992,398.2347678520808,-7.083802557491531,197.44907082344267,5.437101405972803,9.220918081299919,-17.38870240241534
-17.42058271908473,176.65887113365628,382.3382623104186,-8.411553573998363,188.92549474168493,3.8117100064563196,7.20523368605851,-18.10068489830051
-17.908502990072808,175.49766865707215,380.33491555083634,-8.770632446051497,187.7080493049286,3.331328919011924,6.704835355614243,-18.441269549217893
-18.202107143482564,184.05104441637877,397.10880985972676,-8.326284290053893,196.21480468622894,3.890999033978723,7.627462996312283,-18.63236435174
-19.025141022052434,198.71630064419656,427.28409460315066,-8.062346011564012,211.43230509128492,4.538431690465327,8.731162814929279,-19.221423872842287
-21.353465479510035,208.7883880464954,451.9767832243967,-9.696642271468813,223.30380143845022,3.5393846377682543,7.666333791253178,-20.944189237102066
-25.802065801112644,199.60747702651048,443.5470197990129,-14.809468445572401,217.3998567667897,-0.836946820484674,2.0203846061435806,-24.24955103589456
-32.04063323380102,159.49263763758955,377.937785439723,-23.782603162403465,181.47777159682585,-9.1876101909911,-9.176229141647495,-28.844775736686653
-38.865154166479606,86.37201525056042,247.96337005946404,-35.504840548774744,112.28832518706633,-20.31940003767474,-24.61881012505467,-33.73196132259281
-45.017987505077485,-10.22354559964983,69.19138971309111,-48.16409419369157,18.314310993832812,-31.624025704280314,-41.27369564176837,-37.80390256410292
-50.13028894256766,-113.09961970008318,-125.57614429756126,-60.45283446876357,-83.37742131097869,-40.297014704140665,-55.934225475614554,-40.54306693624096
-54.9774281418415,-204.76276377186326,-300.12381319937975,-72.15103265375323,-174.30660521135232,-44.63375620171491,-66.69478128534523,-42.248766107264515
-60.7693293378297,-273.83175553528247,-428.9665938978316,-83.61923206712734,-241.61609371175606,-44.648331757344124,-73.4163494524273,-43.61201782019644
-67.99758657427947,-317.26481447051214,-504.3200003138252,-94.70901675386389,-281.3360702375949,-41.783123165158464,-77.0982223088761,-45.01612858361445
-75.79231567213398,-338.4211349120668,-533.8402283695289,-104.18039786250252,-297.1298836706094,-38.094166893905005,-78.91293600652838,-46.20432038960461
-82.40409894245198,-343.7424137615494,-533.2521603612962,-110.35802679706072,-296.7690075428048,-35.53716258627749,-79.81100061973865,-46.6677192004762
-86.47963888950193,-340.67292404713834,-519.6992779514283,-112.59834973188983,-289.1235731276827,-35.64814175936289,-80.85623191728827,-46.42561274925502
-88.0334053863118,-336.77480003537715,-508.0486039952456,-112.18116141584868,-282.40490714524174,-39.372139388190824,-83.50986719561608,-46.390324460537244
-88.24377411843795,-338.216973302306,-508.36994344005967,-111.58701961173934,-282.52888730613256,-46.69193147699839,-89.04357503383926,-47.79850183228761
-88.30317285395722,-347.2031070651967,-523.1769875545255,-112.63831414274512,-291.1173086309884,-56.20529838654986,-97.32220794545616,-51.0894858814483
-88.4236952854575,-360.494448165441,-546.3320681067065,-115.13662737959865,-304.6218831729262,-65.25351419952453,-106.18034098751579,-55.232033041675244
-87.85197720744715,-371.24821967399697,-566.3095840552343,-117.17138981392081,-316.2419813746879,-70.9330842914311,-112.29714472681421,-58.17171993849089
-85.74117435588634,-373.4692981659476,-572.9695764318561,-116.7422722921982,-320.0100085917945,-71.52193798534225,-113.12828674464379,-58.127296184860235
-82.0838256934537,-365.9334708140227,-563.4557252939608,-113.3793964022959,-314.3506399622903,-67.41047791685197,-108.54830184425413,-54.8421039484218
-78.12134170714874,-353.2374229372089,-543.7422673841119,-108.8070369506772,-303.0338495492694,-61.01944565260724,-101.2334439790139,-50.050880598077434
-76.12999971410692,-344.16727670196593,-526.1967797032514,-106.51622842908512,-293.68256077851083,-55.8894280078933,-95.76661732706837,-46.947558396970386
-78.57942191631193,-348.51887793031636,-525.2326396112833,-110.35716638340259,-294.97449975615024,-55.368920533947815,-96.85777317155019,-48.79008944603933
-86.60616592701813,-372.5136315839377,-551.4368465083604,-122.20018200280835,-312.82962947015284,-61.12510985724192,-106.96410220108152,-56.98940300911604
-98.21583301709032,-413.0191913861876,-603.7788946790218,-139.3121513100679,-345.65299271204333,-71.7385243051088,-123.88298206738853,-69.43046717140585
-107.48015189982267,-453.4137554426004,-662.877379640942,-153.2257040242192,-380.69837174368774,-82.14679987372234,-139.74467747957237,-80.18179446256272
-106.10095718137512,-466.03844489512045,-692.218765583183,-152.0011024724706,-395.5605725147778,-84.92244023154113,-143.03692971771872,-81.44404526998993
-87.32711208474099,-423.5130529976417,-651.9386180721514,-125.8396081209779,-367.0094483866841,-73.50325012394109,-123.74817042321358,-67.27370437195229
-50.191125118702914,-314.29211119872275,-520.4890778579188,-73.16859988838395,-283.83625838856267,-45.91573074234272,-79.18723401580525,-37.12651061264723
-1.2208974611709305,-152.6916395877611,-311.0294899441769,-3.155970792465428,-155.81161731871316,-6.657174086785859,-16.7758408177827,3.0600391681313766
47.85988974401168,24.35038468417577,-70.35973527216677,67.49464841037155,-12.00609933623046,34.753504496604265,48.41807749450919,43.17635039546226
85.32893130103723,173.14810571580205,140.92625370280487,121.93288926679544,111.63264754304927,67.96176063233735,100.32351472179808,73.45023353445471
104.56664395073769,262.79585200817513,275.92535512684606,150.49281351029796,188.4549386317272,86.33643323229384,128.91428619523415,88.60720012710406
106.23652699821012,287.19277659307585,320.63471920870376,153.9072688334981,211.74934411797224,89.36304188489757,133.7496927253713,89.46283022479086
96.69254126205648,263.6285679763479,294.89779614757447,141.12447920211451,194.45575519637381,81.80023232630244,122.4702400634944,81.42037553796814
84.06184499275808,220.5634527639267,236.98943731788276,123.74240071077598,159.5888993420064,70.53530938478124,105.82074251361895,71.17432924513568
74.51088792299362,183.0920398717553,183.06481878260988,110.63970233897187,128.17562732379625,61.23159933062762,92.48037012145063,63.67917136312632
70.50227680358448,164.097788260271,153.378815977301,105.42483600372681,111.52439964111524,56.50707764447095,86.34008832292785,60.800676129726355
71.2222480139652,163.70099780674866,150.1267085180707,107.00246624303804,110.34577649026888,56.04056502519406,86.7599745042735,61.73847925455457
74.16046139195471,174.18947127589593,163.6582996963972,111.81580894745586,118.6161998704087,57.836014619921585,90.57235844346195,64.36409090167716
76.7162093160571,185.99414717191772,180.76765680698415,116.14481777568443,128.49309901295524,59.629052656515654,94.26433041476295,66.55073881108851
77.26249200186905,192.02979245646978,190.96928107420385,117.63630123991946,133.95987926955672,59.86736599411175,95.479328846149,67.02778628874093
75.55392405727692,189.8153064423903,189.82528733612025,115.90222536170346,132.68063033476304,58.14366892915927,93.6571320769845,65.67096818251633
72.49381136472498,181.43153165403427,179.4035019689947,112.20687754638358,126.11767175372006,55.09381754356251,89.8365149204706,63.26532659731953
69.3975789331745,171.4644433768292,165.8577991908088,108.42745562261656,117.97390615939798,51.83525384466131,85.7567308307247,60.884853968964386
67.16669924588157,163.92331026885932,155.16000442109316,105.86839733438471,111.66678830557399,49.24065625342759,82.73716818098798,59.23609380717959
65.90612789637201,160.09164003649835,149.6681226907526,104.69622151803472,108.42689339657201,47.511131432537915,81.05095522773942,58.37707050712588
65.17696675267767,158.72210270986452,147.9154118417919,104.28799899927921,107.30873698511161,46.304262847158945,80.15545150442323,57.9380095294388
64.52974717996268,157.94544907625144,147.19084150741722,103.99816395547441,106.7365244298506,45.193021876398,79.4044547312688,57.54986896340587
63.7934704186726,156.84524322973925,146.03206742828658,103.5840480935979,105.89503965058469,43.984743764437376,78.5188080988737,57.07171384172821
62.97067278032993,155.4466550744268,144.46327275255706,103.0584858572174,104.80316016495122,42.68213855440654,77.50661692784794,56.50837730399242
62.031910039566824,153.81383686582248,142.67388001072865,102.38540715632605,103.55231230722454,41.29113893425049,76.36613083312392,55.848685853677665
60.901127542416695,151.66986997730353,140.28937318417923,101.44880604739232,101.92719521245186,39.76738937518234,75.01235867566912,55.04687820885825
59.57251371082352,148.81983667728187,136.9427083291049,100.22228436787793,99.74168060695182,38.10846468654,73.42381734311931,54.102197838271586
58.124191067937126,145.46023194222903,132.8624065137883,98.79972354192141,97.13890896714352,36.38248636420451,71.69014611328379,53.06451565675102
56.61014541768571,141.8355817346501,128.43555202556118,97.24869528515889,94.32339139788488,34.626304421320036,69.87026394558086,51.959539721458825
55.05151413549048,137.92095834073416,123.58148644492117,95.60023821937914,91.247167036404,32.79996121537833,67.94269975363581,50.799170409816526
53.61347387191167,133.9137921742349,118.3071831343773,94.10545810170005,87.97954383802966,30.937693717075227,66.03547365023425,49.72778482619424
52.70887484868583,131.00308607185403,113.99743125860691,93.38922429024989,85.41433726590823,29.319540220511005,64.64609042877328,49.09400510993172
52.73442291867047,131.0251139621699,113.35222402184651,94.06660829356753,85.12214137044401,28.35455080478933,64.39828524924313,49.226192397328504
53.56144604072232,134.67960609692557,118.03049093321448,95.9855903319007,87.92216772498678,28.163955599996175,65.36883233773791,50.020996968111184
54.29057160330763,139.87273606272188,125.93357769875583,97.83759293857709,92.37899818637776,28.250574483874676,66.61454067234094,50.749076780590464
53.636705196289164,142.1117808033361,131.11329235271526,97.6935491663994,94.90460268675047,27.641094553466584,66.48499168909375,50.36254307150542
50.76274665106651,137.12918558747623,127.07452524844648,94.23053156139115,91.78778483821152,25.46931191964816,63.627627600876735,48.16200684486995
46.00953548171872,123.98637291751791,111.25216690543327,87.84954861833118,81.79583716831982,21.601287291567413,58.01847438224651,44.393565735872606
41.07924236462881,106.70161418586297,87.78092530429562,81.0123107510601,67.69840060285006,16.931980601138633,51.400818788189014,40.422279380035114
38.54685154781425,93.58347247170914,67.23272016511058,77.57322070150263,55.9745835116527,13.230764454001935,46.909214441962824,38.36059163221021
40.74872927498846,94.27792694999718,63.26772177289119,81.1464515488995,54.66786461033793,12.52916346452275,47.878646865740194,40.1653949660443
48.2265922753099,114.74243364432475,86.2538605489732,92.75662954931559,69.46087462826915,16.055588383878103,55.93964224811111,46.34469477192739
58.29410998563393,151.28946270886377,134.8220025265596,108.61325918976192,98.69308783522186,22.965424669761106,68.94874260623857,54.756222163784436
64.77603182307256,186.92334409103228,189.3017682214156,119.58705771824484,129.80154809121893,29.61133368054854,80.04794564139596,60.375227712082264
59.84045963485172,194.23653106652174,213.3319418862374,113.81358865470773,140.83514661689603,30.28428711073562,79.2847973982004,56.78842859938364
37.684553588328335,146.44382131108378,167.28876700426187,82.15839701643793,108.85343442231385,19.674282624540954,57.97435385456842,39.217021148862685
-1.7325601114234834,32.282539243136426,29.2028937721499,23.925126012656825,22.264451892146223,-4.003004658490469,13.866745206670645,7.595236332957643
-51.35783308273427,-134.06293091452758,-188.7101544525885,-50.867446140883125,-110.01719323572182,-37.157797270847674,-46.106481869847244,-32.303902786416195
-99.45115264681432,-315.6134978159802,-439.8371356301407,-124.78478579666907,-259.3243815947886,-71.76501875352585,-107.8170130644025,-70.82608020652403
-134.7482374867547,-468.1415887905036,-662.0999881230309,-180.58765055933299,-389.02752482723946,-98.92318930867583,-156.1243406215416,-98.7211185487655
-151.4748673656489,-560.3461673606065,-806.3358938232496,-208.92842952698297,-471.2308885440652,-113.06340056388824,-181.86091051041552,-111.38046426656835
-151.26455899960172,-586.8096602513477,-857.5111085203229,-211.6398798743511,-498.60322439001357,-114.2607762498947,-185.47075221051503,-110.5242894193204
-141.0390321581862,-566.3926145530653,-836.4803489856032,-198.94926882611523,-484.55394506787434,-107.30537025257819,-175.27348423630718,-102.43010941071765
-128.55172463121698,-528.3936168264687,-783.0150393016855,-182.89915697743922,-452.734180626358,-98.37440956470549,-161.88099761758176,-94.02906456312638
-118.58009529526062,-496.40456418787187,-732.817225364488,-171.37609522492508,-423.59602185075585,-91.64609229279384,-152.60855878730322,-89.42096120131804
-111.80477674879154,-479.62284969083885,-703.0256287584832,-165.98319193617203,-406.3555525152727,-87.87529693526831,-149.10356796838232,-88.7243144419208
-106.25972525631462,-474.4754604516491,-692.0328218258585,-163.8772133236687,-399.39876808797527,-85.27579354884979,-148.70226702215584,-89.38013673139781
-99.7511100557027,-472.34721199037716,-688.9743560856489,-161.3524266111066,-396.15762252091594,-81.57124924868128,-147.6781327477603,-88.58505001617053
-91.69041025197922,-467.29861685196596,-684.4853150551517,-156.80424526750838,-391.4882097535467,-75.81839207494815,-144.1450570949944,-85.3071994309424
-83.65176840615055,-460.1595526010514,-677.3269975715117,-151.86115063187825,-385.4087055470841,-69.21685325131276,-139.35343077599316,-80.96888990494563
-78.57702446163395,-458.0434294172721,-675.2528461217743,-150.41639416106318,-383.23459731653764,-64.67561656911275,-137.03221897600986,-78.57602739812091
-78.82222461622804,-469.33431207239175,-689.6914948217993,-155.8049225041407,-391.953551379288,-65.17878809532401,-140.91221401020624,-80.62227058931792
-83.7712139764844,-495.5493410476195,-725.1823508800506,-167.23341670917222,-413.69163766347157,-71.471943918934,-151.31485203268915,-86.72886920333855
-88.51375845666124,-524.4649529026224,-768.7211507613058,-177.7162513490176,-439.6390649952087,-80.35982927016049,-162.80609698187817,-92.52227620824253
-85.09594625780421,-530.6790003360937,-787.8665129828994,-175.77129731948799,-449.6455636051701,-85.1363789540938,-165.15265043667534,-90.96610445552022
-66.39094217625764,-486.4468166596818,-743.3051957106825,-150.99121403600557,-420.38440583711196,-78.58576717133516,-148.07433830210115,-75.92239764230847
-30.54231400472155,-378.0172989846576,-611.2146654060527,-100.53835465314957,-338.76010163695935,-57.0988124554505,-107.40916532048765,-45.986472293486145
16.963069415614164,-217.04702384206615,-401.4364044088141,-32.26842649889617,-212.1104640070051,-23.307320638892758,-48.709822461711504,-6.092295526604859
65.23159986335662,-38.58969880911589,-158.17474473726574,37.96515568660022,-67.71564293168476,14.631909721569157,14.400431686613071,34.3391412225574
102.93492821879742,114.21069028721064,58.90353414125278,93.48975071426793,59.024893518185294,46.819668087420894,66.397578779282,65.71465699706857
123.3885800970425,209.8119577113764,202.225692902646,124.25402402493872,140.87454747162752,66.21035117348558,96.91200333825921,82.51651013894055
126.88184821381368,240.91313736502468,256.2823248329342,130.34505810958484,169.9703058055793,71.37429844719209,104.63836249513771,85.14078624153925
119.31194405071462,223.70717663785965,239.47473891985592,120.124300084077,158.18235720939188,66.12272506136787,96.31074804757867,78.63892332587888
108.46584732452011,186.08307406951164,189.30067222827475,104.86667721153299,127.95567017494866,56.71364604422296,82.08540052283294,69.556871608059
100.38905040476475,153.17189097412586,141.93820083512503,93.4386231540349,100.33099927232553,48.62525072978375,70.50040609829655,62.91092219775721
97.63231371267182,138.31774146799793,118.22690379757327,89.66543735555848,87.03571113554275,44.65343532576011,65.66985602344036,60.75815966894472
99.58319301670473,142.22015091600073,121.10393860400853,92.74783823145347,89.3117327082738,44.82188017756657,67.33659036127489,62.507599874685305
103.91590594587294,157.56964945005146,141.4349791971296,99.34980550248291,101.50753998820612,47.4420620358939,72.65707694653514,66.16271633144231
108.0925081377942,174.83891036290836,166.07055665119339,105.79349443109547,115.83296847928781,50.38831028072077,78.23873306765152,69.60157178835394
110.39337781822348,186.61678433461375,184.12027074713322,109.57546791327817,126.00601198972548,52.054471166153206,81.61523650855953,71.44037947467253
110.37744353258728,189.90964462963746,190.52302477908148,110.04439601888822,129.26996733765196,51.85514305170374,81.97244652466405,71.38421855086979
108.76161471091318,186.38885509650882,186.88640193435108,108.22403210172806,126.75823232803995,50.2316770038845,80.09548005841644,70.0742023625373
106.8029386303685,180.5862155967393,179.37645547250898,105.90660761415462,122.13895926344793,48.181870147998126,77.60260277465434,68.54038146415415
105.54084746694741,176.89676436906126,174.5017065663688,104.54328502483513,119.13814710132024,46.5788958856012,75.89426981260935,67.58139913786644
105.39136842974195,177.30111477553132,175.44246053879783,104.66214072616302,119.51175029937126,45.74409614922,75.51305553337644,67.46745993441601
106.26962598721511,181.2529091455614,181.42341124857563,106.08526778793589,122.80827671494703,45.53540779889519,76.27394040856463,68.08416379316333
107.91166868561955,187.18174188011878,189.85826516626196,108.45823429430537,127.62441731846639,45.72498370059856,77.7985402613492,69.22778194271697
109.95780281787182,193.70491756223532,198.54586143994624,111.41164482360354,132.76248890461954,46.202686117380054,79.7791403151723,70.68585013526804
111.78810286498212,199.53274983756975,205.95363452191495,114.28732712804285,137.27693223399487,46.8353963512767,81.77775835883858,72.08527022911431
112.52670782826624,203.00999043638532,210.49460236403954,116.01888211847397,140.05417880437645,47.2684210394964,83.03061003030659,72.83473195012564
111.50136041655246,202.7257298482149,210.92316339189463,115.63404465672144,140.1497925827536,47.01689714432715,82.74904679995609,72.40426796313714
108.89836824104702,199.0532436543606,208.04738636903616,113.1011914622619,137.90626627667584,45.82126995809919,80.78176713307779,70.78298507338006
106.03776726291001,194.9422596601035,205.59367967579337,109.77989033076578,135.54225895283378,43.92799723471808,78.02566665498401,68.72109793866535
104.94423468254729,194.76128119956766,208.49544961363637,108.03980851863324,136.21236041105524,42.06260277129704,76.18483816274413,67.52942854805042
107.36983321456093,201.80447571624816,219.56198372788288,110.21389204973823,142.05939841735858,41.164521557882075,77.01852351180413,68.51737604494504
113.65550790959534,215.99217743802987,236.9745365132676,117.28548965481997,152.5856368329415,42.02417050445486,81.4222466812918,72.26547139463925
121.80133611881865,232.57397242889846,253.74549235004724,127.6285041901365,163.97887073084576,44.80337000922681,88.5224637149102,77.90364418323158
127.17492938104752,241.84111689240555,258.3991985519803,136.25969309336404,169.1482434262023,48.43917358148344,94.98697654098811,82.67497189379178
123.40616097079544,230.2886945963169,236.37626153871693,135.42755541655774,158.49951081930752,50.28684319449546,95.13819136349203,82.26891620910398
104.71517960216937,184.30942704647657,173.25485783157546,117.18675153482144,122.25932739950056,46.608990695002696,82.56514216420649,72.2780418348289
68.97729823065755,96.41711963882632,60.72683484044638,77.39705159108784,54.70593664161491,34.13959687354341,53.1293793938866,50.4321678721636
19.872367563046648,-28.614320384224058,-96.52235336849691,19.090464530262363,-41.240786922607164,12.076229187447051,7.951167797824676,18.44352647005112
-33.49724548153487,-171.8507464100308,-277.4917104696617,-47.17217064781318,-152.08711520078634,-16.749862078467736,-45.6280887173917,-17.84304739337497
-79.82087251651008,-305.1192160838845,-448.9082035568458,-106.8436682301113,-256.75520387814237,-46.48266861865011,-96.2137254760789,-50.44195041077451
-110.16709850261503,-401.3991827224171,-576.4829078160975,-147.3223245088596,-334.01551297190196,-70.52040930556976,-132.8720837504414,-72.48244081476089
-121.52938133451931,-445.69921825924007,-638.522555002163,-163.1374672265089,-370.967148303095,-84.26089149150691,-149.63948925356624,-80.99323496965846
-117.45937345892428,-440.60999387559957,-634.7172562831041,-157.5816548458412,-368.0616277097324,-86.78473703592022,-147.5632036448541,-77.71998964786299
-105.66216549978142,-403.6494160783619,-585.1614912431953,-140.15450451792813,-337.9499354373958,-80.68332604401029,-133.34579699505824,-67.70315696377634
-94.21045949887555,-358.5811849459891,-520.720095187309,-121.73268107881172,-299.2744212485638,-70.49690926238483,-115.8102211384227,-56.7102329051642
-88.56091598137816,-326.23352356588714,-471.08546389031574,-110.39336447909909,-269.4727991583764,-60.953755535373695,-102.4864798090644,-49.09490020266435
-90.49529627018691,-319.05569819959936,-456.4383989092196,-109.59328854084146,-260.0533675715113,-55.80285723200645,-97.80221406133214,-46.927602053128034
-98.54612862491715,-339.32647728491264,-483.37503251242964,-118.30582771563382,-274.5168146415823,-57.093334419292404,-102.63809973983939,-50.102392621191974
-108.87874804256029,-378.51337850042796,-542.2090219104156,-131.84471468973865,-307.08472238396826,-64.43791689399232,-114.26543703000134,-56.704112786149366
-116.27386003423497,-417.3375102472445,-605.3435366952939,-142.97771323026248,-342.02293644933724,-74.46877351542497,-126.54203869531399,-63.44654164850832
-115.62176376527617,-429.43458366786143,-631.4031010573917,-143.98083274809767,-356.21245465222955,-81.4140101877917,-131.32251922153827,-66.57943733322846
-104.05127431116954,-390.895321940466,-579.3896555990675,-129.84280457775662,-327.24413689045593,-79.35149816762488,-121.64546724642669,-63.43118073667437
-82.754080808008,-292.73796723226735,-429.2200849690661,-101.2405834085399,-244.7809141883067,-65.30821038655476,-95.49941670879832,-53.91260124187051
-57.07839269926431,-148.6629092478915,-196.75807259293896,-65.10174921245223,-118.47313390706469,-41.28748995532471,-57.70761697017027,-40.877540369689115
-34.34781273801205,8.356323471611553,68.20129919584332,-31.768532506503938,23.768796699583923,-13.69408725431733,-18.23686459724228,-28.832313013502816
-20.455954254769413,140.15171621158137,302.38703556213954,-10.119831121655082,147.4912486779285,9.696433224846881,12.416922093571534,-21.65208629485739
-17.22858594099532,220.3662748843651,457.05096548312366,-3.517770171681356,227.05229394601528,23.4293018257192,28.083801527847726,-20.699301464969327
-22.073348125067156,244.65098597389482,517.5518652838233,-8.925458384795721,255.83079578977248,26.55056615539893,29.1873268067921,-24.464343691664123
-29.93403933340741,228.90335236476065,504.2731273497433,-19.431013047862795,246.00825215658267,22.20494352515736,21.37591709814387,-29.802166991788123
-36.134718462960464,198.08747184276152,456.7064945605941,-28.270366843811782,219.39280277068437,15.291106521778824,11.820645126772007,-33.80832517409128
-38.34332669469977,173.43416314643622,412.24900489061474,-31.784549376925376,195.8688419645288,9.878575295143426,5.705315323095211,-35.10716309848872
-36.78070388229943,165.1728944528015,392.050154503209,-29.93247621430327,186.1077161078483,7.831202542899245,4.763512697086779,-33.954831273054396
-33.127717922754435,172.7307311023326,398.86548145263566,-24.88361522826333,190.88572235171188,8.92409634570829,7.937442097706706,-31.491992420461383
-29.235373022392142,189.36242351647985,423.39424009168584,-19.222094921063416,204.78448594582275,11.768734971499304,12.941418850992383,-28.913163019130874
-26.37453684381294,207.09967771724627,452.5314379137097,-14.83803578675398,220.65602336973055,14.754765605064458,17.570565330255185,-27.023482584759112
-25.03109046658335,220.02462482623915,475.50170926111446,-12.561250542333545,232.8174521132318,16.688516285807584,20.42349862928838,-26.135091310932662
-24.962117306801012,225.86595018645448,487.1922535182529,-12.167705418329769,238.74141374564772,17.141654056869346,21.201774170323258,-26.09234017006655
-25.426413213439666,226.08947723056005,488.8452941595082,-12.658881898104326,239.33809193672045,16.481418831267348,20.621160233857065,-26.39975183697856
-25.62688665988253,224.33800096610295,485.93457455939415,-12.883737534368926,237.70538992584844,15.511873711464126,19.851886306083728,-26.516603258879265
-25.176325719311283,223.8851919838402,484.1322494638842,-12.233498571036451,236.88465201845415,14.904000585104681,19.74030056464404,-26.18754176715402
-24.20813806622912,225.925190046515,486.13420682825875,-10.843944172863239,238.19597285519097,14.850305165754069,20.41339252465527,-25.52076469893541
-23.02694597912598,230.0132442887986,491.7345042957143,-9.121416588463054,241.4181229108741,15.20543308098917,21.58157356283958,-24.73182679840554
-21.696206957814606,235.78757646204747,500.3340855825418,-7.147864017913726,246.23130708943984,15.866869065770429,23.117180648990004,-23.849711460508104
-20.045561330074648,243.73003220473754,512.5081191668507,-4.6742715495035965,253.00396027973414,16.907436866763426,25.190197101200226,-22.737618223916154
-18.07836062216951,253.98645816234577,528.60307085257,-1.7014817445321258,261.9057728356048,18.314047089276244,27.80989402240895,-21.39862216492217
-16.263057880509166,264.7443274343462,546.1424303464007,1.0867939536893205,271.4727614131103,19.69965756099697,30.37764586730004,-20.176627679471764
-15.31242229154728,272.35631549908965,559.5108244799661,2.6277967349451727,278.5500150204639,20.403910120495027,31.870851099217912,-19.575403923243776
-15.628717657465929,273.53750359558114,563.0212859844063,2.2860028864383,280.08773476739503,19.946102620726656,31.56215569730742,-19.853369407038112
-16.91449662129002,267.88662248271186,555.0587672405334,0.4428697156736352,275.40256431807495,18.42395743249364,29.63580472069717,-20.769062964702346
-18.201690038502058,258.96208107114876,540.3542344835552,-1.5128704755997444,267.3079142331588,16.57442440832841,27.275795677679106,-21.638047214376385
-18.171537110047726,253.56847421755987,529.3842917096401,-1.6288139202775624,261.6683474739269,15.557906843879856,26.319554235111163,-21.573038098803817
-15.628865159586194,259.5882792311511,535.2124387883438,1.9229347365183163,265.6010874375252,16.594372156068832,28.65774083056782,-19.795911401313194
-10.193409394765442,282.2586776083405,567.673195181092,9.817880073982092,284.2430923892662,20.388523700668518,35.29078007545979,-16.08626649838498
-3.1235264023754685,319.1926406073562,625.260269966956,20.32824968493365,316.29598857923503,26.331478712084152,45.07764700510539,-11.331648673438535
2.3359217492438185,356.6620208835916,688.3336025477398,28.738067828331197,350.43911544676075,31.93595420136234,53.93732491926663,-7.751990579299098
1.865049438460009,371.35795879333074,720.314110680078,28.601172430924457,366.32705800758873,33.28613050661265,55.69069432385325,-8.238017782841856
-7.729889121930925,339.71926397632717,681.0994818071538,14.949721105744702,342.3283696435162,26.800723839035935,44.90427560222851,-14.795910830613433
-26.21414533659617,251.23416699252985,548.395593375232,-12.235092630121411,267.31009750174826,11.49817085585417,20.38278673480047,-26.966391292811423
-49.214248607524404,117.5223746595618,334.5376111032583,-46.7878999047669,149.44570060658958,-9.776490435116408,-13.079892824162034,-41.417080170683306
-69.926859161508,-29.834651690406933,86.53114363884218,-78.67280948865549,15.482784579561587,-31.244924365409656,-46.27427594136983,-53.24891653875734
-82.41547633878872,-152.8705399272089,-133.16144094268626,-98.75961503656569,-100.4166563024308,-46.88655626379029,-69.86184580834382,-58.37537413979213
-84.49559800526828,-224.69654322908673,-274.8882655845612,-103.20623410125597,-172.23334617064268,-53.325354073398856,-78.84670839936376,-55.549159938527126
-78.42790732736876,-240.55949360399552,-322.69675059549246,-94.79227945231536,-192.95934972779156,-51.13420145390004,-74.51605166586243,-46.81169367068648
-69.11175709910837,-216.47569474277375,-296.316831024261,-80.59408410866128,-174.81092403242016,-43.86310412632103,-62.83898982988503,-36.17856114318402
-61.139537946330826,-177.67895003291795,-235.26550882860477,-67.80261937519617,-139.89242065883064,-35.66173287749311,-50.68677988953657,-27.505454958028338
-56.6847608713506,-145.22483837557223,-176.9972606584886,-60.46428425262517,-108.20002302880799,-29.21542516998559,-42.49623969103239,-22.876965463803113
-55.31410624291037,-128.63078244309906,-142.36822189076338,-58.794939377779635,-90.1556271572872,-25.19188374048226,-39.22117316807327,-22.27150171317534
-55.27319887384582,-126.59570073808398,-133.74310117026715,-60.61114118415783,-86.18068391557097,-23.042473286134875,-39.43620598608556,-24.268256304241806
-54.95336564021054,-132.220851739444,-141.7762116235027,-63.22919105553433,-90.75451120361417,-22.080527153006994,-41.09772876700685,-27.048720485562118
-53.63103213985189,-138.0943767530711,-153.75862718755215,-64.64794435128067,-96.9796955204742,-21.97825139033195,-42.69502214303843,-29.164275179214588
-51.46483489746852,-139.2452744521793,-159.52075240873748,-63.958841797335594,-99.61945625602544,-22.669716667739497,-43.59448497237675,-29.9702125872706
-49.156310178201885,-134.3217420404885,-154.58980265409633,-61.377579850726896,-96.60982430062275,-24.11485255070555,-43.959210330584774,-29.730939957935103
-47.49885209980218,-125.39746732694084,-140.88422815986434,-57.9632899934332,-89.25250093852983,-26.163838269312443,-44.41302194068835,-29.298383292968285
-46.86861201626847,-116.21896795758796,-124.4879053909741,-54.91319133827729,-80.85760433216156,-28.434150492841905,-45.40871286013624,-29.408462354069446
-46.885372513830035,-109.50033544772369,-111.19985018481428,-52.74979675585779,-74.29478947166491,-30.1894846216633,-46.58801740246754,-30.03640230506434
-46.596069464347586,-105.21115823080999,-102.87753929769843,-51.084226785818096,-70.16476046718765,-30.458092780612024,-46.758532077462135,-30.368387466946885
-45.17225777371054,-101.33637779791681,-97.46048414130054,-49.200192444747074,-67.07939032836506,-28.51621599798969,-44.715564072269814,-29.46249541809887
-42.558845060511615,-96.19789716742847,-92.0930032203344,-46.836329198378714,-63.5227569687473,-24.419504300496413,-40.25869225650935,-27.018815000021064
-39.47920627067891,-89.85582270085632,-85.75859844289656,-44.33875932120544,-59.2097072385578,-19.086863621031256,-34.45081616097425,-23.585301709914038
-36.83141201011862,-83.36963681810252,-78.9642161511821,-42.12568576641691,-54.69636153425094,-13.837485705706243,-28.901123758136446,-20.109471614730484
-35.09419351729745,-77.25319926151903,-71.80222112701658,-40.20016976219468,-50.174136953140696,-9.80043525171793,-24.803063524612,-17.34519267799918
-34.22870229010026,-71.12472833596554,-63.36440921907605,-38.2792757215875,-45.15860986336777,-7.630879592454684,-22.5385284131809,-15.6045258393281
-33.94295618376233,-64.68510181705801,-53.151566131045016,-36.2560273374969,-39.33299390373827,-7.517323234228891,-21.890797404042896,-14.84829968601678
-33.88159362673212,-58.396919426811166,-42.23691699871367,-34.32188325662789,-33.210212965358785,-9.179804396215838,-22.32427566986453,-14.802243793614819
-33.619865908445746,-52.879073799838714,-32.40200532662137,-32.619692634624535,-27.652350939352967,-11.786523974082257,-23.039194535122014,-14.977875814208627
-32.7306237723572,-47.98420051288836,-24.397095636662407,-30.968110498720254,-22.954214917044258,-14.062269681478055,-23.066408570290776,-14.777870747028514
-31.066839074225847,-42.965222857951,-17.656395786070956,-29.067320590602012,-18.757494508855604,-14.769078698517443,-21.659064727196956,-13.790103127932708
-28.96312279379664,-37.485039118528206,-11.612841904580758,-26.883365732909596,-14.777667288106231,-13.283871287934355,-18.698809339585477,-12.037013475061082
-27.004742745579062,-31.915863479168653,-6.419623990366412,-24.648595249543195,-11.111834375615222,-9.801506978012489,-14.626686680187206,-9.881241611056936
-25.51806750755808,-26.38059906784914,-1.8357448680008914,-22.489742742952203,-7.562532781941212,-5.0656711044574205,-9.94682100337605,-7.6638463982497935
-24.351748485690564,-19.961107646493968,3.9939767894397904,-20.283286314272214,-3.0520846981532204,-0.016561826501409714,-4.940891345255174,-5.4928027269710284
-23.231298818540736,-11.57674168987688,13.443451504715545,-18.062304215181225,3.598135191740071,4.293577085000403,0.0022157740562888523,-3.424425988626197
-22.27752923637551,-1.861614394418955,26.48493328743514,-16.478560160952746,12.002616987164075,6.676950547328531,3.8917623666248136,-1.780722159176305
-22.048332425551433,6.257616563943562,39.24537865777134,-16.58386844583996,19.601769937709566,6.114453436927795,5.295526735806462,-1.1581167521334217
-23.00342475310147,9.401063919506147,46.209627263667166,-18.939095160529533,23.17597390253571,2.434262988395472,3.2985938736691005,-2.0461389605844484
-24.945034964897047,6.470145229561261,44.382197092730536,-22.88672789860911,21.29286125198702,-3.186797310312782,-1.548327240859768,-4.420504696837777
-26.98338480816431,-0.14102068120842137,35.82363539214374,-26.70500658555769,15.578666532332818,-8.478334383777035,-7.185918547789529,-7.66574966983501
-28.001402401210346,-5.5665786924071385,27.005503507681286,-28.483683864921026,10.058783506226252,-11.038541525570533,-10.961187483862425,-10.807234730922866
-27.200702829825143,-4.538208063458828,26.270145059888264,-27.021819058768234,9.484671661631863,-9.391628387443554,-10.817584204630053,-12.823764297554838
-24.47617421653177,6.545023878972236,40.771599537497,-22.360115908714842,17.542572667746725,-3.613488983554305,-6.181258839628314,-12.973442342280496
-20.648684592748324,27.423326696702322,72.6067262566189,-16.036598694638858,34.82062574280236,4.549720530796512,1.5526274123487813,-11.207249273207909
-17.466877885822228,51.841767320766444,114.27056133924775,-11.002423067525937,56.610050186422825,11.987446697962369,9.010381426454297,-8.509300546562349
-17.00704532720323,67.47527419914132,146.68500243637428,-10.689605505352839,72.27728207585902,15.076866305994562,11.743904329291738,-6.681591499014494
-20.340154761859367,60.27469528536803,144.42191644473377,-17.015774178825733,68.54184711472547,11.174187449000645,6.304734293913776,-7.300305440556538
-26.162291965396555,22.531319018816394,88.51574530382597,-28.295468377051645,36.535453477676384,0.24886185061813929,-7.313974635918141,-10.353835347853986
-30.62212190784917,-40.23189172378972,-19.989061963119823,-38.856543090557714,-21.342232124009264,-14.427176562784298,-24.607936119598513,-13.660920193502557
-28.99281094300329,-109.23995726581549,-155.72995765322307,-41.38244936047189,-90.05570822360106,-27.37624777823545,-38.153546923727,-13.806778629697195
-18.41944152287633,-160.79237743345746,-278.87391929922387,-30.963474131024583,-148.165339575619,-33.493565907644125,-41.34395996030649,-8.19078000206029
0.04701705288489036,-178.3550875200301,-354.29629842165895,-8.284483316320653,-178.41920564580624,-30.658221021295194,-32.04837565044012,3.1730844449508013
21.60526767257302,-160.8557733985983,-368.4973591561882,20.289318220589976,-176.20313365054383,-20.756696648562595,-13.824280371798459,17.389976305280104
40.077905442463916,-122.03157787877353,-334.00235176936263,45.93560714708206,-150.6732183009432,-8.481654758440339,6.119473286281816,30.186028584703372
51.029003322693264,-81.68882902808988,-279.41938099915745,61.888618923800216,-118.3192718913773,1.2922397174484805,20.864704313885582,38.18383846341754
53.68062801891506,-54.98317291426239,-232.71152580207897,66.4185031415559,-93.64910243916165,5.876394940511167,27.097390043555713,40.46688272816297
50.59347515210292,-46.460188134143394,-208.66504443797066,62.65217859242343,-83.0017200524188,5.51911766062503,25.886965035112254,38.5481828541118
45.66670253648796,-51.31459203684242,-206.74585867106947,55.88633929416512,-84.36500708655264,2.428825075599348,20.960226876664194,35.050077438765726
42.01529053229455,-60.96902550791097,-217.21564315628984,50.56651888356935,-91.4218026759014,-0.8915262864222425,16.142663462341385,32.19993948264231
40.96231199135908,-68.18848032860849,-228.88474817920445,48.746138170325125,-97.92290315208751,-2.820624635456688,13.704439727528763,31.05828531458088
42.24215567343696,-69.29345853080868,-233.90895185013554,50.247614745532765,-100.02227246045757,-2.8997056689952365,14.102784734072564,31.58239016091118
44.7218618008553,-64.19447465673707,-229.49478112099226,53.59602654894427,-96.81550956118245,-1.5690243721842667,16.498912197248547,33.06313561628377
47.06797781478166,-55.65704236580672,-218.00006443090567,56.92654894376227,-90.08987128265125,0.2185108640581876,19.393340388833156,34.56143661607773
48.283591336744415,-47.91839936260142,-205.47240724881217,58.75643209504683,-83.34385560815709,1.4364590310145897,21.28917836517833,35.31052039715057
48.15087802146987,-44.34075133565927,-198.04368408028174,58.66420726269605,-79.76896121394886,1.5083373338869923,21.438185668166838,35.090047086258856
47.34582204615501,-45.12498163974354,-197.6609113402242,57.522267925232825,-80.04555177886141,0.6739149094293511,20.31282791072099,34.35632584255656
46.97068077371581,-47.06868318437591,-200.52179773738672,56.8828251021743,-81.76508385532766,-0.16749314996654735,19.29149366788013,33.91178701711305
47.72549005570144,-45.97634249572326,-199.9494401238814,57.80136509701462,-81.25247412325142,-0.12554664328927082,19.63204111105571,34.281491596626346
49.369896561485156,-39.85037380621115,-191.4848498193521,60.027218489003175,-76.37420829245664,1.0138967094605031,21.52958041541852,35.29910206357674
50.91489786689734,-30.32540186607041,-176.15244378528539,62.21951883076345,-68.09447114895612,2.6445866851123982,24.0000756637109,36.23905673897127
51.32497335963084,-21.656504328135345,-160.02565949870294,62.90818718525298,-59.935396297387435,3.7386744284720095,25.54500910460394,36.33085232782685
50.15492496542502,-18.545492387917694,-151.3480621851931,61.39114772865169,-56.23718855977322,3.4037375727054497,24.977134609256733,35.22948232207575
47.810031283406474,-24.026760865787583,-156.95151891274992,58.12294209516881,-60.24007766186989,1.3137218278514777,21.993457762546214,33.219195886520474
45.51299994687246,-37.459086025695186,-178.25710934007495,54.7164956507258,-72.09490604538904,-1.976514174483237,17.54566061857811,31.213095383355224
45.03526089013447,-52.79389949842748,-207.29782200429437,53.63939026156152,-86.99270953025461,-4.862822168041473,13.991355321758087,30.57255561357938
47.99521919382293,-58.835399876578755,-225.6746298698782,57.29437570412541,-94.96097316186396,-5.003615890970831,14.557920573725252,32.57577825637712
54.688778008165656,-43.463088426027994,-210.24986138372998,66.37567796880613,-84.25174991552204,-0.398859456137827,21.745605537627192,37.507784398222
63.0901393304751,-0.9432577681151824,-145.29455103195275,78.36342568948471,-47.890167313884355,9.146026376371697,35.29094671987039,43.874002006076
69.06651146729446,62.32779876495423,-34.24283077556957,87.66079515694233,10.529438405284413,21.24021131280223,51.25947677762115,48.54751776998545
68.24211473047373,128.80690520156045,98.14890200278943,88.08289799383633,76.61731960874285,31.715409444781425,63.48450443784228,48.18395217683142
58.615425708726036,178.37971018160405,216.92901538755893,76.52596858755183,131.97101250453844,36.81423838288282,66.8796909106926,41.21706559984253
42.14590945015997,199.46670412854886,295.3073970284987,55.321535905942014,164.10408921010932,35.38081096423533,60.50428425068387,29.076225755512436
23.985013370998452,194.97854069306538,327.9936554229863,31.335667803404565,172.7642935419074,29.481305154682296,48.13233361109368,15.61983482179078
9.620005727875,178.58018518286514,329.96661807706545,12.076327841244465,167.9787117262786,22.917761089476457,35.727790914273776,4.986407948472739
1.7760130583257725,163.68413169463997,321.4322224019857,1.3343154845851477,161.06564080035145,18.636862453306033,27.500996235942377,-0.7466583381275569
-0.7534703691504433,153.29621900871192,310.3099498677882,-2.559739563749444,155.30973439164777,16.910646431895934,23.394163941130934,-2.4644004728133724
-1.5005812723432488,138.55818111776898,285.94715322101655,-4.565661910605238,143.56665600123293,15.627985659299531,19.871178818515407,-2.8362027800138323
-3.1751559165577725,107.20134453575862,229.18306525191116,-8.498458335386342,114.80009789975313,12.41357185693029,13.363248059718456,-3.9704842018423325
-5.400369129748334,55.2561474249613,130.85690451069146,-13.74797288937347,64.46501775853069,6.866774458094334,3.6362784600743514,-5.700261977851113
-5.036109308039604,-7.192344404407122,4.138757750503547,-15.647274381708879,0.6003661333056095,1.1681309100004849,-5.551230010856558,-5.771157481620317
1.25092616633582,-60.62480709751242,-118.96033872581255,-9.107714984763486,-59.080559739693555,-1.3621009573842648,-8.950505530443813,-1.7041816344121383
14.18972204141334,-87.58504816322285,-204.4526853470233,7.306000296975391,-96.97049277934316,1.3986471912992702,-3.5280529911592367,7.134894924625205
30.943166027543977,-82.81043020483033,-234.72064063459777,29.84563509800922,-105.29764461289264,8.873274296523483,9.34808573556869,18.78407033092231
46.58395072222423,-55.321253133147785,-216.2561896650114,51.55657177077312,-89.42098124842886,18.1238856219392,24.687880023257893,29.722218083039124
56.852077913319214,-21.90357922919834,-172.95792446055444,66.1977725685266,-63.250006748778624,25.66021136442825,36.87546283014865,36.86795943937056
60.26042280499347,2.7021822437374747,-131.2047125485018,71.34926324734663,-40.776286937869344,29.357560392340456,42.66917977349841,39.12184283739377
58.29493383194077,12.210695615130996,-107.30936421446677,68.84475272529427,-29.629317401004148,29.22264072112199,42.27895046129793,37.52384614164785
53.95933921029908,8.799607792795095,-104.0195837855656,62.79761220493045,-29.924892165302623,26.772116348483866,38.26643515640278,34.20721454895863
49.98029127670105,-1.1452123466604105,-114.86366350644946,57.059470389889384,-37.22931453272155,23.815680740301417,33.57886777729302,31.11225371751879
47.827025857106996,-11.333584566618065,-130.55465377764284,53.78103843171083,-46.21558075787462,21.600322305868175,30.204908496489498,29.293280512518585
47.71546646085277,-17.649762006139493,-143.23993869797462,53.362430668566994,-52.81097941894218,20.62491178355186,28.897309155806486,28.924922067269307
49.04978667410279,-18.565526049891364,-148.40346522829412,55.03882729805643,-54.97601706633037,20.80271587066733,29.44690444087608,29.604419117936615
50.851608849170006,-15.048438002481623,-145.68813541905848,57.4637519528328,-52.94467474291689,21.639138678589006,30.998345262983324,30.6404973127113
52.161908532227656,-9.90774880362343,-138.50293572494093,59.27022698481827,-48.85623180980967,22.444415335338626,32.427836891887175,31.339507270803782
52.467325170865365,-6.125284213205561,-131.6508724830076,59.68917938954702,-45.36789509241845,22.684909510815565,32.90811797989139,31.32582452079129
51.91963039178828,-4.99340791852604,-128.1008220104341,58.89083058300812,-43.921452645458515,22.29088854522813,32.360034534362704,30.70821253487028
51.084830033101895,-5.7574342016870155,-127.69041832429089,57.652131758312365,-44.19313906654859,21.598390551166432,31.322338653640113,29.889459435784268
50.39852838836243,-7.14112753814226,-128.91900313624194,56.58336783959718,-45.23628101562721,20.938920027030637,30.310208750332187,29.161710005538716
49.8737536859337,-8.968186975045978,-131.50886275871594,55.69889291378203,-46.902456850250225,20.317892321940867,29.35080906600746,28.504650259155284
49.345964923824006,-11.944431491597806,-136.5146493279716,54.76213770990424,-49.78912673506673,19.544098290607835,28.207737219910406,27.790497517637423
48.90273544596994,-15.949980575647666,-143.86903659025774,53.91299331379275,-53.81412640927136,18.628497613145054,26.968832317801407,27.113413602006364
48.928006620531036,-19.093970764322563,-150.57392737005554,53.74559078351767,-57.28934898224621,17.93738674930047,26.217481000599406,26.809534784039595
49.678645781789456,-18.897455915248603,-152.10864556298915,54.69179667498139,-57.824573577593036,17.88876768364665,26.522271424296427,27.11633969006062
50.88527240210178,-14.464972421054872,-145.926852807908,56.41020045558667,-54.26899435400411,18.527335719425793,27.803176245958614,27.852523540786432
51.8203568436785,-7.52963429526551,-133.81032547859147,57.84140451298218,-47.86110801658702,19.416534137675374,29.236238224044403,28.453204638335496
51.72911789681989,-1.7496427712966751,-121.53083350209158,57.812796614614385,-41.855487372870016,19.876566548269334,29.70156351804027,28.283671881179274
50.2141828978187,-1.2820529588607714,-116.85725706301714,55.61914779764672,-40.338260421540035,19.27255360309672,28.293142027337026,26.93864663761949
47.42264237734776,-9.338261655207253,-126.93670833559956,51.35234203276222,-46.82303017141092,17.218834088748398,24.664874149306094,24.43077203241695
44.19426879302065,-26.224544819841764,-154.46484895926991,46.189337311036915,-62.26309387728025,13.861201896773904,19.41963066500503,21.38001410558899
42.1445994983843,-46.87049543936422,-192.70506005782838,42.5755523301134,-82.51962840395058,10.261220385848416,14.534283512874179,19.139106843991488
43.253964386224546,-60.01888308279869,-222.8604293262827,43.64871313436722,-97.23900102692815,8.43922225195607,13.170132630539843,19.476864987944804
48.68707331637283,-51.88753577969312,-218.88900092857517,51.46546172657727,-92.82067641109798,10.565129067148096,18.23237515666567,23.592027651418196
57.4108252547709,-14.022990810314237,-160.49210994869216,64.84336534292224,-59.58034866849628,17.48285900199103,30.15312851285186,30.922311327576164
65.8251712784065,49.43672583305556,-47.33018528005004,78.63728129900281,0.9419939311737893,27.59507258936693,45.545499583452546,38.73832403296527
69.1618571312977,121.02218803685938,95.94515233087778,85.66140253833947,74.10967336532241,37.156766022304005,58.18864438926908,43.160995210030265
64.05072676707701,177.56720647405282,229.16364315319504,80.48576824389691,138.1489674810197,42.05153547199212,62.14433399369446,41.18012799815933
50.60082287557635,201.95024249922528,315.8928208419474,62.70162056805523,174.8021783436252,39.987057561614364,55.088429401571176,32.40333009898994
32.5514121966501,191.55748624332944,340.768771742794,37.424040363830656,178.11835420477772,31.71326221655806,39.65708426491435,19.37332596800199
15.357910469477927,158.31702026055248,314.51992270901627,12.656431079539225,156.10076619830798,20.55601434363094,21.96344010224034,6.259925855872912
3.467744652797629,120.90143541571707,264.72592211435506,-4.75733302884395,124.80658199131409,10.68864196531992,8.351181703978739,-3.1966496094896284
-1.5057259651683683,94.6950452962233,219.5952901338014,-12.051624978066702,99.34217412517333,5.295580031538597,2.504477424458158,-7.214556394709918
-0.7799329294095512,85.78460217433687,195.39681777656833,-10.79624200886912,87.51444194033367,5.6219870439302735,4.509236254529023,-6.21065359895078
3.0005002623012076,91.37779188168162,193.6394385567674,-4.942143318385381,88.99214011382033,11.067913986172623,11.867607796285743,-1.9693010929057826
7.309918288509107,104.23266190463045,206.21110371073502,1.5625176497053261,98.51245465303697,19.765149501595033,21.19020564429707,3.4179878959059145
10.485202475839861,116.9864105250235,222.38206094082227,6.103967311280756,109.68470347205216,29.09624836382503,29.35201784042157,8.181663312899113
11.68788462144233,124.33276104027274,233.37733003520935,7.534658463049929,117.30452395781522,36.173099566738045,33.94415544758795,11.05935328818271
10.687134461126265,123.71279382266388,234.35628127726108,5.859904425283787,118.39753413591352,38.594308966153136,33.593252878468775,11.39590700705532
7.817783942914765,115.62811470657824,225.19554842430307,2.000364872454928,112.80306963406338,35.432875504236925,28.427794743393818,9.306577083831115
3.9332013074310033,103.35647702215579,210.09446481724848,-2.522754736815189,103.10822532262274,27.84316522310467,20.254083157780823,5.675388743676218
0.08972750595027013,91.35753089085516,195.19641926823627,-6.227606955423785,93.29649274134984,18.684112839497377,11.922762340820556,1.7674623258813404
-2.9177221670782147,82.93182670269832,185.03561444847603,-8.367388993399272,86.55099626581719,11.23552161603431,6.069863675933847,-1.3836748247849173
-4.803614094194878,78.86653450970807,180.398243878447,-9.128460191360524,83.77720769954405,7.759201449439082,4.0329960632029955,-3.3917471713540643
-5.691842111155349,78.00356877807505,179.19516716868398,-9.201877977703953,83.87229204231943,8.691142113397444,5.558035062163967,-4.489265784826205
-5.901088112727503,78.74046288491822,178.97684012660187,-9.200057686394295,85.07683125265238,12.73579136913714,9.228241694316676,-5.182158199625467
-5.850036429886585,79.83434236974819,178.39602589375562,-9.40750974821354,85.95915831668883,17.633347125918146,13.170069548416837,-5.872210814820844
-6.013720314073643,80.2094260356531,176.78183280248902,-9.844976155912263,85.52525644893818,21.198250439383642,15.747528846968265,-6.615834139422759
-6.743407650273855,78.84311088231678,173.42992174013406,-10.326926668056707,83.16984533784867,22.229002195616772,16.155811272934354,-7.070916137870669
-8.017412480226582,75.38929648927001,168.06894914255057,-10.454885900862623,79.0440102314139,20.89581579837978,14.708297949972563,-6.695371060994858
-9.427353661563494,70.74398019885668,161.74700800251193,-9.81057119930959,74.31866313289568,18.36412414049885,12.508519591972059,-5.208236644569942
-10.515781401915234,66.47458507029148,156.41553994749998,-8.408350294022274,70.54892234123005,15.859454442968806,10.567024824366298,-3.066005321884288
-11.154896463732552,63.44397687256273,153.20722263030467,-6.966400904246708,68.44926565556426,13.847001981147772,9.022973763303622,-1.4954627280364108
-11.561352809693684,61.139670791208566,151.37693101168392,-6.53051570012125,67.36158571583496,11.961640255259098,7.193176210726619,-1.8434679121787005
-11.953016945291777,58.46646671693186,149.23657689118662,-7.640864237931924,66.0595397567088,9.676239204863828,4.429491066868723,-4.600009431265397
-12.273841156643783,54.989947849814556,145.90954733621282,-9.822110667146278,63.970364509372125,7.025974710160109,0.9484456614020492,-8.852221946275915
-12.30828941622116,51.15451850289795,141.73600884614666,-11.92566156966911,61.42735551778492,4.7036280191745306,-2.1730334919440164,-12.662299535029923
-12.013117271861598,47.42364756746491,137.0380347440507,-12.995876131770991,58.82563155350561,3.499792777934172,-3.7866352175768205,-14.13989935181845
-11.64414150070596,43.66004536653847,131.15491117675782,-12.857915456770694,55.90434630004316,3.668718539009775,-3.4763255719977155,-12.481711320277455
-11.54652883888465,39.57280942740046,123.20625366282746,-12.03240151278009,52.08983650103215,4.755183130278155,-1.751444279264571,-8.377334995767765
-11.898110178342062,35.47131015323119,113.59012090352162,-11.292016422304018,47.371407083132574,5.890818072069101,0.3115963778201647,-3.6754411886493448
-12.698883342829156,32.1120026972786,104.13807471038989,-11.339138111460668,42.52034055124468,6.206194107556218,1.5479067167233627,-0.5688844131532548
-13.929178988109168,29.71612747351893,96.58780972949624,-12.668282757177023,38.40832740849982,5.112197756554058,1.0794567289010788,-0.6406751124101325
-15.590290930356511,27.455155080144873,91.2009211093976,-15.3887940958043,35.3546089398887,2.4639265017689422,-1.369356324812813,-4.118361121841113
-17.566786809957048,24.143019855361462,87.03972421417164,-19.017955480065993,33.24339306418724,-1.3590696956515418,-5.280335091132832,-9.704789229507988
-19.55573804566466,19.305928177964574,83.17555344256688,-22.56768164587595,31.985161505596693,-5.559415769781536,-9.53505007395191,-15.184772243383923
-21.236812773971803,13.374717579232762,79.08548555467611,-25.05496601927805,31.476927242200045,-9.263683987037421,-13.033647799302907,-18.54040932895993
-22.504035482676105,7.006020438841402,74.02648615518984,-26.044135898820127,31.135620649999947,-11.881807514117561,-15.280790375036927,-18.88358509814876
-23.46058299530693,0.6832522918197936,66.93067667059886,-25.710358983391767,29.943178705073134,-13.179285626689197,-16.394963764199872,-16.61975310370636
-24.190498077931974,-4.838996621759264,57.68797534185368,-24.444466977708608,27.37323210001256,-13.06487996291834,-16.585624852685747,-12.883477454396091
-24.64539637947766,-8.15399165716592,48.39455734786495,-22.550666262005784,24.227150593005554,-11.45360083998211,-15.757434448623702,-8.833718267749218
-24.852575875210363,-7.994295720299391,42.50584888455602,-20.418164739339343,22.169620460922307,-8.481790540110826,-13.760339648648761,-5.336538200209653
-25.206691534457576,-4.794781965106422,42.03137841794229,-18.875969707333994,22.132781217782455,-4.878417459529794,-11.027696356860544,-3.0418862451066593
-26.431061302387402,-1.3532824612384018,45.30888092665511,-19.129182237310182,23.110708071323867,-2.009581720287838,-8.845800321769989,-2.4898095327497174
-29.12866148524092,-1.6075135453458804,47.486897387703785,-22.119234751759073,22.526965028640145,-1.3785493716317128,-8.847639433403895,-3.9959143166892375
-33.273127065573135,-8.385773108022962,43.21457982139857,-27.782537191493187,17.80623956581096,-3.8714477530023137,-12.069504016856389,-7.40407260634347
-38.01470846080844,-21.74842759356965,29.446225935132556,-34.76024337202279,7.914845674666075,-9.22407045395628,-18.21846463413656,-11.932047749712973
-41.86222547484729,-38.58549419847414,7.191517901928668,-40.68346644050677,-5.7972923924360025,-15.94854549415667,-25.509658039852606,-16.23055699462896
-43.12593933037626,-53.12587259088706,-17.61285747828756,-42.88253183565141,-19.36537988644771,-21.706897471519987,-31.10555229085916,-18.698499796988514
-40.624465851914415,-58.345748045213206,-34.487147161878106,-39.49509684061627,-26.796765374723222,-24.114589463938014,-32.17995134727696,-18.12732914659521
-34.66998350010483,-48.94885038700334,-31.742775767212045,-30.942714546695367,-22.299982862628898,-21.93769205152357,-27.56292553401348,-14.627469107237733
-27.925946889015663,-25.664466322663074,-3.35907830838855,-21.159336718309046,-4.200334393048417,-16.282974382337265,-19.361564419006807,-10.380533155665434
-25.267445405126807,1.7288796331158023,43.922643697257605,-17.32589635451281,21.584151230072035,-10.925338119086941,-13.29992779157105,-9.443322835979206
-32.0349323788673,16.190385718130184,89.34288980140018,-27.2697967204209,41.83194015280195,-11.059462247636548,-16.77534351409562,-16.171559447445627
-51.214081556408345,0.9495832663992022,106.21996385475646,-55.33827064743077,41.53435491339701,-20.74898721190071,-35.10721247310255,-32.83611593954992
-81.22719708561617,-50.938755037336286,76.04999656233926,-99.19923482525479,12.096245006657428,-40.4893199683918,-68.11518667142435,-57.892066092952014
-116.04104342399545,-131.37803285038652,-0.27695345956939255,-150.0275253451389,-43.083661357198636,-66.54940725465659,-109.45891204159311,-86.24708219923005
-147.89720835280656,-220.5622917887757,-102.18417511777832,-196.50114736974675,-109.82226409171719,-92.72377779378317,-149.55466282095892,-111.64308459947675
-171.08192978418856,-297.2520151920287,-200.8217220037529,-230.3023062993777,-170.75337826276657,-113.47528103760898,-180.39143097105116,-129.74370099953526
-184.2322268364566,-349.1329214702944,-274.4149919087822,-249.48784720313333,-214.19386195200062,-126.39840585436033,-199.05824191771535,-139.87488377989322
-189.60032398274708,-376.0199520662446,-316.6622634638421,-257.4241019210424,-238.04035142539607,-132.36135176395052,-207.5770864463287,-144.22021869510962
-189.962395073532,-384.14852483198257,-332.8780801972404,-258.25798523988766,-246.3549507744456,-133.4225941151547,-209.37839278162184,-145.13973522043443
-185.72878161656385,-377.12606195576893,-328.90535286844914,-252.63636374582566,-242.38124281328288,-130.37628134115843,-205.4182505452541,-142.755102866535
-174.65218741428615,-351.8818029775403,-303.81198689099017,-237.20353985336178,-224.67749251572135,-122.05340480911484,-193.22880367714512,-134.7570649452458
-154.34961747418467,-303.26416425803365,-253.17052346803675,-208.26730214304095,-189.91294409350533,-106.9528976470653,-169.69674327111102,-118.6011515302205
-125.48784538777765,-232.8846547481457,-179.16873313747618,-166.54790627389693,-139.44966721945062,-85.71703257958445,-135.17702752868868,-94.33377405090944
-92.94746239905486,-153.8278644899956,-97.09496276066416,-119.05885766887519,-83.19027474699828,-62.216138897233215,-95.42941776057923,-65.81658975431353
-63.93326096807858,-86.3948108312053,-30.993585810307046,-76.50101980576208,-36.5615314615939,-42.17157106574775,-59.66484622010358,-39.384194009972795
-44.35458351728785,-47.57148786719446,-0.8605396995386981,-47.9840179211037,-12.416167441232675,-30.233583339069416,-36.026885012278306,-20.853784058858476
-35.988206918017426,-41.85535911694528,-10.872073528525775,-36.70234164995986,-13.783624359969773,-27.58440875031952,-27.632838719378732,-12.862160083106728
-36.20790441145629,-59.82187856010268,-47.319472786937496,-39.24321842735893,-32.66460109824383,-31.65799609612905,-31.67381737459243,-14.1014121695119
-40.15584107041871,-84.95025315556764,-87.57602248262529,-48.49346351919721,-55.494062401896784,-37.98274911376431,-41.77552037836141,-20.631804537711954
-43.63949949180734,-103.48476931183552,-113.52781040548395,-57.782345479756515,-71.19358125973025,-42.72743197617152,-51.68631115614953,-28.151409458016943
-44.87079236394743,-110.67684643713221,-120.32030444636577,-63.568175847195874,-76.35720555961993,-44.278347059504625,-57.87751081523341,-33.76893491254497
-44.32882244522197,-110.26611534887789,-115.582223486962,-65.56535246087256,-74.81499094931094,-43.13708092746326,-59.90028156705211,-36.507417636126014
-43.408653283272386,-109.19044670854836,-111.49038991443751,-65.14635658723077,-73.07210963379349,-40.69679841882591,-59.07746612296549,-36.74716045688708
-43.04767966457064,-112.02258445500728,-116.08441543226226,-63.60725702405943,-75.39220771359648,-38.011243584023376,-56.90901441235506,-35.326069906179455
-43.101589178435034,-118.30263692809795,-128.77220414950216,-61.30824249728188,-81.3460521242595,-35.28559981724944,-54.152943359850696,-32.891133598917776
-42.572411594934465,-123.20384046004868,-141.05473225951593,-57.80224772180924,-86.34961928336782,-32.1109047944807,-50.748930473577815,-29.727330393364607
-40.42699406603321,-120.56562304004504,-141.2645695806654,-52.64283742860604,-84.41905464715259,-28.094706849360737,-46.36973016504161,-26.031367747081582
-36.601386709216094,-107.24372313915055,-121.8782234127087,-46.45418960861356,-72.21358708964928,-23.54498098266495,-41.32936072178614,-22.421438930338805
-32.60486990707318,-87.20935467318712,-87.09177993273555,-41.602033144073694,-52.965877254966095,-19.879518951988,-37.36347390371898,-20.264600785304452
-31.093081005502995,-72.6718210192816,-56.21340949089781,-41.64037533784798,-37.84196449544116,-19.377693910529295,-37.513367033760254,-21.338651569666457
-34.2881635093001,-79.81660001507821,-58.2536997427327,-49.28020695532095,-42.416520421263826,-24.09332389392072,-44.64107416857019,-26.729126040959283
-42.0808063375444,-119.97325451001636,-117.73932010412072,-63.904002616626435,-78.68576909016848,-34.35724453526221,-59.174162510970056,-35.581912127028296
-51.236880664748476,-191.17054213090336,-238.8939909591414,-80.53241556989161,-146.84589140148466,-47.86578444066871,-77.6795480905835,-44.74980900928674
-56.61591538026732,-276.1625046644127,-398.6447618066162,-91.53858567714259,-232.46923351335974,-60.22630740285332,-93.6855570079277,-49.94204416317281
-53.916199877905925,-349.37561574782205,-554.5245668287507,-90.51159983374357,-311.86208956982716,-66.92341791474941,-100.69640809777275,-47.915103355863536
-42.26904856842674,-389.2679632914042,-664.0633988245111,-75.96391744787825,-363.0846773827867,-65.6312170210492,-95.68546480766128,-38.37765746423466
-24.97441642461789,-388.77239006520927,-704.578988553473,-52.45634030219576,-376.2558421738263,-57.444760402588884,-80.84182129402434,-24.34449587341672
-7.859256032367008,-357.66413318853944,-681.9779781222801,-28.338518574453854,-357.1831138910399,-46.245033111335786,-62.41870804752795,-10.657305793278868
3.6919332476636866,-316.07118176625215,-624.5307949261694,-11.530954424789956,-322.7956031912697,-36.62951139075205,-47.45397228218123,-1.594877369004841
7.170938807111869,-284.0157666048015,-567.2282927338109,-5.985844519598651,-292.0878449566499,-31.75970664023308,-40.4991513527625,0.9567360404783878
3.533184113032885,-273.5084396285181,-536.9408886804746,-10.732635168481421,-278.3384160832744,-32.373086078236156,-42.23377312666808,-2.170712624180648
-3.9334690195049644,-286.2986643777005,-545.049737235363,-21.375780177818886,-285.8997755448231,-37.17107547366452,-50.199208178989274,-8.398000617418736
-11.278736868684044,-315.5675380351776,-586.9180468315035,-32.385623594734,-310.683497665437,-43.79187032922526,-60.39197110468724,-14.683741241853422
-15.110854599460616,-348.39995602180176,-644.1396884110454,-38.777656857358295,-341.8278319074365,-49.533652657153546,-68.46713890484878,-18.377391475322746
-13.335286626250078,-368.42349507593843,-688.3402463931416,-37.1554810460112,-363.9208286282514,-51.77643985333103,-70.50549323015164,-17.691739930048104
-5.848486434310063,-360.41099358205474,-689.0193463968144,-26.789177330694066,-361.26183858338294,-48.61015060303551,-64.06839173481642,-12.213701691710007
4.899084693141497,-317.196167439229,-626.2439776914636,-10.628750706289136,-324.5649273433069,-39.808498661542934,-49.62845179102958,-3.426802422098122
14.245434941914898,-245.35168592273774,-502.82125276282056,4.917005114787675,-257.0531940954415,-27.482548567206756,-31.281448109428982,5.37108664914012
17.09514150027539,-164.612817262089,-347.12665109193404,12.336724432259153,-175.21916477714674,-15.568785989809227,-15.531053298276627,10.237231884151763
10.496997339693777,-99.53454493479711,-202.13869339014002,6.733481760151245,-102.2285623522666,-8.105217079100326,-8.30017621062602,8.457592842540828
-4.565569333477978,-67.63589274897977,-105.61850091258627,-11.346028760530885,-57.11442489259379,-7.279504559474102,-11.90058726956328,-0.004667631423796802
-23.48912107311674,-71.29547529163692,-73.02431015248281,-35.98505282951783,-46.184165533374916,-12.511524655990094,-23.972275304232703,-12.482585978494534
-40.418519380371905,-98.35908218022858,-93.2552383824118,-59.008825556897435,-61.744655748741344,-21.11083491928059,-39.094459122450225,-25.055157776554164
-51.19746017356517,-130.53292332476173,-138.73768856438764,-74.18577340530805,-88.32195685127681,-29.93403187343511,-51.91192193643871,-34.52110257639387
-55.03816238955324,-153.53868858033812,-182.02231911621584,-79.85197648772858,-111.67154970128134,-36.83594936133715,-59.6378506365264,-39.639705938339794
-54.001748022570744,-162.49355791645303,-207.85337113637613,-78.50195685569976,-124.66107110668442,-41.03790704730339,-62.43482993927001,-41.00285150320978
-50.969612161878274,-160.29934911522463,-214.72245974170062,-74.10992415635309,-127.31129919688314,-42.523774613278775,-61.914515437154584,-39.94932306092561
-47.7487565010391,-152.19235809043366,-208.47225324902516,-69.40901474925988,-122.958299479178,-41.33646125638148,-59.35891482818091,-37.537049638430105
-44.55152359480903,-141.48294264279588,-195.1462338556253,-64.93989612806946,-114.608934448191,-37.50454494622824,-55.10914307197889,-34.277519083061705
-40.818472943932036,-128.99165887876396,-178.07055447506258,-59.98225254680878,-103.8869556589116,-31.51445259167432,-49.2252806641514,-30.513599258479122
-36.42119967098973,-115.0509326089223,-158.9998215351153,-54.158495029672515,-92.02061693265762,-24.66837739080915,-42.43332415619026,-26.83928969224334
-32.34110634014598,-101.64252494434213,-140.52885574727122,-48.489589260032645,-81.12184451415769,-18.88569302104884,-36.47172126517802,-24.17174748871809
-30.525423345695653,-93.25735800897316,-127.769650830066,-45.42079425216332,-74.74894321256593,-16.104818539161744,-33.71704442965074,-23.52851789731862
-33.01367669231928,-96.00884670090743,-128.3518674049893,-47.80797286083583,-77.44570079980237,-17.650467392812907,-36.33872208619996,-25.65577103589785
-40.52440753058718,-114.51975005601352,-149.48171502033156,-56.98737983350587,-92.74297766538095,-23.641235933727568,-45.05224878161096,-30.47140027902798
-50.9686116156953,-146.8005376634009,-191.38706346160205,-70.52562686881797,-119.41949401452618,-32.35854123883511,-57.61751202668378,-36.362946864727824
-58.875706264562375,-179.78841329921073,-240.05118949223743,-81.11573431323716,-147.78798381530748,-39.88500948652826,-67.95041057169408,-39.838310706999316
-56.770521451544646,-190.1785321095395,-265.92260231005906,-78.2654476415159,-159.72707144528638,-40.75292527922419,-67.2165210762125,-36.27198013241204
-38.51700052541986,-153.23216182673406,-233.83999063547583,-52.9712135433185,-135.08262258031138,-30.0045397908097,-47.42661179258429,-21.9298732573355
-3.0425006829767938,-56.41551817091071,-121.56621510100558,-3.1768023849238918,-62.48867279882836,-5.930019046343091,-6.0675614887633005,3.650187470997489
43.952223745828036,90.38491226864097,63.94109185063686,63.49236079762263,51.82807418264821,28.201613794139888,51.138929646902206,36.50996917831391
91.77760098289909,255.74068291744277,284.32715031431394,132.01309111608936,183.7895639654293,64.84986272239001,111.62138674048022,69.42258549741587
129.35327760453606,399.667175294407,485.23791256773086,186.44352783497723,301.22256355876806,95.31570608178966,161.22882542305888,94.96250048442988
150.0680027248107,491.7100481257341,621.201517537778,216.98134358543305,378.4553088527677,113.59875173934353,190.51286148179133,108.7853286657661
154.14494076471692,523.6204295175027,675.3957717701021,223.56743698488012,407.237982482301,118.77198320802687,198.39990639470412,111.21244102867196
147.39086459013697,509.70239430661803,663.1324579022518,214.28758047351022,397.90027870909864,114.60280664880293,191.3410862687723,106.33035197518682
137.50397911199747,476.0335447691016,618.7915898838174,200.15330716994205,371.137730717878,106.94778600673848,178.96243350108907,99.42786177842292
130.39914679605099,446.4250812372979,576.258494381576,189.77857948586555,346.56482328054886,100.74998240241524,169.22688152196324,94.4932418777196
128.45484886413738,433.4376386247597,555.0638955511687,186.75253264259283,335.0013475357971,98.3423869227358,165.78738367893507,93.07615139524589
130.91226662181396,437.52586033632883,557.8019618503928,190.1196926918582,337.3811694885757,99.50848547362624,168.16289854941,94.62088375039484
135.38221154937833,451.61749872731616,575.8284373964368,196.50600090059405,348.2980652008104,102.57688186517434,173.5426538574162,97.50740176828711
139.3550192041667,466.7005031242421,596.9381672635125,202.29411924662415,360.5263890473385,105.61016218772886,178.7307376993794,100.05155919023184
141.25065682391823,475.9954125509101,611.2584969993125,205.15927708895603,368.42924733570396,107.25284294776512,181.54012369034228,101.19509731956124
140.94114240147496,477.3724019245741,614.8495993922237,204.85423625822273,369.98397081001474,107.20172046339093,181.54811109685897,100.8629421456137
139.62359533863392,473.76719808693207,610.8146177850485,203.0596903046942,367.2798415606196,106.22387094843168,180.07679278604488,99.8814616664455
138.9764285922619,470.9938367285614,606.8797347515837,202.18781762019316,364.93187443556934,105.59930001281883,179.23874533371617,99.38583728222686
139.99878907013556,473.6135760922099,609.8364974521431,203.70139196995734,366.77893606843435,106.20015340322878,180.44313373288333,100.0083669658532
142.32754939001188,481.53656556860085,620.3496183249441,207.09977483310894,372.9785331774728,107.8361030965125,183.37550483403191,101.43227782840805
144.5405545657884,490.04619119353174,632.3140331674547,210.33309012327098,379.82852500038047,109.3962831656616,186.24833034651664,102.66107829274962
145.16951240779437,493.2617709017014,637.4199556507773,211.26831652342918,382.5197427764192,109.67542874528738,187.10423612509325,102.7594915965883
143.66804977256956,488.3452568258307,631.2883109070062,209.11181550826603,378.6459222491866,108.24180172313615,185.17466800401314,101.49450007241488
140.8197152620569,477.7072367161059,616.9014040868249,205.01605520534522,370.08839855314153,105.80186632032073,181.48453582061364,99.52955998361004
138.56151640191737,468.47969571653226,603.9460894088242,201.81628772796776,362.57946505259054,103.98674206543669,178.59227567036868,98.21428609799027
139.31798213062783,469.87340225403324,605.1007080260978,203.04255239549812,363.5246705583993,104.72352156601542,179.658897901793,99.08784166557635
144.79718510963068,488.7977992956615,630.1308537321046,211.1581209611666,378.51209876367756,109.26321285587632,186.8854515477307,103.07736925666319
154.42063321086638,524.2457967681205,678.3768847607004,225.28386804700872,406.87743225503334,117.00170018789399,199.5285632173555,109.50632148413625
164.2468237750579,562.9286970992788,732.5712212058319,239.64955637181038,438.16892711486884,124.6954904134032,212.5103497051535,115.50021839515826
167.59450847389405,580.5010872466589,759.8266562566328,244.51576053357908,452.96231700392207,127.00024821473727,217.1636135536102,116.58426841878986
157.7794382272237,550.8966902754495,723.8580497082764,230.16958711667039,430.2275018772465,118.71330065949701,204.7561248638856,108.65525627150517
131.78418778279635,460.5325294994923,604.7183591734613,192.27782105490294,358.83405107259773,97.79435567064039,171.35497476628365,90.3889317356218
92.62095119796147,318.9380614784715,414.43864017295755,135.32184864324088,246.3643774811835,67.26055552420092,121.0441922128209,64.51176840805216
48.664959383184964,157.88903753259243,196.8190597892055,71.58505239995274,118.59563316738976,34.4283341660249,65.05963103988138,36.90604882827302
10.080866911185556,17.963565875398636,8.958738257063722,15.875082520056502,8.554769957266108,7.618372573463238,16.900981390552307,13.912086645489541
-15.66592054802529,-70.18311273648722,-105.56499044082747,-21.071455855056968,-58.92934634774239,-7.818566985514864,-13.848218505118759,-0.5845345926041156
-26.64388312015043,-98.80038564649472,-135.90806260818792,-36.69968007710962,-78.00409196523512,-11.755242964750737,-25.362872597592787,-6.537118778259249
-26.195851485538178,-83.0147134072514,-104.47826685980709,-36.14429507254549,-61.747098474376294,-8.524964928192018,-23.008673963214548,-6.893921890158456
-20.178490632826563,-49.131589511219,-50.06762318839595,-28.04868597422293,-32.312812955559096,-3.843367444469045,-15.207575737431002,-5.327398731045668
-13.73242485519053,-19.746845633868247,-5.749667389869176,-19.75205535045647,-8.363001452800896,-1.5516498178699083,-8.707190923516862,-4.171526097733668
-9.45745037819845,-4.718231218538381,14.822397188367285,-14.655111710199598,2.5164222058225407,-2.152937215204616,-6.059828576183009,-3.7693330118793886
-7.498844037738473,-1.4557957819726524,17.030175024904512,-12.50382249088424,3.391932664274107,-3.624375982625359,-6.098985526908349,-3.2227790843027035
-6.7837348677952045,-1.541509937800434,15.010116080403865,-11.40133552549229,2.1015137557531496,-3.487147493933896,-6.21037458827343,-1.6418308869576825
-6.3502077940351205,1.7631958940984138,19.85684277169939,-9.899589407990547,4.675337755467304,-0.673162745437486,-4.641028271032496,0.9982332321832029
-6.119331513099661,8.94256917966766,32.400268653061794,-8.15900534433005,11.415288890120568,3.734407016745527,-1.7341064515018159,3.7289413611183644
-6.859979954510894,13.987136695087669,42.736711000090864,-7.812833524642104,16.786288050679257,7.079638268957985,0.27558234028734135,5.107086228194765
-9.325187212457461,8.578706671135503,36.573759727385706,-10.542511067625655,13.093132245127043,6.754967155125225,-1.1489811340905658,4.160769089493256
-12.941936031186493,-10.576929560134731,6.663323914328241,-15.963215820106218,-3.131252490649917,2.201808430614399,-6.4658333605405085,1.3754055785224943
-15.003361310014501,-35.03523881043639,-35.97332076844583,-20.254243144147566,-25.115632318119456,-3.7987192367747626,-12.285533766025065,-0.9404922075843799
-11.371681274274852,-43.89812360716235,-59.29144020766456,-17.078382348416163,-34.812659080085275,-5.653104136245112,-11.864990923879166,0.5012942100193856
1.2503606765906676,-12.05266116458384,-21.500475489022715,-0.9503167132915886,-9.642375893310268,2.4811934457009603,1.677324617803225,8.076233821062988
22.820725593828314,75.89958798569069,107.1496587229305,28.882702594114676,65.37368502582576,23.337810986716082,31.073247958042074,21.43982972723471
49.13277319533755,214.51303551886926,324.5402455751099,66.90085078482683,187.23548486635553,54.49332405201654,72.43041726525087,37.19504172803198
73.58203516122462,376.9690194381199,592.00628465153,103.60917970560902,333.41418229888336,89.10044496960866,116.5184764362117,50.53512196059667
90.5836282612915,526.2368001247676,848.8982833822186,130.44584619797033,470.7635296542102,119.07243710501423,153.20297096587578,57.94296712395919
98.41075160687356,631.2293909116889,1038.075285832327,144.09477109693492,569.6868009840445,138.74240285406563,176.1873636185858,59.18020444153205
99.52150780858717,678.1720308576237,1127.392815993627,147.29893047326203,615.1372593800744,146.75048529325693,185.01987882165557,57.18388003154614
98.16524278134256,671.18299715268,1115.9400983326675,145.70435713633006,608.6703350340096,145.21244705596501,183.30853419794488,55.876410377147366
97.00922052094491,623.8178609276871,1024.7185759421116,143.120909704096,562.1739239604404,137.145950951782,174.82698729141163,57.352463517085184
95.25242368353264,549.165236441574,881.2891321331059,138.73458640638367,489.2119822797107,124.24939209644694,160.62875104439814,60.38800253724403
89.58076095510411,455.6499204104936,709.4697193473918,128.29366737387477,400.2169632737812,106.61184776151848,139.29290660596672,61.311214198879775
77.18502134917948,349.87943874614496,528.3811079456206,108.25122828209972,303.3836454776406,84.26036648937144,109.82315589026017,56.61498396111232
58.55872243534244,241.92012384852768,356.731758559754,79.65716293003722,208.17337691828897,59.01357335575535,74.64427764643949,45.505298021246155
38.016570435888866,146.99789132332924,215.0177333454967,48.86560778262623,126.77541072076862,34.98182052919362,40.1571214217193,30.694658113187163
21.54876584773947,81.12182945383972,121.56063963958425,24.486260979007085,71.23142651393397,17.165466977806034,14.215376625180658,16.987792027893597
13.480104677917963,53.27268718601586,84.39712133826303,12.647551605180666,47.83753736586056,9.021257799924426,2.139495976239935,8.65240122680227
14.158142193814081,59.804489981419394,95.31364608941642,13.729824115860692,52.980428261373724,10.60469032155132,3.9108090020714976,7.262341335714958
20.084031915411956,85.49448210039827,131.69877044751476,22.589846485523353,73.95190457848126,18.502662188752147,14.350261263572277,11.241978935010685
26.174616834352033,111.03974448737776,166.48939596665463,31.842230253989584,94.83701661480004,27.565626781892764,26.03773932121469,17.13640935943451
28.53960530370204,122.31730248917775,180.45817583429474,35.88238658924998,103.93714807063769,33.3438003772841,33.03032968037338,21.614098211736568
26.185874002539915,116.05664901336594,169.68460210805773,33.35104594907871,98.42816000923234,33.91784443188765,33.31437120024522,23.05099441223638
21.090794204411115,99.79236210436635,145.1908947878471,27.210167136489325,84.41554315484449,30.43479007419652,29.133298390225782,22.08694409519081
17.00339412106916,87.4650196812951,126.72076350640995,22.940004521770042,73.42756127505626,26.3630698530665,25.526055847005594,21.107139440052443
17.53159343605272,92.83851455907329,133.84078795539375,25.690740282826923,77.10336808069873,25.759550309938145,27.73961647531249,22.84293966718761
24.00138982231424,122.05143043323771,175.96683615717157,37.1399710559297,101.08762191855674,30.965476680186352,38.141164438279134,28.493071842377407
33.852929003615785,167.13890088041526,243.19365668534974,53.20146810000973,139.49751278544628,40.56617248563521,53.68935270797917,36.20325375919558
40.7072389443799,204.4123338489916,302.9659406289576,64.22981125104528,173.12642154781335,48.90193296460514,65.63535586379453,41.0240765859093
36.80005659403909,201.5896582380795,308.67121257842535,58.69269305543913,174.8438617019563,48.06651350775578,62.651318456294504,36.923300448866144
17.002702326596395,132.89888180595523,220.42422304582112,29.118788100506663,121.97876387116364,31.878836206678823,36.54383502421856,20.08088450195693
-17.807777829720195,-5.308806685491163,28.41417379439519,-22.98052502609375,9.755807211758313,-0.2989449090169718,-12.530551255481933,-8.459921393212682
-60.30096797472982,-188.49782835106143,-235.93895785294077,-86.53299833778564,-142.7654231846111,-42.35890934176346,-74.78713822727276,-42.59284449816154
-99.75184590750689,-372.6611358692558,-510.11371382799706,-145.49174081402273,-299.1514444674095,-83.8633870599551,-134.70480671610892,-73.73660472200346
-126.94567934315451,-513.7522191005302,-727.7518011145323,-186.1148106993687,-421.6121138488744,-114.80148162634623,-178.04036674550653,-94.76264990851486
-138.10021816396886,-586.8468711121433,-847.7678158750555,-202.76686666748532,-487.5433473386243,-129.94752721882628,-197.9452578399381,-102.9925593623195
-135.69630766394883,-594.4193213751926,-869.0226267124033,-199.1412102952249,-497.3802092106118,-130.44607907218185,-196.8662637631686,-100.67832915305704
-126.15431984943804,-560.3471186876991,-823.8980027580893,-184.81045657746103,-470.33828450562294,-122.10423829009692,-183.70409292260237,-93.03470188760588
-116.17327781985972,-515.0574881841134,-757.2872916122516,-169.78269228541154,-432.1452629447808,-111.86416573234771,-168.55587748015031,-85.32572711511285
-109.9679927887584,-481.4414450686512,-704.9714253273,-160.37227855568568,-402.83849411392447,-104.69343148765994,-158.32297370608336,-80.75112082283732
-108.52453350610145,-468.4655612768221,-682.590927396436,-158.06736976373796,-390.81949344596006,-102.3301080655142,-155.14037246709853,-79.94821855506953
-110.48286284651276,-473.0006847990553,-687.1773200078833,-160.83881627823567,-394.0017781425438,-103.83927874266323,-157.38607674370056,-81.74718739177122
-113.56002524580032,-485.7721867001484,-705.6388244631227,-165.2765378957532,-404.73809066034653,-107.00483189323988,-161.76243120420682,-84.31266680063057
-115.73150929722087,-497.17745756543553,-723.5723863793182,-168.36497660007328,-414.8184541163865,-109.64261350650096,-165.156347331154,-86.06966874097351
-115.94792270791253,-501.09796043312457,-731.2007494095694,-168.5468535403572,-418.80809954959454,-110.45012075542289,-165.8003728602534,-86.24810247750797
-114.35765654078132,-496.48952150269025,-726.0556723107331,-166.0413158528931,-415.5126056551761,-109.32671809590843,-163.67891112920765,-85.02590900639741
-111.97756434156187,-486.7030666006581,-712.4176836528565,-162.3526681867265,-407.5492688810322,-107.14099297056441,-160.14101674003834,-83.23696936541448
-109.9405410625442,-476.7847996367259,-697.6935601268211,-159.16419024102433,-399.17685490184874,-105.05061275826402,-156.87586862293148,-81.76619787457848
-108.800714017477,-470.2400774019328,-687.5791287471195,-157.31181658698137,-393.5344480884832,-103.77722691262933,-154.86380224043174,-81.01888017453663
-108.39449848367353,-467.4603894603375,-683.245223921651,-156.565197008083,-391.1501065865119,-103.32902950513547,-154.02865115873755,-80.83926091145717
-108.25981806573398,-466.7098878845242,-682.3282624912749,-156.23347561837807,-390.6238626968943,-103.29120068301911,-153.7247196397562,-80.85408553460722
-108.10909321645114,-466.2553458054362,-682.0670407211927,-155.8693662289511,-390.4248968538037,-103.29961274003058,-153.4424946106836,-80.83768533855302
-107.91338092018354,-465.4623202842841,-681.2756353097353,-155.4145908032498,-389.9319893919934,-103.23392978843006,-153.0511800392795,-80.76759059788358
-107.6767973661738,-464.2787180169857,-679.828536269302,-154.88068605834147,-389.0789592346991,-103.0760483425292,-152.54870260368548,-80.64903781066045
-107.29943684555711,-462.41861751088237,-677.359953895015,-154.139335072871,-387.6384146797066,-102.75363603675045,-151.82852883558107,-80.4160004252605
-106.69270563646052,-459.4804098007788,-673.2496885263226,-153.0757454034107,-385.2639139125816,-102.19397038614,-150.77988923400972,-80.02032820834249
-105.91487430009528,-455.61681549587223,-667.6571424022222,-151.7816840547813,-382.0693352332588,-101.45404887649975,-149.4851484099314,-79.52265106093994
-105.09689488348323,-451.58348952949905,-661.792850568103,-150.45000393104698,-378.7298569587666,-100.6907626214935,-148.16073193897776,-79.01998689142975
-104.28563779209884,-448.0271614225669,-656.8615692053586,-149.14333834937315,-375.87488691126526,-100.0045641726569,-146.92371259717163,-78.52485663346266
-103.48712341166186,-445.08929407496436,-653.1693193174601,-147.8489620373301,-373.6533671740275,-99.40580138476773,-145.77079280323747,-78.0140256611435
-102.88639563932284,-442.93831881201817,-650.6623654413846,-146.80217972521794,-372.10498289920343,-98.97383744603736,-144.84476553333553,-77.61381212968216
-102.87982541565064,-442.32056456469536,-649.9229353314181,-146.55734380093187,-371.6853309339667,-98.94884633159045,-144.56181978769595,-77.63087070461376
-103.70775323827468,-443.9038804026579,-651.6837121351571,-147.48182329558227,-372.8690601630999,-99.51214055968381,-145.23870639402608,-78.26938720855948
-104.99452179538581,-446.776715889123,-654.9018390546777,-149.09122326423434,-374.9801140715148,-100.41628673920053,-146.50321379792243,-79.27738723167377
-105.73514628939859,-447.9617097734563,-655.8650163365504,-149.9992710485162,-375.73038183640057,-100.91123287749866,-147.18490336032139,-79.93029590195628
-104.8851943191356,-444.1111135706956,-650.2765003385076,-148.72778154443483,-372.51885181267056,-100.1789461430466,-145.9915590112211,-79.45965333618992
-102.14075450862481,-434.30429357872833,-637.0812724385229,-144.8046004124578,-364.68900789232896,-97.98224488729348,-142.50470480038396,-77.61455249314304
-98.35692048761746,-421.6464766505707,-620.6846367441674,-139.36587768965947,-354.8185607765863,-95.02487225164373,-137.74078263586964,-74.96232544447003
-95.38010035342423,-412.39660901522905,-609.5307224039672,-134.94248712721816,-347.9261772559967,-92.77939204278427,-133.9290136387095,-72.78763327346266
-95.37332732387945,-413.1396877210501,-611.8959098867768,-134.5478915024254,-349.0702757954952,-92.88404594644344,-133.64411152667927,-72.65135868865173
-99.74072353095457,-427.1507061425735,-630.9794120732079,-140.21181885281942,-360.437842722281,-96.29323741314326,-138.51946143178475,-75.65328400534668
-107.82586626367255,-450.812779960658,-660.6782333471757,-151.17256341378916,-378.6851530098201,-102.34589814162256,-147.75302759291748,-81.48123717707072
-115.97246694144499,-471.346765430422,-683.2728600390307,-162.51549861138045,-393.380143907073,-108.12155938395476,-157.0012059293452,-87.66287008774334
-117.91811427326388,-468.1904827256445,-671.4748741893715,-165.62185254828242,-388.1849614152909,-108.74641149613328,-158.75397044563945,-89.7598056454904
-107.08954060607898,-419.911460296127,-597.2148532999602,-151.28366326358437,-346.22559430808195,-99.11224706287565,-144.96405116029217,-82.9673614658476
-80.06939407341734,-315.1291309568454,-445.6695953543057,-114.53575305250408,-258.59824196412137,-76.54573376054618,-111.22687745261345,-64.6185589577024
-39.267917742306246,-161.70213686705986,-227.4760311313412,-58.475330997122946,-131.63821228498475,-42.95137297805019,-60.20659914062633,-36.16259564308022
7.137586560745871,12.443005338097116,19.63157427805571,5.691278513206604,12.278004004170223,-4.847962141503517,-1.830073590220502,-3.193818117408953
48.3958167234568,169.20083854194752,243.43754472354013,63.02063116065708,142.41757134706128,29.141313471023906,50.47869155689111,26.77812680236877
75.88493823463116,276.4671414760952,398.88805057814295,101.40999767776998,232.54709817763165,52.12726685184434,85.70419131374973,47.655491207126296
86.65956808506623,321.7222674051604,467.1296340882094,116.63507464687368,271.97964770383226,61.92679083121023,99.95244472097761,57.25657693560825
83.90022546188081,315.3278215736197,461.13768968573663,113.0600043427539,268.56041892074825,61.436081764153634,97.30251865673578,57.60799571059335
74.34649666628238,282.23681975747513,415.23044033691536,100.0676531636918,242.2767921473794,56.338594588991754,86.5990933873888,53.11140604973212
64.64277157364525,248.11278760946539,365.95247983383695,86.90804286183396,214.09434899324953,51.797645186825015,76.5318750891789,48.00429935468834
58.830689411218025,228.63800012208196,336.5394614201613,79.14996873708958,197.1272587604195,50.25870801255555,72.07181897823644,44.7172964448202
57.91773036782721,227.04455400192387,332.7118853484004,78.08889004912737,194.43313200601577,51.390530424874754,73.81411932909556,43.73584364246169
60.847127885194695,238.26876453993196,348.1816727752613,82.15811508747686,202.30010126222402,53.53870829341833,79.51775183239116,44.4011995722994
65.65771746090361,254.5329996780973,372.5316075163683,88.59622429520891,214.76930210654078,55.25897027619682,86.08554331471957,45.73720160260986
70.23900445142381,268.79251578911277,396.0393844120036,94.50696567848165,226.3731162117328,55.98018270325672,90.86334943402576,46.88183261787502
72.82431969804858,276.09380790161384,411.38321802107845,97.52892308954877,233.11808958616822,55.826274447550816,92.2434442006715,47.2524846965562
72.4365664339385,274.27091619075287,414.51648110925987,96.44542642344763,232.98774234674025,55.13245645770633,89.91495719424081,46.63736910110011
69.17385800946943,264.2598738056538,405.29645189268433,91.57552844934366,226.25835480833825,54.08192198489439,84.81277874306947,45.20977705875933
64.16858564731842,249.50178351927653,386.9393528027997,84.68820881989365,215.13063937648408,52.65209215882958,78.72848285333075,43.45678113536184
59.313503746342285,234.81705651596417,364.67602061246566,78.56848347990096,202.9276480884612,50.93750081208943,73.84765972567477,42.15323055598253
56.88217321636525,225.85430953973184,345.4490597490544,76.44936665151742,193.83631855147618,49.680742189213866,72.49288618522117,42.400238033593276
58.8323285826502,228.88277413183428,338.7113990330896,81.04642553932275,193.10459876323515,50.43753919709294,76.77269268843058,45.382567091064786
65.50043633549222,248.89599483848778,355.0817964627307,92.77151136854148,205.8969732206047,54.74421240066199,87.46443202004367,51.457161648359346
74.09707845902635,284.9853523423806,400.06107526089386,107.64870112174583,233.5464979551331,62.414044893897106,102.2015503522715,58.85538552250783
78.33903887454672,325.80614385724607,465.59915668126916,116.77363592903274,269.17423111811905,70.20566575100692,114.42944143860146,63.13694695016314
70.47104608675289,350.469455232641,527.3912099427394,109.09531171152567,297.1922397113956,72.39745217093454,114.97946696744619,58.52254708591343
45.39492911866627,337.5070865781851,553.7573445494825,77.17637437720414,299.53092545842895,63.637200778261075,96.52552224364261,40.98915055262033
4.727818339980472,278.07188526617733,523.2052709681719,22.908857701690074,266.20066153621497,42.60116887264942,58.70021762783392,11.44365279194066
-41.97486115450258,184.87447033137124,439.76775746049555,-40.70026053986915,203.50844779587777,14.034138585421186,10.443899423139168,-23.22194694962297
-80.20695631174985,89.81055906466266,335.0161016467967,-93.63230175557936,133.7525676396539,-12.491215692623541,-32.5686839665447,-52.30272789078528
-96.60480719228954,30.019641827958722,253.70204883440064,-117.32039525097494,85.34135623821254,-26.774125404622005,-54.63672378290147,-65.83136770559447
-85.0914479458396,29.57070575580927,230.5971584743292,-103.1948130064219,78.46655102599811,-22.956856620150763,-47.45455647135544,-59.15343422861645
-49.80205778722745,87.2071728540131,272.1950310877897,-56.734244898458876,114.6224997696449,-2.4995477473903702,-14.175618314213999,-35.065357185895
-3.1807076540181347,177.4335598329071,354.4384194108704,5.2007202974821185,176.2866574110384,26.548074431819327,32.18940646856226,-2.3822274833266275
39.75229949984707,264.4271336731898,437.8498048070513,62.30410559372738,237.02629443616257,53.59004190821878,75.17873656315373,28.22746388988376
67.88435978150186,320.5402926349952,490.5005290238565,99.70323677003047,275.8877370624718,70.55421727823233,102.51005912580213,48.841124824077795
77.84672510443684,338.39270081301964,504.22558913092575,113.07609368174214,287.2474840041119,75.1430152446665,110.73413544842818,56.90940763900399
73.4907432766128,329.67928369012805,493.85733867277185,107.72562250820131,280.22187179418415,70.58520216013284,104.62300371268513,54.81426476515968
61.99196769085158,312.5253846109672,480.69047699268026,93.10381523558338,268.65680803852854,62.432533260006764,92.33324895964773,47.1780063416064
49.50224424973876,296.89847724126054,472.6254939780143,76.9133272033981,259.22591825947893,54.790878778972804,79.96738334364261,38.003962669368924
39.0608064058336,278.6009952755766,456.1497950832023,62.52608465454739,246.46107352469411,48.51712123448099,69.13726478138466,29.444770716801482
31.358870567238817,245.52829371512667,406.4959631776134,50.41561333797846,218.18746746867572,42.21783141685226,58.50967058885469,22.437676884711102
26.73190851970768,190.36039947541528,308.2390912716874,41.16279062122496,166.76908928311212,34.71703953060497,47.215194095263314,17.950001320148623
26.230049312367527,119.34212562517773,170.58597897865144,36.91183875310621,97.29002608058696,26.774332083271673,36.943288543185716,17.376859014770304
30.954997149373593,50.614778610017616,26.012556708131658,40.149258280243416,26.589399619953053,20.79468082036309,31.15263857678254,21.72475718285321
40.60393690088844,3.908534560576732,-86.49344752826151,51.26387406856902,-25.815640979822383,19.04418754379003,32.4149172185174,30.460533905136987
52.79414778020637,-10.59678171788669,-141.77703659870122,67.29033494081403,-48.2823139627246,21.958408894159724,40.27117984347595,41.21007608925172
63.94157048463641,3.2195289845599073,-139.42161972258938,83.06119631744545,-42.161727097056676,27.82742102590525,51.28770232173883,50.73780592346865
71.1036563062579,31.541130106635645,-99.87071094460502,93.95093665672415,-19.04245235735668,33.9378015620999,61.12492799166954,56.57355498809178
73.41911176251296,59.34155088556234,-50.5765027933026,98.1792304799806,6.861867759050574,38.1718384799946,66.94639260801489,58.147231963900516
72.14636252360826,77.42186648850291,-12.312007083635477,97.11144419341011,25.631957262295867,39.892471511737824,68.46136581493097,56.69668967309714
69.44045274240867,84.06029328314361,6.767972579557956,93.64207385630968,34.10237358394577,39.69133103815162,67.17692223258456,54.15959175960787
66.92116170081337,82.23974824045267,8.873058533797815,90.13352625946848,34.0968736525997,38.51467162753576,64.84169263773637,51.953485777852286
65.0370090996165,76.05096600032964,0.9640907016909595,87.39768932008297,29.31904825612251,36.99714888892876,62.41078181209344,50.453814604375324
63.416016876864674,68.8817277665027,-9.532061941154735,85.07647764717859,23.347412451196668,35.39496662330041,60.06734776693821,49.29969767733971
61.66228902225678,63.412871860793175,-16.465919120028556,82.70496236303545,19.10846469662573,33.90246815707158,57.868524179706014,48.07288442722869
59.965472564295695,62.09113663313749,-15.39154573003749,80.56304154720371,18.92957963040194,32.93810664136898,56.308393112727956,46.828823606694094
59.22160794954706,67.18816555057943,-3.7493677069549785,79.86922167577255,24.497302251608996,33.17878804129218,56.42355088805527,46.22527956397998
60.61816787560127,80.26146150422491,18.95566093433883,82.2314578645867,36.58285989991865,35.31175816956235,59.3818435245392,47.201912028501546
64.73734924818122,100.88345150767674,50.60987529465319,88.41591182472966,54.37450749511347,39.513497068295145,65.58532827376636,50.25873279120591
