FZ,C3,CZ,C4,PZ,PO7,OZ,PO8
2.5864165913757033,10.004857540191871,9.074875938679419,2.024453847752538,4.947657266126235,2.3253224437055224,3.5844107210766336,1.0758045169153019
-7.145067391439218,38.29764951631809,23.968243450165076,-13.451231144021406,18.005949277278148,0.9140311536821454,2.1432896123048883,-5.681657846462167
-15.089123376398359,57.695637379459576,33.00304981504493,-25.660263127816343,26.354921371930107,-0.13098542769163526,1.177261566146863,-11.049350452221223
-20.16168292080297,63.668717505752134,33.07944791805421,-32.727617133087435,27.52665106429998,-0.6495570637024481,0.9336414844508185,-14.273037101494761
-22.362186787732202,57.46272103083286,24.791399398884636,-34.808151664311296,22.04932451216881,-0.9116742980785149,1.1969537345851138,-15.524534929241531
-22.662341588664948,44.04584154721363,11.206652793152859,-33.69585559871888,12.43399871244465,-1.7104212075847824,1.1977921748926181,-15.705667605560874
-22.46799009642671,28.80499931916465,-4.1523503082060955,-31.737132087385138,1.4915457540984756,-4.063405366512209,-0.09444081727722636,-15.898776844618208
-22.949604964778175,15.39952909462518,-18.66520898714756,-30.7222004829276,-8.776813256362608,-8.553905740708782,-3.339447196908635,-16.79390596167164
-24.583007705496613,5.398780876367696,-30.913299065400057,-31.295083643955504,-17.338566279706043,-14.742970027659974,-8.26292715268797,-18.40062907813523
-27.068134358835366,-1.1946015309620364,-40.41756171462401,-32.99849884810206,-23.78563748485868,-21.14258013729308,-13.602344948853123,-20.14169235345201
-29.55819096163154,-5.352196794803881,-47.27489395051815,-34.72695813970809,-27.998941670015842,-25.8375657019586,-17.62929546572798,-21.199864795474912
-31.026811639761704,-8.343259365449615,-51.74018152925569,-35.29743052358303,-29.942827707964554,-27.362276177941904,-18.908028417565713,-20.90477488188828
-30.647475471006175,-10.856875217614895,-53.79757115781129,-33.950738302327956,-29.534924996876935,-25.322450942741757,-16.872355838050574,-19.00623785595389
-28.119264355915224,-12.449517441439147,-53.062456093874374,-30.667709393894906,-26.68128980992356,-20.52367068294955,-12.025879435568852,-15.776328032605717
-23.855946888837437,-11.994450995742596,-49.263744234831584,-26.19624772630804,-21.588305766525856,-14.677192447541243,-5.790723703213729,-11.939048191628144
-18.934431390054943,-8.939297097499548,-42.971088065929294,-21.76035383569744,-15.165710781832567,-9.852590316335755,-0.08937758142027556,-8.459952941477766
-14.779729526492586,-4.314175099382636,-35.885381513502416,-18.586589699592828,-9.111171327469687,-7.824273063767559,3.241954826464831,-6.268859406775132
-12.705711318330255,-0.6930334101175898,-30.41493888160068,-17.483807142245077,-5.4963364915591955,-9.494106688395577,3.0268626794118765,-6.009493970903117
-13.487171680895564,-1.300514600641331,-28.90596878990231,-18.62202837644234,-6.10690285490706,-14.61713374227086,-0.9198426055927164,-7.871121180427612
-17.066308931741975,-8.856709155168952,-32.93859054650813,-21.482513736675244,-11.864219753739414,-21.932119673285413,-7.791538405948419,-11.494044210603551
-22.42579341982569,-24.257031187833675,-42.60010598565666,-24.91482559489288,-22.33603394349643,-29.538941517762847,-15.981047304091744,-15.94173682136938
-27.701688764025448,-44.95729207334328,-55.55001960815933,-27.365726048710957,-35.22213634921467,-35.262077941017466,-23.293026063305,-19.811713423919244
-30.663859161881906,-63.81281333252873,-66.42958390934878,-27.401563319821378,-46.127748443270356,-36.94710890689922,-27.236068084007407,-21.59600852810049
-29.558709792919693,-70.08808532592234,-67.81963152887052,-24.434581123058724,-49.37058541098178,-32.89103593982368,-25.622546880027837,-20.273475585943384
-23.989078337476037,-53.61534867903756,-53.27943763010587,-19.23837860133948,-40.16448946995313,-22.52028588611791,-17.486578117635023,-15.872791948453875
-15.292262698374492,-10.549595708762826,-21.179027766189236,-13.78653574106451,-17.319250361761316,-7.020202242695318,-3.8644742805611108,-9.622843169207194
-6.064284766869245,52.92832565174005,23.23192046801461,-10.345783892910394,15.296472494961991,10.646610997547208,12.211715193679058,-3.4904162034689366
0.9949214796926811,121.9827614430224,69.34526258274555,-10.313115216890772,49.828967348735496,26.63708867259009,26.76337979089214,0.6983446968419357
4.279585201722683,179.3817084443522,105.79082111830455,-13.516807174490802,77.73922356359776,37.71373985824443,36.500988147062266,2.0600209923415655
3.8550875023755222,213.14295185315427,125.48886355222436,-18.398227037132596,93.50427133354357,42.5243595581428,40.147028519924994,0.9329566394808486
1.1585415760046545,221.1724123700925,128.26312111879233,-22.906889532159937,96.63245256656846,41.95888328668045,38.72235161310452,-1.4704988765364402
-1.902675967264596,210.5687115468911,119.77639414317275,-25.522369715300318,91.03070238780019,38.43201235487244,34.71910574340991,-3.768397288447762
-3.8837666847030556,192.68539141181324,107.87163331104526,-25.826455349032315,82.4180146364366,34.58205014372281,30.73728979399165,-5.043244326841822
-4.28371800438008,177.36333186910798,98.75714277109442,-24.41296530746378,75.50709849539153,32.156766733742195,28.390460817250077,-5.100614226208224
-3.4487128859677925,169.510717755955,95.05232679315975,-22.34390597982269,72.45368652442585,31.61381474638296,27.978028864479885,-4.321241404693927
-2.1226274733233885,169.00377215653447,96.09207110927753,-20.557176701012743,72.95344361805596,32.427817265634374,28.85920521499826,-3.301445281514229
-0.9873253446452854,172.71291379729013,99.48956983945256,-19.52955649449627,75.3307088442581,33.70103083841612,30.090129042791965,-2.5254153001223667
-0.40756362875800856,176.86044776981245,102.72009500609329,-19.253207531349716,77.7189697523557,34.668852551934926,30.918776778521572,-2.2058256065648583
-0.39719767761674657,178.68537704903548,104.12489817296373,-19.40818299760953,78.84427598003806,34.94448182211442,31.003996607117273,-2.2913285593569146
-0.7224149032752315,177.24571973756807,103.31592639775845,-19.589520155576473,78.35590346866131,34.551151258297836,30.421909116757433,-2.5713077459260694
-1.0645349862668734,173.4006874124825,101.05441804302359,-19.500547397094746,76.75672739565671,33.813283637868444,29.534692259601524,-2.810356451477504
-1.1854655260555214,168.99995084907914,98.63992623113174,-19.059981509904325,74.97444809757715,33.143329184996475,28.762945335814504,-2.8616957607236517
-1.0292646278369615,165.64553228467452,97.07700808903208,-18.38831425749514,73.76329976863286,32.804571726787366,28.350340294317867,-2.7165766071755306
-0.7052127011929776,163.82125855828747,96.55844564426069,-17.68822026654537,73.31128546219975,32.79363593053298,28.26481045244557,-2.470175488152785
-0.37237124924812665,162.98436632856928,96.6203075977805,-17.10401360941435,73.31631436053242,32.92481017410768,28.30366960924632,-2.234792992452698
-0.12419632411423157,162.36403856917826,96.72734773997763,-16.65986996900979,73.38817827032457,33.02488479854747,28.2939124989803,-2.0682653309362955
0.03862324302582435,161.6075512113388,96.68288396990336,-16.301125823945018,73.35909453911773,33.05191011954298,28.200067192349383,-1.9647267868840368
0.15481646601907986,160.75062565674043,96.55339161365947,-15.970463272426526,73.2607706397795,33.05375630590334,28.071543839140297,-1.893024353418074
0.24917677276792638,159.82146244705282,96.37677261860543,-15.640559390996167,73.12606155964464,33.06107972337987,27.93730525999102,-1.8314648095422328
0.33097103121004634,158.69252253846892,96.07751999007564,-15.297274913054661,72.91106701770687,33.05144537388029,27.779553235694916,-1.7711736787154853
0.4163299226991227,157.29030155965157,95.62198462898371,-14.924964025341412,72.58798698648394,32.997318950543324,27.584212436440584,-1.705485018749941
0.5244671704360282,155.73988628958418,95.10060734452314,-14.521042884476598,72.20819233812726,32.902236697632404,27.3678270401456,-1.6307727786296986
0.6524520880030497,154.18980954377653,94.58935079350401,-14.108537428535582,71.82054638038846,32.77637033572072,27.14266940441545,-1.553500190700557
0.7766547548355925,152.6234351248649,94.03479443038971,-13.71279985147798,71.39410969518192,32.61665007754385,26.89580034393678,-1.4811982449930192
0.8926890422060129,151.04075220803333,93.4156690461451,-13.326041187147219,70.9213204245924,32.4564011588067,26.644405573026816,-1.400301431075759
1.0403391271369986,149.81814141684353,93.00502467740351,-12.913996521523003,70.59769018345901,32.42513312268939,26.499184065514658,-1.2742429282143994
1.2646786708377435,149.63774402677245,93.2986832336226,-12.469684037062606,70.78173180328477,32.69406538010934,26.61188718879651,-1.0804258110997518
1.5449950411122455,150.80048807691244,94.51606148355451,-12.050363747178098,71.65066112759062,33.29798012191246,27.007242654681697,-0.8549609781746061
1.776355658972006,152.55329653121294,96.14302674244091,-11.741216973460025,72.86103575567007,33.995743019972295,27.462438365407333,-0.6922181202169081
1.8399312997879853,153.23482300712018,97.0559198504375,-11.57195361930806,73.60406540833311,34.341809135798286,27.588286505925,-0.6851461020364001
1.7032212216696219,151.3023912340712,96.22399040416934,-11.469376780007043,73.09081857428595,33.95965552611447,27.08164587301888,-0.8499143787660731
1.463611908307148,146.49095037505896,93.46419913459707,-11.291242811179991,71.11846839547268,32.83247314874272,25.966413831001788,-1.0915589241773864
1.3110075410216973,140.32509365309522,89.76073818629789,-10.90696152437109,68.35218785012485,31.42619051581398,24.669220608047805,-1.2309054675843083
1.4481227919727058,135.77072404780174,87.05327401934223,-10.26665672147519,66.2108614803476,30.58023369734899,23.902386392547314,-1.0776865005693441
1.999973298353879,136.17005101299722,87.58071278753,-9.441917422308752,66.39347990581985,31.18263124511013,24.386574975173517,-0.5307067938455092
2.9122457284913765,143.55566075052735,92.7814295832538,-8.64682531081237,70.05486517724641,33.66962336012965,26.44039115848568,0.3157894113876917
3.8656188167683743,156.6283694663181,101.89897957883717,-8.211307022562906,76.75379063410534,37.48428201696537,29.53908325302537,1.1125009512045216
4.301080275395561,169.45008526154191,111.02777499360106,-8.449755268393368,83.70535531383217,40.81598955370156,32.120598651098604,1.3253233182125743
3.6407880741907253,172.41740061917804,113.71139709538323,-9.43550838662358,86.14962112624872,41.00156083795706,31.971444286585253,0.47510228449511166
1.642715495540889,156.16500943531037,103.55315216491603,-10.821220097590214,79.21444381463776,35.66440297296261,27.237816579086935,-1.5407024069330468
-1.3404667681210913,116.82565521754417,77.76056700051429,-11.887414335115762,60.55539109318768,24.10167592057367,17.595956268677853,-4.246143377142898
-4.4325426854181185,59.32916891625349,39.38513500314466,-11.865570549702813,32.15988675855949,8.053611192938844,4.810908354740854,-6.6861085399273295
-6.659576683922891,-3.9934134965244272,-3.547967195881261,-10.359641430718023,-0.08763800607559244,-8.789618976372681,-7.837731712019448,-7.833512085635908
-7.482147185852508,-59.280387429884925,-41.84701954577809,-7.578767604522491,-29.10706110121612,-22.418057422628845,-17.071635592353218,-7.096322505728365
-7.071248654030304,-97.9510571830624,-69.57105565254476,-4.2085130412076674,-49.995508896778205,-30.34304526323818,-21.193689068683682,-4.622374001216397
-6.1176916152952465,-119.83451230484611,-86.06757373435981,-1.0142801392549485,-61.84057819529282,-32.501451302800234,-20.721795470072923,-1.2093745755986651
-5.2953785937112885,-130.31789096473952,-94.19421387423755,1.5176401155858792,-66.72814821218235,-30.66771176167379,-17.655884780271727,2.121388218067537
-4.769593056270738,-133.6234821963014,-96.14459916831008,3.223203404859971,-66.76016805804257,-26.856673367015354,-13.907091741247168,4.610686737356024
-4.127871315217928,-127.53601221808974,-90.30645604781309,3.982361404573478,-61.50620918283516,-21.920966048442246,-10.031278960953742,6.006386472389046
-2.796816433987694,-104.13334178124144,-71.96396183268091,3.4154890332332446,-48.08695610198182,-15.371803725302824,-5.18456402189574,6.4563244077772515
-0.6338450344340033,-56.59234931198319,-37.69963763677488,0.9034925448589515,-24.064818224858364,-6.497790923517198,1.6963783300082365,6.186897917797489
1.7529426320367096,12.647969896150725,9.645087441473555,-3.9860105042452814,8.941058347490626,4.137935884448454,10.393127169261838,5.230774915447207
3.209598386947217,88.47486280725246,59.28153383262499,-10.943350995973775,43.72689938992039,14.034217905855499,18.725821395935093,3.401070038013412
2.6639635888929356,147.57835672792078,95.82400816020524,-18.65304244750565,69.5667804701199,19.554105016057754,23.284490490171947,0.525228433566139
-0.1934203054070522,168.851365572193,106.18201653425719,-25.069430964139748,77.01477028696702,17.8166515937285,21.228159860678176,-3.224889161021489
-4.583782583807687,143.9339602111834,86.19061937595535,-28.14779970175529,62.77686190057487,8.53726209201693,12.091015336075987,-7.145546375205375
-8.892461249604002,81.86816720955025,43.164965466048514,-26.689092199686833,31.800960317572567,-5.3718476298952895,-1.5401654290975075,-10.130886329064607
-11.40848353611174,5.143279212858304,-7.20918461331055,-20.898142446596555,-4.738194595056913,-18.925703300213176,-14.990909218543882,-11.113190193266249
-11.17044304673263,-60.73228757382189,-48.06965586653352,-12.38324787573043,-34.55374160468716,-27.36332235631068,-23.65014588127178,-9.596969596641454
-8.432231995757693,-98.43551648193619,-68.78689565910254,-3.5601419176257783,-49.69344500647431,-28.334229461451773,-25.114714962898883,-5.9619402636152365
-4.443806989765914,-104.90552966153406,-68.66756931313047,3.3147989915808935,-49.40873959543316,-22.73929517981948,-20.109854946954325,-1.3040068711136712
-0.655934734168291,-89.64371330744136,-55.311994626474664,7.057614909855988,-39.12882177277458,-13.816388658694994,-11.716262390120157,3.1378509263309287
2.1458019656161316,-67.28188793687241,-39.20063497850208,7.970223252184861,-26.57262750706626,-5.150782558817328,-3.4935515775498227,6.627730102283548
4.202638316753567,-49.5228578081576,-28.09944879884252,7.538313228975107,-17.589431380374773,1.0946060746835515,2.272142959157422,9.232616766049063
6.418681066535166,-40.97978248537873,-24.34476573026128,7.584666020766817,-14.046642631582252,4.728441429355978,5.209721002401058,11.58555807074863
9.569024626404598,-40.001356404935464,-25.63899760536159,9.341882258093694,-14.348915197576485,6.805584692615204,6.289989756618424,14.29623836677858
13.649141525446572,-42.241873045870896,-27.75993958343072,12.907132267909821,-15.466589049640032,8.403630331663104,6.716465834312034,17.42020084188472
17.77356448059041,-43.94943979693469,-27.13683460222465,17.282499928659256,-14.903585297127076,9.796172755424866,7.083769384962391,20.320954173556743
20.623894672008987,-43.468444367906265,-22.273072864134384,20.898179169098515,-11.7480980949431,10.404066198420704,7.170180216434184,21.97560444197689
21.121254765207965,-41.178600184385324,-14.045546314034675,22.327883344031168,-6.796316998346519,9.320560148186946,6.243878377147587,21.50597825175961
18.931249472653434,-38.60887812501186,-5.164062280166784,20.865323791506736,-2.028300853344556,5.972695616953404,3.5725978078452187,18.617914359428088
14.558926608319851,-37.234219635108424,1.018760172968211,16.71785034734147,0.3315449568366588,0.5673263690713194,-1.1257520035410173,13.722556352936607
9.032270919090525,-37.50720599003538,1.9255469482751784,10.777919581034746,-1.1723059009007193,-5.870419700657941,-7.472519253830743,7.719226105912114
3.3952450182564196,-38.8926973297445,-3.3695736726040777,4.181376256936335,-6.6836160075594675,-11.90994304301207,-14.55858362046696,1.6162992964533394
-1.6661131970599872,-41.145679769098884,-14.317569462895841,-2.020483777892125,-15.318762279542788,-16.40670566168262,-21.348911664483513,-3.7646606052809863
-5.841678148278584,-45.78212871440767,-29.73753462942484,-6.893067373904429,-25.983657740975868,-19.06550642671741,-27.090066850255372,-7.85960634957636
-8.911437250378128,-56.01908333847846,-48.33713873283227,-9.485843480690898,-37.936887564386424,-20.465843215427967,-31.42573950864737,-10.263309358392458
-10.462152363360495,-74.54977937323173,-68.3834711219704,-8.855691547799967,-50.58557526409832,-21.49904210646611,-34.18175031661801,-10.650074333834302
-9.917289017503883,-100.61874791433544,-87.08545406914797,-4.425204323555004,-62.823253313993796,-22.63389823761262,-35.09874737702536,-8.857448416641141
-6.91659121013103,-128.90415762636258,-100.76215789474922,3.5072581703302075,-72.74407548388787,-23.57440706606287,-33.8403327384488,-5.093198995146192
-1.759158863751041,-151.54474331290825,-106.21862507807224,13.529464355475913,-78.25473367718071,-23.554154722184816,-30.325230522536977,-0.07166319757801612
4.466902898157748,-162.22554050100655,-102.56257239215292,23.453142299960135,-78.26632964123318,-22.009362134358863,-25.09628842685701,5.098664266855909
10.23275174020964,-159.6041935406184,-92.09115553191579,31.137958659258356,-73.55993376992434,-19.100596033104594,-19.35729410933287,9.281155743007291
14.219469319793259,-147.78775267925727,-79.40300584303935,35.35672014990213,-66.5840278846992,-15.698433326759652,-14.546742711235968,11.746059938214515
15.880982301153685,-133.67128586147084,-69.15223818719913,36.20712326610557,-60.22696561172091,-12.870273111832935,-11.681534453790716,12.4262791740197
15.585576382135422,-123.10999032069235,-63.881940632547774,34.861515424305644,-56.390276092497665,-11.273231265085322,-10.907079441068278,11.850465580009798
14.285147015327992,-118.47164771672585,-63.3102525453873,32.85946692097547,-55.3195779538895,-10.888197767751778,-11.557583482072246,10.809753751121878
12.964518473485354,-118.73735017350374,-65.30148071597283,31.393562748063903,-56.00496898289485,-11.213440191564183,-12.649623669206838,9.970150269360825
12.221474891463263,-121.298428200964,-67.52442156895842,30.956232355562488,-57.12928021905109,-11.669998863514662,-13.425172820999705,9.644548053640536
12.165601489397934,-123.7309444812375,-68.56409329453207,31.40996574646396,-57.783941680351234,-11.88517787494337,-13.59651113437312,9.797213475031787
12.570380827550341,-124.59035530767945,-68.06768002802544,32.285916666917394,-57.627086475778285,-11.737297090253664,-13.255605221269462,10.196638437630352
13.09270424473308,-123.46129436974218,-66.37748107190923,33.08327595776678,-56.72389183482725,-11.278819681820758,-12.65979194354444,10.583200345280337
13.43902206399769,-120.80812791256011,-64.18303503992875,33.46808736793831,-55.39179830475165,-10.667119965002628,-12.077469819205213,10.778547668230154
13.466829823250446,-117.67840069351618,-62.24188290856075,33.37047538257078,-54.07020278171646,-10.097894279039725,-11.700152203908742,10.735586105468379
13.230068452929277,-115.07792270650715,-61.00794825926502,32.979069581451306,-53.08987292417956,-9.69384179751649,-11.564013790874876,10.539980732219762
12.937805054497403,-113.29574400346752,-60.322743232697135,32.618046495362364,-52.43435596729172,-9.40774917905119,-11.519362496287911,10.355616140266974
12.813796047134897,-111.8354377977506,-59.56020662377879,32.55038118331004,-51.77448899667622,-9.06518377662423,-11.338385394098403,10.322627171968465
12.935493476447947,-110.12662041130629,-58.249589031544886,32.826715283818274,-50.83750709730359,-8.551567892745044,-10.927228302093202,10.464768986956996
13.178263707984563,-108.29343136227118,-56.60987749884349,33.27901359903646,-49.76041479207897,-7.967797323747943,-10.451993907510882,10.674904423415814
13.311133323560314,-107.1048466414045,-55.414841852239924,33.641094829143896,-49.02387408228871,-7.578870072843197,-10.228596080992624,10.790086576912964
13.160571885608867,-107.11869790965086,-55.282135871749375,33.69188579859845,-48.994758653466256,-7.58644179019169,-10.452831807901475,10.697028200010541
12.720975962319269,-107.92040155633657,-56.06398921475937,33.34933555731439,-49.52223713248818,-7.931749021221402,-11.00444242488998,10.399458353019218
12.167631869982296,-108.20714311010848,-56.84648753583101,32.723032387007486,-49.94997607573056,-8.28613906459321,-11.475364116046586,10.027052661131977
11.802584192453065,-106.56224562517008,-56.43641770368484,32.13603593337283,-49.47762137910718,-8.20412229229755,-11.372735081472344,9.79996227308793
11.94933388324631,-102.2555226138963,-53.9298689921278,32.054181239912744,-47.57331418174705,-7.3291584238161045,-10.36679984128535,9.948905818630497
12.774426418510712,-95.73958203775364,-49.214435824367236,32.85136346993468,-44.29376440702901,-5.603957802405135,-8.519179214888698,10.57968495750891
14.067808172780389,-88.92344929315922,-43.448715873907894,34.47119943482323,-40.53056611844969,-3.4681092329878456,-6.4519690879844225,11.520670327828924
15.135600613586641,-85.05394210869939,-39.24576970667059,36.206372525575546,-38.039402652124544,-1.916977298094682,-5.31560412919804,12.266580285338392
14.982869809049502,-87.59984082919857,-39.940307899784855,36.81712785661687,-38.89088585803415,-2.210466319479238,-6.367961217419465,12.127193584995608
12.78984799072758,-97.99041871273272,-47.747271082129835,35.00859463823865,-44.241802553814644,-5.19428957639648,-10.203460055379946,10.562672945707424
8.432797942407014,-113.41824630794024,-61.74055896463108,30.044062944853913,-53.04845048291452,-10.576715463109341,-16.06190471831943,7.52848847927043
2.7050112324395323,-126.73024129914992,-77.26479742319994,22.17754773386676,-61.79620853750901,-16.72099003287652,-21.803116186919873,3.604378715671307
-2.9397192546514503,-129.39993316393137,-87.69047187744185,12.687316387731347,-65.84307398583773,-21.269071228244755,-24.788941229549877,-0.2031858002284017
-6.993344896628019,-116.21072691232858,-87.71492435076239,3.4905983067635415,-61.79805725775655,-22.32961939107077,-23.264197509109685,-2.895672967474807
-8.507313087668203,-88.59047956503507,-76.11948496059213,-3.496017667205161,-49.4470781463879,-19.502861081132473,-17.38532110425217,-3.917562232501143
-7.396656806290696,-54.108672253541094,-56.14163538965636,-6.997259640933511,-31.9025087956617,-14.065964705909748,-9.195181261578002,-3.3593397493046426
-4.351796952937051,-22.228255556090794,-33.286558237031834,-6.8069696486423155,-13.834627679260342,-8.201004422704846,-1.5252673616544372,-1.8518218959638368
-0.5313692268039694,0.8659719265859795,-12.247986612081629,-3.9029258243263905,1.0035301155901177,-3.8147497697043673,3.4528338893284416,-0.27052197826817737
2.724251748756307,14.764756638194964,4.805511880282305,-0.2296175154647381,11.250303776107726,-1.7639039388732938,5.070175155945088,0.5504887690259261
4.0814852887992625,23.022875388969,17.539768228891283,1.8460070136396984,17.508446664173132,-1.9351874179618196,3.9256665693584054,-0.015901876680696946
2.4229618329293685,28.738076893053417,25.39873807681312,0.332642369668057,20.639835568674865,-3.927024802851918,0.9361213656412724,-2.309559741068636
-2.808206592723928,31.234078124680686,26.366403976984962,-5.576619593021525,20.383478880966035,-7.635858523696862,-3.4707999763930397,-6.306316501351265
-11.230998526586843,26.526318500831415,17.90548924495794,-15.07059149772219,15.497193108079784,-13.232751521225628,-9.401215161471127,-11.547157534569196
-21.40881596087821,11.063298661011167,-0.6075973412439559,-25.96358281317341,5.231095158888645,-20.621777017994418,-16.875018522225012,-17.172046336459147
-31.221879799452836,-14.387989984210284,-26.059116404286815,-35.58279275366908,-9.208527030646874,-28.94432692784477,-25.194881581116324,-22.141712457415956
-38.65442442164182,-43.85389426520418,-52.119317697914326,-41.88525930884278,-24.527126562929972,-36.64825612431163,-32.9179349730967,-25.602350856592288
-42.60809209468921,-69.00499184437288,-72.0496933549168,-44.23343922577451,-36.7825994121523,-42.15985822883369,-38.50496774848993,-27.216078841399764
-43.28350191633954,-83.66381531504605,-81.97837953793356,-43.44826219357295,-43.40368404367843,-44.69424010554952,-41.157032482324595,-27.262298846304304
-41.918561362918126,-86.76586136418229,-82.44894095818951,-41.183964204250714,-44.35520527587447,-44.615403363411005,-41.20724869756518,-26.443667454751896
-40.07035749319274,-81.92302937681141,-77.33623508324777,-39.049923385915385,-41.70473953719159,-43.10448524075955,-39.807469363265554,-25.518648754759404
-38.887675498636035,-74.39508558103078,-71.14708383007944,-37.9806518576614,-38.077553130440435,-41.421490929650744,-38.20159757012548,-24.983960433047805
-38.75615572106899,-67.99479832364872,-66.70394028120121,-38.09775160025649,-35.221311465950784,-40.30379474638737,-37.132687202806004,-24.96410060063429
-39.3926730951961,-63.913767781290076,-64.52367656498785,-38.957096947164274,-33.56406364014992,-39.838752487390394,-36.710920104008366,-25.300199966624483
-40.19616532189292,-61.51164735097267,-63.68513005079777,-39.91416248679932,-32.69603071571167,-39.72757737549525,-36.65499584266014,-25.718375821263184
-40.618316616129555,-59.77070196138588,-63.094210808477165,-40.42530125802913,-32.101983081917275,-39.63490768165948,-36.62026553434136,-25.974563151728553
-40.431048335381774,-58.31876802386651,-62.32614859052196,-40.24743104715484,-31.623848386974256,-39.41716286988693,-36.43295781482752,-25.95040214632183
-39.84717269273953,-57.770376033223336,-61.87998760244813,-39.530111675135984,-31.571133558220343,-39.20383225763877,-36.20470412244671,-25.704351063598956
-39.43849410226405,-59.41649765254824,-62.87442295569042,-38.74866732863345,-32.5323669068096,-39.3355132206841,-36.29919892907981,-25.45321718180479
-39.81507037813406,-64.12431353299968,-66.1178973068072,-38.45394137345388,-34.84773603847051,-40.115263419565494,-37.07682223233248,-25.455309720300647
-41.17218110779127,-70.68248582823942,-70.8099937252027,-38.94054569632435,-37.866398369740445,-41.42408275258381,-38.47115606707602,-25.832966778808842
-42.97046092928207,-74.81782742671919,-73.83553871128434,-40.02010113279649,-39.55932443793992,-42.46927412403911,-39.69612162817916,-26.44275826233992
-43.996286252686815,-70.39511033298047,-70.71582782470122,-41.01721988543873,-37.15980440442057,-41.9821004668377,-39.4235447628048,-26.88369780403795
-42.82232176130941,-52.884069722941874,-58.16147296204971,-40.95849242900082,-28.8054467147447,-38.87688561578603,-36.44526232008768,-26.635361772322554
-38.43624683594131,-22.99294608783404,-36.635159926515705,-38.85618716407972,-15.14710298701825,-32.958025014013465,-30.40436626776858,-25.240356659841357
-30.724283672354755,12.391184787154572,-10.92233337933088,-34.02634838484973,0.39349969410420577,-25.144086533734974,-22.07401896475884,-22.454995362941172
-20.601800489138952,43.127133503766274,11.994489523404733,-26.404606225379254,13.162964863234608,-17.018340269912457,-12.995079348615304,-18.34562121208658
-9.757751833112742,60.956513321539894,26.494920615894713,-16.759024310332315,19.714155549949115,-10.017816867046891,-4.749412880943939,-13.328548852439214
-0.12695066688077283,63.569665893571035,31.02404201041842,-6.639805567259707,19.552442826306027,-4.812965292721303,1.644276435206528,-8.131386399498401
6.706623073043183,55.10623296065884,28.306041661556126,2.0212922409629264,15.091660363000136,-1.2416796462632613,5.892185007782411,-3.646495829277166
9.960186868376546,43.090582977216286,23.190522901003003,7.5566631242762154,9.979096032302394,1.2696982270676915,8.18701891754419,-0.6861369525711319
9.812499361831978,34.108544142417244,19.784456152759944,9.17729306294549,7.017868753078364,3.192739147373557,8.874251831852098,0.2883402074884094
7.245419143677646,31.007485084139674,19.73433233527703,7.256244666669188,7.024791553571098,4.668465942378642,8.301947608285321,-0.6506656940516873
3.6444338822845883,32.86856886798294,22.377674790514032,3.1353267124766173,9.104519671314431,5.635272364371191,6.88028395958559,-2.8984220215801133
0.31617431942490937,36.89469701716401,26.05280227314524,-1.4392352605636631,11.76809785425421,6.085572648642679,5.159417542744186,-5.516858206456389
-1.8838797001259118,40.437676563040014,29.34152672485148,-4.958127500877222,13.938340400464412,6.188437061873066,3.755136476586317,-7.54561562439528
-2.6758020068983317,42.07240203601084,31.599052417726885,-6.584115248858854,15.315661379640781,6.213354521723411,3.1441785104500157,-8.300587390267939
-2.238731640198431,41.77707545395866,32.92463969273813,-6.276910786303814,16.218003191033446,6.3794553660313875,3.482540415564734,-7.573796009459778
-0.9880967320954858,40.673883317652965,33.932359183806916,-4.668075313209888,17.24209333744107,6.771332778976583,4.559493891456696,-5.697428242029074
0.6232908948858701,40.45401921098026,35.40468997829157,-2.7665056253350433,18.926010011286422,7.364926375698562,5.89544529549214,-3.4368390656494907
2.2605121844248712,42.4612997829473,37.80332103351559,-1.5246171060558082,21.45125376694657,8.1362271255822,6.956544163895444,-1.676909049443531
3.8617380171164486,46.816285855069154,40.87711527061887,-1.337524844138457,24.501936958859684,9.212575156983254,7.462201153007019,-0.9533495472773492
5.762401116309131,52.279776652877125,43.772790229633266,-1.6945084993598847,27.45403721599449,10.996995870134691,7.690394851203659,-1.0415229895578224
8.64512554279595,57.11267783802612,45.716841550312836,-1.265877672046705,29.857611588718036,14.136920473628777,8.565732031614049,-0.8963321885277045
13.20329340566411,60.328363706168005,46.79467174403599,1.476726866720075,31.87554762508891,19.23107581651405,11.33247428148933,0.9030605400107072
19.615907259947043,62.40863043423987,48.22751564834936,7.361060000300151,34.330055302434104,26.35180347722519,16.869875379234113,5.364135849977527
27.141085881985255,65.0804785181717,51.95556909717099,15.831040528249968,38.32539097149421,34.679849508307335,25.022490027556675,12.372245000780023
34.132730385777634,70.42904287896756,59.76402080660055,24.897227292803116,44.69076216436232,42.55936914873501,34.3821861099957,20.490481818211908
38.54724631378515,79.73762545078931,72.23560167572592,31.799942041081895,53.44137079715713,48.00536260221501,42.6722084077382,27.42371420463304
38.721210659018396,92.22439946236516,87.72394158671365,34.10385140607027,63.289523089938875,49.364911050739614,47.496101843821855,30.93754345107819
34.07210557346211,104.01571493878387,101.76202051642954,30.7609261863691,71.33483544217326,45.765727490437506,47.06817124866499,29.79657159300116
25.445774534439792,108.26868457105604,107.6847512917523,22.708677528184264,73.3760104158916,37.23247204504732,40.70595384542881,24.306601433674327
14.993500332423563,97.375955181745,99.00859001311649,12.736786095609064,65.27938259677832,24.629463484095464,29.080689105613516,16.25073307667974
5.596224113310069,66.95529401304734,72.93817022502743,4.592374794196274,45.16190475693589,9.599842524308619,14.233868289002132,8.259453441748548
-0.03992429833234597,19.56644863819559,33.050394504784634,1.5764462105293928,15.229977888017427,-5.5533410542779365,-0.7627085116155053,2.851837398152558
-0.3660847147471908,-34.53301732710633,-10.936642261229352,5.15091346724008,-18.13150050050516,-18.247180970782402,-12.617099656380807,1.5003637412966648
4.319599737640965,-80.85458776447874,-46.864241433715485,14.185399163598083,-46.54926712913587,-26.31627213010398,-18.934257893200595,4.087504598722515
11.842006321826227,-106.94324182531072,-65.57630177868994,25.28482529882719,-63.180628136160486,-28.759177170646453,-19.138799683713938,9.002261122686782
18.925713642242446,-107.9696266679143,-65.0132662859142,34.16050311529893,-65.61001610616927,-26.08272071693151,-14.642637658264777,13.868269596154885
22.53697388014219,-88.33594892688335,-50.50541611395421,37.45700776049269,-56.43492416661185,-19.960276542626712,-8.05795779786118,16.593900903494337
21.194866438733136,-58.42524572781861,-31.163335583883033,34.1526839709471,-41.28148459957748,-12.357879902504424,-1.8454645220438752,16.251900180448597
15.583944745215303,-28.746731773502916,-14.747400885564575,25.837490933457126,-25.618480220714815,-4.664175470852761,2.8120155521342216,13.365098488912857
8.12839225456348,-5.232519543388413,-4.214720605059505,15.771358497381776,-12.3810548906142,2.6427867462294055,6.251141481643862,9.488624306692877
1.758274570576921,11.78227599129514,2.2851986555022124,7.284447528597575,-1.6249195396350666,9.671697156703459,9.633294130955287,6.360450878020549
-1.451182271356072,25.16193668173406,8.65247330687347,2.3892841770720943,8.076877208789266,16.49234247675249,13.881819553241431,5.100133455875983
-1.056282913507561,37.515153345100295,17.594329911450966,1.26167846123274,17.81080388503249,22.713409918860478,18.980518165529638,5.845440578013777
1.8807171028076304,49.13234713423559,28.978672412252592,2.6837090593049293,27.331180371077068,27.535237311925087,24.008149117686248,7.913260394484894
5.602112994184932,58.27882577732049,40.410950549966465,5.0042476943364305,35.319946604922485,30.181823150680525,27.751805984750195,10.273129450334881
8.596853281945796,63.04550676105161,49.144030344744884,6.984805132051158,40.415508567354706,30.379807852155494,29.412854797592782,12.013333315893364
10.160101482024846,63.0680870017343,53.79073334298054,8.124398195341549,42.129375133550454,28.55420708255607,28.954953388687496,12.58945267900099
10.386269133969197,59.85986465243234,54.7924400999872,8.474644478479075,41.041337098065576,25.61851402373971,26.9572345506586,11.847118976556782
9.774442557142141,55.78336878242213,53.68604057713126,8.248724112187134,38.315174379625994,22.510528181796236,24.180290210469003,9.937348268234855
8.78938076521659,52.69686605856637,52.00280413645421,7.538373201357038,35.05318244108072,19.77700377058616,21.186633465357595,7.226213644243957
7.640009150546315,51.27166076405912,50.5944643380689,6.27073494946403,31.961139698202807,17.442533912918723,18.225686974750868,4.213543918557653
6.335101907706617,51.16912890418626,49.591018287545864,4.353673428657422,29.395857314923322,15.19254312093531,15.358249732300035,1.4326812764600672
4.9064441110439425,51.62380379663488,48.731223078212295,1.878590929844122,27.56859847284385,12.72648979791344,12.661040447145988,-0.664357248432432
3.6224625058360616,51.99156242559389,47.78000110919314,-0.7484626257409549,26.699423659376464,10.085258728961305,10.371791184636919,-1.7906493408430815
3.037404193713727,52.128816500797676,46.88821814847592,-2.8428701785984107,27.074230766800238,7.790758280619285,8.911151897662116,-1.8448304010297643
3.8035134567639237,52.53765461695873,46.7396801439574,-3.675823465442526,28.995672902841875,6.700301724646805,8.760311086115427,-0.888984257821652
6.300815198881654,54.09950617145355,48.27679078461292,-2.831360505417496,32.576672245648155,7.586865946536909,10.209309660310767,0.8689289644729061
10.27561251602338,57.37622426638067,52.01433925276678,-0.5036072162037195,37.413623693159444,10.628693005023417,13.082301472084385,3.0763195285488867
14.736554541951632,61.9218001026928,57.38146247840763,2.4651556200996128,42.39321652851245,15.130282953538062,16.640702485460555,5.266592527330962
18.24753221869754,66.24574608063007,62.67957167255206,4.8793413973379565,45.93357150259151,19.722656637801627,19.813196785927943,6.967186916101698
19.509343974346837,68.57976252235538,65.80359586394218,5.686505503114973,46.645736871292854,22.971428489144316,21.66440229548386,7.856395885869138
17.917486066747436,67.84760886477002,65.22318306727043,4.412917345928142,43.98889386965075,24.00392398573635,21.792895276541593,7.8635306505472515
13.79941983979159,64.07271122291834,60.54777229128571,1.3259186623649653,38.45240460223266,22.76477591167768,20.394918606580543,7.132585230704531
8.255069033684395,58.08254434004309,52.472601848678714,-2.7078943823042936,31.219397731596693,19.840203685004077,18.02555835894735,5.8898300708967
2.7505899492388464,51.04167934641251,42.450561768608104,-6.54320708600347,23.699115379988548,16.122322048639628,15.330532229422506,4.344226005852283
-1.322226925209863,44.29356911976505,32.448480524634874,-9.100307931441437,17.28906700767331,12.596443904326682,12.960911692679105,2.706173052661826
-2.995385583404073,39.371521007306846,24.71549338793611,-9.643223237033233,13.318204656185697,10.269107584765992,11.61399311056032,1.2777763091116678
-1.9573197728017593,37.7022699025891,21.246935504661906,-7.967492488518038,12.846290774056529,10.040714787368742,11.978350586750745,0.4798474953830591
1.3329073238759712,39.906763062048896,22.923309235899964,-4.4927757538607045,16.18047729674927,12.392158840087134,14.466812049142376,0.7190502923560498
5.679827659660442,45.197111397185694,28.79296806834059,-0.24245115542623108,22.387353149454427,17.003438191152153,18.862764596104846,2.128139025710039
9.379813074274635,51.430747881972955,36.07057524775375,3.3264402270488844,29.25292786603746,22.58893515881688,24.14010046466523,4.334355381418527
10.659859919443115,55.87005769307857,41.02608765180443,4.679493006625906,33.90477328842828,27.17063016307163,28.65012897488321,6.4427041941966365
8.2682556787668,56.22474977929606,40.433665388983535,2.72792231240522,33.90638568070297,28.777321119664816,30.679994967167023,7.331848444582008
2.0485989723226075,51.53889295964559,32.99567782207811,-2.628760871457939,28.368762110180867,26.306994808045957,29.190063883141605,6.182062745534441
-6.766156378456565,42.68795094715271,20.152288899458416,-10.213706298601009,18.576713773448343,20.145226250938954,24.400334784925178,2.979481294108054
-15.783911201514398,32.2958117588433,5.817330892036755,-17.796697417423857,7.748764871931988,12.172764810756384,17.881202160758562,-1.311431136047543
-22.24884015412481,23.875890666688562,-5.080915084626051,-22.865604751933393,-0.14403001656279635,5.049428779114457,11.983280190722322,-5.0761828693719995
-24.124188360523192,20.32604902498591,-8.75976153213317,-23.652410598675683,-2.088403955539391,1.05006617671068,8.794431368998222,-6.772260755087295
-20.958900713530646,22.494681418589174,-4.370548662663257,-19.920555024561413,2.5649313279786634,1.0331780647141546,9.142634932053687,-5.690082438492608
-14.090835888838376,28.749690724221132,5.629179370440678,-13.105149273393662,11.79631100736386,4.105476456077967,12.204646972782557,-2.345083458881101
-6.068895977771468,35.89893335562537,16.759293642631725,-5.718290200999964,21.906811190704712,8.164608868939586,15.949605342561842,1.723870207426959
0.43149446562055704,40.86099068496109,24.680881298610085,-0.2862617168947336,29.229935871731037,11.00016607232904,18.164104739239217,4.667355346723741
3.702684817899993,42.04528902228427,27.040576374306344,1.710030040530891,31.645117493004328,11.354391197453698,17.50977668892729,5.209641681032781
3.641775353091706,39.80012619687518,24.192614409519642,0.42823448285250737,29.235667797869382,9.439406199425857,14.111947724104242,3.2775302469531877
1.6780463696549375,35.989350154002295,18.721262277794743,-2.4786811988558632,23.976236912219388,6.736665453693674,9.454574654236815,0.05738084111682371
0.03259480581945939,33.086709533704855,14.157571875948182,-4.696050186190469,18.72805865674945,5.225490220733933,5.66147248178095,-2.5749735302909724
0.6365361400616856,33.099493593119696,13.410532262453481,-4.392991578093508,15.962903811958169,6.3850453803343505,4.475091993695182,-2.996756635510717
4.20794240898139,36.602747226596186,17.471426869296725,-1.1174579317158104,16.686693957611343,10.399370975592214,6.381395936904056,-0.6854551092444774
9.938614687984904,42.333002807521574,24.96785479904428,4.017327785282724,20.038354344925295,15.95735420316165,10.318899059286542,3.4800244881895797
15.944538176274444,47.751312816232165,32.89222614284113,8.944055638894623,23.83118500358074,20.81350583799535,14.175955606367564,7.644896587846889
20.231741819456193,50.425990344852366,38.20551882480474,11.715415519566069,25.812401010524706,22.887090101957018,15.870044712450401,9.924044688357581
21.663830336486647,49.39580773633383,39.41381402736037,11.479347498005088,24.93018407864793,21.33827200737166,14.446781473498246,9.376929242216471
20.4459384488705,45.596762700344044,37.19378693736048,8.873468363863756,21.8494606225688,17.027537602352904,10.592387758990832,6.500577299895011
17.92192836348186,41.14481471472504,33.78695011372761,5.66630442664285,18.448509773267872,12.097659642111926,6.276772504887397,2.978023046086887
15.835703958771694,38.09429498589137,31.65822340150824,3.8429337882185366,16.679010234013948,8.906790608075351,3.7311896588378177,0.8055116792052128
15.452306195580729,37.485192146111636,32.23284283714711,4.602301743762508,17.49509426657888,8.882436469241199,4.316888615514354,1.252347846784091
16.976588916848698,39.049636264396156,35.30333899642788,7.785078880022824,20.40601265326675,11.880835447738557,7.876210667301393,4.209659973752489
19.543060029597694,41.47957396982168,39.27785273416071,12.03285179036409,23.806435870874573,16.34913501520726,12.883331815831434,8.282880593344094
21.750505288799424,43.0488361511949,42.09384942124582,15.569722870388967,25.860836390674258,20.16210420502993,17.278698263877665,11.564069258695481
22.42384526977668,42.41270059767601,42.35046246298697,17.129692359792756,25.474763667952764,21.654555597883512,19.499638842308567,12.625368574233594
21.177511565119236,39.27297965491639,40.036387410701536,16.48940382084419,22.82396874261046,20.287641774197947,19.125212065296843,11.164571910628238
18.510804386858638,34.47864717367718,36.37406506113519,14.367589779114637,19.12633247165624,16.643721824547775,16.821813980387947,7.988872311990128
15.476357097358692,29.425611810542136,32.87984544478195,11.885772060416196,15.818376606877708,11.89008721305596,13.745733713930573,4.455626568956591
13.193335253615285,25.21251082914432,30.36935057862269,10.008274892887059,13.730467815690622,7.1605094712242865,10.883211808214883,1.782997419984624
12.472607941504535,22.245621901579415,28.681416765592054,9.257304277013144,12.832534157815818,3.234755270691561,8.73890862929107,0.6165362290514609
13.644227534830678,20.49805026267578,27.21568387346447,9.708421689289308,12.60604421470762,0.5452860053780361,7.416915938740683,0.9770244946602137
16.525625678124406,19.927841332919854,25.63346187186607,11.096852334454832,12.569797617199765,-0.7339846013496398,6.833220474537877,2.460571604473879
20.463878859400136,20.479953579851834,24.03402793335578,12.910756909249033,12.471292812078717,-0.7087540793760833,6.813533474403978,4.48278847730634
24.46645089251852,21.73026673538924,22.584766716067996,14.484174605129715,12.123620711496198,0.17390177773116972,7.0744118366364335,6.44280644583704
27.46018527633524,22.765988417382864,21.168673026037688,15.156175215492848,11.264602803543347,1.226640607729504,7.253137912768014,7.808181789960194
28.638884185280308,22.642637859374798,19.486039824996592,14.500036274715127,9.708907227109275,1.8404185079942967,7.07405112113353,8.18643179741656
27.76136586386959,21.03386246832877,17.451565569834173,12.537834490943782,7.637970610059752,1.8255907118607917,6.544279291926106,7.429182446727716
25.25001294184186,18.418567866250577,15.408833553993796,9.822875626218151,5.661979747800559,1.5158188536533639,5.998681922974618,5.743355729723426
22.026500452309854,15.6608657704512,13.950738886840078,7.304054048496912,4.519803719893129,1.555896830528847,5.93088897488382,3.7158995181065326
19.138271081759253,13.46715929970001,13.561641480453156,5.965797466712013,4.644845044057715,2.522520164521636,6.7097421962896115,2.1538657476336933
17.316434129059584,12.189187689999962,14.36752444712799,6.356246884721543,5.908213198111807,4.597719225335188,8.334843760374797,1.734939924393544
16.64814506254933,11.904912844905425,16.04181779865013,8.233708516347196,7.644572453194741,7.429667291928156,10.33757550475096,2.619058209943546
16.53213101591988,12.422735400041487,17.795230219419683,10.576273439929412,8.880791443445768,10.214754351178778,11.881170126952838,4.272443706929101
15.981879453841106,13.154821237880624,18.511972496752527,12.0326508341627,8.685177008557098,11.98361358815912,12.07123713332806,5.681345505594762
14.154413261212653,13.169959241590341,17.153016721235087,11.611543046072532,6.574350665334086,12.010981058397729,10.39013337422454,5.889505986749953
10.823319692445795,11.584922624778681,13.296497053898063,9.222137729298684,2.805930687811746,10.168014426500976,7.032321690866567,4.5516696545071795
6.527661279887161,8.006056692534864,7.422857092554293,5.756420557828388,-1.687791898160936,7.00624566204567,2.9000505132702212,2.1588962869131754
2.332473832854378,2.6811832450848736,0.719511013412726,2.689836816253634,-5.7564829846451655,3.510876027167333,-0.7776968506654139,-0.19763687518809211
-0.6298116497772264,-3.530635560538548,-5.336128927247219,1.4376664196575153,-8.529591636248028,0.6961938471351691,-2.95915905961499,-1.3668932313858477
-1.5933357972327522,-9.032452899165072,-9.188879981351189,2.76403169470604,-9.52408978362886,-0.6969454833338031,-3.1164774817602785,-0.6744863447055413
-0.4281024210665392,-11.352449368784459,-9.241330514918646,6.435714136716669,-8.364271869363417,-0.3034919156184792,-1.273724532397502,1.7878781499096597
2.2691393407651277,-7.750608483114085,-4.256042089709772,11.201495658505447,-4.6342665661275975,1.8356740354268475,2.07255723469562,5.191996985927967
5.260116786667667,3.0079300380615943,5.56570852168415,15.129288744465828,1.6717498446152486,5.172296517155505,5.964713279690484,8.263493270109972
6.9728118119446085,18.607420308499023,17.4644131860531,16.269892515118205,9.33737083159941,8.556699273829325,8.991607493090257,9.726949498978392
6.041135273180725,32.73209240233128,26.228243533636544,13.461729545594405,15.619239050219035,10.412455839384569,9.547460833729442,8.777509753508154
1.9158288364365965,37.40016196533114,26.199630665581914,6.92241967108888,17.133677911490004,9.317791621820737,6.451595806648223,5.416469860602201
-4.773885470436183,27.198926433807774,14.347615110040598,-1.7282961021205314,11.662532799413759,4.766293526488985,-0.3412181136475363,0.4890254936749616
-12.385506185616379,2.790078913295787,-7.559771452715275,-10.114540648576941,-0.2893906630304009,-2.3877249643989615,-9.44696644594762,-4.63830316897702
-18.951913830669714,-28.824000552842314,-33.339925283004675,-16.131620442888586,-15.376529778835463,-10.185942320102631,-18.50860815223955,-8.641612402234097
-23.04926552921114,-57.734192132687646,-55.35664543419445,-18.810557140721148,-28.99249252799564,-16.466654134205157,-25.24305938489584,-10.772351575031102
-24.35712207123326,-76.18076037611712,-68.28550368379905,-18.55648482263206,-37.59686596977836,-19.889740312484975,-28.47722275615881,-11.082970277187414
-23.61110240347973,-82.01630574230774,-71.32894292942647,-16.690029789516135,-40.28695425123189,-20.453462130058266,-28.540309438639706,-10.246762895853974
-22.0462288670796,-78.58452521749966,-67.67157585197275,-14.651080225667204,-38.693592854996744,-19.2273966872526,-26.821132664852083,-9.120737628061656
-20.73555705916079,-71.68938386995671,-61.96296021001938,-13.369968965849745,-35.54147998334126,-17.583811199995747,-24.8770117658433,-8.335763386691864
-20.211152935558484,-66.19755875596265,-57.803729384122605,-13.086462595750099,-33.07678331264231,-16.502214179311512,-23.717312498571143,-8.122899180596061
-20.469371188429218,-64.39081391193004,-56.683052536708495,-13.537982765369733,-32.333185033514084,-16.32501174571616,-23.6118958787847,-8.382730826788714
-21.193521254707203,-66.23613400250791,-58.32975566299037,-14.260077487428058,-33.2808036111864,-16.907655542959144,-24.30958944436175,-8.860041314357185
-21.986096821593264,-70.38310610983527,-61.5400822631362,-14.82233124446728,-35.28818849908087,-17.875058190774972,-25.343868567552654,-9.295657757891526
-22.530553629555634,-74.97866862460617,-64.83985460928493,-14.97437442327876,-37.489868173426004,-18.80872649092291,-26.24867259858503,-9.519267778069015
-22.694971056170967,-78.33411426355116,-67.01513853470227,-14.715579962632852,-39.09716431950905,-19.388097859701038,-26.711801504240366,-9.496195640739465
-22.56658107126585,-79.65363420229416,-67.62337602720784,-14.258650773533029,-39.747431525737056,-19.521750236841964,-26.69498916302319,-9.322819057771772
-22.375709853438508,-79.44124755836779,-67.19031609460608,-13.876335308733951,-39.69376935826741,-19.384717266917832,-26.435703686096872,-9.156188728587866
-22.33305250872118,-79.03870060530156,-66.76379899223413,-13.72281319371724,-39.57403409758253,-19.276977272666727,-26.266986108772826,-9.10962148112623
-22.499095633142602,-79.52946409446704,-67.09088688553388,-13.76779101619049,-39.886434277735326,-19.39170542000867,-26.37297564881169,-9.190928753890155
-22.78822263080315,-81.00587759035803,-68.15405588766153,-13.880312400772402,-40.65403500917789,-19.70257205521369,-26.694829334513834,-9.328774477246554
-23.077783808973983,-82.84034377208323,-69.44558890822836,-13.954590612624298,-41.570070484235906,-20.060674234490286,-27.053624764649772,-9.448062806767267
-23.298203364047282,-84.48632022613374,-70.55911718092662,-13.954293981319026,-42.38080970907124,-20.36411816699939,-27.32956359625028,-9.516336012497208
-23.434637135256096,-85.85394919419855,-71.42627894992482,-13.875005753247217,-43.052797681528816,-20.610422284278012,-27.51102889454927,-9.534109781233969
-23.49213022624449,-87.01883439294076,-72.0978196456412,-13.720266828448395,-43.62719838919887,-20.8195095318004,-27.62063476873812,-9.512054556204461
-23.50208511529198,-87.91493277968829,-72.55755321590345,-13.535113377301194,-44.079659398447184,-20.977802479762047,-27.671721102860957,-9.476585811302327
-23.554584566910854,-88.54093383018298,-72.88720064968022,-13.427888292122839,-44.42468783205637,-21.090473905340847,-27.720894086315223,-9.48382976723171
-23.771796041749788,-89.31927127393188,-73.4687258851845,-13.504255341677892,-44.876725787779364,-21.244911820565285,-27.90280627037189,-9.593915051819302
-24.201216605079352,-90.89596881475907,-74.75341569278898,-13.7541248437772,-45.73463689270014,-21.55256595964607,-28.329800017286306,-9.808257092097575
-24.72606739634956,-93.40045805169134,-76.70740333575705,-14.015381743398251,-47.022447404344916,-22.0056938138357,-28.929624242051272,-10.035115069694683
-25.10315348576004,-96.01656329576515,-78.58068566055906,-14.071093950802712,-48.30516860454252,-22.42680897561773,-29.419910551856493,-10.135210724456668
-25.11920776057691,-97.48791910935749,-79.38178096762722,-13.800415062917438,-48.96289628218305,-22.599964569143836,-29.49533197480286,-10.019989262094489
-24.746151895176265,-97.13933382558083,-78.67189785079894,-13.263799005451673,-48.69815544769456,-22.461579565278257,-29.075159072390644,-9.724531544988606
-24.193138767987495,-95.45493103066238,-76.97172990384055,-12.688905102466325,-47.807276145944655,-22.164565758180828,-28.401679692797376,-9.407951453925591
-23.847431918805334,-93.8246279786607,-75.53301280695985,-12.400898530479067,-47.03591437792351,-21.98185772321732,-27.93913438839707,-9.294307748824227
-24.137181591784138,-93.89572253406143,-75.7910185191716,-12.714400158088527,-47.233879616749746,-22.16997540291206,-28.174623697518747,-9.58192272326168
-25.321497131597734,-96.98366421709713,-78.7947492669824,-13.755098842872986,-49.02890092056666,-22.87896382333981,-29.400317628029924,-10.327859248121
-27.23012084972927,-103.42479893986703,-84.56154805428736,-15.23945194239135,-52.478366042027396,-24.065825518485923,-31.475426890392374,-11.328433055942481
-29.088672688619603,-111.7121295986411,-91.38340518120557,-16.378995991400807,-56.65914993086184,-25.37455251805229,-33.6287045756533,-12.078865798255134
-29.64547582299568,-118.04045967776828,-95.68386636277462,-16.099427663086814,-59.52603103105345,-26.10439330819398,-34.52093666946704,-11.916370197347682
-27.69036886680143,-117.36588273479096,-93.20161983543586,-13.564609402634686,-58.550158152809345,-25.45094276210778,-32.76227113101694,-10.349415825685519
-22.75242789794104,-106.15814399891852,-81.3954303207124,-8.716772936512198,-52.14789740577386,-22.996217497771585,-27.741840742794523,-7.404456482357371
-15.536776603007175,-85.27173035602225,-61.64376756549981,-2.4544546489787478,-41.0595419216645,-19.118213505477613,-20.244299428476047,-3.740361036676526
-7.748820858387713,-60.61614325835205,-39.44060505220452,3.7200496025749126,-28.536670570966514,-14.941348079608739,-12.319594757776509,-0.3958545408698622
-1.3353878083971211,-40.6031227689606,-21.990197747436397,8.395864201416108,-18.90793008970533,-11.771838389810005,-6.345099192627943,1.717684306896944
2.4276559422169828,-31.736503105409113,-14.50221141078488,10.8709538770969,-15.297120183815872,-10.383941745763654,-3.820200502853068,2.271800500243533
3.453956400944002,-35.20140159153349,-17.53793842849222,11.330593399129976,-17.96772084097609,-10.66393360901697,-4.668954063488675,1.633476138406455
2.685268537288608,-46.69348656401869,-27.106844876797183,10.534159958359773,-24.387908182358686,-11.852927713692349,-7.491093831797026,0.571242059395671
1.4184042613395018,-59.45827324466502,-37.32753788334821,9.287961100962077,-30.920152814174205,-13.17326797459922,-10.538519435305878,-0.22835592704231483
0.5976819170491918,-68.27933452585896,-43.7455463118195,8.078687171205882,-34.92247170071791,-14.342248535443307,-12.70687507285235,-0.5009691142865267
0.49159960116713364,-71.6832199294684,-45.14696224209064,7.042678460962865,-35.85941618070006,-15.601525559104047,-13.896278287406922,-0.4071891765606802
0.8359016730733001,-71.27774771011778,-43.06887157989955,6.155825498403877,-34.89544506207774,-17.31483489062397,-14.63846414090847,-0.27133424061470296
1.2176481648826307,-69.43329675931778,-39.95530329513801,5.416088772954249,-33.6078755124953,-19.529807075959386,-15.429983497467655,-0.2952998177895396
1.4153152712096344,-67.43353739148006,-37.55207150996703,4.90582119222994,-32.912188235965246,-21.858007988493647,-16.31001389858554,-0.43635603036956916
1.5437110368059597,-65.21839457065879,-36.391764061255984,4.774751725741536,-32.799503566489534,-23.69227304628513,-16.89114874743474,-0.4690492076244728
1.98570745766148,-62.28470867008016,-36.152320565652154,5.20410308795835,-32.72779931263399,-24.52735729209356,-16.687087897499552,-0.1373928611728345
3.147794046708458,-58.74300482737667,-36.32079061124188,6.3416483407698365,-32.21856980238743,-24.192997710751133,-15.482945703864425,0.6957323832577929
5.131939274870359,-55.957659847877956,-36.84517933044488,8.190950147877652,-31.369392188892036,-22.975036760363732,-13.584556329229905,1.9532641026800723
7.5131175705335815,-56.528386954936,-38.53276941693908,10.520556523508256,-31.08613006678106,-21.614269757354254,-11.832493857996363,3.339701987272535
9.434414350038866,-63.21000935665875,-42.7102617408037,12.894018166492614,-32.72697548248178,-21.056957576146594,-11.26214752392686,4.4527181875720645
10.054606203131113,-76.58140612489798,-49.828245429805584,14.821329540988273,-36.987336937593625,-21.875163287427064,-12.429472072921646,4.975335339841277
9.089701342857271,-92.49678860090889,-57.67813236133555,15.902273141289514,-42.52486558416493,-23.600655570750853,-14.745691068663874,4.834987552277656
7.0486622804169565,-101.57786456626219,-60.849769902646806,15.84278741723337,-45.48554900921358,-24.520084405060008,-16.37440726486398,4.211388541768145
4.951940336914068,-92.44873089461095,-52.67544053852375,14.383181966542276,-40.84396425875466,-22.334037391331297,-15.000564216610167,3.380827541930138
3.7105268563980465,-57.79133903397918,-29.055545111465335,11.29963462331748,-25.183001622041708,-15.465393663970989,-9.15118082536799,2.516963773052872
3.6024754938426353,0.3665173633007084,8.249355909631598,6.573284490816198,0.7815008722152996,-4.209337846431372,0.760526882966001,1.6036480736393115
4.197528354175937,69.93140300832509,51.33748448969218,0.6223036687376371,31.758940831929575,9.100740357014615,12.411014274317447,0.5192185240978984
4.736225537069644,133.65266877325524,89.46589341597449,-5.632940619411018,60.06387058351325,21.111898656162616,22.64838180886699,-0.7896968784624675
4.653146810404269,177.0003866451615,114.06466425904084,-11.018473387136321,79.1992605253506,29.057247028563513,29.028540650118597,-2.194680583702571
3.876776218919896,194.39167330154885,122.4485570478473,-14.582728573755881,86.69889935638965,31.9744482966247,30.8751394149275,-3.426624579779236
2.7532777404200894,190.32316801546136,118.14960300009135,-16.017687902020715,84.63622384665166,30.863957685797565,29.29521705037972,-4.236512624243164
1.7340271737014659,175.38170074024166,108.09125881414629,-15.749110454241922,77.79739674958452,27.843630325889237,26.296799582354502,-4.544969061075764
1.0988396949329686,160.2319946660243,98.75850572203471,-14.642308302885867,70.95638069412648,24.96288198497604,23.684195751616834,-4.467941024137846
0.8785427911572112,151.29342703494507,93.70207949544945,-13.539443947495837,66.94787615989769,23.399395751533138,22.387749412661083,-4.219198795244641
0.9362649324057525,149.8215479714703,93.26270962432402,-12.933662754839345,66.29197055017778,23.32418924872155,22.426829938678296,-3.9883355622991097
1.074988085709862,153.5389369706285,95.77034053998263,-12.925397264952561,67.94901617006332,24.232477780513605,23.262309889303186,-3.884207365227266
1.1073969016342533,158.92222411507618,98.98034187244545,-13.367269746821833,70.34070702026251,25.38413299777357,24.203435306446316,-3.9451852200260458
0.9149711734871958,162.94835937876132,101.0941852816446,-14.01604820337719,72.11877425662601,26.153811332492214,24.712686332378603,-4.158328608772685
0.5109836109352429,164.09980574789398,101.33206773992389,-14.612830610267462,72.6113403378558,26.25571161979427,24.59476843596949,-4.457527340930787
0.051597227491844797,162.64744705981823,100.06127697508323,-14.937610039806517,71.95051493907305,25.814750307185562,24.03751614624365,-4.729426220832892
-0.25696117400242097,160.0727973123157,98.34917523610738,-14.882712091902816,70.80362674623031,25.23038289886044,23.449964440972433,-4.859474413476633
-0.307004287848506,157.8331985765738,97.0964672882182,-14.506405911233543,69.80407468633256,24.88269730915449,23.162243589306918,-4.797722216341365
-0.17328047874153396,156.35578502636724,96.39525905921113,-14.008099393537115,69.10395074987167,24.884712541431316,23.20270382610115,-4.591839624638663
-0.0661867924201552,155.1366739458817,95.69570823425478,-13.641079698314623,68.45220049088414,25.07130873824724,23.330009751746594,-4.3665215879624135
-0.20592088361192457,153.78708197869858,94.60517434595282,-13.631688121150267,67.70130985128603,25.199543086566827,23.26842793651433,-4.27612890652386
-0.7107592764129325,152.8663698256973,93.48850555873918,-14.12403586816704,67.18253315521142,25.14938429612472,22.92237632042109,-4.455958018012898
-1.532254067070034,153.56371431921966,93.2590206330383,-15.099580040372127,67.51800951463915,24.96497146075583,22.416614437374843,-4.961330677494056
-2.420687365870391,156.49781575566527,94.57771272522945,-16.261142157599668,69.01973564348641,24.774878580185412,22.003554954169267,-5.685877707399333
-2.944994973373335,160.70482717332703,97.14978922389449,-16.995756268415956,71.19433366423748,24.71439732692209,21.947061228251908,-6.310371428761986
-2.6432727895147528,163.49487712991692,99.5037607013621,-16.562682756417438,72.67703224685333,24.8642600764977,22.390298325323386,-6.37240764781705
-1.3120676940264542,161.0005765291852,99.14279820200781,-14.490540394293337,71.51508063834072,25.119231165139272,23.154582302685174,-5.483845821350241
0.725787524063701,149.02842212264616,92.95447483570585,-10.94262619417609,65.62290407977201,24.995027330017415,23.5434536614572,-3.5896556388499286
2.618479004662902,124.23643764373139,78.0694118496524,-6.759291445589709,53.40828925973704,23.570195895451302,22.38846202528757,-1.0867677982241242
3.3494161293004545,85.73061331469677,53.24794331155591,-3.0907866072858416,34.57046227373172,19.768874513175437,18.502136169973845,1.3083873911024864
2.288795866769324,36.510397230951384,20.212568607207746,-0.8306194567420913,10.751334161682063,12.939352613803385,11.381229186953563,2.8866702775817243
-0.425142296791823,-16.38410178708974,-16.11374795525558,-0.20762439808684852,-14.508290291306652,3.3955652280891084,1.7196950723160327,3.2757183344629763
-3.9430397844252396,-63.75454925796802,-49.06621711288122,-0.783889468761034,-36.79040361143166,-7.465019022763549,-8.671532094702497,2.577809376715927
-7.168650430459363,-97.63356077706952,-72.88990139882054,-1.8217460535076748,-52.456011487540025,-17.620813606633117,-17.58593645736631,1.2480018254514385
-9.317796758936973,-114.52274447958732,-85.1686518674962,-2.7366930062820596,-60.09780025768791,-25.258496565985208,-23.410542821464894,-0.19021967646616025
-10.210229935849537,-116.63770617838232,-87.59350733851593,-3.3306568585865053,-60.958435080543055,-29.520813104916503,-25.81007730853774,-1.403744998657433
-10.15441363529951,-110.33765243485001,-84.59484362181523,-3.7100314617508428,-58.04053352988293,-30.745106370021556,-25.70950968672982,-2.337651791650124
-9.595054099958508,-102.66027397759069,-80.74550941497029,-4.040826613661673,-54.45099979164628,-30.094715422561595,-24.632305528426446,-3.1182467088514363
-8.828833472332951,-98.1390837614142,-78.63949723944161,-4.361111123043232,-52.026435751369796,-28.870025578809557,-23.852254948775787,-3.8684664184871695
-7.957523658185254,-97.71994774512002,-78.44872929837254,-4.541190562891944,-51.01036851087768,-27.9226789716456,-23.856643536359726,-4.5531612846345535
-7.004352085509751,-99.84509703755577,-78.96017343362301,-4.337325324325818,-50.687605069632234,-27.421511236737317,-24.31826784913442,-4.928464124672889
-6.01487197437436,-102.26847010681556,-78.89323680535026,-3.4743292544503133,-50.226017899218206,-26.962441233885016,-24.447868299585245,-4.624041457248477
-5.059036163088351,-103.23907163210824,-77.54751042920401,-1.761566511111392,-49.11174265779769,-25.902383627930252,-23.491257019693094,-3.3468613512326577
-4.189020012260073,-101.88502720810816,-74.81622777745451,0.7524812037549955,-47.19422392721072,-23.80067879196798,-21.18688412536847,-1.128883941915634
-3.429485769900049,-98.37488285327157,-71.11848103881844,3.6677564914222884,-44.697559710296886,-20.81197122129137,-18.02436382721079,1.5295492421474122
-2.80343444401097,-94.0244282294145,-67.42847052738371,6.280621286796635,-42.29727711042497,-17.793377648193452,-15.134786418632633,3.757310444081914
-2.3533644428891316,-90.87638942646247,-65.05762042541112,7.813049377892913,-40.9935234772822,-15.95284209520987,-13.761497871732168,4.652821079631364
-2.1479301468056167,-90.54270183315346,-64.98750874273018,7.703192119671322,-41.6063936865376,-16.159557981442298,-14.543630278903427,3.698429809879175
-2.292270576948126,-93.02509338536635,-67.16404960908638,5.805388242191046,-44.17617465482606,-18.345825156059732,-17.062117591312305,1.0190300204875893
-2.928676147402533,-96.55518806251278,-70.38825065087134,2.4376613783236496,-47.76764312366874,-21.4326598651562,-19.98564550535929,-2.6457763244100536
-4.180684988402335,-98.67779612166915,-72.94955546157124,-1.6979909971828777,-50.866400188546926,-23.85887010215019,-21.75317859335989,-6.218989853732471
-6.038964999451377,-97.75434933412411,-73.54403139393361,-5.692955980741117,-52.09268554704853,-24.38676467219633,-21.379868117444538,-8.668759048337467
-8.276583431293059,-93.92163854890319,-71.95494797870899,-8.691840928521831,-50.83567418181197,-22.725355874765196,-18.94855651136667,-9.346000882328978
-10.489155797164461,-89.19976933737944,-69.29880859180206,-10.163456194922135,-47.59893287113083,-19.678058922520997,-15.585107543762465,-8.170982968399713
-12.238906341106293,-86.87519688916936,-67.75749040816613,-10.031502304628454,-43.94886109230039,-16.76537038462921,-12.954027254988443,-5.608664873756985
-13.16575715824529,-90.10998767940224,-69.57357537430603,-8.552115740351335,-41.8844675494788,-15.447621520372323,-12.438848257937538,-2.4319891192203715
-12.966244003204626,-99.750932029885,-75.29908312122022,-6.015937254551542,-42.58666623523317,-16.228991262056976,-14.287977161168582,0.6346741895068074
-11.310684702792315,-112.19826696400958,-82.13026994634627,-2.525324948187197,-45.07982328402808,-18.08990147165463,-17.151453093158334,3.2162436377094292
-7.876418524290432,-119.16145752453562,-83.84004597338101,1.947695050108075,-45.859526491831794,-18.695232186502178,-18.418606386357744,5.3660539665525535
-2.577078867795793,-110.64502186899028,-73.23466878273743,7.269295184482844,-40.24255045417656,-15.469968519872593,-15.398011315692015,7.387026566695882
4.153153129212087,-80.28831901382176,-46.2429258957556,12.891032343004648,-25.009681037940663,-7.0509982973877845,-6.802277860425438,9.525804650334086
11.2832567077896,-29.938833152478615,-5.141277023172368,17.897790075037246,-0.7529059781025622,5.742851602387978,6.337069966215955,11.750651435681878
17.471768796128543,29.807567305104598,41.45120674223268,21.37954000604138,27.734073020759507,20.07830838004404,20.95279470471123,13.755617501077145
21.610263589953988,83.98820332260053,82.20515684146453,22.889442546647537,53.490409391826944,32.38772751021384,33.3353538340789,15.168479331328967
23.310222514864904,120.23615235189507,108.3406045376888,22.67227457918127,70.7135521210208,40.042191720135634,40.85319172739613,15.799389193858772
23.029028952508682,134.23527322329375,117.42077950556659,21.506098983292564,77.384130162158,42.46066881980441,43.02125134751602,15.75287260954061
21.762807375115536,130.5674959727005,113.56632187501975,20.275070455791166,75.68704788645695,41.072111605757705,41.373735475942695,15.343628498115788
20.518941762163923,118.89818347145787,104.32811320416128,19.567398722219128,70.20516606789096,38.27663557469497,38.35850536280372,14.906087656954053
19.897551781887774,108.35405641053121,96.48481098231947,19.53011210897321,65.25611284487495,36.13253636273083,36.02476835034375,14.644221720093661
19.97906611131491,103.610849496393,93.30201652214397,19.983315277194983,63.045798045673756,35.53568569348545,35.25367366124869,14.598891716573544
20.47610950918889,104.38155785253949,94.32809747185483,20.623111947964727,63.432580597407075,36.19790598163089,35.781614332431985,14.70228283815095
20.978048141767736,107.50179427094304,97.02505770654716,21.164646542225277,64.91651166136424,37.199390129110455,36.74919123075291,14.84861759150315
21.160989464154255,109.67771368500708,98.82401225759247,21.412500139732263,65.94294151825132,37.67998753170622,37.34448575457093,14.947425128971584
20.93071246155121,109.48563400004589,98.62036634020178,21.313040366536757,65.85658610911257,37.350419533252705,37.256841340068455,14.96394544455974
20.481522693334767,108.11345577126073,97.33506235085075,20.98885557613292,65.25487776084215,36.674311576588764,36.827934468016934,14.940323638508826
20.21801169789465,108.65515122168114,97.3697649012062,20.696536750518952,65.63650362787148,36.640197427416545,36.8441083041137,14.968560739230137
20.5188738329153,113.94704149917561,100.95439274712567,20.69265415159412,68.34268592145884,38.12967962767235,37.99051362015479,15.111232956786754
21.44448278240595,123.75023292248588,108.03120245131257,21.086623272620113,73.1987237099131,41.126982387639124,40.20149039655397,15.324882958745624
22.577572798326905,133.12047978146154,115.05139850920273,21.773904676159365,77.75524838406159,44.26264431684372,42.33861852896823,15.457443987925274
23.123434534734685,133.6838106102932,115.89844761416784,22.45871551091547,77.94286964398898,45.12922098817251,42.53059980598503,15.330080407236998
22.226736248404936,117.72264271600008,104.81849546769809,22.70814133809418,70.06385011850583,41.3609703288982,39.08792475883944,14.835241179485223
19.336503736215608,82.77662654801901,79.71571360229345,22.013353081835287,52.9941406013682,31.932920978433703,31.477187808402878,13.970196530160845
14.450080368508662,33.80379788186269,43.76054361061387,19.899529173717912,29.17433397391257,17.924756331793226,20.758413500789928,12.785938908870433
8.14245019774852,-18.564750952176468,4.2903526423479015,16.10218229903187,3.700727813896898,2.2668104491421714,9.20703700476043,11.296744053644392
1.366944455792391,-62.686954892090554,-30.369378185469863,10.720960412041238,-17.979754869049774,-11.449826972527063,-0.6832782828430422,9.412039221011778
-4.910064302336137,-90.82258487426769,-54.391690879403804,4.2128052510416145,-32.44870608231631,-20.499868655613177,-7.2866235524353735,6.930049624069255
-10.096125890949923,-101.73713484833935,-66.46504487115541,-2.8135303334941852,-39.495802049757174,-24.109441999609157,-10.46865855532243,3.6052886381004203
-14.193719973016323,-100.08933523443963,-69.5856725513375,-9.86599527144816,-41.650483790701905,-23.591531839649583,-11.485810475663273,-0.7218702751715591
-17.715795643644416,-93.61455940275387,-69.15228614363298,-16.67980582655399,-42.607279705877204,-21.560967530814136,-12.298158896377075,-5.96973920094738
-21.290051610826605,-89.87054526708957,-70.50331717389771,-23.046351481021404,-45.512894754542515,-20.69302588905564,-14.6689957147403,-11.691101250315803
-25.114382815600194,-93.6230345750253,-76.75198123044244,-28.470917895812875,-51.756840028038496,-22.573877777879538,-19.389531083291565,-17.049659936077195
-28.560573598119767,-105.02542330713466,-87.29825940755539,-31.97190486017568,-60.38003058450697,-27.023706931415866,-25.831513800300517,-20.96144154187916
-30.22828790555772,-118.8118360910499,-97.42376561872437,-32.30992657154648,-68.10689990140142,-32.095496184587795,-31.97958374421441,-22.41657795097254
-28.546979717135216,-125.40025026024584,-99.60029015928595,-28.636641574163654,-70.22231633853313,-34.81318314398246,-35.06557040709642,-20.892120875545643
-22.671848960295396,-114.57736429740841,-86.6721795768748,-21.183700053502402,-62.416258416603625,-32.476800946494265,-32.72153481656522,-16.66171903705874
-13.158277147912182,-80.73795222824937,-55.76947099172833,-11.488920738652974,-43.04601294156969,-24.020798591479124,-24.200372118113997,-10.80390911433122
-1.9604931314075742,-26.852972448876145,-10.753835883987701,-1.917119662199716,-14.589820906560659,-10.72340395101612,-10.990874659239587,-4.849110227582759
8.313705194598876,35.625213755665335,38.5997354858213,5.305955027115672,16.811450094491345,4.200241875184168,3.6294816732395363,-0.20865555803579816
15.504545930008328,91.44129224356517,80.62180408083081,9.006912345774557,43.77753403484212,16.983956603912624,15.965801545010507,2.3388236174535137
18.755138934835674,128.37854401749803,106.86166370592275,9.422511091805308,60.86373204353365,24.950950662168484,23.485832223686625,2.854057991923275
18.67921847990542,142.3808069501447,115.43878802484662,7.851881009634403,66.72533425074433,27.52532140576585,25.748945270365017,2.0556247264356364
16.82598132364906,138.16474904443547,110.87837711935099,5.876310494741169,64.10840107471687,26.123342003440186,24.230139673858307,0.8813597204054942
14.827297024138904,125.44689798826668,100.89492661229168,4.632835621066962,57.87221314448816,23.12170868658416,21.271173847947264,0.050936879487130896
13.727852051529382,113.56833454723728,92.36389032561769,4.503955429960114,52.42241026320841,20.613129212546486,18.874859118802235,-0.15182513739507736
13.782054395884652,107.78455442490787,88.80702474000559,5.252834270324596,50.06262377397784,19.649898408709888,18.009796164147716,0.17085900484985192
14.65905118702458,108.66907862662703,90.23444528008244,6.369698202510056,50.856233455411115,20.211433275300823,18.615722106674855,0.730893978537222
15.80063955358346,113.75709316035582,94.53616371814658,7.376527017794143,53.504267011523574,21.63924180423944,20.035073578853936,1.2473151077990434
16.71792182489439,119.66486396818334,99.10367781626492,7.990156440575591,56.37765522320504,23.137561420348135,21.489677643129376,1.551907212688752
17.15737868132157,123.6471708874233,101.96747128931612,8.168892012489415,58.23047336272605,24.120107015593728,22.412561896707356,1.6154165179683861
17.146965481875714,124.51092781514127,102.41535770941138,8.07544652549274,58.58499839617521,24.386136861047724,22.623899215937158,1.52441770443517
16.929891829815706,122.92672948955236,101.12491100719822,7.962926102041484,57.8305208974411,24.13912716159625,22.348762903781104,1.4199557896825787
16.80479154049745,120.8950890155225,99.66939239445745,8.024855048059045,56.937794808057966,23.824331972366306,22.044148880075007,1.4135674137194085
16.952977170598757,120.39892157691814,99.49178019414138,8.304428591667234,56.81842910178096,23.83298234435392,22.09427682397857,1.5270933109177347
17.363462479786623,122.05328352363169,100.96834923501979,8.726782103328507,57.71447683765376,24.25762845883895,22.571850702227213,1.7019431665537708
17.892482429085078,124.79177206868651,103.26044360534033,9.20355455693796,59.08987162080319,24.881121621077877,23.241703899460514,1.8667418834845093
18.379851970957866,126.7862458921995,105.01084041840033,9.692424563332763,60.08689045051194,25.385703948019405,23.775520213413298,1.9970104310659433
18.719484425494908,126.74370727853709,105.24875506729863,10.163572254088287,60.12856888989415,25.58306838551541,23.975041970597392,2.114977291678148
18.867890325033027,124.62681923120329,103.88303678836331,10.547206530209893,59.22908848122373,25.497897433484276,23.85363707827997,2.2465289183528494
18.851814595308173,121.6409652906541,101.73152544112509,10.757525922823334,57.962464408876926,25.320983233478373,23.6055680742766,2.39219130286269
18.80152066536323,119.87355090554824,100.33570173109099,10.784335585567732,57.285381693529594,25.33821266833598,23.554919392402876,2.5364489365231186
18.9455141150946,121.6543658916319,101.52287444229283,10.75005216812474,58.24493757628479,25.84965014158661,24.0686351064083,2.666285417236409
19.49613989534298,128.3033685736219,106.43413548286239,10.862615189371505,61.40958945532859,27.001827888813914,25.347292119994865,2.7688067362567907
20.46551094141536,138.4394353314152,114.1910341848675,11.301328729688354,66.10493461842884,28.551077291290877,27.137697566011905,2.8231994900215764
21.55071644860884,147.0817778067946,121.16230631721271,12.114787577121927,70.02737471437145,29.759620809432594,28.60713002167401,2.8200980599732697
22.192345206762386,146.9243779476178,121.85211514770975,13.156676111317427,69.86041031115799,29.626553180481547,28.597399476044597,2.797589366724521
21.77779483821863,131.7225428819772,111.35925475579464,14.04456852355524,62.835267364558234,27.392681672725157,26.185198234888524,2.8371180950116415
19.873586636938533,99.86566259166094,88.03786065524571,14.175650355728663,48.32801474298964,22.98286001779243,21.19019410033162,2.989035506556658
16.3947742584671,55.74991048106542,54.67296550185724,12.889220618858467,28.412881505478897,17.060714714218253,14.286373018024896,3.1798496216728256
11.681687592586137,8.021471171127994,17.458998526199135,9.794814196857477,6.996092067610732,10.669599654853517,6.668482741012523,3.1957143027800328
6.46916143131009,-34.1119889804959,-16.513714815861537,5.104328920841089,-11.873102790840745,4.737432583802425,-0.4725058593480679,2.781562502943287
1.7183155891324153,-64.19505108809855,-41.77130609883854,-0.2980010097836101,-25.45149863317951,-0.22513545240617672,-6.337556066131806,1.7922856617034324
-1.6925961241343963,-79.7949914686794,-55.77247165825109,-5.193547852518476,-32.78768742183134,-4.1137373524780125,-10.612837437190883,0.2808214452656004
-3.336751557184196,-81.82889598488273,-58.88073426613727,-8.632523981909918,-34.34761360298575,-7.059610131449881,-13.360941314168137,-1.5435829541223212
-3.494787912690493,-73.45683179269828,-53.75846665649567,-10.420152754130564,-31.505110529224474,-9.350854772147107,-14.926958993511928,-3.4431743981954916
-3.1054691400256975,-59.82995243464137,-44.917806362753154,-11.114578882390719,-26.47677446290809,-11.528238996999942,-15.957650500477085,-5.240140983573045
-3.3284611760042218,-48.33883836366732,-38.27941373457728,-11.468615193302293,-22.494701123234933,-14.459915875275012,-17.38628119313322,-6.767893450387953
-4.8723969551952555,-47.71080069415946,-39.93432723256311,-11.666341726460022,-23.42033248874989,-19.115831732596703,-20.15270582891436,-7.721927068085516
-7.4672484624025,-64.95207185154045,-53.81784345029303,-10.92770294784025,-32.335962107624816,-26.012276220075382,-24.66137602150903,-7.577956216993261
-9.870260165659332,-101.30924154122297,-79.319479385388,-7.8638367688929955,-49.68706366669381,-34.66449627439607,-30.323968475940106,-5.737960217235802
-10.508126309068333,-150.02202673807435,-110.5946486832654,-1.4560974232444692,-72.2858869552487,-43.50048534832037,-35.614958462204896,-1.8977960491178583
-8.439584407235966,-198.00995721206075,-138.59481699288483,7.937698984181328,-94.15985334852908,-50.41201928269382,-38.75245122195958,3.5703108069792244
-4.068440485173365,-231.15685857580036,-155.0611323324174,18.234054112639036,-109.03631143389026,-53.67110542496331,-38.64795332751569,9.49814303726342
0.8631778451808557,-240.4211411558923,-156.2915475595923,26.25581204819388,-113.11437910816854,-52.67350624587687,-35.52555255809192,14.222620164378935
4.066920519815469,-225.3664772905727,-144.48279467549168,29.091454420691797,-106.52821680710969,-48.07455534206083,-30.78545074027799,16.227159457621795
3.8816334727949697,-193.29986898293473,-125.92721236951404,25.48333834631513,-92.73366074995126,-41.27787758150886,-26.171235177636174,14.828187351155377
0.17412130674822826,-154.91499512481877,-107.32482354565568,16.49834473431707,-76.37313480971807,-33.652834737499234,-22.77019021223873,10.549190959407035
-5.551615293069101,-119.28617874502217,-92.56670433481402,5.110924426507843,-61.05227901913085,-25.998995460190073,-20.493876109919448,4.9613067587702275
-10.904744707027287,-90.98016472572151,-81.80293037693124,-5.089591673703286,-48.30380030345466,-18.550116422706246,-18.35396447377782,0.03840085334242791
-13.795019763954809,-70.27549142176265,-72.92657248795538,-11.401909354495116,-38.04337181554055,-11.40558567362292,-15.308162141716073,-2.672175719939514
-13.402861253350435,-55.45277470254027,-64.05909371100789,-12.983925517011398,-29.816716604815035,-4.995849349424604,-11.089189251814926,-2.6648595190362365
-10.431660389760328,-45.13263862483133,-55.20378171096633,-10.879608756691121,-23.756946049380026,-0.19641879409876,-6.472798904190722,-0.5914746303998326
-6.573939386534996,-39.10062630491458,-48.070023078608074,-7.220128401733252,-20.5741742579978,2.0310556413144325,-2.8348041479908113,2.1454101976383226
-3.5650343281670325,-37.51040783467001,-44.507007070760196,-4.124447798321641,-20.750641769147126,1.237677554378902,-1.3284796804094212,4.077630235734734
-2.3787015406088043,-39.69080872167948,-44.969319999489954,-2.870285572052446,-23.768370545537024,-2.115449951293478,-2.2534876335831093,4.27919769733016
-2.9455010333548306,-43.89698050524417,-48.20686019072703,-3.6224433511123277,-28.107850614355424,-6.780760652829551,-5.002843637111902,2.639320551717959
-4.409061912527756,-48.201959102748745,-52.185894310437874,-5.652790780510886,-32.0125823341796,-11.29728156181467,-8.516351023028962,-0.24000727578160874
-5.657110290488318,-51.55190085203369,-55.259239355455286,-7.80693344169473,-34.34521037050382,-14.60953736305971,-11.831820162370242,-3.385116278921081
-5.824708638272028,-53.99940414577062,-56.68579611023372,-8.993164568613029,-34.89471078155631,-16.343258649317082,-14.37251691779988,-5.842392665172625
-4.59244132303609,-56.088104755588915,-56.43081514970949,-8.556820117084396,-34.079229463376635,-16.66137531763151,-15.917211344634765,-6.979747923859549
-2.2348328881182726,-58.07193760002563,-54.74317493305273,-6.463548255293636,-32.442346768727326,-15.917915031040256,-16.43320656084305,-6.632166136735054
0.5468533438331701,-59.47070301668105,-51.860474150453484,-3.2684796508558573,-30.290641103830165,-14.376213078687362,-15.948411797769156,-5.090077019895957
2.913390026349963,-58.99480140023661,-47.8485302246717,0.0775249824734684,-27.555573797465538,-12.123777631909155,-14.51965419741053,-2.973987468612818
4.160596543412316,-54.89830567813324,-42.613876634502724,2.492258423038264,-23.8991865546902,-9.185536342880269,-12.292372599928612,-1.0512546488778496
3.8745516888284897,-46.080581963207855,-36.32674983678282,3.052590538346369,-19.157335312547854,-5.765790714722433,-9.631845770630106,-0.02424784698352622
1.9883656669262229,-33.8582732769825,-30.242888849563457,1.3371449070060026,-14.046050547461096,-2.469581092781031,-7.233799255325189,-0.2880458235044991
-1.1535380901707708,-23.240345738278688,-27.234608316071057,-2.1979031394323973,-10.623360308433375,-0.28142959085197894,-6.028268444786554,-1.6810377205126847
-4.691197889698958,-22.01934943949178,-31.080081588303287,-6.005752851714912,-11.82817486022534,-0.15887116903122345,-6.755344329376919,-3.3412608920634383
-7.251421024872623,-37.15353941383523,-44.35385927106982,-7.708391429312534,-19.953019712667754,-2.385191888722723,-9.37366604976689,-3.842954721406127
-7.270562789760566,-70.15608069418448,-66.09763332341163,-4.971182875921929,-34.846262613297576,-6.114688059015291,-12.734473222138465,-1.7048168232230934
-3.6678434279273193,-114.56829813085405,-91.06240613570998,3.2833849831076862,-53.1338220749176,-9.534510090199495,-14.906891672305273,3.866708830778899
3.419336627269553,-157.68918204265785,-111.49257196886914,15.96001167404168,-69.26325700309074,-10.69591508705209,-14.13228615626144,12.353841069435715
12.305736480881194,-186.0791771238962,-120.71771748931901,29.79236248561972,-78.00285901020001,-8.594761548054729,-9.91000139093306,21.80410978193859
20.16531199197114,-191.8409404849809,-116.49108140481668,40.43776118868567,-77.01220721489642,-3.853247383247898,-3.533914690579021,29.374232455354797
24.1132412842779,-176.05042036548713,-102.02281102292059,44.23148544212343,-67.95163914925519,1.4615552182277525,2.3423116717011063,32.373037928391824
22.484822053104484,-147.4302623399867,-84.04928956697348,39.76451791680791,-55.45408505513897,4.846540257550841,4.968045141326827,29.362790295154984
15.650573700833242,-117.31164107754307,-69.1639193341278,28.495968027288136,-44.6119875192782,4.642553223550905,2.9085004131226166,20.811685899053405
5.899363867017964,-94.09744626992175,-60.696143005223384,14.093323809313963,-38.52624646759982,0.8392463078465696,-3.21011649553689,8.974444669466978
-3.587945344455479,-80.36180426414728,-57.900228376774095,0.8465796985436667,-37.29666761499417,-5.041243776494262,-11.051238593210211,-2.962052819777563
-10.145091909159703,-73.67128811705344,-57.560728156523595,-8.037671366528212,-38.788154023586515,-10.837943127048453,-17.772143316878143,-12.07225919463398
-12.67210781398734,-69.81837537856757,-56.5982481624246,-11.4460925321118,-40.388831045712976,-14.822651799774004,-21.34992037816438,-16.67123466973689
-11.825389074234671,-65.97185859394894,-53.86069819770435,-10.295881442433638,-40.51896117207321,-16.330055181211023,-21.301654585480666,-16.671859140476332
-9.355920664616626,-61.80684325698514,-50.12287849411921,-6.637926599392782,-39.04856992583217,-15.70665654644652,-18.523684508227127,-13.27451847211399
-7.07625764951009,-58.425230427121335,-46.718907738519995,-2.561445490717654,-36.679729254769214,-13.811291020430957,-14.537877344003636,-8.283392228291001
-6.064156655745407,-56.51186721509799,-44.16727542910316,0.5213986168242375,-34.066928183186825,-11.51684771677554,-10.715568671408331,-3.4415053996908935
-6.447303119831178,-55.44007499057494,-41.90334845116589,2.0309188523948856,-31.436746402463395,-9.491719840951289,-7.886884506468859,-0.01620464734564281
-7.697083264216749,-53.86042043564954,-39.09328368659797,2.016741622475366,-28.819254629673654,-8.18985435455917,-6.3401703429763066,1.3642255040114395
-9.106293127188954,-50.952187170617414,-35.597078811491556,0.8896460129524539,-26.42325515820837,-7.8219042552324725,-5.968141193321515,0.7227545446636912
-10.158969805178858,-47.256921622506916,-32.28929821198789,-0.7748842119711618,-24.736580924485665,-8.256687135386821,-6.404090866071448,-1.3584662761539248
-10.682813018540875,-44.71509084242034,-30.735754275206887,-2.3873962468243026,-24.38864390748169,-9.044487201067351,-7.194672125832411,-3.954224816855149
-10.805655919485526,-46.04912467114318,-32.62524282253595,-3.4893748119251726,-26.003093397198068,-9.70256100990855,-8.051798417790604,-6.1207066620713375
-10.770663418723053,-53.485660697101935,-39.04502359397637,-3.8629738879160556,-29.986322694448244,-10.073192447746257,-9.01596889004368,-7.215686146556443
-10.692019051039624,-66.77023459119977,-49.42441291402889,-3.563182393449755,-35.9822231263947,-10.366331210207015,-10.283357051724455,-7.071126405375615
-10.394345058246744,-81.25605603815923,-60.4600716994968,-2.888116216822269,-42.09890134822486,-10.746174261306644,-11.722525122381018,-5.959808496210387
-9.481361040303762,-87.84721177355101,-66.1120006571694,-2.32994012219489,-44.66773572746219,-10.813218975322533,-12.4993232174151,-4.417497906987285
-7.635032415788687,-76.15675007320947,-59.615782919028,-2.4951449806574306,-39.334367792561316,-9.538280409967056,-11.273997334294505,-3.0308675184311067
-4.938904612118826,-39.981179711096964,-37.00074129483851,-3.9341588613494833,-23.325216635725138,-5.85050153103141,-6.98475380184309,-2.2632153624569638
-1.9511422641784493,18.18998046421911,0.01297873069492192,-6.879735733131048,2.4761990798926328,0.5264232652835015,0.32739661973575496,-2.335177721677319
0.5747731751347,87.0627028488212,44.00059177975637,-11.0297414278959,33.27265340986625,8.6777729445447,9.325866810556725,-3.167317214892939
2.1367881156909134,151.562966166232,85.17083472890455,-15.572064742442556,62.4238272329904,16.906995005898832,18.03261222648668,-4.41397219473219
2.7553416090079694,200.05942904953463,116.07552533952109,-19.530267124594904,84.63834709296812,23.66034859925096,24.870992667315676,-5.615051207696371
2.8413309279565064,229.04248531837789,134.55204920876432,-22.265971864840797,98.14636265895302,28.24726426392574,29.315563935548543,-6.430361245331428
2.7513722383005064,242.1684099427243,142.94231870471148,-23.79681813468937,104.38177863658233,30.808679522060487,31.679982266992525,-6.83296214846203
2.397197924391436,244.68564738484966,144.40897240934427,-24.653894055603065,105.56785404430191,31.633628322600153,32.292621190582835,-7.110602802932159
1.2690829196701439,237.7724622706971,139.4207055123621,-25.320684754368134,102.2311240132002,30.49927057948896,30.83753241853531,-7.624437563447177
-1.089681053673504,217.36463130676952,125.31914417150556,-25.65176930161457,92.70710248622852,26.6924944827867,26.501505642645505,-8.461489095380653
-4.5120536705944065,178.4360006630059,99.33661001519657,-24.756099543312367,75.04941829312818,19.757127336115616,18.8587923010299,-9.24093332531872
-8.018859178479739,121.28600384612433,62.57482818254981,-21.521555529486417,49.75797884414633,10.341048645891348,8.755215179283569,-9.261203663969056
-10.226103950549838,54.74729462916154,21.622168693985707,-15.468396017611953,21.04385415940143,0.3819985776977407,-1.598139463537589,-7.933771187384497
-10.115662165381234,-6.439471855055197,-13.718248956759883,-7.338591794615014,-4.53201084153553,-7.626926470548131,-9.513689837607703,-5.224128479593536
-7.660356377786443,-48.51804615271424,-35.20997411167106,1.0185646403465778,-21.230055767542257,-11.84607411925905,-13.147472263233242,-1.7910161316657702
-3.8887360845434213,-65.34053939989421,-40.31207488983006,7.434903811260326,-26.99850348946608,-11.97968074790799,-12.390063997157165,1.291083703508315
-0.3562600687681421,-60.614476501602034,-33.05869883976384,10.416322572172934,-24.210812678960743,-9.304526976892536,-8.794770408113399,3.0621789144218963
1.6304623234493156,-44.88448119860802,-21.42113016293838,9.766154538860102,-17.999564088407798,-5.902921912913639,-4.6805426996901724,3.1325751922173946
1.5833210924964458,-29.7542628837381,-13.1222716211569,6.548318200678414,-13.470526680304,-3.6417367787244803,-2.02842753632938,1.8090990346292681
-0.04953914218888352,-22.935214190972353,-12.39864315288904,2.5319572325695265,-13.498974764347558,-3.4481763833429957,-1.754134985693307,-0.11967179572444661
-2.1614508900047977,-26.165990289649375,-18.97057625997136,-0.5011111451623256,-17.99902877470964,-5.08803962884366,-3.540219764426109,-1.7430786588793545
-3.4603753694016572,-35.79986294829161,-28.908745614086993,-1.29733939034686,-24.468232164045023,-7.354022413046658,-6.089976040173732,-2.3293028688964217
-2.9832094930069917,-44.91154746747117,-36.50206288736253,0.5322979415562686,-29.188442462871855,-8.547193236563976,-7.652763593052753,-1.510639709923516
-0.5525635979212341,-46.20474341371214,-36.55928938025541,4.345353710855275,-28.702393596612364,-7.208941690985932,-6.7674181209571,0.597663568524748
2.979417715831466,-35.323077257856426,-26.763753548955982,8.54457653056474,-21.35724986714722,-2.9475106123469987,-3.070970675310475,3.3431973956778975
5.912763321092426,-13.52680426792568,-9.26520775939533,11.046578334275809,-8.423747764434568,3.058358069601046,2.2352732630434575,5.649173770542725
6.380696890428049,11.966587880970664,9.629713616949058,10.118480593644856,5.975310273091241,8.340243057229877,6.70685514326588,6.3781414263882406
3.2743750911750236,30.930073882213563,22.09356999906829,5.233485476647682,16.495030983705266,10.258791035382469,7.7949627197300595,4.849800819870417
-3.101167113829017,35.21156229643128,22.62854204109135,-2.5621903409342197,19.117426831557836,7.4001228459064,4.225327423595014,1.2317141500751583
-11.071152038273901,23.057824409330227,10.937292663605646,-11.061782238212075,13.192041502641848,0.39830005948573155,-3.232170545299569,-3.470372471305997
-18.356160829179483,-0.008063871739883627,-7.971210209070846,-17.907626624900978,1.7116342700513023,-8.350905846608425,-12.112715569128577,-7.863055261950487
-23.127854783084892,-24.30544581273385,-26.525971163765814,-21.632581706155218,-10.358674440695602,-15.915943079899538,-19.518812272047125,-10.80801353621096
-24.75585191225241,-41.11779391414198,-38.48064649214342,-22.159020965641734,-18.65690163468494,-20.24532070954606,-23.519981628946063,-11.885419975881106
-23.8695385456013,-46.653264509374885,-41.60174262845525,-20.54995049295775,-21.34452912206479,-20.956280273913798,-23.87926975540278,-11.44005053350554
-21.80434152425388,-42.695286425633974,-37.779481541959214,-18.276550042142063,-19.360493943329406,-19.14338804043024,-21.793091213793215,-10.252790947338257
-19.850776759842738,-34.20977700769472,-31.004906813433088,-16.49794312289898,-15.193063352555289,-16.500221430031324,-18.981379606085074,-9.094046858477588
-18.74701600140456,-26.077911964519497,-24.918550396519638,-15.713625309513882,-11.25753955364776,-14.404858449085973,-16.79087855501829,-8.420703614841846
-18.590877311296833,-21.082614333070595,-21.430178839955488,-15.821764446222462,-8.913016248189233,-13.467810357486528,-15.783782133410734,-8.314889309854653
-19.051536003283847,-19.70097419697534,-20.690114539513086,-16.388123459837665,-8.370069597836238,-13.594763272418517,-15.829149551818537,-8.594987695917482
-19.657602856894584,-20.87276867873301,-21.740134564481036,-16.926848882433248,-9.077452194956562,-14.299036715556062,-16.421320336445863,-8.978443881530744
-20.022121655098637,-22.84876564725341,-23.193850495802916,-17.104942310741798,-10.152173912908063,-15.01127185550342,-16.98648908636041,-9.222020782992432
-19.972072821506952,-23.927531411170456,-23.81154734493896,-16.8465007642867,-10.754860016179162,-15.307970252419462,-17.111007553053422,-9.212920592725794
-19.5761353739745,-23.169984231565934,-23.007413913221374,-16.313080289467685,-10.441216946953098,-15.057306359152216,-16.685027128542107,-8.99181559460869
-19.060362626956476,-20.81518024592717,-21.077346782356994,-15.764259605714393,-9.350215892767293,-14.435412934671326,-15.906434255684783,-8.696896118199415
-18.648580752571664,-17.961337056741332,-18.881284841717235,-15.383369166876953,-8.029702926013758,-13.772269401852638,-15.111023763074304,-8.461239364271183
-18.43204351008442,-15.651029267223436,-17.15440571398689,-15.19274968396584,-6.985164818748792,-13.31506468144562,-14.533423496468288,-8.33633679700698
-18.35952595865885,-14.160498614508738,-16.04105000573381,-15.104981323854537,-6.3436124538605085,-13.094764457412225,-14.188421430884517,-8.292955677017357
-18.330241954890546,-13.105245592962738,-15.231942256213511,-15.03098596469099,-5.91576089643879,-12.99048032531958,-13.950911695008275,-8.277597024070372
-18.282593732554748,-12.073662171461567,-14.432180862155843,-14.933115482076058,-5.503554383709979,-12.887487564831751,-13.71329419263257,-8.25800143020271
-18.203224614853116,-10.989926979611374,-13.590407859730982,-14.801110058592515,-5.068872331731123,-12.752565128651552,-13.447623285402619,-8.222531106048933
-18.086630631665482,-9.897160256068672,-12.724028615563032,-14.620900557976645,-4.626370818652303,-12.584304427122355,-13.148660504208822,-8.160115238502879
-17.921322425493482,-8.645014449627947,-11.715590466095904,-14.389210736599539,-4.098857787760612,-12.35412316998333,-12.78209237257765,-8.06118562402578
-17.717728232424278,-7.008998350850986,-10.42263776497892,-14.14114912368851,-3.3806986112714252,-12.035480957219642,-12.323617629178187,-7.936708136794614
-17.521690136820496,-5.068626799308445,-8.933826212344682,-13.931340557526719,-2.516701661304588,-11.669136973773487,-11.82216586116528,-7.819126245479808
-17.376920745656797,-3.246109624768661,-7.557258167506213,-13.778074008366982,-1.7122747669321086,-11.349343608502998,-11.3752648187039,-7.733471720006769
-17.278520702891115,-1.8612578910181092,-6.492322208485446,-13.642446681475949,-1.1174714746920855,-11.127143342335954,-11.028612203284714,-7.6725481510455555
-17.181583747007483,-0.7530989257030609,-5.5969705012818896,-13.476385393050949,-0.6530214150498007,-10.952340467717228,-10.72706369450732,-7.609703524407279
-17.058356771300506,0.5280818942322186,-4.563383852386433,-13.282390656507676,-0.10950746954368348,-10.734416205845179,-10.384184157846695,-7.533822818085078
-16.930327936887508,2.198459847344605,-3.2787456341894043,-13.108886327983441,0.6068568503660758,-10.44663984574369,-9.981039806285299,-7.460595650576168
-16.832664304417822,4.054748570915894,-1.9081693168698273,-12.987193021438314,1.3979072320339974,-10.140854238584666,-9.567516981770842,-7.405313774856166
-16.75844173948792,5.818475140029547,-0.6229460990615049,-12.89060113670081,2.144491166446483,-9.862269562144936,-9.174059883484835,-7.354405487838482
-16.657860439563812,7.4893464829404985,0.6241710503918894,-12.76424914604825,2.8668676345756077,-9.587544082218663,-8.763595561724424,-7.275390763589329
-16.495353307159252,9.216186826146078,1.9636805878367232,-12.582124052527092,3.647475813778165,-9.27177619517405,-8.294249748295792,-7.154415531972401
-16.29251321366387,10.916254236951522,3.329031314094118,-12.359902981701813,4.440520158648716,-8.933676597589178,-7.804409005876026,-7.0148532814855935
-16.106361049843066,12.266666560294487,4.471845795359211,-12.121867894680149,5.0705690440266835,-8.650525694712016,-7.393020516885819,-6.896188950594748
-15.977297641585153,13.181201672417508,5.308525456324027,-11.883813481711657,5.467797213220182,-8.457623844578992,-7.106090683310288,-6.822327368520642
-15.911896351768004,14.157086853731323,6.147402878652109,-11.679824993332486,5.842117055146454,-8.283063620965082,-6.868993422449645,-6.794760995474614
-15.90474854997421,15.946874593420578,7.453927377509872,-11.578988963810922,6.540427975560676,-8.009909992060994,-6.549367121413705,-6.804368083069627
-15.943670715459989,18.829843303564648,9.388077704059828,-11.632266374203432,7.7185821179990874,-7.594632671770297,-6.072654215870389,-6.829560456001537
-15.974671762248786,22.2617109896229,11.630780598214184,-11.782490655897416,9.184181702721961,-7.102533421763714,-5.460684505402457,-6.81818596820359
-15.884461834800753,25.231642252256997,13.645483351596617,-11.843738973215597,10.544949505966718,-6.635318791441916,-4.783208058812737,-6.693317217148177
-15.567019775527937,26.883745224262547,15.020283591907463,-11.606033602490369,11.448776484327947,-6.260095275015887,-4.124850413592891,-6.410544580015237
-15.045380956832838,26.868318910973418,15.570928882963239,-10.997488027475669,11.690887927193657,-6.018757547950867,-3.6132301071137256,-6.029884246185962
-14.531604556882572,25.46224716725985,15.33775645754949,-10.178888231328738,11.253062391265802,-5.9544396077397765,-3.4147005913511292,-5.72652655505487
-14.340093783158098,23.77671598416314,14.762003459891037,-9.506226884494655,10.454789404371056,-6.052858080834259,-3.601279541822926,-5.704877018426317
-14.69124817238764,23.874888538176563,14.906286178763276,-9.385018195617057,10.1216781765831,-6.1324131944811615,-3.9645049851599294,-6.06019035812678
-15.522138360040152,28.12674367404301,17.20392943278913,-10.06436015740364,11.40562859320107,-5.8419292798527,-3.983000208811766,-6.670507455644011
-16.395112022788258,37.62140928092702,22.558448600823617,-11.410184248259942,15.107568401905688,-4.843272493125275,-3.0474992948724444,-7.175288186065206
-16.53254348767227,50.65923531796129,30.41611175599433,-12.741845583113792,20.927028822335977,-3.0395118087541557,-0.8026082974227547,-7.054338695299963
-14.987144112234137,62.848920004192316,38.73931020165142,-12.891148916130113,27.33313094473499,-0.6220699263662506,2.6503742702102575,-5.799568532255148
-10.953727707053929,69.29762738784525,45.13589880433521,-10.606539123212645,32.32780598422739,2.125690978449192,6.815150410021617,-3.1486072634036746
-4.159161588499614,67.62495066445894,48.371769242761914,-5.206054075594749,34.623349400010184,5.090148329759922,11.038000717399608,0.707421785149667
4.848887666281071,59.68097224980627,49.12046902786748,2.8747470580291528,34.392828592767266,8.412800577191701,14.74774162673536,5.07844304477097
14.724820855734297,50.67083889352873,49.40313204883258,12.038018176469931,33.0768430809112,12.321502185356852,17.596125930841986,8.985395068218066
23.73047828075112,46.207940518274384,51.18088345685638,20.11162939386571,32.43232668752938,16.851042068123995,19.50146340741778,11.569962631221625
30.360226356759235,49.25527028674296,55.16540854055503,25.286598869773574,33.53004929546603,21.683731952580768,20.638026780441074,12.494665227130216
33.86279402313686,58.91072860147502,60.65953566080659,26.864648069174894,36.36367998033284,26.227773224140766,21.379337039586105,12.089436819624211
34.37108031321668,71.52996408986535,66.32500837098729,25.37806105005804,40.16598586564015,29.832525059975605,22.147365848374235,11.126882544095531
32.58345326197056,82.95312973217342,70.99851416975751,22.054271920106533,43.94069091499635,31.92391353236803,23.13833963181664,10.332034703107782
29.240229396318966,90.12948267089953,73.82216864314107,18.032619435599344,46.69250198151032,31.977169774336907,24.042945192185808,9.922343128457499
24.78480038221775,91.5193946828536,73.88998788546371,13.87121691363838,47.383507809776276,29.503994945145948,24.028981064016257,9.488866864672135
19.441031758786142,86.95443091687885,70.25938046283838,9.607238745529356,45.08894193474395,24.29122308104342,22.17052327125792,8.321104978856335
13.582062340388003,77.70547181898058,62.71976356498625,5.194398344119015,39.582164325616844,16.84621170879214,18.150191486669993,5.971418677726036
8.01941979998071,66.53592291913999,52.654870127671316,0.9053537086765422,31.914035266774288,8.65922433488839,12.740046606316003,2.6821120417466915
3.921997315423679,56.99660556251534,42.964663126332404,-2.5965513916481346,24.304641532677426,1.9012248950969113,7.6435312124297505,-0.6065760268872988
2.3858812264745777,51.94452464153956,36.8212439409826,-4.518522540830511,19.205882411299697,-1.405901266402046,4.739397013140137,-2.6725427213930644
3.927316096720776,52.297988090399215,36.12092145191602,-4.333354677607838,18.148251901590907,-0.27326843553882896,5.19837041149195,-2.6108940064261783
8.18491205966046,56.98766330345668,40.69212422338935,-2.089558932630186,21.141470928150728,4.83548873626136,8.978820102004759,-0.3013982684212233
13.964840830129015,63.944237819215815,48.56998769699068,1.5111396539847763,26.871463267116848,12.227398912518025,14.89612003724065,3.4819733640969615
19.608105926043606,71.14211765913845,56.91185971656803,5.333325597049235,33.376477447276876,19.65337048292797,21.137183156869927,7.3782019633363864
23.55927508528238,77.07984950554753,63.064933344642675,8.270174776726252,38.80358040408398,25.108859895128997,25.968780780661447,10.035919107684494
24.93303576643469,80.93421629995059,65.55846889971588,9.736385762756404,42.055587534840136,27.49583139879201,28.38994832705555,10.718539451680732
23.823598145850532,82.77541643413855,64.75955561225392,9.901885607495025,43.18698473649678,26.939605023221205,28.476492098177488,9.600911235695625
21.17862176747654,83.63218237856867,62.721530420964406,9.507268234269786,43.29700184110333,24.60762349043555,27.217228748867296,7.592948892169898
18.29052738090274,84.93271515471986,62.01785579785177,9.382539459458002,43.80696129744491,22.058996795009183,25.876832327470577,5.805836067708085
16.1947942997758,87.49948917605431,64.17085257357007,9.986271601355803,45.500814554741495,20.450833602770913,25.253956334808898,4.9911792597116555
15.304373807443287,91.00905067770867,68.80932033763915,11.225836705281703,48.04423767845758,20.078261937696755,25.326728353605635,5.269436666656474
15.417456541898098,94.51776870627893,74.17176136566069,12.59186421617428,50.3720725615799,20.507012173399435,25.502958125214565,6.243749726808043
15.990918209709356,97.50734059512489,78.42096019867665,13.461481299464177,51.57431468794814,21.108716413013408,25.224901890130557,7.351292289512807
16.469338733781804,100.30324198280987,80.63898083808883,13.404470610119045,51.50066120969106,21.537145023184266,24.438945820099754,8.204319404229958
16.518788450523633,103.44167607917939,80.89215000280437,12.386448827611755,50.659395670243434,21.826597709978095,23.619316504057185,8.740833184161241
16.1134819766049,106.74654535234654,79.70062705899294,10.800741752730271,49.671475747419436,22.164959662592526,23.41115920293212,9.148344619286062
15.47942580862181,109.13819687805089,77.59158945187801,9.294950717506056,48.82960542485253,22.621734980770412,24.18711716061528,9.649001399050574
14.93993238692836,109.3562885315333,75.02135581113534,8.457494526583503,48.04531794721353,23.053713163419,25.789606148714448,10.298180151272424
14.762584421185185,106.95798348568813,72.52417435573477,8.547993268953258,47.1046044516969,23.23038993755213,27.59680391793423,10.934431199326955
15.115548722718291,102.97649716174152,70.934919145375,9.447957408465602,46.058837009695324,23.09728121432237,28.909169091544385,11.317922359924099
16.136954852915814,100.03547304255382,71.59849334179772,10.829553083835023,45.58853313429368,23.02285780480074,29.47278207172264,11.347958269880252
17.974601487222863,101.69877647434187,76.22301269428424,12.352439432599422,47.026575844328974,23.803639106234687,29.7640069836089,11.166761093260776
20.641846982319176,110.6354699351296,85.84301577041164,13.708804518155963,51.63291958079759,26.235350128824994,30.676683062115877,11.032926768122254
23.731643487046043,125.80274132368167,98.9630295190466,14.543136843228446,59.1525472035659,30.340670406240886,32.65013817578246,11.048747498780376
26.263587932536062,140.33142055184464,110.17215004875382,14.443492536354949,66.56869528814212,34.75398047535253,34.83271143950622,10.978315422417335
26.939727191409013,142.53910998461515,111.03025043113763,13.132427299562272,68.39111076832542,36.89036340028161,35.05666858452207,10.342749738150328
24.785768067295074,120.95860184753681,93.77522425515596,10.74480627241854,59.02041015614021,34.090608038129275,30.900637317276797,8.753300960624431
19.79717375786291,71.12137868736185,56.074660009333996,7.92905502622795,36.094881639019405,25.181189745425964,21.26151604449957,6.239224231184519
13.12308853503593,-0.2535187797933304,3.669954237926332,5.6140340735203695,2.637894459065995,11.441925465906287,7.364609072756953,3.32083701585983
6.604430822529448,-76.92739619956151,-51.25307576058426,4.550074922178642,-33.653200420669,-3.738912209868803,-7.547748882046485,0.7662021312616728
1.9204549916954121,-140.21295788319748,-95.37712571833563,4.922603344133271,-63.79213841269514,-16.39667484933123,-19.717382022398592,-0.8050261882650606
-0.14288606731931908,-177.4051019200244,-120.1963402714646,6.296250241751176,-81.59500613537597,-23.80603129843346,-26.63590013043057,-1.2122437840589138
0.10714618730978978,-186.69545464030452,-125.16691574913818,7.9134764476678425,-86.09138709008931,-25.526680654001602,-28.0233719389476,-0.7325701639384891
1.6399506999629507,-176.13771453822983,-116.56917678742862,9.126377808309996,-81.06208925557117,-23.181209991843772,-25.556354715080044,0.12177481001377587
3.3269001743427222,-158.08483810100614,-103.33904116129135,9.673533507192012,-72.38631462980102,-19.29284731562215,-21.70853648043525,0.8880007600131399
4.4255007373624675,-142.98184907847383,-92.71246367970512,9.67013674142102,-65.06873091426819,-16.00473551936315,-18.52443773093159,1.3238966938959538
4.7244604202645055,-135.90138542873655,-87.97468825520083,9.408660981047296,-61.56945878681852,-14.368364835492333,-16.972622372699668,1.4155526010219095
4.415473466315859,-136.6370578406408,-88.71263713617748,9.163294624811487,-61.82566341534269,-14.35205825759094,-16.986009396391893,1.2892948633013184
3.8700230209946196,-141.8965088098513,-92.44619863505152,9.10254326233842,-64.27715902324611,-15.274912333416358,-17.887502609091328,1.1144203943331186
3.4427025256326456,-147.71661539541645,-96.33808914124076,9.280268371040092,-67.01561511504622,-16.301563402192496,-18.862293988246265,1.0313606933138038
3.3366158314032233,-151.15970742022657,-98.37406129478703,9.644860155225222,-68.61226668393314,-16.810381652098208,-19.3129397212129,1.1037526863086038
3.5487158959371543,-151.16585884443384,-97.93288229747083,10.06632890534346,-68.5476862826964,-16.588316664325387,-19.049074272885026,1.302939843553813
3.9193277165090468,-148.53988754070824,-95.71338669285635,10.407812094211451,-67.21231815170648,-15.825179865444545,-18.272866040401492,1.541933077740326
4.26319157215686,-145.07454691540136,-93.04266055024736,10.61245444085291,-65.47616271426395,-14.911729807879516,-17.367370122946195,1.74348723755565
4.487409129308016,-142.29011989424126,-90.96376581553805,10.728321463835153,-64.07338771068943,-14.164589053235645,-16.62604076041868,1.8879696507078263
4.606040602093481,-140.70007159966414,-89.76564473054309,10.84284359148303,-63.24932053635879,-13.67778702778087,-16.12584838047685,2.001011352611237
4.6628155108004945,-140.1019738599658,-89.25254805152142,10.996602138852866,-62.90349709033839,-13.391756001631752,-15.814593722825375,2.103389038435036
4.663248939958967,-140.37010837300824,-89.31610988516256,11.167222467163219,-62.96768735508985,-13.25773643121069,-15.669341460977787,2.1836178072233032
4.589790240054549,-141.74349799680493,-90.10436510784933,11.326241602813205,-63.5401188970631,-13.297363935912438,-15.730471633227134,2.220892842044537
4.465749910757367,-144.27297272132716,-91.61750601016762,11.486594502703685,-64.62807652582288,-13.505539351452489,-15.985429506736796,2.224400011023239
4.379191248751923,-147.13117435959677,-93.26375118858691,11.682769649887327,-65.83775121592647,-13.737764565861726,-16.260496232231684,2.2404491112867895
4.434614715754997,-148.67996268848037,-93.95853003741713,11.92017613853325,-66.42058966582104,-13.73445940498315,-16.264586081718686,2.322642142781016
4.683376199873655,-147.38831267066575,-92.75793063977261,12.165857875544805,-65.69962905134136,-13.27476427753567,-15.75927889553359,2.4996695521986867
5.0890503201996795,-142.9145824242883,-89.53518985471057,12.387205651076806,-63.54968865997871,-12.331556365411146,-14.722106916094006,2.7626893521633913
5.526547867292941,-136.69275225063402,-85.30476752158475,12.576846020412724,-60.64195667718819,-11.138566656290607,-13.420724058710189,3.059832924123294
5.793191354779753,-131.82422802207014,-82.12174547256171,12.728491635799257,-58.38476415829108,-10.170312886356294,-12.395134604320859,3.288121309838353
5.656221155730941,-132.2046995435926,-82.51077677381406,12.810410812482221,-58.533393445261034,-10.027971393907634,-12.322289764335576,3.3107060607968117
4.984833874152344,-140.6872393519358,-88.25291303014042,12.79874789300909,-62.36295954071482,-11.168030538491438,-13.691725544925031,3.0347737996863664
3.937216944533091,-156.50786897694354,-98.6783951093161,12.751223878577836,-69.49637919055591,-13.482897449761927,-16.329177728864295,2.527728912035415
3.0583486347635986,-173.33041444667484,-109.41675589027106,12.831213815827455,-77.01457275946015,-15.961285194243139,-19.046580362362633,2.081732221787004
3.1416491423795034,-179.9309614709255,-112.96426782812966,13.235282196728363,-79.78101878215249,-16.782008538715107,-19.80072246439494,2.1448317110290733
4.865041752513171,-164.44867436776656,-101.60044604578806,14.087822595343987,-72.39142625748434,-13.996891651105713,-16.49224608541902,3.1298611788445827
8.401065474233622,-120.5943840746789,-71.45910120444204,15.405306456677051,-51.98784269092099,-6.524390195558076,-8.063478923700584,5.2066715908925385
13.248345962315668,-52.215805004744404,-25.338725660126098,17.14776215624733,-20.291593209770408,5.130244895465806,4.750045388740694,8.195917774439835
18.396239718176318,26.97343575353484,27.721417274824923,19.26715208892466,16.556633878394155,18.903932078355727,19.51619413732463,11.613035346750987
22.727301045799727,98.88159360748388,76.13454546589875,21.658108651070222,50.45934417117017,31.96803623795226,33.046540745460156,14.824068733597283
25.431244671566418,148.80087239965783,110.67283737763718,24.02569647449665,74.76618093419854,41.823804304892604,42.66261385518452,17.23046020472574
26.22716902863785,171.03387918856563,127.78638863581364,25.80438658705725,86.67663704423609,47.09435991335748,47.10409742404162,18.414937328788774
25.340030897928596,169.49026369114014,129.71015802397,26.27824712563548,87.45303614382868,47.682517783318694,46.68495572494451,18.229900946662514
23.33218851873331,153.77732981576867,121.96190267765593,24.92116705017698,80.78438232773695,44.430147536382314,42.817346408667085,16.84004747794828
20.922677150392975,133.97949176057335,110.34649607309406,21.77065221251881,70.73137236872861,38.67856497036239,37.345172548666326,14.708692175219664
18.832436458473413,117.24975203616384,99.23872842559715,17.54717933453872,60.50545729901013,31.99070559559472,32.03473116050306,12.482398864387644
17.614020692387044,107.06878686468905,91.33300035822926,13.3737571008112,52.259157258143524,25.966430260401474,28.256018315372625,10.761125641495035
17.472308303853243,103.99136439888984,87.91667538538077,10.255279193258678,47.247827691437415,21.959084973530143,26.737921143596246,9.846395407739447
18.185984497405908,106.54564059595597,88.94897035699441,8.668495976233503,45.83995342343749,20.702348138936454,27.406828640780237,9.629351304870003
19.230647998280155,112.0021293463787,93.08654975043801,8.505394305673075,47.455376984796075,22.08916418929217,29.461348877187977,9.711103249964554
20.0545137164283,117.28561484138797,98.07997255422062,9.324023745981263,50.74779408084504,25.291818024714903,31.7413513943398,9.680476555747834
20.330691164087497,119.89929220095419,101.5097648623328,10.674741039601582,54.050300917242524,29.135928098012386,33.21240068104305,9.363878307286987
20.050308329358568,118.40370040698384,101.48228440659155,12.310625143402914,55.836785482194166,32.47886634919703,33.30511269715859,8.90409534221354
19.463702471868285,112.4756368160113,97.1504065620049,14.225004885057977,55.099436639414904,34.45517061604219,32.01132268772445,8.655354660200267
18.945777462212064,103.12213705898841,89.21269441613487,16.52293982229523,51.76135352403083,34.634215956021805,29.817533210900553,8.97173461713339
18.81287524116883,93.17481549563044,80.22898118878665,19.14946008846602,47.04782603998196,33.128583283052365,27.538642950738705,9.97600270135468
19.088923612261173,87.12860785747509,74.05770081843244,21.583947993631245,43.32846498385738,30.541823674335507,26.000795150965693,11.388983250468039
19.30961731509325,89.30488168572175,73.99206228898815,22.740057441144597,43.027810913807215,27.633583880476206,25.57109112496158,12.514241112096064
18.5582670974602,100.85482281928809,80.40542524074036,21.289862075944228,47.001376436331896,24.821466518287156,25.770228842181265,12.453882126807052
15.852541734980047,117.81316490676247,89.68939972848221,16.357338337607693,53.53757326094995,21.88423654607776,25.33362338856387,10.517092927553865
10.73564177505919,132.2395962909347,95.70974363191009,8.185169906052487,58.95065476248865,18.156901971960057,22.849602370119985,6.6252195892866235
3.6987148791120026,136.25814574620765,93.15906364249776,-1.7071310171506975,59.584814878495344,13.122776679356164,17.642635332345435,1.4589077599911113
-3.890553061312863,126.46959680757134,80.6537372204229,-11.063575115078413,53.94179966305629,6.9626905252723965,10.310086526012343,-3.7809429438335624
-10.364708732437741,105.80867144396571,61.52725065565913,-17.860345721534323,43.52101303033373,0.6343907431410526,2.5190541543532308,-7.890126795289419
-14.512462506314648,81.7011829224934,41.87319828321132,-21.151402125108014,31.87537597181794,-4.593217074191555,-3.828757476991097,-10.172369726428835
-16.074490176054635,61.87858162735764,27.21404203814579,-21.32979149326581,22.591899080043934,-7.828330983625339,-7.537962876364701,-10.669569183889001
-15.719626783792716,50.6051532583831,19.928046886609565,-19.722184577071268,17.534562581794606,-8.998867287212867,-8.597232920638936,-10.015275296496677
-14.577070074188441,47.473794461317176,18.822848503959904,-17.83030700650363,16.348514661797932,-8.783322756243663,-7.967650723493235,-9.040786650210515
-13.653791310227025,48.923104137730306,20.653749967905387,-16.682560936158314,17.24449221836867,-8.145416666890549,-6.921061272606063,-8.384414749965458
-13.47092714878208,50.85847677822221,22.20216454311812,-16.592701862056746,18.259041050681276,-7.839404143139433,-6.407244124829759,-8.301524694398088
-14.039511015736181,50.54365973602847,21.583755545461013,-17.310370025452634,18.12602076482721,-8.184744476492998,-6.788786467856803,-8.707602579832008
-15.062412740794878,47.08901720488506,18.429493734745787,-18.34323792510241,16.471900384017015,-9.13194660704285,-7.941926249891244,-9.347715287259565
-16.172498979012527,41.038242997381474,13.421497141250994,-19.24097570069027,13.596577840025528,-10.442281743189245,-9.503156654015894,-9.963610203941753
-17.095708759615313,33.743857383141425,7.726545808476728,-19.757371789039937,10.167245599972679,-11.83221506011277,-11.080126734046058,-10.39517141136609
-17.72671733961694,26.735892285252476,2.483251491305893,-19.894120452617816,6.913598337589016,-13.068627949195303,-12.391696363112128,-10.61469616987658
-18.13082691569509,21.05702556779938,-1.6613724102315477,-19.8414662182809,4.312463343929986,-14.047485620250768,-13.35471305095206,-10.706208369104516
-18.47432319225924,16.803282834206396,-4.794321205195872,-19.840279885059594,2.3816636758640835,-14.827879640428055,-14.088804566834796,-10.799768068259546
-18.90968323517135,13.247203287494834,-7.54078767639577,-20.036606912656953,0.7575757931999547,-15.569136261435904,-14.808961121795909,-10.989978558476006
-19.489078979720592,9.48865696012725,-10.54969090619299,-20.42304065804033,-0.9859353104205089,-16.40409852786122,-15.67067415044855,-11.289607648775837
-20.170896443545768,5.04175865899949,-14.113541408923115,-20.89877889110746,-3.067387262981858,-17.365624294010306,-16.69873875455792,-11.649374701344714
-20.900498908068116,-0.13507160837826887,-18.220709057946195,-21.377568018391145,-5.4995567618541426,-18.43192078827749,-17.851412204154443,-12.018252901818986
-21.674860354701107,-5.984965075470693,-22.833079752382357,-21.84160093436293,-8.258574359603065,-19.61554356566775,-19.12229386644887,-12.38467430459811
-22.52699696137302,-12.491301507247234,-27.95611555939309,-22.31359597447808,-11.339548360550939,-20.96920257182813,-20.547386202575428,-12.767256408773223
-23.460146683310647,-19.408891091217626,-33.40905401346446,-22.806809936675997,-14.618772162573633,-22.491310565206827,-22.111970700743303,-13.179667494435755
-24.41212094280984,-26.034308368043902,-38.65976435875789,-23.31340143011517,-17.748660596190714,-24.04895123420741,-23.682515240549638,-13.612580266392762
-25.285915254733816,-31.50559351293747,-43.062636319252036,-23.82298836783322,-20.313562131825194,-25.426631181667616,-25.062582956822833,-14.04299103846115
-26.010869122851393,-35.49453973508443,-46.364786524718866,-24.327511431732724,-22.165670626728474,-26.47249732119314,-26.13109383160863,-14.44830563867476
-26.58712247169385,-38.65703535434418,-49.02563882220179,-24.8088910202918,-23.63357322079666,-27.22032441357142,-26.943786158337936,-14.811569996467297
-27.106883629604667,-42.43069978774162,-52.08795926794816,-25.25146643254265,-25.417477903957565,-27.9103168415737,-27.738297863738445,-15.13212837405053
-27.760194838673176,-48.36038689697773,-56.73224926908713,-25.692745364880043,-28.265472083527296,-28.923013024445275,-28.869159714926724,-15.451998659284943
-28.79549650633968,-57.356906653796884,-63.75088676830753,-26.254121272388733,-32.61848407884121,-30.65181243121759,-30.693078848984758,-15.87061498331012
-30.389378895052165,-69.0632961210723,-73.01613184704483,-27.08177352244577,-38.29796585305181,-33.298099613137005,-33.377358786142146,-16.50441153669341
-32.45141203354843,-81.40553908537005,-83.02617136052393,-28.210985762313772,-44.278508708561404,-36.61156717149611,-36.65272287119209,-17.38988900762666
-34.496414353934526,-90.72754423804582,-90.91605305488832,-29.454852251290603,-48.754214605245316,-39.735004660712384,-39.67451789302252,-18.391776095277343
-35.72992207954745,-93.07872156630137,-93.4195956872816,-30.40838354221396,-49.77698348465223,-41.375544283599886,-41.207359266192206,-19.190865062117457
-35.363018118063884,-86.55017836667858,-88.69255191903788,-30.565096892779515,-46.397741016334564,-40.35448750303541,-40.16414291346012,-19.37149147952086
-32.99973026893155,-73.35659734018712,-77.97755064163242,-29.47237491471101,-39.65921062940939,-36.27231171723471,-36.224431644239104,-18.562010773163983
-28.87365654011599,-59.87830789609222,-65.75406179644517,-26.86741801016067,-32.581307814349266,-29.851067463648743,-30.117073355214522,-16.56328214717778
-23.803199922714164,-53.9588160298902,-57.844192342086586,-22.78973357315926,-28.833717334441907,-22.681975110849763,-23.343748234605492,-13.430497485501864
-18.908506223530125,-60.79419353194641,-58.443821839388995,-17.67692969351747,-30.78198461385981,-16.514440919260664,-17.51421012172838,-9.507233405974768
-15.258156935902011,-80.10340982388504,-68.01696520340818,-12.400919038231743,-38.21556730518265,-12.55496983552454,-13.743966204402103,-5.412615166958582
-13.602664232609218,-106.6443699711314,-83.52410223057011,-8.144702885335398,-48.711421249067364,-11.217441280655335,-12.48656836710836,-1.9563721665296547
-14.224177377355048,-133.74428195447877,-100.73208676350028,-6.032813783948036,-59.389557594370956,-12.369595553442668,-13.771017281522635,0.061371418185054455
-16.824310075986833,-157.10313197044056,-116.67413240523837,-6.567939452386129,-68.66860892841144,-15.679820972640991,-17.43278940220553,0.1668967826331632
-20.426062074012318,-175.83715370646397,-130.22089882163164,-9.151518310237362,-76.57050312559751,-20.618220734288617,-22.964916044259418,-1.4692394775120328
-23.439707919230663,-190.15269533042596,-140.5151389780471,-12.08413884282277,-83.38911445127373,-26.113815474943948,-29.108109853932316,-3.9360870905378467
-24.09771073399137,-198.22194698473106,-145.1818896076643,-13.24378719247157,-88.0967334061438,-30.384004405412888,-33.76437763169954,-5.8831579909496545
-21.23254587039809,-195.72664341577743,-140.60345372225365,-11.174366206691234,-88.2139031712068,-31.44603444065169,-34.69923450553066,-6.150161834834265
-15.00757603780332,-179.06438086323922,-124.5948906144466,-5.94278240108022,-81.55663789211131,-28.205527376537496,-30.79795582237841,-4.385361974681712
