FZ,C3,CZ,C4,PZ,PO7,OZ,PO8
5.110483296500434,-7.76631434935056,2.6922602243658247,7.389868386752892,3.0426722885866035,2.6538350149227843,0.7005524575911196,-0.9848141249450398
4.86837232724571,-88.51486479355417,-33.744254841514305,19.155787527513763,-14.366073458708623,-6.096511589072685,-4.480470229908401,4.792797906055266
3.9582524734356683,-154.0261089598089,-63.37457286032023,27.664662003349996,-28.938349305721804,-13.30914117449795,-9.648282176600512,8.204699090611296
2.0519748383797163,-196.5952923888418,-82.82111561311166,31.17332187234332,-39.36018293826562,-18.46828111340234,-14.873543276699055,8.037223989287348
-0.5659863407317554,-217.79931039355228,-92.72805902684627,30.13462201830955,-45.97018069049338,-22.14554911670255,-20.052587937748307,4.821577210043381
-2.9641461351338507,-223.38309339961128,-95.19416717235745,26.65039643850191,-49.382825281504644,-25.012601686059888,-24.417184691297617,0.5701960926736495
-3.920552450095399,-215.93233090553022,-90.51774468491492,23.05693247400377,-48.93163038344428,-26.693033622844005,-26.3572810785591,-2.2209336262780046
-2.5941773004609527,-191.7513168514111,-76.33194134135799,20.536919959694142,-42.51262244052399,-25.552578895722064,-23.999536691179028,-1.7952242525224296
0.8582082811258815,-144.82099868467895,-50.12165146785185,18.624508438733546,-28.246670465596424,-19.774807201676854,-16.38382369697863,2.0465725582978003
5.1506893969588186,-74.86427809778074,-13.197522495053148,15.858761055477935,-6.809769666586076,-9.004014981662325,-4.502389102045822,7.930190489316174
8.378823236964049,6.84761543968192,27.10931355208952,11.075876708669323,17.383242646548027,4.6606950926944934,8.57634534723328,13.640182189497994
8.920682638922216,78.8312417590497,59.07881102245465,4.455116503665186,37.24025171990605,17.114618416030357,18.74082730941066,17.16109950641411
6.23816546469395,117.88791832265132,71.50957841258818,-2.3359992119141006,45.922976105522835,23.97905071207653,22.557550507571094,17.487511301926148
1.1573421890250104,110.12551021709754,59.21890414967942,-6.943078116681945,40.08574327278755,22.662221025624433,18.80284688154542,14.867897706738573
-4.500508736322375,58.272773618962525,26.028639601325796,-7.557240214626159,21.648092677537566,13.629921818820279,9.030213262012307,10.488386847511572
-8.735697487604146,-18.87512634109846,-16.508535224770984,-3.8603896708729755,-2.887569271933722,0.23152175295329905,-3.100943910300209,5.862149831631132
-10.229530798126342,-94.72258834661507,-54.09729886769991,2.8189289685677537,-25.267279629317983,-12.802535125138153,-13.400386158203952,2.250281710418528
-8.842134461522084,-146.5351874392069,-75.8707314429375,10.171748571088399,-39.03843674842953,-21.416274692456625,-18.870434252219752,0.32678629955750144
-5.537932439687432,-164.42652453138192,-78.59024740090943,15.981357290040187,-42.0327300512407,-23.828118037112116,-18.780858415952103,0.1266322226692644
-1.8230396103426243,-153.29090905738252,-66.86570339613097,19.005404864906687,-36.6091622040846,-20.95972555815451,-14.657126974207754,1.1898394422277216
0.9770084145494466,-127.5311783053233,-49.69997154180343,19.249199136686702,-27.77406834888772,-15.623780963705434,-9.311458738632847,2.786321216951533
2.227249446541234,-102.51509656930938,-35.681644253664764,17.626089464677904,-20.446789578359194,-11.0139886024917,-5.488330250564465,4.154970407744387
2.0890648645279044,-87.86971089894848,-29.512106741574303,15.355275337660037,-17.39641834019125,-9.27464104746615,-4.765769552547259,4.740315749800764
1.278912288920637,-85.44456597473928,-31.180815230035638,13.485844385005196,-18.662583183200557,-10.73217392514569,-7.094401897149552,4.392842137568363
0.6669534996420319,-91.27930499225613,-37.30492295069245,12.682010697793968,-22.272699170420655,-13.983144036793764,-11.024453940832029,3.436490807438228
0.8828718631508164,-99.05330945063174,-43.31392545976262,13.153865621257948,-25.536520833931288,-16.700918779734554,-14.453543487415052,2.507165854499728
2.04474630745666,-103.03757258796556,-45.45138183803115,14.619107480697593,-26.277915589627977,-16.807133737760807,-15.60501006036167,2.1971071378987155
3.7138808645240955,-99.9525546240494,-42.118619563749284,16.356847973569714,-23.64633120415475,-13.511914601135642,-13.846930723586581,2.712705554886704
5.13229783451038,-89.74106751941386,-34.28510471533558,17.476371343641237,-18.314799069641435,-7.7137035297150245,-9.95653827955246,3.784378443666461
5.648614756645152,-75.17684243193206,-24.808852981466597,17.348933908938026,-12.01473209975579,-1.50590675274904,-5.665263852525726,4.886812722009327
5.076148599405283,-60.458707220895285,-16.980968465788923,15.941718738910623,-6.654959876916371,2.955969742951216,-2.741244423719813,5.588088818479899
3.7418652084945467,-49.581458448638465,-13.139108432599446,13.816289310884056,-3.5467131495922146,4.540287095843023,-2.171553843348684,5.769823207939833
2.2158800438162674,-45.33833821240258,-14.078138091100755,11.80203232082575,-3.1450116034909312,3.5225818627452807,-3.903669535514863,5.600287891756324
0.9587667009292057,-48.89329197602919,-19.184438226381136,10.56791481952428,-5.22645662908431,1.135102581524786,-7.158428737635254,5.342047289194929
0.15060368147996242,-59.08621724469321,-26.6219006915404,10.309936115814034,-9.058064470400183,-1.262427722798086,-10.93415977401947,5.159531738429651
-0.2399161760934167,-71.2734394346374,-33.24736594212931,10.634661900312658,-13.303348349883143,-2.7805381841066503,-14.319287109391203,5.035045178478355
-0.30262483726863254,-77.04068795831671,-34.8027746655638,10.641577391045693,-15.947991433692417,-3.0968909824910735,-16.550916199895976,4.802623394364373
-0.1233137919100775,-66.52399640772965,-27.149727857656387,9.216324431489468,-14.747073391010666,-2.2333644081169175,-17.030395108907207,4.253213412460466
0.17004317288890053,-33.23099123078852,-8.396583830399399,5.5077606716370395,-8.261402031392212,-0.34978979152746803,-15.47245212242852,3.2547074446057316
0.36913937706809175,21.38805962225685,19.416013625482904,-0.586660198436358,3.1336102784413784,2.29269559195965,-12.11608014002835,1.8342645272256908
0.25252094258380686,87.1409981874537,50.561451775207466,-8.219243090212942,17.098994302106284,5.300887606739162,-7.759621500733701,0.18352433708089155
-0.27314750857627956,149.3686144853155,78.0821325734743,-15.870782714011861,30.34424460736769,8.221287294800959,-3.4772855902092106,-1.4181622733640453
-1.0837196911715106,195.99169714828358,97.09192771828243,-22.012990413972783,40.23953082769741,10.73538668095763,-0.1401660693951408,-2.723803642691987
-1.896142718748786,222.89242817395134,106.83467811504924,-25.782544814747332,45.98104264068168,12.812759311574036,1.9450096939139518,-3.6194803204880097
-2.4437550710787916,234.2180643684621,110.19208509588017,-27.255604194065306,48.55120467728536,14.63823053455202,3.0313642814316766,-4.150899786414618
-2.627142127549685,237.669097076647,111.08057423018754,-27.157078695966916,49.5730037132652,16.320729967092564,3.5890506494157233,-4.457525752948838
-2.5156722274961156,238.2359426135198,111.59555249563479,-26.21889635376427,49.933543153636336,17.61605132673695,3.9014786262114103,-4.65250548398161
-2.214625583501683,234.7204537186366,110.80487089150651,-24.653780376531774,49.15676755937895,17.924884640640155,3.889907756592377,-4.733321939606355
-1.7428987807052974,221.18026476463888,105.79514418611615,-22.130372204261818,45.890864851242505,16.615357986287407,3.2415914758445314,-4.597245695382687
-1.0494472344756727,191.92759481511843,94.00580732477768,-18.25288580040922,39.06250531248473,13.45500654132966,1.6873835958151895,-4.1547500731535285
-0.14562146886951544,146.47928202698841,75.2029014497235,-13.15121529018093,28.854871316904458,8.85126884279773,-0.7820097166841353,-3.444362545994516
0.7978034334037689,91.2622332115285,51.95938305089353,-7.697994771708378,16.898928272608607,3.7473316949958493,-3.8598333046004845,-2.641636634700341
1.513640629287178,37.298399689199904,28.631491802695958,-3.163258951593293,5.655593641219409,-0.7379490541776469,-6.988121359404286,-1.9438686414659478
1.8310916702795303,-4.33214091213087,9.694626452249565,-0.5557162271457167,-2.5411965391543676,-3.6895649143448512,-9.460005312703176,-1.4241771812317767
1.828904651101625,-26.46226722527066,-1.6035943813201203,-0.13198800297149116,-6.2273738137476995,-4.606161044930028,-10.534125471850373,-0.9805554343954304
1.7810048010817778,-27.556012654135202,-3.9330358958445313,-1.4042722818281814,-5.111887286222341,-3.444879004709395,-9.617887851354524,-0.42689031932787236
1.8826021861099644,-11.499114545384195,1.7550164961674535,-3.5752371125324163,-0.11754010475433573,-0.6586567633766308,-6.5716466250099455,0.34632896385249046
1.947855950341001,13.264892473331804,11.884284924327705,-6.012520163174647,6.608851766664613,2.68925753146428,-2.042967551433213,1.269933202239231
1.351059219514529,34.87812689526306,20.34397682467628,-8.40435229892697,11.834202577828004,4.901353086462297,2.4360087653934204,2.130765141471302
-0.6616901165081139,40.439797956800504,19.880468784743154,-10.565130965995865,11.926223094399962,4.010930347843487,4.847184524200579,2.7142510642076845
-4.451226077117712,20.258999646931287,4.9697029487221585,-12.172941330311769,4.221811188064554,-1.398974595585727,3.546105788359057,2.949280772474526
-9.612831685786237,-27.398004085704407,-25.097255941288264,-12.743302007860153,-11.48967890143652,-11.311468158748035,-1.846262209509935,2.9542146028557332
-15.039778772880151,-94.10203900108544,-64.97511298619361,-11.889503618093078,-32.368185296178076,-23.94947967916542,-10.09325085095618,2.955800423809655
-19.41608903818482,-163.8363201138354,-105.09247175290186,-9.64686649796976,-53.441282171316686,-36.36121746319602,-18.824747638106793,3.1400142634549932
-21.840074982550764,-219.6304835914412,-135.80307497764585,-6.577667703413593,-69.70129610562934,-45.67257244054874,-25.6147053161274,3.537284363638937
-22.202111580111293,-250.73797252930285,-151.54484075431395,-3.545607309580001,-78.23002259881167,-50.303639349026625,-29.035764923692938,4.0167749166392746
-21.11851672165693,-256.40725706230666,-152.70115777293,-1.2974960718507331,-79.17217361343255,-50.47551288490863,-29.114423607424207,4.385444628300017
-19.518418057460895,-244.49902351388747,-144.38932880590204,-0.12754292969295264,-75.13781334886094,-47.80519544638553,-27.022477628706365,4.514240824267846
-18.176800054902042,-226.37774914279845,-133.29141593571987,0.17031242102809624,-69.58197608743846,-44.33999951781359,-24.30760813062068,4.40200153696211
-17.456072039977162,-211.4202565677266,-124.56775825624275,0.07502260384430229,-65.20274659944289,-41.63699453227251,-22.16420461999218,4.146108900869376
-17.320510969770616,-203.9920070445441,-120.36568726713006,0.03500366648237395,-63.148673368326406,-40.32635791822097,-21.08926615735594,3.8643476019405725
-17.50842146894571,-203.59360856700715,-120.11104684813212,0.2907193747131629,-63.151004707146996,-40.20958377514511,-20.948597615596462,3.6364665374454854
-17.714997963022785,-206.94448682687914,-121.77236342225193,0.8724711667515272,-64.17164829007659,-40.65264454671724,-21.262836306350106,3.4937007846817214
-17.71774908695031,-210.31570104414857,-123.18193884305876,1.683909415922212,-65.08930978679663,-40.99709341415221,-21.513604832379478,3.4337549010184145
-17.442398117437296,-211.15041487057735,-122.9433712683876,2.5778436277214913,-65.17274023341783,-40.83680271364667,-21.36548164983446,3.4317376047428425
-16.967732486802483,-208.77866656649977,-120.81552221817212,3.411006618278253,-64.28282910344353,-40.12097145043946,-20.76498208689032,3.446748948963868
-16.459245658869765,-204.2670893347452,-117.55699565524071,4.099959400649136,-62.79830443421364,-39.088454522030304,-19.899174459821324,3.4393527208766446
-16.05906581183711,-199.51387301807043,-114.31666398182097,4.65953839321842,-61.308180770632255,-38.076592177545734,-19.0399560296884,3.395818581206907
-15.80676597691416,-196.03057498844117,-111.90671701786587,5.1777942498234975,-60.238561912036,-37.31155038524439,-18.371171038723215,3.334261507910123
-15.647142798488863,-194.16336897296773,-110.42476687154841,5.733695510463877,-59.65159398422502,-36.809318506299775,-17.91292601015321,3.2822337193465754
-15.500391259987959,-193.23375384278967,-109.4265640337223,6.335393780530306,-59.32596554026848,-36.43473484917162,-17.5734344971189,3.2498402252451632
-15.317854767773298,-192.31369099880598,-108.38757711125604,6.942912486220429,-58.99180161734223,-36.039187497123706,-17.24958524871488,3.2294996100215987
-15.083114213347741,-190.87883144932655,-107.01947987149295,7.54304365402466,-58.497005863045324,-35.55401443137757,-16.880009652995096,3.219926606604911
-14.791590424218352,-188.9058930901966,-105.28628523986148,8.18328021151477,-57.818737423878396,-34.993478053426664,-16.437070051959232,3.2401835027087884
-14.456114253784122,-186.64348258874915,-103.31132024237438,8.923585904652127,-57.01455757840503,-34.41617787353598,-15.915405548486177,3.311991271345227
-14.129187634814038,-184.47262768313675,-101.35936903985294,9.763492468590604,-56.212190359434565,-33.89819394258544,-15.349636522834345,3.429642853867359
-13.89055432397742,-182.8685855855894,-99.8064983528442,10.624739230960577,-55.59870126568084,-33.50776189830008,-14.822629709110577,3.553688563604663
-13.785315436814994,-182.166922735873,-98.92067523355435,11.398130518369449,-55.31615882386141,-33.250886635592984,-14.418287996060204,3.636644471640033
-13.767234156768618,-182.12637566750843,-98.53932500015028,11.999823801828077,-55.29886603310995,-33.017905588096255,-14.145234018775177,3.654347863799147
-13.710569351268143,-181.77020162480608,-97.99101902884708,12.40374227130287,-55.22467336843206,-32.611312042305315,-13.910548877478405,3.618440242025218
-13.487323308939947,-179.92151012399148,-96.46950912498761,12.671141250025903,-54.6919470711273,-31.881992013194697,-13.579052359150788,3.573986388275952
-13.047420952946581,-176.17085945417108,-93.6379152523871,12.987159767085869,-53.518561924079,-30.885253511728514,-13.065542276486129,3.5958913787107316
-12.45312471634746,-171.49087673473406,-90.00426156986727,13.644025317242521,-51.934107195792414,-29.921279056690004,-12.384474662407035,3.7750197798198877
-11.870561149549335,-167.94727993346555,-86.80327227630383,14.89615678972905,-50.52943633052788,-29.40382694081904,-11.642060344840203,4.1701861214679266
-11.533073308204274,-167.64300845229874,-85.46381623975097,16.717691983065592,-50.002234592399276,-29.62199483617703,-11.00751877618994,4.7322844344414445
-11.660529573505775,-171.42808764559229,-86.87188211595563,18.624428963386585,-50.80338093649259,-30.512631891357216,-10.67607389507647,5.255946354959737
-12.32301689838928,-177.82058429101124,-90.60110305823557,19.726907627406735,-52.76330192306839,-31.540888403753552,-10.791804406012119,5.418151502216802
-13.313657399468964,-182.49341390266466,-94.38293344014394,19.031210441274,-54.82052962892173,-31.763038563899634,-11.330231170831055,4.901197779064623
-14.16242675061144,-178.86088001974852,-94.32127938361388,15.83244210790607,-55.09682015461959,-30.128720282693713,-12.034368548564611,3.5249891439208887
-14.365767390737338,-160.2596289803667,-86.27092135612699,9.998409241487183,-51.54024527113126,-25.99236948683453,-12.523046881762529,1.303778750835518
-13.728100462841649,-123.37798498263061,-68.08959622418705,2.0341636717068092,-43.02033507737257,-19.62137360527376,-12.56311177160129,-1.5928110535745865
-12.560054062221292,-71.29265361063766,-41.548677261277994,-7.043105327809805,-30.29346517025801,-12.347847935326566,-12.30865142628271,-4.913459109689998
-11.514975871314006,-13.91489703387542,-12.416367332902752,-15.907160188815611,-16.095691749147214,-6.105028737670935,-12.252210683341557,-8.346476377566532
-11.087923518969504,35.33141248986732,11.909002802375175,-23.117115198361333,-4.023192479580137,-2.4462456482838024,-12.806142758646,-11.461303858151293
-11.090875555586212,65.56837216228327,26.25756196652102,-27.322327758541874,3.3584044928687744,-1.5491891446914772,-13.741577314626376,-13.650777398455986
-10.52066068491484,74.17839208508462,30.831769999841555,-27.564786517394843,6.091589703817249,-1.8533325622268981,-13.922912622277273,-14.213798841298297
-8.019983793568565,68.66170153889908,31.494735850185446,-23.6734045660354,7.009299650304664,-0.6935644535565744,-11.674427900435989,-12.638429946126658
-2.708775208563572,63.00502904192978,36.66618409119328,-16.542042044492604,10.224382195045905,4.308403115527107,-5.696433670542808,-8.955663257081623
5.150579444920358,70.29732305352407,52.52989823696844,-8.002483067678561,18.755245194947136,13.873306685103188,4.010684787726146,-3.9001756727311414
14.12520865107822,95.92795820234151,79.52775043349234,-0.20296742422779182,32.77061026612587,26.56042364039796,15.868421719240152,1.3096252280105098
22.27331502932189,135.45008363690434,112.3417746036964,5.244353266840021,49.5636792048403,39.466442961962436,27.358399293792758,5.503212541470171
28.08400790404706,178.0998774167275,143.2186541015743,7.873815754704252,65.19916059095806,49.70772101387828,36.227283273612706,8.094211305150527
31.10916950323031,213.2771740918497,166.28007508431475,8.374901743070318,76.67231707579758,55.78790305066203,41.51191867244687,9.283405774784805
31.92574870667007,235.62908728866233,179.95926392562646,8.00455037273282,83.15975816171013,58.0597749664386,43.75022220440957,9.793503676337414
31.523706380856567,245.75687028554617,186.19163715467906,7.779377382762364,85.6661679484827,58.08502725437,44.28214428809874,10.300904336891621
30.58661221873371,246.87349676958465,187.35844249542853,7.949881439515164,85.53602701943164,57.38326153384031,44.14510954449819,10.92914669478524
29.164024988388434,240.59004203635706,183.54427278041052,8.047006677394853,83.07572549655873,56.40934201616898,43.32609028526232,11.133930712606968
26.914423204618405,225.35366039007533,172.30270671049152,7.390946122675755,77.36687541376838,54.394081643317996,40.86884522427329,10.060426159774675
23.66980511787782,198.69034463796126,151.11195485986647,5.657598379129017,67.3790569904567,50.07665446446522,35.73088211793476,7.153240964561671
19.85477342629554,161.2185609787085,120.57286569399017,3.113597200581214,53.45748512415584,42.76977601532041,27.767103795956668,2.640001017320888
16.42771142822447,118.92620139967043,85.76961337942296,0.4097687941447786,37.95865444131036,33.02619596851291,18.14688184417135,-2.416609818406974
14.378831285765903,81.5471886742376,54.536097666236834,-1.8619759413703116,24.44907533929139,22.50357288338483,8.9215246753171,-6.547659824792331
14.146861773271114,57.89522259817519,33.64144858254589,-3.505625754399145,15.962091080910355,13.189540859628353,2.0453639831797585,-8.551678691823554
15.371947569803435,51.33836082448393,25.43547010320222,-4.722014282711088,13.503343473443847,6.5415963787149956,-1.5023194366757384,-8.03628267690068
17.147920810966614,58.46481212598821,27.138308930763845,-5.81642927306231,15.78302688493922,3.0565893501667394,-1.9821751403302943,-5.546847940740803
18.567084356199388,71.55859987768028,33.006627379492194,-6.8780867266713335,20.214892654298417,2.3884021658834866,-0.516329533446395,-2.262270595146803
19.163524700252438,82.79198645973521,37.63528765837759,-7.684382088626792,24.337590204486403,3.7377261642426736,1.5453481972267717,0.5324102852361969
18.99845799004846,87.30020725129773,38.22778561385281,-7.863529440992202,26.709222012972187,6.1728159605969655,3.10144722979876,1.9310700098780211
18.434190617664758,83.92950756683773,34.91732175597737,-7.154913975038219,26.98752864398735,8.789267844686474,3.5044091575417267,1.6734215349391672
17.82316933671533,74.54907029554491,29.760674914429956,-5.609549375973947,25.600338774216347,10.849904326472561,2.6323687798951605,0.1348216263822138
17.285637671410328,63.248394573622384,25.47413886894027,-3.6908557401885402,23.471160430588995,11.995242229808502,0.9180494660681847,-1.93205941930675
16.611530322897462,55.498731418344256,24.361982936424088,-2.2750788048715687,21.809929484997838,12.382728038633143,-0.7722179511880004,-3.793207509892082
15.279245378839601,56.42921752711564,27.34081665216042,-2.4859089739410907,21.692683451350376,12.536348730229046,-1.5333373343699312,-5.082048215350588
12.624909651346236,68.1810633395917,33.19626054810104,-5.296777489119884,23.422476475146603,12.916952473979281,-0.962487120007578,-5.915850528003246
8.173574182802316,87.92747635084037,38.688975136314475,-11.002259147879242,26.124395392436828,13.52317310846334,0.524149421696754,-6.717264161673203
2.007111231105681,108.47577441568156,39.9232045599439,-18.861638442556345,28.05387647975745,13.859882935168633,1.889751660577229,-7.864270345506969
-5.071679855906602,121.68809904287792,34.44980164781349,-27.21580272375033,27.570520637631745,13.314613840614765,2.103384082363422,-9.402563732746474
-11.752786185420886,122.74639914811222,22.808002835094822,-34.11131134645138,24.153213065233086,11.64636495811734,0.7713134747784895,-11.001284389334815
-16.748861559782238,112.53768373649685,8.423686974795762,-38.124970128332464,18.750879944193635,9.213582210504239,-1.6514643575938803,-12.158917880025028
-19.354969556205756,96.7243494161149,-4.142913454406534,-38.93125022901837,13.23513176335019,6.786136169332636,-4.178482941408887,-12.50257240416876
-19.71516478090861,82.30238030765787,-11.50719626480409,-37.30629262961283,9.348025719595926,5.098795799533457,-5.88167334020574,-11.981776617600326
-18.655158033854807,73.97932459666184,-12.913917862936122,-34.61028377076769,7.847441550204627,4.4697753203096635,-6.35216897055652,-10.85325943377957
-17.21266876026929,72.51105697659493,-10.081704041358812,-32.09423819687528,8.34219308194731,4.7205092040979375,-5.781321632072921,-9.504937700266158
-16.165138480072603,75.51379050619468,-5.808504011782722,-30.42961096023525,9.776379426866464,5.385129668285913,-4.707908462254284,-8.259723388940953
-15.804190178252245,79.58657572897555,-2.423635874155379,-29.644564047179024,11.10866971078113,6.0052630177221,-3.6748547424086504,-7.2733976833850225
-16.000364236014626,82.13265750582023,-0.982029335089206,-29.364741689962873,11.742280903759042,6.313620584532853,-3.009379173570406,-6.541707316172256
-16.422646738118065,82.1004310569963,-1.328191352503805,-29.125706482700608,11.588666175737053,6.2618737076177595,-2.7749025611103373,-5.960146165770461
-16.751095366956363,79.8731034351115,-2.5928969384740705,-28.595377988649695,10.921209566759815,5.965742995493394,-2.827111547591742,-5.3852290732406125
-16.80777666501986,76.78423089374886,-3.718697957582929,-27.67504617947661,10.180051181183991,5.629871033313694,-2.9140669947757822,-4.687674694610859
-16.604374010643827,74.41286046046216,-3.9167375525427786,-26.497696245992863,9.762162365786006,5.4536593734589625,-2.804997387796424,-3.801400197689096
-16.30987407473285,73.71384007581655,-3.035356649647925,-25.327426423730053,9.811884574769154,5.5218126711436,-2.4178476677059617,-2.7519240143424195
-16.13739073078149,74.37882592513797,-1.6571651909829639,-24.38387235643796,10.123703371545108,5.74183322359265,-1.8699983736834,-1.6404841347428039
-16.194047622363783,74.9846900912957,-0.7393928947548318,-23.686323669417394,10.277116882277001,5.897554391581506,-1.3975542220523334,-0.5894635645082446
-16.392089768592996,73.98424442915703,-0.9473233301060758,-23.035126909564188,9.949522463977143,5.7996369591450385,-1.1887153316547636,0.3143852154119494
-16.49792587703272,70.85451373611058,-2.1530132901369248,-22.15643701959897,9.173689913730623,5.4227891280637115,-1.2516474743091806,1.0509623926742113
-16.294139519566762,66.5684256918171,-3.4696897827855326,-20.90571381651337,8.341590966786425,4.932608560166197,-1.4018047054270488,1.6774076381857714
-15.743319547851499,63.14240360868103,-3.758405039018642,-19.38782204836339,7.97257670017621,4.601951907514935,-1.354886799494464,2.330782370760827
-15.051318576562073,62.63445136603824,-2.254193457664911,-17.931022958220062,8.418720138192851,4.681494031501826,-0.8618361084101084,3.205032859796897
-14.601396259674562,66.0443876539951,0.9576169032591874,-16.944622289585443,9.643577341589554,5.269562772222024,0.15262259728831892,4.467501233208217
-14.785071188394937,72.36904730212719,4.707462369107589,-16.71270890113493,11.11533716261868,6.196488760219926,1.469818329788498,6.122484803152749
-15.770334164676678,78.17949839936634,6.88931642623902,-17.171809034440365,11.871311527731404,6.975767591388679,2.5440373617913923,7.900881752586074
-17.27894345216334,78.4040657260415,5.236290508673765,-17.767716075568384,10.871357722688542,6.9261268175263035,2.6608361937600766,9.275235260058789
-18.51025640482977,68.71458891776896,-1.3011981297949489,-17.549302597839215,7.6424118481707835,5.509130733761077,1.302520704316229,9.631045030800124
-18.36136362249202,48.68155954512539,-11.262988032542896,-15.595688480979765,2.8990765603291355,2.7406435726776173,-1.455059959964951,8.51987241711119
-15.952956316828727,23.598771061303918,-20.57662723533056,-11.636630138747819,-1.3905922782420754,-0.6171407255721771,-4.808010810397849,5.863616655381144
-11.22227333796194,3.001932082846149,-24.26882369861818,-6.475678984562867,-2.8118830706644706,-3.3109102978932032,-7.535080999949712,2.009748880657441
-5.18851194935384,-4.174403451050976,-19.367741626530076,-1.8153072321389165,0.09562488776730434,-4.243114598357783,-8.639731402286797,-2.376406771325645
0.3871281399707576,4.660504050504222,-7.274202320565808,0.5895516138809354,6.663093787997063,-3.1536474226373516,-7.945117495258055,-6.513322109072973
3.8577826503251784,22.796983999431344,6.134550223440696,0.03851541175317903,13.99349809812821,-0.8922756375486322,-6.242769454075153,-9.69941015915583
4.596471507097681,36.52838878282262,13.145809654394,-2.4505160633269694,18.204357574723876,0.9488564845695732,-4.858908896048945,-11.440775339574323
3.3811486776144575,32.026861810594106,8.284111447304017,-4.454739428597601,16.41813550253277,0.8772275524582009,-4.883439022777145,-11.513245429711807
1.9789883240171204,2.974951905526331,-8.589226662964974,-3.3739011360153066,8.3489168888347,-1.6718578515434224,-6.540074362556869,-9.990092901012844
2.161085799525779,-45.68695238750366,-32.08065484879442,2.1293230583963605,-3.490295214612526,-6.026480480157526,-9.087380758150578,-7.235783153658006
4.752811556471047,-100.24943470115994,-54.09890865089629,11.37374002554912,-15.096034730157234,-10.675037952245548,-11.289964630673486,-3.826477172556613
9.286817151226511,-145.4061622486488,-67.9642990629326,22.06060102870273,-23.00077169978011,-14.112015312430746,-12.13917165524507,-0.37494972841609925
14.410564759268038,-171.72931905348494,-71.37055174379218,31.549107845423986,-25.825198052716072,-15.608043290972654,-11.375433869215861,2.6867392482768935
18.716333048186016,-179.1436937400187,-66.67182346790133,38.177551839278586,-24.535216439630233,-15.455220428674956,-9.529207688596411,5.244064639853189
21.43670735109011,-174.84235406716388,-58.71001527855838,41.82347653619896,-21.42638203050406,-14.593007254604661,-7.519733550585049,7.4446833033608995
22.603827745535263,-167.58774365970632,-51.820502689498014,43.443437150043174,-18.61312603593426,-13.912624595963438,-6.111351228481971,9.451903238569422
22.67195691108408,-162.30690864776736,-47.88478759631987,44.01813159571284,-16.990793156674375,-13.70799708883774,-5.562066030028645,11.15935126506772
21.965452593007438,-158.14709006903672,-46.29100088567057,43.688027674230995,-16.179337907422006,-13.587875340938295,-5.611030966624073,12.0889301612147
20.387975447448802,-150.4775417439015,-45.25464833034276,41.66567710860325,-15.2294301885477,-12.826912428664961,-5.711941532100866,11.595378132454778
17.57624548834971,-134.79837419965392,-43.2292583437638,36.91874521156116,-13.435807731285127,-10.875242013835585,-5.31940322271184,9.275514441381164
13.315458480814604,-109.83493031655172,-39.51812216393342,29.074996607265515,-10.726985879564525,-7.721418554450707,-4.107953507116087,5.295920281419215
7.84798362766335,-78.28957530668781,-34.13052883785462,18.890182805379435,-7.562296242266868,-3.956004067012914,-2.1128256047615515,0.37443281337397627
1.8345803960327633,-45.51702586594961,-27.51098025826622,7.986745390512235,-4.6272658019522135,-0.5568118625617806,0.2039975691547496,-4.606206682367217
-3.9606925962942885,-17.46323968614048,-20.594345741387617,-1.885115522175837,-2.628176870038865,1.483791399082947,2.0226097622954775,-9.080144257746987
-8.96311759015598,0.9586885235443654,-14.996033736875319,-9.503761081876078,-2.225997496917455,1.5485808623073352,2.4494391113819556,-12.999415594004699
-12.804172067458198,6.869251698916207,-12.687357062072971,-14.338505248084987,-3.8962726700509807,-0.3127021134357144,0.9952827704395084,-16.58232411705685
-15.088230763014916,0.34451226315642935,-14.769294938423684,-16.268526437830676,-7.528685412096218,-3.272928412311156,-1.9554623812214775,-19.81334311543191
-15.202367876631989,-14.5969466387393,-19.900487350955256,-15.270376761266483,-11.932142064061974,-5.870791034531552,-5.004932885920552,-22.13121706840866
-12.46317796214146,-29.923512520986254,-23.743298379402948,-11.428609365183204,-14.765068972975062,-6.44855938864928,-6.160438568642296,-22.610218471652903
-6.598809470119172,-35.72574027094129,-20.47574358954809,-5.2320390038370626,-13.308366339731608,-3.8024185967922666,-3.722777604161799,-20.541125937521475
1.7757436158626507,-24.43798772814438,-5.922290986137128,2.208478871914777,-5.871582158367855,2.2198885538607196,2.7986444648959043,-15.992004930348687
11.104612689044897,5.022385600567644,19.617403517778676,9.341859744881534,7.014961248199347,10.5168037860631,12.292860919056782,-9.938352840987816
19.39984455474642,46.00396827156956,50.85089599452722,14.736859256164719,22.49855496457524,19.10964484551303,22.457770646343484,-3.8641148828166907
25.05593181340103,86.95390477476592,79.81855756415166,17.678792648517653,36.596209822164575,25.957243190648878,30.818012339490387,0.9104677887416206
27.49621657888078,116.86942192233276,99.69695020363234,18.416794180488566,46.021846280016604,29.799066900523393,35.7930941683854,3.7694335350918466
27.28868605009639,130.20833334384244,107.80181124351378,17.914998163452022,49.58142301954243,30.589622495896897,37.24815461581225,4.930242865562362
25.711280283818713,128.54138224351257,106.15886456350532,17.290907626450544,48.38236366161247,29.322963462243045,36.29230254397651,5.160615276345423
24.07332090047733,118.41972737151832,99.65864351423062,17.30230434303812,44.88706885871915,27.402127750998794,34.53760658793423,5.314286573870424
23.19080680899535,107.2782913152001,93.25116612361852,18.151221795063726,41.52694649756928,25.9535434640018,33.3015408288279,5.961369266478108
23.2364360543466,100.04013227200385,89.89809190382884,19.61103374201762,39.71428053117614,25.454415435578984,33.16800718191594,7.257524734109031
23.912845305160044,98.00158129982559,90.09289332098635,21.285115269451314,39.63901949535137,25.774769079885505,34.01320544216826,9.023797119651455
24.746677942052663,99.72887732088763,92.60241955862801,22.81427650814675,40.66281863249998,26.466540042780693,35.317914533283165,10.923804892067773
25.33687651683667,102.68532453930872,95.59442936615163,23.985841238275132,41.883326144631475,27.063614806732215,36.5186296685863,12.642792825678894
25.500440009861872,104.60463969174934,97.57702826062703,24.781166733970583,42.584414091950755,27.27306706223259,37.257115269689095,14.019823618751124
25.313324881268898,104.35570357511261,97.97564276394414,25.370487336782094,42.501501396996645,27.058880996962458,37.49733526968164,15.103453201629614
25.04045581854072,102.27687730039607,97.26800053604573,26.0253429840015,41.879716722965476,26.63133636925418,37.50155887741723,16.10924670430119
24.969552369271852,99.80815821639615,96.57756946875213,26.964071179524677,41.277945563397594,26.32466158068148,37.66147615181288,17.29303917864611
25.230660322674915,98.43152155270661,96.85870570593357,28.224804102471914,41.17255437299682,26.38729090688182,38.24709479442142,18.804905493651734
25.717208295845914,98.53911911349536,98.18503418264005,29.65547863164485,41.60363690510473,26.803978155665888,39.220059016590646,20.603088376547525
26.1597376634606,99.12425610765548,99.68543031953357,31.01086053882477,42.13637027048208,27.285579857761018,40.24240372119943,22.46596514427423
26.29257414221946,98.58743393795918,100.18601688780758,32.0706048554607,42.176495685003374,27.445780023567757,40.87943510211012,24.08678671217013
26.007235940693054,95.99858650743722,99.0658045986328,32.72373079829679,41.399305790924586,27.04486326487309,40.86761168380467,25.216379300340456
25.430902702371526,91.85891419747121,96.75752427978956,33.035715340190464,40.00470899545342,26.156075022527098,40.30486829677793,25.820239279143635
24.920332256143983,87.97030212824198,94.6852064942676,33.303683166254665,38.69074243952344,25.190649184144068,39.68934993568532,26.193928652639663
24.955336781992866,86.66221359708435,94.73034254374484,34.0202656952877,38.39422146980722,24.779804116116388,39.77752601663302,26.93995414734541
25.903141119750824,89.68961915398077,98.32563671177118,35.650120889562956,39.84985326647173,25.507598617473274,41.242118051722954,28.722565651866205
27.698263100227116,96.9353916183979,105.30815061197417,38.2601484621503,43.02437501841332,27.514267881085107,44.18229784185405,31.835563534056874
29.618983360917746,105.32742435445839,113.02481661665722,41.225124118832035,46.656739007268484,30.125648809411004,47.70873754523099,35.78539842259958
30.387862927852712,108.95841787735411,116.54116795962346,43.25845193092646,48.32749753381604,31.803017159412637,49.945940740212684,39.17110927247256
28.667882126076428,101.24579727760369,110.47405234864846,42.83620218436961,45.33960204262556,30.635496575539275,48.66110055923101,40.04109411467824
23.748997746978983,78.57771179504242,91.84285634115116,38.83668210977343,36.13956003881696,25.26157722593927,42.33934494719496,36.66106613036082
16.040919456343147,43.26119754188652,62.263667950397284,31.091854956375254,21.454405905236143,15.738402218189917,31.146299166938856,28.375111351970517
7.060435075018909,3.4126751709441705,27.86458478584181,20.596399366402927,4.3129293463268805,3.8002908700401767,17.170527113244045,16.128855323489706
-1.1143638327903174,-30.715179013477368,-3.3276444113806867,9.27881898466582,-11.21712183873253,-7.728314061081626,3.710817175739201,2.3335383008506487
-6.644343990743657,-51.87434483025344,-25.041436226329193,-0.5814870741129062,-21.868654176562107,-16.082936353811444,-6.058915630276481,-9.942200295228098
-8.578244705823218,-59.05919751614842,-35.19970195293992,-7.078776497648943,-26.466039440750073,-19.639203465999138,-10.334348497098535,-18.112316131248917
-7.077359250409691,-56.66557960303378,-35.74936872453535,-9.307452083660975,-25.927423698943787,-18.35664980794914,-9.200983291760352,-21.02046163504322
-3.2266623054131482,-50.33352781089503,-30.38185420460286,-7.708546051653333,-22.16750465885181,-13.46090270946341,-4.279384753371848,-19.27408581358784
1.3544767160563551,-42.728062570669884,-22.102830297751186,-4.021268530316107,-16.847463354971538,-6.725897208924551,2.1315212448720837,-14.8602845498812
4.912387219613504,-32.497423819902025,-12.43176397547429,-0.780423988547052,-10.889808477345063,0.1272602220658422,7.863923890173145,-10.265826224829844
5.937847493449302,-16.997656208000997,-2.3857752405777637,-0.4238769555154557,-4.901037683904041,5.669445711071959,11.334933524047853,-7.506179178818347
3.561321824941083,3.7387420099092377,6.185461909654102,-4.297649540113227,0.16853175067470433,8.796353482520704,11.700037959326632,-7.457907838307465
-2.1045230579006455,25.242334899544296,10.495670875127194,-12.023871279456081,2.9290493195706873,8.843783217842768,8.905008458643964,-9.72190446501921
-9.88261829779706,40.574480214172134,8.239747584564768,-21.616949302858938,2.2145679142179326,5.848938624083451,3.700513138177687,-13.004154533390931
-17.88118489576558,44.532795592329386,-0.6305130677822909,-30.361679573286793,-2.035040285171861,0.7222605324353569,-2.498048815348561,-15.790086992007483
-24.207173680342528,36.9643346100874,-13.306213271297121,-36.02468040277225,-8.439449469991517,-4.950838646134324,-8.01898056759486,-16.99481874968022
-27.71280145376672,22.859222814214164,-25.324501200914742,-37.762864347595595,-14.738218449586844,-9.504226334311403,-11.528855190334303,-16.32271393114544
-28.378296986495652,9.310219837674655,-32.834899420764245,-36.27317812066348,-18.913135501825504,-11.884775839847658,-12.532058877254258,-14.22897036415871
-27.136261985270824,1.5754970246269693,-34.42696825474588,-33.18716763395518,-20.132664996867796,-12.034646882974375,-11.48544027988553,-11.56775970038494
-25.282144417659083,0.8218215545440257,-31.414084331101936,-30.146334784966808,-18.946040312104284,-10.746269432183412,-9.45799581364196,-9.146313549263315
-23.847256927695906,4.566751724919754,-26.64803029080086,-28.107453784036448,-16.73424610582171,-9.129886783653461,-7.555519689398747,-7.411319717517247
-23.26869515854666,8.85794054801052,-22.880714963402852,-27.173362962501866,-14.908726213062263,-8.060439158872214,-6.453951521879775,-6.373863618135604
-23.433580497312327,10.495537028761115,-21.65753324314413,-26.865720082494487,-14.348239923962058,-7.89440532201443,-6.247527304290949,-5.725528528877045
-23.936534958659525,8.33780822498399,-22.99420413095685,-26.553922117839075,-15.200224950172641,-8.48376092885997,-6.570457586061639,-5.026688511841488
-24.346142082617234,3.676530177918065,-25.557415154431105,-25.80829047792703,-16.905626979218887,-9.340345938743972,-6.830846409282088,-3.8857126077632516
-24.38557158568016,-0.215428583843832,-27.17697932635422,-24.58819200316042,-18.373977885610834,-9.844071116209891,-6.461142990933324,-2.1130001053692395
-24.022929835609315,0.4377056048940442,-25.783232874519502,-23.23874281155798,-18.395833025641345,-9.494699992690451,-5.176979746052397,0.16109223261027886
-23.460467280177177,7.572908323421468,-20.64597391104315,-22.278771002353892,-16.281060651464713,-8.18341994756924,-3.1955889480802027,2.459217821799657
-22.99508250741735,19.293436667224928,-13.231289433045458,-22.041506535388,-12.39961036747882,-6.3344179874622455,-1.264922853559208,4.081733274157832
-22.790419034690476,29.88812457812391,-6.875631744650644,-22.370443279255223,-8.183039794655521,-4.749161322217942,-0.3869403866366994,4.367458925661115
-22.70163757442863,32.42930491154478,-5.191755516123087,-22.60712437847457,-5.459911261054631,-4.178252393126815,-1.3284706635185903,2.9747416855564084
-22.291544849444925,22.567104721367464,-10.097093405875196,-21.926563701525655,-5.496109751873263,-4.884656274671984,-4.213180348442209,0.03869371381969089
-21.03895710726076,1.0975549361013335,-20.684279400235575,-19.805446589485687,-8.334092149544338,-6.501985729172253,-8.46587761299039,-3.8685324690622083
-18.59231603807026,-26.299149352616467,-33.562751365032824,-16.295990803422878,-12.795960456304082,-8.277003500532821,-13.133033811165873,-7.9363928172432034
-14.901320816651674,-51.777906837100936,-44.32709938133622,-11.932333652189627,-17.0568280939213,-9.496958827396412,-17.335133951647332,-11.364657879658203
-10.174477055733254,-68.58485735750811,-49.2050294769372,-7.38266734089606,-19.369770175003975,-9.779085025390287,-20.536308828592247,-13.561658049417844
-4.755995612881468,-72.96235338562376,-46.09168242164539,-3.1417301058123486,-18.556624948271384,-9.050580157383147,-22.50556162204047,-14.25739850801859
0.9243514144096808,-64.31336704041885,-34.889596901762204,0.5065794147789381,-14.214890878729221,-7.360600600212811,-23.14207082108669,-13.554510303384225
6.255340388653271,-44.82431559363233,-17.66669021588851,3.284206370580233,-6.895297696411407,-4.8548875890748615,-22.473853761182667,-11.932637543608948
10.306307330569098,-19.836320880241722,1.0245345577303326,4.737595736160994,1.5818539818260153,-2.0772520979231404,-20.94740930898247,-10.16596455303289
11.878925395382286,1.3655023011371326,14.151552326676146,4.350506635857292,7.954736373032133,-0.3356298268375533,-19.74274359716288,-9.095051499576545
9.910198759600949,6.3389631906750115,13.564290963154896,1.964383688145925,8.0941658006528,-1.5960917349435253,-20.64466237545842,-9.273864495019634
4.1214113721139976,-16.481114095172636,-6.849002665148003,-1.7906696310048928,-1.3796044880099534,-7.597443745324238,-25.24095859832623,-10.644156415259259
-4.461795599755337,-71.36832644275802,-47.31014266894686,-5.444285235099468,-20.98433722680017,-18.520102622048384,-33.77342568066573,-12.450486762519683
-13.532441784307327,-150.11082298495785,-99.91880743723702,-7.186056653509412,-47.02447039837665,-32.090311018160186,-44.39812935326637,-13.520193187292751
-20.2200341128437,-232.09861895739448,-150.06751409907773,-5.716485549177775,-72.16185665346569,-43.95883669106645,-53.53225609484344,-12.831461824039726
-22.240844770096388,-291.1710670951527,-181.6543853541859,-0.980200647247893,-88.08048482909935,-49.49044039994685,-57.35868183106619,-10.102981308674275
-18.916798338459056,-306.6106631142685,-183.89758704476264,5.667213971555888,-89.12011663144935,-46.15645449143143,-53.793463581796765,-6.080918416319642
-11.51456688831411,-272.7428550250764,-156.28595199651238,12.002944054931458,-74.99986542782146,-35.16852651880868,-43.804581974959945,-2.3217283062623317
-2.700106973697472,-201.87144741819446,-108.9455194097711,15.927316046553221,-51.09282209590774,-21.255939836100058,-31.222549493462225,-0.522415326382398
4.6239601545223055,-118.77911867405078,-58.123744780944726,16.381088541370943,-26.012375642184562,-10.497155631622217,-21.008283584508554,-1.7015189476800214
8.513965666824513,-49.66879767318898,-19.137468256386857,13.726037783389302,-7.757133965536787,-7.287650955672948,-16.856337769848516,-5.640259020613594
8.646837529927685,-11.350395514267575,-0.3858918600277869,9.44440080128762,-0.42074563244742696,-12.114543606531361,-19.43655452357002,-10.884127584008992
6.198944977405106,-5.970803895769393,-1.2027018223149906,5.38516455379029,-3.06022216295038,-21.395170575095612,-26.22631453133698,-15.32870731196434
3.107814005431154,-23.139019678068514,-14.031986604849072,2.9881155419508394,-11.030745764122202,-29.445331372756108,-32.96494756960794,-17.11544377556855
1.1522569721911746,-47.17476698801262,-29.12140040422187,2.8467832178805725,-18.759657221321078,-31.42652709966654,-35.854848128983214,-15.411686054769628
1.2829758913166156,-64.92948273412026,-38.98186192763088,4.707298832358213,-22.348578243703926,-25.650115078488085,-33.30509211060964,-10.72695927781305
3.417923155632093,-70.3324147853483,-40.634932109902664,7.751389219857272,-20.810756888209625,-14.125477477567106,-26.408043708925312,-4.659481183052963
6.666427336630995,-64.53313386065773,-35.34278366583827,10.948105394551588,-15.731776340370619,-1.2985453263609414,-18.11266052536456,0.77781574740156
9.806339026849663,-53.054698723220255,-26.81079947517591,13.358960656588966,-9.954438878213251,8.168866558400659,-11.692098422846929,3.9496807964363807
11.813236705147862,-42.204480098393894,-19.098775323959146,14.379775802604081,-6.111156807096094,11.428673223978896,-9.298580236252375,4.187499733211127
12.255748869478342,-36.32021724902053,-15.011282975816052,13.894823593539938,-5.587615897793052,8.423754108642711,-11.197623533999243,1.9510439302253622
11.403110682212818,-36.47487441687734,-15.277769565934424,12.271613716666195,-8.171065836973066,1.5356860368461553,-15.892495759778912,-1.4754855978909527
9.989497731131404,-40.738925501755475,-18.637311950151158,10.162186958871365,-12.396315768671979,-5.783879581379109,-20.970698779029465,-4.583534560305358
8.753456875108492,-45.74315074120528,-22.747849971326765,8.199861504789924,-16.38735019624431,-10.676899597569841,-24.230513021563436,-6.238348357035136
8.01267268249951,-48.74849773304899,-25.477957512790773,6.757687245321241,-18.77706063243233,-12.030700513308282,-24.561647797147494,-6.011623925313711
7.513875104932652,-49.05668805803385,-25.894241756537546,5.874426458727969,-19.2360531745695,-10.620910051317084,-22.217922178053115,-4.166445412716696
6.6164620675751085,-47.98500691322111,-24.473478424392578,5.323525190775245,-18.389664847721452,-8.325419093782516,-18.46434310460404,-1.411472937258536
4.671972117874836,-47.65616232623104,-22.61454215870794,4.738388948192255,-17.29961647123721,-6.980917526836112,-14.892446444556574,1.3860677199625546
1.3881330153303029,-49.61121158433894,-21.894495788675865,3.7474037181410744,-16.900523497501368,-7.534611042986079,-12.775855160511968,3.420797072299025
-2.9785789677970014,-54.08107448529016,-23.43498945375459,2.11954997590732,-17.663649634309618,-9.812760013292099,-12.683093037691165,4.11842802800344
-7.6613130261816815,-60.01120364613148,-27.478152283628877,-0.10233798235615366,-19.505014824302798,-12.803925180487404,-14.366393057527839,3.3008027048346023
-11.632104582558052,-65.49474792494455,-33.20022988738256,-2.5544267091142228,-21.84429426651857,-15.159736448555725,-16.872698383568498,1.3148443813021704
-13.973396932261553,-68.41450048851108,-38.90163805282428,-4.649248707647784,-23.79048727030158,-15.689313616688041,-18.858240617809937,-0.9915897868549521
-14.223024524933013,-67.29034110850864,-42.66347042932166,-5.789207189823028,-24.477583479413497,-13.761683168671489,-19.08638600666685,-2.541665502310467
-12.537090886304034,-62.104607280147036,-43.23136755201432,-5.598202934769925,-23.467351509183565,-9.560002085594013,-16.977244365736667,-2.5003349503471393
-9.599085447190134,-54.536945212760585,-40.60922752321299,-4.080248945733747,-20.999914187907976,-4.086274505360492,-12.952179290782315,-0.7258199237424289
-6.33718067132861,-47.22652413071984,-35.98745710859201,-1.6592065637553315,-17.90888113050822,1.157436256322273,-8.333911821916203,2.078816157765535
-3.5994480997514886,-42.415301434332136,-31.10427402713888,0.9213164328259446,-15.233804096392243,4.735124069920233,-4.7704211053398575,4.67284566649834
-1.9235346061555147,-40.874759162168154,-27.48515951967885,2.8401552547159876,-13.758448695282103,5.848685169866334,-3.4320884307871413,5.935036681767674
-1.4569793838004013,-41.782849387955636,-25.945258060853973,3.5219338460227356,-13.715191413775758,4.6320088064957545,-4.402450453324786,5.50785401691115
-2.0104557856130025,-43.47404207805396,-26.457721212956955,2.8944314326446525,-14.764712915443276,2.0039267710177784,-6.6236050289517845,4.01814035152879
-3.1937307813909546,-44.49276959968334,-28.323806312731552,1.424250921529606,-16.228725568754545,-0.8657498430684198,-8.477740040624052,2.6986571357502482
-4.575157202705129,-44.43633746012064,-30.573143957282127,-0.10283667108892677,-17.473077202028573,-3.208782822404632,-8.71893827651593,2.6191744221012674
-5.80341854889123,-44.29331949660873,-32.46580254553175,-0.9275239548841792,-18.263821510684743,-5.056017239676863,-7.220129295072313,4.00413261223732
-6.65425617164331,-46.02425701589975,-33.81158371348706,-0.607432590782766,-18.866892933581884,-7.101814822467111,-5.054139012019115,6.068988466109589
-7.026689258727342,-51.2427067199374,-34.82057938458833,0.8317974923187808,-19.755047465890875,-10.064073932971292,-3.8153463012577213,7.471904200141823
-6.96135235830615,-59.42694695529521,-35.53804623826061,2.8529755415481874,-21.064831148352464,-13.935766627595184,-4.596066747639011,7.0796194115975535
-6.712726106360569,-66.8471739893643,-35.34775603732421,4.447255486416198,-22.21314191747852,-17.68015070251764,-7.29403729637209,4.561435280339992
-6.789493903180107,-67.44768774342538,-33.07505858070837,4.337316020985441,-22.048070119485317,-19.678587997789286,-10.70751204323911,0.47923764780172007
-7.812909641797709,-55.81559268153053,-27.749117458989385,1.4445508525644162,-19.525242385440663,-18.70817737074784,-13.309218142593664,-4.090879717711104
-10.149864394348308,-30.774497680104872,-19.50473021495307,-4.457295196545621,-14.472596579787501,-14.797101866887006,-14.119719230489828,-8.075385382442777
-13.504033031242418,2.6490964744149132,-9.943696093214587,-12.243175575184555,-7.904463201277426,-9.339575640962728,-13.092970971338431,-10.721332925014542
-16.786991944388358,34.42230429872498,-1.6403147265416242,-19.51800940700848,-1.6476489762295314,-4.352460530348843,-10.853767084052011,-11.62141016251157
-18.473134489544325,53.609309250106,2.9704884995296874,-23.4469065509495,2.5078210865621062,-1.3514471914259607,-8.11101456017673,-10.604826901161077
-17.31964333145976,53.381237436808085,2.7234270346151335,-22.02555360330385,3.641768233945921,-0.5804569499007524,-5.238374608692494,-7.703614794522606
-13.051514303608178,34.277184259987834,-1.7375931472429413,-15.123286436583463,2.063485754234339,-1.0750760269871444,-2.2918024797677403,-3.250523370738487
-6.597691317820432,3.9253106591442877,-8.313528879130402,-4.684523083721536,-0.9713487313701402,-1.4725176424055693,0.6509348668493979,2.0177651021256984
0.2710604098415059,-26.624408931532553,-14.516930365146195,6.065185100761678,-3.988494033831415,-0.9932365975957531,3.1867139017749704,7.023609126250766
5.7063095607598076,-47.9302917662071,-18.648152702189602,14.000857246088298,-6.028132921492084,0.06105241042467571,4.621227394299368,10.635691539017342
8.548428840580566,-55.87453593965121,-20.39542751587922,17.35589777532599,-6.97122726531479,0.5861002336941176,4.356894251985391,12.071262357929397
8.724054943080162,-52.33160424712269,-20.55216562415189,16.25258212085075,-7.333239761433054,-0.5091978664841617,2.358837453430848,11.207472752322788
7.113963345310917,-42.94777137611171,-20.168109365641055,12.323799490387573,-7.755250364611296,-3.5235891729350155,-0.6602775827808188,8.632487693366722
5.006786734341931,-33.7758371200131,-19.836258830550996,7.729998407257772,-8.591304647711134,-7.724298832047483,-3.512650023151989,5.408036615234767
3.4569286361826785,-28.771793314587505,-19.614478062070397,4.151394070166233,-9.843075982502356,-11.758476771327835,-5.123867245443336,2.66410420265562
2.8825293459937855,-29.090159293885716,-19.46048114680456,2.251974564090474,-11.363184443625844,-14.395681014881463,-5.073661993088787,1.2084788135115043
3.0626352018649032,-33.741647626070524,-19.6145724786154,1.7535599516143103,-13.042158550016552,-15.109267079582514,-3.759929796590482,1.287372370919383
3.445319731051525,-40.62696529401896,-20.51815043722536,1.8958499050941606,-14.796390493902148,-14.188392761884211,-2.1227907668661086,2.5399263503599703
3.529625663007108,-47.387439060817584,-22.399600490195223,1.9301939471709575,-16.44787179861003,-12.434971890555701,-1.152753004740853,4.128513690981989
3.1125848452057423,-52.097276813084584,-24.98860996366115,1.418669290432874,-17.71227913015805,-10.733578471377703,-1.4900185976715257,5.017464238053339
2.3320334011580903,-53.8488167980929,-27.620619077523227,0.3108304736802857,-18.355352998590366,-9.73440612012606,-3.265988893985566,4.361320277260962
1.555727982297741,-52.96054891436621,-29.567292216930372,-1.1236492192453913,-18.347320897737728,-9.696746753692647,-6.132441804388258,1.8982231452038123
1.2009169379643765,-50.56102909641297,-30.280439677622148,-2.436435922489898,-17.83269815170685,-10.442155818471633,-9.36954304067212,-1.8358920308584947
1.5522214940555317,-47.80623215103459,-29.45706760242539,-3.1751832910295152,-16.947536756594463,-11.416827223159135,-12.05029938527113,-5.63756270479619
2.636520919681077,-45.34505555654028,-27.0600026096025,-3.0431819003884093,-15.685963604557418,-11.906814802034186,-13.292635675270676,-8.108097723846713
4.206636857952582,-43.3516165402541,-23.377682648377103,-1.990301683757502,-13.946765527271145,-11.369749213649452,-12.561644915328937,-8.256132221083748
5.841222617381229,-41.84114900056483,-19.029723873814255,-0.22139764001647638,-11.69386071747443,-9.724837785857385,-9.89312292275246,-5.936106144521921
7.0985796360155025,-40.82536717561304,-14.829789564462583,1.845280100233022,-9.084276006275612,-7.434731898289873,-5.923805914095867,-1.9259501506729289
7.6379713902193735,-40.272670988701314,-11.594969568623668,3.649777460981147,-6.502531145526498,-5.337834520491998,-1.7188407602173643,2.3707310818668375
7.276765048809569,-40.17065248513824,-10.041894642315516,4.621051109324466,-4.5247237796247735,-4.32472877262203,1.531570527963633,5.464381158012715
6.020351880347147,-40.74613852602216,-10.72120269607436,4.384205474236714,-3.8069043504296816,-4.997762028591208,2.86800904681606,6.353445855117264
4.096326441143223,-42.45624976554711,-13.797639933483275,2.9659635387240533,-4.849499160002565,-7.425199932126606,1.9022829723573258,4.916069433719015
1.9536970063535053,-45.45488000583408,-18.668139406454905,0.8473989138933687,-7.673900965558974,-11.06318638470574,-0.9559735911630065,1.9603830845031425
0.15444914834003376,-48.893712113122625,-23.75729369069669,-1.2219193537611865,-11.605581197394317,-14.883493808466477,-4.519190817987507,-1.1017335408853843
-0.8470396766494236,-50.838411633117666,-26.879117991258905,-2.567175011591878,-15.384677051043138,-17.68704002051125,-7.171305008737735,-2.840534255319301
-0.9331870521683603,-49.16655133688062,-26.155442531938032,-2.8949917610862195,-17.634548979011804,-18.50628287854284,-7.47678495641458,-2.423369471037643
-0.42426921687869273,-42.96044933008378,-21.0220731984308,-2.40722092890629,-17.474560165217483,-16.953452012788212,-4.8130579043477955,-0.0008872733198853101
0.01300904945782933,-33.506963733154,-12.783154197768518,-1.691735897912236,-14.981813995037664,-13.394121469597303,0.26739750610624935,3.321394391727446
-0.38697186768289005,-24.337256944756096,-4.458245382800222,-1.4553447613488748,-11.3023439183038,-8.892479322626683,6.142854765557016,5.952471300441524
-2.1736030386247265,-20.223496988699523,0.08162467383638147,-2.1974922475674417,-8.330209415164239,-4.927505428659073,10.701640785689564,6.54749881450722
-5.39568975421874,-25.23614191297649,-2.3883936223417,-3.948725285397208,-7.9489379616465055,-2.905578483739653,12.20543545142771,4.661771089456898
-9.45846855505924,-40.16532529687537,-12.597869036713396,-6.223388558026294,-10.984010126150812,-3.5528255420250763,10.108334843835152,0.9808820054914823
-13.234753712329109,-60.289451762652405,-27.37027732069755,-8.280317211575225,-16.31154753043417,-6.401033418847112,5.457974701742154,-3.019590464881019
-15.468305643946737,-75.20762005595361,-39.801764488221124,-9.601087173697056,-20.774625682798817,-9.696526679104382,0.6076620936508822,-5.813015229428741
-15.339852260118324,-72.06633893107863,-41.68166083085353,-10.293586599782595,-20.31074172665011,-10.975790589877134,-1.7452938843922683,-6.550713879468912
-12.909600698691202,-41.52818711894316,-27.40118428154701,-11.108557938419226,-11.955637107538067,-8.188543851245504,0.19984731274442183,-5.387359696120255
-9.154936785042471,16.53042054165374,2.7401413447669443,-12.993779787632835,4.3494843990418355,-0.8146358710350994,6.459924449135203,-3.2661491040090507
-5.533045303782529,91.28028542496277,41.97959406529889,-16.447032192084023,25.31472426136746,9.713018897138392,15.242703656616646,-1.3433626381899908
-3.2901021330545768,164.8673119629535,79.92629216804528,-21.100497626510258,45.64362236697253,20.61077499514125,23.824961691434137,-0.40485952145793247
-2.9074251875347197,220.22439175678247,107.31080146666565,-25.833134739173744,60.46526500884852,29.064148967993578,29.847041350160893,-0.5773529230304698
-3.9929978247380715,248.41714753984135,119.94477340977922,-29.354037620444103,67.45864880072567,33.49635781261543,32.30303313532655,-1.428905999529763
-5.6392628890285375,251.4229160967261,119.7359777503148,-30.878818699454488,67.49372429251747,34.07518201084938,31.72744468225823,-2.325100293714021
-6.9743185055868055,239.2228117902265,112.55879009410964,-30.467325881759606,63.60745947334169,32.27710870891773,29.602104468319894,-2.792134397084824
-7.551040677609389,223.6653001425832,104.71261043586796,-28.85053298140235,59.1683349670267,29.923429234598046,27.45959848594415,-2.6912371220129527
-7.399172315961942,213.10717596568105,100.21221428564083,-26.943079836004195,56.40651569743951,28.330630191276803,26.232477676674073,-2.1713467672055096
-6.833283220453378,210.42052618509894,100.05806824485578,-25.411602937999152,55.95833779094929,27.972765646169556,26.09844931131615,-1.5064361855265158
-6.2272528448532585,214.14977163562207,103.08359696754908,-24.525518467977847,57.26382859253803,28.625415348358587,26.7033113940042,-0.9458235358059925
-5.8758385115824385,220.88876257217956,107.27587714266704,-24.239090319079363,59.25591514953588,29.720425946192318,27.497622135703224,-0.6335850012595371
-5.924885038648403,227.26519357461845,110.82430664361706,-24.323665239150703,60.93553844076486,30.685745029697113,28.014624435097268,-0.5846020042812912
-6.327662360996301,231.10489978391098,112.74821963890346,-24.459187881567868,61.733661823211484,31.184399138661668,28.04398129623659,-0.697253502415111
-6.853925736002424,231.90438616170678,113.10894873128798,-24.324216570242776,61.6529712339042,31.21706463744559,27.681656817702535,-0.8039529779779483
-7.1978081997804715,230.5805043017002,112.71703676130582,-23.719335433638424,61.135844955891706,31.04663501830549,27.225959294280845,-0.7541057654453527
-7.149047481175141,228.53454004232674,112.42810783717523,-22.664242921668855,60.693957416770424,30.9704899209415,26.95679554636019,-0.49151258092608047
-6.71578222316919,226.65784834896826,112.52898165518496,-21.388362282015052,60.55122330868366,31.094100562797298,26.942747371411183,-0.08019462117492845
-6.122712584491595,225.15553825353288,112.74978843170187,-20.22683836242019,60.592894400390406,31.286403665428754,27.02236686716058,0.3306893928569584
-5.710950907874937,224.29158909403137,112.85809572080706,-19.504461962831865,60.63533658386382,31.345119753518773,26.961594812479024,0.5723897419284387
-5.806735202695626,225.0635448874671,113.1782617870543,-19.440680272117692,60.70931847055911,31.21124319271892,26.642597301126727,0.5234788170372281
-6.578518086569877,228.74418153904858,114.45143314378869,-20.029703793860218,61.056614660338624,31.046018098468355,26.143406541300372,0.17454825609116115
-7.876500516831934,235.4101880884747,117.13422206091923,-20.892281935315935,61.860780679315276,31.129527259571514,25.691325744623537,-0.3159427512221213
-9.123308947314218,242.72600225840304,120.7452483731796,-21.23688351456436,62.98300002203702,31.675916332973117,25.554231259824384,-0.6199179391246096
-9.407159302211266,246.1130028931252,123.70828422013224,-20.105284029164462,63.8937742613571,32.65801760001414,25.902692940510743,-0.35091575486857457
-7.859539545632765,240.274431994792,123.65868137349594,-16.887037401022422,63.7562247175991,33.670163149714305,26.63696932276406,0.7160126241228214
-4.173034586643683,221.1657203871762,118.0041797640049,-11.813322938730096,61.557000985156904,33.87217306527493,27.236409197268593,2.424616960088832
1.0684011553534174,187.57098700076736,104.70297769346526,-6.061614213449345,56.32079576188433,32.12932755560692,26.78869833618028,4.1738091587472725
6.511755479243931,141.92029388346262,83.23879542858522,-1.3294674259473234,47.49951838055126,27.429347586747575,24.31965534639259,5.095399425304931
10.582521597495353,90.15141278917535,55.41635133423568,0.9041180284309855,35.43652538558913,19.45458254550513,19.328196104095728,4.412694727763641
12.138439377248831,40.39852164107297,25.315544976251385,0.002500703592514565,21.577069078103236,8.981737217669645,12.213319461572155,1.8027586487693583
10.854048724698128,0.5862053826593371,-1.958038864728632,-3.651616727519825,8.135373391245407,-2.2018276830925005,4.278803543657991,-2.423293917874499
7.179335719560561,-24.358617801872924,-22.299335045690597,-8.941193833787551,-2.7306801571166917,-11.903834718732623,-2.7506658880170765,-7.40625842081532
2.0245651080935496,-34.444729006202934,-34.29931444923071,-14.487593919491207,-9.800234251202724,-18.358431517938495,-7.447588666056614,-12.032510560181056
-3.534803581303601,-34.48661394910002,-39.48275972066127,-19.001184145292406,-13.15706282266566,-20.829236638258376,-9.215717900796935,-15.283063387950657
-8.373059577554153,-31.475841249131726,-40.75879060212585,-21.42218933475636,-13.749149211543184,-19.663906625575596,-8.336416049653863,-16.4936088259333
-11.351014484876197,-30.500484924633774,-39.994026217398314,-21.004617631265315,-12.41299965308646,-15.829604902258263,-5.553331723649294,-15.467353797412414
-11.492811721059558,-31.599369759500153,-36.431833912312435,-17.504200771502447,-9.099729130501812,-10.292289713712053,-1.5371353528260698,-12.467605427860258
-8.361184514735907,-29.833496405845175,-27.25517527519263,-11.41073043114242,-2.9590518894280633,-3.669321805548438,3.3744822852255996,-8.137579198766144
-2.4081169653488272,-18.86000490166147,-10.02333541445895,-3.969956590167444,6.727170898240259,3.6766820816774795,9.026539967615873,-3.3612744248901616
5.032856402026024,4.283137407903452,14.808659167409962,3.1957105182065373,19.49906215119623,11.307789636074107,15.104772356699991,0.9428728557562857
12.243518015391718,36.523054354493176,43.2532139327987,8.75805434137127,33.448113241903016,18.518087674926832,20.96409076333974,4.070617636121306
17.8663146877539,70.13721210024637,69.61693460790492,12.251252102237308,46.0224613810689,24.48953808445105,25.813135074837493,5.735963891285867
21.42346838858639,97.21185345785563,89.5024992609676,14.131574349822777,55.35228966302216,28.67393307323236,29.110683607981073,6.122507063692536
23.25120385435744,114.00456561285175,101.78603175217401,15.23934657736775,61.09534396639615,31.0608623462776,30.830524302783722,5.736203717627682
23.90278255964094,122.12528988700186,108.13019070520727,16.015094031066404,64.13573144159827,32.07280960779616,31.35254708225998,5.130298638845452
23.483801820763844,125.83602021985168,110.49841289606135,16.0480323661938,65.36263728234552,32.15234499668261,31.061953430055116,4.657226859364768
21.4587431233938,127.74054576615426,108.74393255892235,14.330280666012133,64.53029934693036,31.402282390182425,30.009298750501486,4.380826095006988
17.11738198215267,126.35136665301172,100.33529693005464,10.074213555510624,60.199162475737104,29.62555264779128,27.948338605123134,4.167370014127166
10.368033052892974,117.43549398099411,82.5724101680285,3.516258230652477,50.91565520453,26.760664371754284,24.7360795862653,3.859148883516229
2.241447798670177,97.96008884495657,55.60185635438283,-3.8823940053362174,36.76399062958911,23.317518669346015,20.738975202256835,3.406816629064909
-5.3288656734919595,69.44683332009164,23.829170259389457,-10.016543713479146,20.064752085896927,20.35260819857158,16.84934236473209,2.8976771970890662
-10.373097980718184,38.14889092513635,-5.499486882785398,-13.154701358681915,4.600211698119909,18.873713017853916,14.021727252761046,2.4958874440290195
-11.860152959814112,12.013635090733324,-25.683129225996485,-12.779375110554524,-6.170108251690045,19.060184388603115,12.64121349357005,2.346929730759189
-10.163791641128736,-3.233585950384671,-33.67090522192884,-9.78024189194369,-10.719080465307638,19.917832911445807,12.208935106187216,2.4918674115651225
-6.755910832798236,-6.179682930305586,-30.963725924920162,-5.958139708362125,-9.878808263404729,19.734944387468296,11.623051076403007,2.8193112730678838
-3.38029299560561,0.9164497045720248,-22.09375920429801,-3.1880084828081636,-5.985814469822736,17.115609443311683,9.885822702465553,3.073517151018628
-1.252093731013273,14.079019571058009,-12.137109838483065,-2.680500577218834,-1.5453676609687168,11.885311541787644,6.728391846598274,2.9304799841579863
-0.7012698431573258,28.763658461685228,-5.019516827836544,-4.5881917497280735,1.6196439764832165,5.2091529104348195,2.707084840734374,2.137457106809268
-1.297167980580557,39.58545462624174,-3.2243020471638095,-7.971013718153124,2.407711410208301,-1.1574599652439275,-1.2503854808631398,0.6769166739315674
-2.206483253832584,40.072327778064995,-8.144982391426158,-11.066504623688244,0.11763180996494071,-5.917795572622527,-4.4512176884107255,-1.1272539227762282
-2.5376519126444324,24.221768207131824,-20.048282512739956,-11.846469406518619,-5.5956528034853115,-8.837494131112543,-6.741392497108412,-2.656035450333904
-1.5959776900109428,-10.218886640726039,-37.5027571775823,-8.787058655515981,-14.348526192865439,-10.567645541234583,-8.364265721144411,-3.22704629268195
0.9181859535159996,-59.016888830278,-57.088282464249104,-1.5907772314743027,-24.69370346220653,-11.958276507514976,-9.597833227173235,-2.4228771686304107
4.776529728374683,-111.8217111367185,-74.2096808044681,8.529137855358542,-34.36246188407392,-13.43821995713465,-10.509996314493938,-0.33384853384971036
9.243421047321997,-156.1812061673894,-84.92364762585237,19.25161061030849,-41.15028263260276,-14.866841925666431,-10.996148069881281,2.443173344634025
13.319500770146485,-183.08266479949006,-87.73470772669795,28.10879626213701,-43.93863188888034,-15.837464046297203,-10.99572857023124,5.06806845440348
16.14498282051682,-190.6949074799624,-84.16472889713731,33.51912338737865,-43.170417394391734,-16.093690751898233,-10.652400873905892,6.839008181675689
17.36164974968522,-184.16821587017412,-77.6964209329015,35.34003188950459,-40.4617012814229,-15.722258014119639,-10.270879672606165,7.477757375789799
17.219940843544038,-172.0051037920845,-71.82392180024287,34.678275034917085,-37.64568553337947,-15.045138833060314,-10.128565373153304,7.172927210284131
16.369434379459214,-161.61997080165477,-68.50521697023358,33.14951754670405,-35.910146684823616,-14.388874832074993,-10.32493757957049,6.39281649890761
15.48391892714157,-156.71059411474755,-67.8456756643244,32.07714325406325,-35.51632952025328,-13.943161966144855,-10.78642120578735,5.612673498807684
14.969410175012055,-157.2422158305013,-68.81282456317054,32.06052634173144,-36.07225471556338,-13.759444562050728,-11.377627718233297,5.1198881336706235
14.901500012614179,-160.9927145691352,-70.15368948610872,33.01428562632282,-36.973292964613385,-13.797817003224486,-11.989089995696798,4.969718897014379
15.143419818326581,-165.20628258740797,-70.92048808165538,34.47845261854554,-37.6945582448357,-13.94978450493701,-12.546492030971146,5.054265335254748
15.495406011234707,-167.7186970054148,-70.62735453936567,35.941418875166775,-37.91426786821146,-14.064860933392087,-12.996930181133198,5.204632311611536
15.783865381233287,-167.62420251430586,-69.30306087293131,37.0513057850944,-37.5798562850286,-14.0251282339217,-13.330616410363627,5.274438819923409
15.903417904683936,-165.48406542257408,-67.46131496350982,37.712836754025446,-36.9188411347058,-13.825472968511844,-13.609563078636263,5.191813063616614
15.845812294550322,-162.84276872902976,-65.82375087582976,38.07762507030178,-36.305636924935506,-13.569626534558317,-13.937496694638838,4.975593543314878
15.698182450311197,-161.1666069658979,-64.85847777378837,38.42104789896847,-36.01330958905452,-13.37231396646107,-14.377388684636138,4.708201085280315
15.579907846950075,-160.9425435003028,-64.50861042768477,38.95519273044124,-36.048207262145574,-13.268375623704308,-14.902415467127415,4.47584564657021
15.55164460059791,-161.6443413595541,-64.36713215828601,39.70309270489099,-36.21703883913462,-13.219479566183516,-15.43527643453416,4.315887403020091
15.581354116113657,-162.43593245221805,-64.08172169511232,40.52991153064292,-36.33195408098816,-13.186313433898455,-15.924798570303107,4.209535618498115
15.602519992046403,-162.79971195347807,-63.546508661763994,41.288547901712406,-36.324532566556954,-13.161107287274806,-16.369702863285312,4.116353420929112
15.597510448500527,-162.57321298936967,-62.760369712175354,41.93801788484777,-36.18870950306873,-13.1272449659457,-16.779249680646533,4.009748767199252
15.612414581940364,-161.71142902478505,-61.6719297091531,42.545028919027295,-35.90248086403811,-13.026232215924784,-17.147309264936574,3.882716670609357
15.694557764382898,-160.34058669374338,-60.297510240663556,43.209978318243635,-35.47888534369126,-12.80689655888313,-17.488577032526553,3.7344694618392698
15.832689490606906,-159.0469091134648,-58.94624310524358,44.00753741222312,-35.07473751107484,-12.5114817904541,-17.88186902268695,3.5669169127349267
15.963770586081035,-158.78376888679858,-58.15148219022241,44.96223166873331,-34.95689379091179,-12.283447208847646,-18.4340580399804,3.395092267744276
16.021946677642916,-160.14148848565384,-58.23824391785949,46.01636438868222,-35.28362898545061,-12.263090118573345,-19.17276430933986,3.247131722557014
15.967626583059417,-162.59125098097655,-58.93492743075716,46.99288572115306,-35.90566720505057,-12.467749080864758,-19.977448548811164,3.1403283174952814
15.789135488624401,-164.54039246187187,-59.44109350597581,47.63729121030157,-36.40371391372925,-12.767261707675216,-20.633235619546088,3.056188858402219
15.522487637541815,-164.28315160372802,-58.89632743459747,47.79265037111432,-36.3406009555528,-12.955672651482615,-20.969214571134856,2.947471613514809
15.295983800685454,-161.10960299329128,-56.858146937265275,47.612336810607374,-35.519002201569414,-12.839941029901963,-20.97264604723538,2.7763108481513377
15.325043360370323,-155.8621126001333,-53.55049097333813,47.612105509455326,-34.10361641664825,-12.30930424669631,-20.820035436102437,2.546905400841414
15.787914049621989,-150.83892111645466,-49.94468678832493,48.4450010105332,-32.631687020824906,-11.420082499537218,-20.841145785336884,2.3038429573468253
16.632124899160893,-149.19692768126697,-47.68282421616933,50.48506530510666,-31.934094048064264,-10.491776477986296,-21.425986436997132,2.105104919688442
17.46670411606068,-153.72032313311888,-48.57146463584633,53.44268812392304,-32.85730839916243,-10.096858262495287,-22.840480449466522,1.9960832079813995
17.65636974710927,-164.86080478396278,-53.4747693579221,56.21574762434617,-35.715081389689104,-10.823008065236474,-24.963203528832366,1.9903572591292014
16.581371475638182,-178.86711631147503,-61.1077178960025,57.07854653579969,-39.71791927882632,-12.873247782204277,-27.100079214274185,2.0442439265326615
13.911157363766693,-187.73416180782206,-67.7926591985553,54.21049199108026,-42.901940280136884,-15.780051455199041,-28.10338853284875,2.0322532821117596
9.752631315724317,-182.1602531181641,-68.87570710855493,46.447644138160335,-42.891171967488845,-18.502915731461023,-26.864345933149586,1.7649671628905421
4.624378823417041,-156.55863463170408,-61.27774713587932,33.97140108668067,-38.207438062698905,-19.919858855749126,-22.948354639599884,1.0807662752888731
-0.7146537984158338,-113.12879612589983,-45.59727928527843,18.541682873763566,-29.30907880828541,-19.427848914947976,-16.9652049463497,-0.023627130932784502
-5.512935843542715,-62.01381796966668,-26.257536342584846,3.021380011956968,-18.59630128688088,-17.277581971882256,-10.394029473230734,-1.3203442916804629
-9.257769298823295,-16.927790607153817,-9.418407193671694,-9.673178715771508,-9.273066430450823,-14.438082231011451,-4.931229919081049,-2.417694907262216
-11.799637121835694,11.347806091825934,0.13507887038817099,-17.687494850029793,-3.727260886600627,-12.077777474606528,-1.7343360034616948,-2.954977928108135
-13.325518505282496,19.743116652290663,1.2322899993397685,-20.834867220155985,-2.421337557399466,-10.966109014911677,-0.9789742782090585,-2.8046162449689938
-14.205842136973319,13.265215038813224,-3.5946765183607408,-20.41060028868453,-3.9345150983234802,-11.119117799974857,-1.9201236907648114,-2.1316637531647573
-14.790048413931116,1.200930623344541,-9.987416367248985,-18.382844791305292,-6.0192557658019865,-11.846080645199452,-3.3392358216021183,-1.2526546311349074
-15.246269030627891,-8.05190420080699,-14.207081547610079,-16.45487206485948,-6.91010409347928,-12.134751487102111,-4.092110866409213,-0.39714952746916043
-15.529328424330151,-10.409971203119799,-14.676716464373795,-15.5014175482607,-6.100362255657655,-11.17828298346792,-3.5258967237463796,0.42678072480157603
-15.498523764086551,-6.484664687877123,-12.070574503422026,-15.577776816549278,-4.3048597844639165,-8.821634604367851,-1.6808444570096608,1.3343401307508436
-15.100840783438603,0.24014427275312122,-8.385856827371509,-16.31021466707309,-2.8581161183256047,-5.72711111194747,0.7374414544688888,2.3086824942926945
-14.46836347176036,5.787657166988433,-5.738259835260714,-17.292502267956625,-2.9670373811549555,-3.121099142010165,2.642926965853135,3.0236612738780315
-13.838661230661474,7.534941834751275,-5.369963952648705,-18.24574152541072,-5.111448526509217,-2.1609050138395927,3.0869376341174504,2.938254559072011
-13.364605090957024,5.170783822094443,-7.116561790777217,-18.97459958939484,-8.76257231842263,-3.2358211797506766,1.8023256382633663,1.6364364557495512
-12.986744521717243,0.6120347355245281,-9.538001336546424,-19.303008985031177,-12.557631067490423,-5.673309583652351,-0.5750632327099736,-0.8248752952274404
-12.485190754720337,-3.1751279693003216,-10.76351285070394,-19.104066781113435,-14.948382175392522,-8.126494151846972,-2.830718005958224,-3.824411728623259
-11.664063001221185,-3.955534219108886,-9.657674418774892,-18.39033901535975,-15.04592001943783,-9.433930185952137,-3.888556256918291,-6.435558126328396
-10.511200755143479,-1.504942994162546,-6.563088265390405,-17.36806384443127,-13.15049026486363,-9.353977128913042,-3.4503154192179415,-7.894865633405708
-9.210999034129241,2.5014709989511514,-3.098295935649966,-16.397351794955817,-10.589628090860096,-8.645159031448383,-2.125040856576809,-7.998565102099169
-8.012878251478922,5.794760753249626,-1.183560443652683,-15.855730564346423,-8.953810715129373,-8.453153220941632,-0.9869953239888878,-7.180380550458238
-7.055624055043212,6.900236736121421,-1.9834105215028022,-15.939945688078296,-9.221751596988634,-9.46143431210024,-0.8865410194165184,-6.212175248049521
-6.262413059222425,5.6807534714848735,-5.355004327399348,-16.491614198498336,-11.276578625842292,-11.375899019556316,-1.9474218547831823,-5.703204397077934
-5.374630019709275,3.052218231584662,-9.924367136228849,-16.98051841482032,-13.99735342390575,-13.023070812126994,-3.4997891320820056,-5.707818880646396
-4.12134445237959,0.4619635660891151,-13.615885369869245,-16.736181091442713,-15.793860659592186,-12.94527168122781,-4.4288650597900805,-5.688273592647731
-2.4429844168934016,-0.5547726248859324,-14.46730185873877,-15.349964631846973,-15.32822428802013,-10.155681492129501,-3.74698776562648,-4.8547117145782535
-0.6296749128063006,1.1123883931792078,-11.550660612940444,-12.997278221749948,-12.15716016230086,-4.710724386137707,-1.1410370486176147,-2.6734327479683446
0.7481860790317835,5.526112900047025,-5.611514897729062,-10.431695402530254,-7.024921579867674,2.1446813624576357,2.746851341178099,0.7509754432032179
1.1202209384630235,11.385137518776988,1.05478367172908,-8.615125891401052,-1.6103734450094271,8.359291196956972,6.4743406973856406,4.621955243799698
0.25747571590219714,16.435631140321732,5.59578305528257,-8.199587842254651,2.2105744093281046,11.87685216335191,8.380312318384433,7.747244152381159
-1.5325595248807062,18.42525779947831,5.9400161203832536,-9.158432542659623,3.2087755753027905,11.52421709513425,7.353798797900676,9.049468843274662
-3.4717267330793766,15.966452513373024,1.707310629846016,-10.74523252142986,1.2959145297310817,7.567092084269756,3.4224166399709754,8.071848837657154
-4.595902329319415,8.97767282662077,-5.6837871494347105,-11.78329025030352,-2.5202289487961207,1.659807912498134,-2.13747790986556,5.245660546318418
-4.130003860054362,-1.051773929968005,-13.509027785611318,-11.184964037598856,-6.558713554643602,-3.7976388938421275,-7.248646130116842,1.7500871940889913
-1.8351059184786869,-10.786153982464555,-18.486951930795716,-8.543111740114842,-9.003758808885756,-6.633775097965719,-9.879733110870067,-1.0340516081494453
1.7673154623811065,-15.266340475313754,-17.70912612550494,-4.555098453847246,-8.44246666532316,-5.829720641524289,-8.95545945096663,-2.2334285504932785
5.407377725933732,-9.415604505749982,-9.781231938271036,-0.9893121539295068,-4.385744295386124,-2.007646486161228,-4.9203596294821015,-1.9516399184907625
7.418789709327472,9.291061722856952,4.167188378859801,-0.041032039566877725,2.366087143138155,2.783092446080497,0.3662299392172424,-1.1864017859795766
6.395957308269615,38.510164588214366,20.347217016424132,-3.278353099990965,9.80496234561965,5.967405567744154,4.435195511080682,-1.2162738074285306
1.889990000932627,70.96873104696822,33.55951232908384,-10.725149443215896,15.416021226673783,5.64713985403573,5.353322828540756,-2.8317778449939293
-5.254338117248395,97.28477846630929,39.445566099320786,-20.657827527350666,17.26784735041879,1.4936598674519959,2.612028956873348,-5.889890353468304
-13.18477607133118,110.27695357825225,36.52523104950068,-30.31336837838996,14.909614567516307,-5.15286189683468,-2.726025257268183,-9.449573945008286
-19.85823782886224,108.21967655635119,26.781566359996372,-37.15098273705227,9.523115038803805,-12.026832205447562,-8.69165144291997,-12.368024508370272
-23.95170158286287,95.12972423236589,14.445723147664683,-39.95928605180195,3.2208727839816773,-17.104204472532736,-13.49103092704491,-13.962721796171392
-25.348354909218752,78.16229000041334,3.826506433078191,-39.20149583258488,-2.052128669884275,-19.543905468622683,-16.372931168323092,-14.334693008699475
-24.935776616312065,64.08079615142356,-2.3759690214915565,-36.48042136270849,-5.2846933206359985,-19.885570148644174,-17.778693592991925,-14.184463659149053
-23.891194858698192,57.04249370703181,-3.3583552453782586,-33.5432024608004,-6.386621438008496,-19.42213537888458,-18.716643401974018,-14.270369450029953
-22.946139284787048,58.40326813775709,0.5587550184871021,-31.453448789794265,-5.606156237349817,-19.17612688335494,-19.80699560020292,-14.860197263827597
-22.085928928206886,67.41261231537939,8.591366690880506,-30.3213681969343,-3.049750130744701,-19.15853380363413,-20.663696978731334,-15.503408890191295
-20.788493305744286,81.39854237806321,19.281267964465066,-29.549369472479178,1.209476103779771,-18.378079448972052,-20.038628153197394,-15.247130166506013
-18.53360150953323,95.4774586106526,29.887603424077977,-28.287665042428383,6.6126349397039235,-15.543662314282011,-16.62365797262428,-13.17619394392743
-15.198088283937226,103.15913550124057,36.56785171021027,-25.83573610695094,11.83459898393093,-9.965750543497503,-9.981680660059787,-8.998866777584217
-11.124589757038551,98.75156249630369,35.91081580244281,-21.901775756271913,15.193802127103492,-2.1113393732270143,-1.0367141971670468,-3.3725925850357013
-6.915017499903347,80.57261779500439,27.009497370053893,-16.72495470342379,15.547701987237758,6.445186541212266,8.142575656784603,2.232026225726124
-3.1513509803658284,52.64305851188946,12.488197323507723,-11.045073998120769,12.994209472686231,13.581161775085151,15.130441983899985,6.1172715563356865
-0.22289888163628302,23.21372795629273,-2.51918982517724,-5.887976343662238,8.822880122404731,17.402806066525006,18.10164901997093,7.134577960661677
1.69213769842358,0.6864271138300286,-12.974278438642276,-2.199040873064916,4.739412448828956,16.932599835087412,16.524174568318337,5.249481239576114
2.564600237313605,-10.570990008206891,-16.48190090764708,-0.46380365675660934,1.925321237008866,12.479447667400546,11.315412571429519,1.5753902707606706
2.4672887260607093,-11.866162273443036,-14.166526274661624,-0.5130303791536156,0.5728117464488222,5.567917865401791,4.438176088731368,-2.1614386939218244
1.566742781045953,-8.409415739166938,-9.461095664232717,-1.6442196872294603,0.1227745242673687,-1.5775195817909378,-1.8710972222279934,-4.445340205552144
0.11158903531332222,-5.614276131000348,-5.817899428353678,-3.0045197520179396,-0.10285660498965828,-6.838413701531776,-5.924832662964584,-4.639183412962475
-1.6097584512140273,-6.078604147582231,-4.9086697086542825,-3.9947590342471226,-0.39870378607324064,-8.976884957982545,-7.12325336130444,-3.1428567382359356
-3.3132586708625693,-8.970217509969004,-6.259389883564701,-4.44068800671207,-0.6011118509433565,-8.007822255553295,-5.987741459795395,-0.9894673777516825
-4.731789757660411,-11.623532825988232,-8.15969495192411,-4.468830431060391,-0.359739518003369,-4.982351607890431,-3.7087682026485687,0.8355978354225988
-5.617566268175955,-11.876394644249826,-9.027824763974024,-4.24784203543952,0.5015273736755944,-1.351206317665756,-1.494646520874812,1.9152614467888471
-5.783471234001028,-9.737999697240056,-8.462306597017689,-3.8096938677722627,1.7228320371719714,1.6661685223131895,-0.10292434273809918,2.4679139513826263
-5.178878180232024,-7.6979430437970375,-7.543317125749491,-3.0384419093841832,2.5474368354826145,3.363354531296814,0.24440278043978725,2.9986579137509968
-3.9252165824285017,-9.50381624698018,-8.191463153667996,-1.7760422351699985,1.9771553698195532,3.4952795284558404,-0.31756786035452006,3.838255078535529
-2.2507406812366493,-17.615737778254392,-11.689285653234776,0.030660182069543962,-0.5918132445686913,2.1917888829648544,-1.4438918667106173,4.896310747959876
-0.3638216702363679,-30.321263765101026,-17.0375086057539,2.180164018969562,-4.577586815067997,0.05270209558919945,-2.5387041831903367,5.756401379039521
1.6206779197081094,-40.402996186754145,-20.322728981021335,4.113193722387974,-7.840010706731113,-1.711194910210349,-2.6722201858526513,5.989951874009475
3.629089879780967,-37.11498173697441,-16.014711516615783,4.960247174308219,-7.275752590709789,-1.4514314947486777,-0.7467581971298042,5.43959065969037
5.502793989026334,-11.364369708885544,0.09948629579485145,3.82557537168409,-0.3412529493856728,2.256492636961202,3.9897205106724574,4.2891211294055
6.935568659225643,38.545537290406294,28.00195785295671,0.24377027739284213,13.310234334523589,9.753291737148286,11.353324799773542,2.918898074101023
7.571932627962759,104.35566476452709,62.55271053488181,-5.433374088022975,31.183515834784824,19.837454360239533,20.019964656459635,1.6888910802634207
7.2280830098017566,170.6431010055679,95.49021620011634,-11.998742251185586,48.86714378876988,30.137877897400887,27.97204771965825,0.7981184865670491
6.075803927016953,221.75864748275959,119.30385586318899,-17.806451664836306,62.08613627692076,38.18902571815712,33.40364073527337,0.2692939243848943
4.627054063226357,248.9080441384506,130.66453447057992,-21.466010019300082,68.66136977783236,42.56851247661961,35.53884973992343,0.011111372480228279
3.492161994756797,253.22574874404347,131.3755687185092,-22.435987441952076,69.21208614535733,43.40412651928834,34.861314783380315,-0.10830652111068434
3.061689276099319,243.38217485231985,126.49754657923255,-21.1751129223669,66.30399049794495,42.00713771048115,32.66438077874635,-0.20442371526394723
3.327871882692128,229.85350578030398,121.15800348814068,-18.785390962824195,62.771737163345776,39.980100270525256,30.283091688642543,-0.3347932804974852
3.948217873565821,219.78644722461215,118.17614942911597,-16.410598569048805,60.3560378687129,38.42164163023793,28.510637680184384,-0.48262350198801346
4.468412872154834,215.21494555424738,117.66927169337453,-14.77362791583032,59.351032755585464,37.647147728154984,27.46891557100751,-0.5874980832177565
4.543006765690123,214.56978990568876,118.26333458362754,-14.056357035111782,59.14418117791409,37.412610549067864,26.851266823618808,-0.6177746075164268
4.067524895205361,215.44972528692216,118.70639075959393,-14.036489298350542,59.046407454672874,37.34660616772158,26.281103726545037,-0.6309142156392209
3.233379500000247,216.67889181669267,118.91413665518337,-14.275352038795228,58.88275327124021,37.300286123339454,25.584590606418836,-0.7602980965877003
2.509535280371932,218.84868555181268,120.07991126587511,-14.261388511684075,59.11981363792494,37.465400102847276,24.89136683713282,-1.1220632806628161
2.4907598590564075,223.4004049040069,123.83152840626238,-13.557146545235359,60.50235469896263,38.21459107372521,24.529631771740473,-1.7024906225438976
3.583863540168134,230.6365005719975,130.65921856437978,-11.981208324033872,63.29844099361878,39.70270411882213,24.727349379430915,-2.3018290987060337
5.662266330152948,237.56696260061625,138.35100320769348,-9.7317166601868,66.50503083764715,41.42026242427421,25.257783324692763,-2.570834125822884
7.942514538409113,237.21634204503428,141.66651438694655,-7.326039033643414,67.62624407447606,42.03707818538647,25.295323503502694,-2.130712973947181
9.251122628820008,220.81851383929902,134.14181181591636,-5.364036588065829,63.49839314271683,39.80153091412267,23.687365195819186,-0.7460731779000296
8.586511893202864,182.51483365376689,111.5227464507772,-4.273955879350219,51.95773600546473,33.401411569218155,19.560270732287275,1.4954673951885926
5.653198914312976,123.89214010176676,74.85467505405252,-4.202310363413104,33.395516859444655,22.795217585709192,12.884554219411593,4.075256633821743
1.041128632583735,55.0955791418501,31.071505936627666,-5.072183720165809,11.1130110965484,9.452051191171906,4.604649080380761,6.105144708640005
-4.05435207279152,-8.794178477380356,-9.61598315616808,-6.702741652764167,-9.909833669167165,-4.198563411549287,-3.765592481695337,6.610187866614479
-8.386338549430098,-54.302138864472354,-38.16640487791892,-8.862786887096595,-25.18282290034492,-15.778259993893439,-10.809248937445208,4.961657942910204
-11.140640670764112,-75.25583813337421,-50.45435986196454,-11.218551798068777,-32.556113447361966,-23.818508407957705,-15.710274681826553,1.2583240085366878
-12.090876618130675,-74.4747517250548,-48.306747418882495,-13.255444462414472,-32.742401731777015,-28.011511306785394,-18.337445807216714,-3.5783297287820592
-11.422879873389446,-60.928486009011074,-37.60474607026252,-14.307951435418142,-28.392932702269565,-28.85934388078596,-18.980000645367273,-8.10148416256142
-9.450088414951011,-44.61901491460449,-24.978914139115105,-13.759745566257614,-22.497372466900334,-27.12419455488308,-18.029847176350795,-10.908352815367302
-6.454985089862154,-32.41129080946767,-15.127420108452364,-11.323996421071822,-17.133833958306646,-23.51476289483739,-15.857664037102145,-11.194011501824189
-2.7170288614822113,-26.690336614123698,-9.867298708816861,-7.2214575607234615,-13.112690642431692,-18.722875518990037,-12.884232798107476,-9.0190693775161
1.3912845905260034,-26.44063333364672,-8.659975469964145,-2.1342696900481135,-10.33006541121307,-13.567513424536452,-9.648503892846284,-5.197210384919986
5.38878339490005,-29.086435772832946,-9.684273889437998,3.032293644333386,-8.29335727152057,-8.940910565820856,-6.708419249847717,-0.9088706696254615
8.79199101189867,-31.868829664053766,-10.80503616461701,7.441775568491478,-6.464523723628923,-5.509383293772833,-4.423701725975608,2.7512505009444848
11.265593283795583,-32.63475070723765,-10.321215281867795,10.544146426289949,-4.425631560689896,-3.4135466896341287,-2.8226423233838567,5.110271313618171
12.705052578036208,-30.370838136161765,-7.521610857887794,12.163118256794597,-2.0022376621713045,-2.2498798609489414,-1.6884875921803677,6.047147745919861
13.194541603667988,-25.501704334070336,-2.904937390808043,12.453333983434193,0.6355807132882842,-1.3887950093077555,-0.8037059406134582,5.90941413635853
12.87446219692302,-19.7146856730768,2.090679689846926,11.762231126072347,2.977913330897055,-0.42310658983229077,-0.1700989708072939,5.2586403115364035
11.823740343554128,-15.327753944854367,5.730405757007286,10.47351448485922,4.322630244407436,0.5469646463421362,-0.06207634566463359,4.540590011964739
10.065745545318846,-14.525863445250815,6.671494737143379,8.929725514304659,4.023310642366537,0.9775314527590812,-0.8803208959133515,3.8447065120129515
7.716656767994823,-18.639649758767636,4.479523498996684,7.463367088508142,1.7972042688443197,0.2773188045488567,-2.8588197907586226,2.9213538108017167
5.152110017302311,-27.336831866782894,-0.053413855520103984,6.432726574956506,-1.9449933300921811,-1.6697387816609408,-5.745554120087093,1.484518917984977
2.993824933308363,-37.824301776289325,-4.871851630831537,6.108585681179879,-5.901225920799311,-4.167412437896014,-8.644594509291872,-0.3937410752683583
1.8213391395245764,-44.829418210202206,-7.177096249296184,6.40165387644333,-8.089819973682422,-5.821437854289472,-10.20467707215228,-2.1021973197347243
1.7541769831254337,-42.2488880237483,-4.642335682444051,6.6526779310158375,-6.621341671540689,-5.143857573786464,-9.17882260805271,-2.702960651783839
2.225036908685606,-26.273436267913908,3.1334346264520945,5.772611904939054,-0.7577978264242117,-1.368510780110511,-5.112281893884361,-1.4372238818401792
2.186023950910177,1.741401641549467,13.903067334869654,2.789179709024168,8.394803416850817,5.000343196713744,1.2546088985963,1.7949142028494747
0.6816451301935937,34.8468150743041,23.5307921316577,-2.5032616485405472,18.140394499551157,12.28672291595389,8.178992879113228,6.293376519007319
-2.573441870855948,63.36393825995619,28.028785243338856,-9.257105274854665,25.401739506417325,18.397881767335264,13.666047000897898,10.850534841929967
-7.007876116158093,79.63133303500557,25.69811287184988,-15.909283952002973,28.228881575996873,21.830856827371825,16.37743943368493,14.301933149227548
-11.527780025326408,81.75956529113591,18.005562034513346,-20.96696489650676,26.698102336014284,22.347968251162307,16.17734083033201,16.01950232949453
-15.132336593276781,73.99736865969234,8.609604421281945,-23.725834548939105,22.65638331223722,20.92986008326353,14.016561365031247,16.09838462969299
-17.376316131237317,63.538133814988456,1.200948301934863,-24.436582961510435,18.51980398449796,19.068638674435096,11.279210876757338,15.191155436525898
-18.37646997084088,56.0288899683234,-2.3599306745825457,-23.838702752034145,15.948958268212019,17.878394100378813,9.044269639691812,14.127581302534633
-18.42494368886711,52.80958740986641,-2.428363773737779,-22.460015771460277,15.229478751700732,17.575776165088833,7.703972785259753,13.51996681264968
-17.584118271510313,51.355808388945746,-0.5365226604545036,-20.246018496817836,15.57794953409035,17.571878588209902,7.060366012515364,13.509144741627432
-15.629241913929048,47.88976477543608,1.9260900541944816,-16.78819961394105,15.906744702134919,16.987551414940388,6.680660318166032,13.730710879096833
-12.382055930704269,39.86009614392736,4.2048060451065705,-11.916849695689386,15.404368216836701,15.19779200597484,6.207137675797959,13.512324333259036
-8.126578326818633,26.815116895512265,5.765009532582816,-6.141400164618193,13.67541709978868,12.119540913374468,5.486409799388298,12.233904315825706
-3.7227346894499025,9.897799652124316,5.798747780988285,-0.5730005146481502,10.647171311026922,8.190603457901918,4.571953163261547,9.693867462230074
-0.28139398274648547,-8.939906595834497,3.4049943309744006,3.616737215447389,6.536295822762042,4.133847869503313,3.684225093482774,6.285957587360309
1.3914276182011696,-27.314067647991052,-1.6320043140136735,5.8102303993542925,1.9166159144806831,0.6325234312351448,3.1315677173615857,2.865914435195181
1.2074245988315822,-42.539145959957615,-8.221336233629422,6.218898734014151,-2.3022811394161646,-1.9584271745911979,3.1575474099308156,0.35716774228023795
-0.19347011838131586,-52.0632386004786,-14.195109436945108,5.673912444297585,-5.148370203917939,-3.746418590768987,3.7463059523314963,-0.6946515609234741
-1.81243177892785,-54.4352799002014,-17.403599860471274,5.1249300001262394,-6.044028865585617,-5.206647818441721,4.5114620810654795,-0.3675202277611106
-2.7842237153746123,-50.32403054569765,-16.962087063608493,5.196492326491787,-5.1562575052194095,-6.874147046417265,4.805994486473084,0.730138608481405
-2.7035490335800456,-42.68274579086571,-13.742678897313052,6.040472525754332,-3.341869532496489,-8.942703005005013,4.07168020687996,1.8325874619226474
-1.6523916245998067,-35.56384097327132,-9.73909002299854,7.477228527351433,-1.651631490275721,-10.97868735937134,2.255677025376814,2.4493954532130697
0.00786596278898973,-32.12751548408812,-6.772559949731628,9.252972439573714,-0.7025823230755595,-11.967972672203473,0.01020488275894415,2.6125129049117994
1.9162764839845838,-33.08526687368019,-5.429937765270068,11.240799720110658,-0.34153538283386886,-10.77048951499915,-1.512270512557951,2.811546827453811
3.912877550119699,-36.47172569660485,-4.825758847208098,13.493378143446213,0.20836322877829708,-6.789082422177071,-1.1938898468808514,3.6680272264716565
6.064438433245075,-38.678291897132375,-3.1750174207750135,16.12129246602945,1.8637275163018974,-0.4644427300612661,1.476824662173537,5.530704611460026
8.486661387723467,-36.124805447785675,1.1589460541453225,19.03601035417971,5.132738386777328,6.71521053586098,6.089441498913256,8.203561284474478
11.036916038361227,-27.08692431133625,8.461705859528962,21.703225320036132,9.672666836079035,12.690079988297843,11.362793634591647,10.948747111898541
13.07649653294392,-13.338580390098066,16.683400808976668,23.134215114606135,14.044233679739978,15.510951431813645,15.493973572625963,12.774246700872164
13.538954976036502,-0.8714203680303845,21.30260070207651,22.25828323486056,15.835602805825644,13.914178015813821,16.678628069783993,12.874304473812105
11.387089046341913,1.398355980358008,16.657307272766246,18.548076829236766,12.366955436112656,7.640379145979508,13.687398259650912,11.00582774055632
6.251916438506996,-14.713841493168609,-1.3876634190229098,12.510053737294092,1.911839135429127,-2.5005384282401604,6.357364459962331,7.6104295310137635
-1.1575469850400482,-52.09284128788232,-32.72980399903992,5.6564391399895895,-15.125120792027387,-14.796624527859745,-4.205340274260659,3.623648557228542
-9.208007641013788,-105.67143978611826,-72.11271221726628,-0.11216315054428005,-35.891244233984764,-27.053833430949368,-15.900806595301116,0.07247248022011808
-16.049259667977978,-163.91943124232967,-111.02587361718442,-3.3836922520555297,-56.08621497139198,-37.24706976740693,-26.39232413783754,-2.341107884644077
-20.482392227150893,-214.1355369007581,-141.62007351365466,-3.848669448361933,-71.88825470830619,-44.213679101987324,-34.04792140341929,-3.4780087336926497
-22.450859625628894,-248.43969944717455,-160.29631649229657,-2.2869135844177064,-81.67403798713178,-48.03642548979385,-38.5582840070922,-3.7206726085215003
-22.836881731752136,-266.55245708043,-168.60763384411737,0.028949553360338068,-86.38266984124905,-49.80480101939313,-40.81805691637393,-3.689282376616114
-22.70505809438787,-273.4791727973933,-170.8408119967596,2.0900367477446378,-88.22031528027853,-50.77672146452932,-42.0864151714534,-3.8762487339805785
-22.513486326068907,-273.8755200009993,-170.00882221836713,3.574547609151878,-88.58853764988548,-51.41031892864611,-42.95012953461341,-4.398709306828781
-21.82496925218837,-267.44995715177816,-165.21481090064003,4.737128923798664,-86.75755113961742,-50.93449928443621,-42.806582517946815,-4.989432959341254
-19.686154505112864,-249.06221348680452,-152.3855247834601,5.971064328299379,-80.3258836840393,-47.833517524582,-40.260780666707426,-5.198329441423885
-15.383002251463866,-213.539801163392,-127.86512374847626,7.43438893196179,-67.20330341039346,-40.98550167851457,-34.19024976114826,-4.663385595860295
-9.05914287634335,-161.5157538761018,-92.23504143376485,8.981070256651279,-47.71100964611476,-30.69267797811269,-24.748919231256263,-3.2997492332319136
-1.8159589644849017,-101.76686585981149,-51.57776525695596,10.34862782193726,-25.280816579915523,-18.875600240654553,-13.614714772531139,-1.3302879746738625
4.740125104925176,-48.14066898681422,-15.228925053390604,11.387731528862732,-5.203534284960755,-8.262465207516584,-3.299099674098237,0.8277658296545892
9.215337022099732,-13.026494420397906,8.573423547479095,12.15980800264608,7.817043261940805,-1.0794729262489169,4.04467277634079,2.74742108779709
11.005452899864272,-1.5446810951165588,16.485522173106503,12.87304499723128,11.821646655163548,1.9416593838760112,7.5784631974865695,4.161454559029902
10.457533803427175,-9.800454759210036,11.225901992216677,13.742180227940889,8.274070549708505,1.6835731010512944,7.970771371228037,5.051679128302134
8.61077478059499,-27.618636014353207,-0.1660070049084775,14.875317357190925,1.076637658437702,-0.05112992637561384,6.824713771490125,5.6298118949947185
6.716524421626073,-43.51113403204228,-9.654475909835789,16.223361910142806,-5.322184583558147,-1.50527341066704,5.790628191003217,6.21534495032641
5.763268745091867,-49.074063321419366,-11.396216443720427,17.558000620217456,-7.714987328738146,-1.64944895754937,5.865391326618442,7.045240584577867
6.143781558577803,-41.39875926109769,-3.742777557523045,18.46084524341152,-5.190228853813748,-0.3932012199261845,7.10512132349652,8.08868130165727
7.53464670887425,-23.632997331303667,10.221760836670974,18.388237226754594,0.6743632857327212,1.5307555299726496,8.69911703415537,8.974571641817024
9.039771446717797,-4.131521394844933,23.628421355627232,16.891311680927505,6.399041586289557,2.8379787980935536,9.289424474880725,9.118998128897159
9.59321047150858,5.931778218732347,28.22939618661836,13.942302508783435,7.867347362924777,2.100600885808984,7.481014860169717,8.032147339243263
8.481958517068145,-3.4007484610998167,17.78484513258281,10.152288500654462,2.00405647823616,-1.6956807374494336,2.4577119730276773,5.6424457564270725
5.730340918504578,-36.26834024690062,-8.859384099782021,6.6549410032478775,-11.742583237356815,-8.606961351565127,-5.527847215074064,2.420696986856722
2.1160782873729076,-88.1660079067,-46.67078387660215,4.634318674364098,-30.89057314843783,-17.51707418522135,-15.09011763495593,-0.80541797041481
-1.2155997570784496,-146.99823071306437,-86.23724823459384,4.741288666318949,-50.81841497909608,-26.479973786289076,-24.20210429663491,-3.2495506712604234
-3.3292192967789376,-198.05974967468043,-117.803773596235,6.755932099286373,-66.73616560661156,-33.51950527325507,-31.041052767399275,-4.534689822144775
-3.931388732511345,-230.46460177655936,-135.43936048452497,9.717628289298602,-75.72409175257846,-37.47011430140295,-34.73832574028432,-4.813416381210333
-3.4118662503401143,-241.4365709191272,-139.06112166307972,12.447945936024608,-77.73465075662082,-38.380773838221174,-35.61465259519826,-4.5925337027866036
-2.50581743617502,-236.14484964281363,-133.35220869473756,14.13817114697521,-75.07456553644074,-37.270702737606214,-34.798270448341334,-4.401640034907108
-1.834053813340886,-223.64833594474882,-124.55692123458729,14.651294295150398,-70.83328539446951,-35.4486545978676,-33.51902497840736,-4.524401109666267
-1.6204310079105648,-211.9077765274286,-117.32627531586863,14.41716039393411,-67.32513152367967,-33.872238061290126,-32.55415155671091,-4.939209587880969
-1.7088748468016746,-204.9202662385207,-113.37249714942728,14.083706686564103,-65.42414215979123,-32.91992356496883,-32.12672609905518,-5.458358635548983
-1.7825463556451586,-202.93622653767173,-112.14090515424495,14.185503491561231,-64.89978105966472,-32.5801136406434,-32.18062781101109,-5.93322803352306
-1.6075181339613431,-204.42026126686216,-112.38231684296771,14.963525538620592,-65.18777369074748,-32.7631651509534,-32.70187901299666,-6.38284418490008
-1.1883168456892652,-207.79376138745914,-113.34562235870023,16.308465937642328,-65.94799114484134,-33.447090450255466,-33.808489220063805,-6.9794816710367575
-0.799329202525212,-212.0254589505567,-115.03469373257568,17.78283689055002,-67.14643220732968,-34.59359215003873,-35.57490216912704,-7.9103602404360664
-0.869911885772437,-216.3124405957655,-117.677130391627,18.757714564901683,-68.77298089248254,-35.96239959961989,-37.750740843070275,-9.186092246160953
-1.7221369883825235,-219.39167419752218,-120.80424102672882,18.695135232028154,-70.42300733023642,-36.98030106545269,-39.57225576403639,-10.494550238115416
-3.2662715080673643,-218.85259179997743,-122.4336130637101,17.46462230156423,-70.97545717385063,-36.76819158501121,-39.81893495088332,-11.208711713428317
-4.877206301712941,-210.96187131368666,-119.01919575279837,15.46732763992931,-68.65006938264618,-34.39106058933678,-37.198887218257525,-10.613448928457778
-5.6360680238920295,-191.7361435258885,-106.7341987506287,13.428898875229438,-61.676416123015706,-29.32665794746842,-31.007207074416343,-8.293782237404724
-4.8762182621642784,-159.42148522139126,-83.85757900772147,11.970448608434756,-49.44302594455239,-21.975436630133864,-21.771317105753766,-4.483397895642746
-2.6956801489520927,-117.13761072660324,-52.91482612688656,11.254623016742636,-33.47264510278198,-13.857157999524926,-11.435741397306423,-0.1296541719094908
-0.03880833076157574,-73.49809125337313,-20.824875181601183,10.962249454993476,-17.390915374250486,-7.18577151542805,-2.772774023879632,3.4380509316468677
1.79962343849345,-39.748436731772735,3.73251585991153,10.613797492404942,-5.535523152186675,-3.862673454233468,1.85196557141833,5.11114455608351
1.9897562795203714,-24.162273806757014,14.69997761760438,9.987621597875405,-0.7431957508425597,-4.36412672950071,1.7618477782551942,4.5631304110157895
0.7738695820842308,-26.631957189097896,12.3377879391793,9.300213493210581,-2.537804653081483,-7.189566712730907,-1.4470060874434147,2.447519374677223
-0.576442521252688,-37.00289038701197,3.828563054639481,8.98998971872702,-6.9154986424143505,-9.312069623759225,-4.461505518416931,0.0950075148910776
-0.4776817155380917,-39.001405052653375,0.024160632850463493,9.273393779455834,-8.09984671118232,-7.528314119824481,-3.7724704764948003,-1.1467376722134606
2.016071209902486,-18.269881648458366,9.920954242006221,9.852855113198041,-1.4455333608865644,-0.04627325196877803,2.5997209760406563,-0.571684403673459
6.644514639437222,29.904629401924407,36.010219266927216,10.049764370471127,14.139203731222134,12.569263326123576,14.11996505272033,1.592364423659782
12.10716355612019,97.87123000520641,73.24890025791242,9.284975079344214,35.68755939436996,27.657851123315304,28.05273226539909,4.39885075932653
16.821084228045155,169.68137370691264,112.16033142754662,7.530843632332706,57.86457971045006,41.792829985309865,40.87820120161071,6.7375240298010715
19.751073852007103,229.39575861119013,143.96614036622947,5.365256522987954,75.75464249742683,52.386418146759596,49.96281817170216,7.879804289409366
20.790170697240036,268.36245532808863,164.4476169327015,3.566711227578261,86.99153839781243,58.613676015923886,54.520245850534735,7.7199024596856125
20.519359188118045,287.0420714469831,174.27791976552703,2.557576351764724,92.002354572865,61.16005154237375,55.3939151919617,6.64757569942852
19.614843016160947,290.875639459214,176.14921222771045,2.136212245902478,92.49183384433934,61.09821676687279,53.97258812481373,5.21874882287547
18.37661015427873,283.92480681059874,171.29364034336064,1.7153112075534338,89.51727911447361,58.79146639756156,51.0862900662956,3.8657959146686274
16.685953314544903,265.3931929118714,158.25211997513307,0.8705498068334078,82.68547566281877,53.66043766852114,46.64785880640182,2.786060668718474
14.325472843833353,231.55665307109427,134.77682973929095,-0.25337054080571764,71.00529646744275,44.95778767040326,40.178423139915225,1.9793058148621123
11.333817656488167,181.14798840758957,101.1493221582096,-1.0075191015940235,54.55808855883007,32.892227054672325,31.674464655225623,1.3179454114354632
8.109637296197983,119.49790133022972,62.05984565934178,-0.7078644984005681,35.509622438989076,19.160118711210867,22.064368579670806,0.5783666609293684
5.236189240968795,57.86585883154844,25.374031699287443,0.8781816289963522,17.560789454851815,6.403491718765711,12.895436405309,-0.5357488360521707
3.2218399487490914,8.303309139937442,-1.4375963895278456,3.401530296011096,4.20027588435784,-3.052661500449229,5.53717747072884,-2.2990254484457395
2.3668951300190586,-22.151931501787043,-14.690520679891259,6.217498678320119,-2.954067747855374,-8.282342732554138,0.5547062782759362,-4.77933932882267
2.79496177057579,-33.80294377920079,-15.447302444052234,8.801203710953576,-4.562118431772514,-9.91526006864279,-2.2838864507759578,-7.666258520368133
4.503577437572777,-31.854506427661118,-7.745461885134964,10.90963761054628,-2.5733846230267265,-9.34377555108437,-3.4670554220000427,-10.29005362942154
7.278147388117105,-21.59774246517777,4.213201862448446,12.353187470480293,1.2407442320680697,-7.6553075841577405,-3.2104434484215987,-11.92408177426501
10.501473389219887,-5.160161864314733,17.75866193537433,12.629828486884184,6.079705166919047,-5.096721893136135,-1.4200672137366803,-12.23932376437071
13.094445249314706,17.93517253947097,31.484159936424604,10.858269712857712,11.791910914271062,-1.3754454922564954,1.862401065239152,-11.596852043837409
13.806863980987163,47.498910679589756,43.943071320247554,6.221608743663278,17.98325863029977,3.5822216795537933,5.997282618464847,-10.921508304964672
11.805483652079298,79.92011432998014,52.940977492485544,-1.330849863830263,23.501529207467822,9.106318856851155,9.744987800605644,-11.19462681421185
7.208845163702107,108.47898689951475,56.2436585995258,-10.670922486804532,26.803137438626365,13.924157073508926,11.798030736958584,-12.894824684320467
1.1744711253642388,126.63441943296843,53.10494863857858,-19.76734126131276,26.903920857662797,16.840658701790026,11.47897262103263,-15.753500043969273
-4.585034890354261,131.81045764609766,45.23794554032414,-26.56309061138802,24.12979296858354,17.429253172175244,9.110527620541946,-18.955234989154217
-8.597024704286149,126.8480735131325,36.26366552346335,-29.923648950326417,20.049581638762394,16.235136565509734,5.811499229405536,-21.608470885815088
-10.264197967718273,118.09326129500377,29.870373706493716,-30.06462963935057,16.609493325261074,14.386639246757138,2.8765943699494603,-23.167607241097432
-9.982375357569177,111.60047454526281,27.936884324921444,-28.23151657236729,15.08761320321134,12.938659665811269,1.158677921742285,-23.579459572770606
-8.734599314396286,110.1497819564343,29.884974037781472,-25.91042883723059,15.57693052681678,12.404758961265207,0.8095029819323356,-23.151608958847472
-7.485110090869603,112.80345688364481,33.52835270419647,-24.110250706974103,17.23466012121023,12.705923278511904,1.4256813416363434,-22.315769309204235
-6.762857678929478,116.62136963281752,36.58757406390458,-23.102892085437126,18.951862439076713,13.422718973988202,2.370753594536594,-21.466896171690014
-6.609879464149468,118.88588440965826,37.8077628336849,-22.62569496485346,19.92438368228845,14.093060694844615,3.0291536263855585,-20.928210164374125
-6.791675204847858,118.57109978979956,37.26599774866265,-22.279027028488166,19.897482732525987,14.407629935110272,2.9416188449305287,-20.96103282227316
-7.053034576598438,116.81191891344825,36.11799190677273,-21.85075839322175,19.18167030153615,14.309179205908794,1.9176819894152635,-21.717840864088476
-7.276563110785917,116.47528577545631,36.06209049355549,-21.44192702429634,18.542704707537233,14.01546131901834,0.16480487475907796,-23.120137158740313
-7.511431332222197,120.70233576794854,38.5124938015203,-21.36940841669801,18.899631150521596,13.919067428935955,-1.6695628417306911,-24.73857185345489
-7.87907139868639,130.58371913135375,43.581946028427865,-21.869994752958874,20.80456407483337,14.349990290177024,-2.663809895232392,-25.787745435643476
-8.379076136572,143.2084894726304,49.48688946625135,-22.729574104128027,23.97254398150211,15.33295084919099,-1.9709531421881543,-25.312741838880317
-8.692734620017191,151.9141700582269,53.12485903106654,-23.096922676720023,27.287447342746383,16.541396324193663,0.817022158071597,-22.55848318728828
-8.16195906166275,149.41849733233042,51.82407418649845,-21.733105734484926,29.41922928691416,17.508084069865568,5.456239919160768,-17.39552417576393
-6.067540204279502,132.22175830867104,45.186388256540035,-17.681474027170488,29.66196807121486,17.92029784595958,11.057777305203128,-10.574075609390666
-2.114473236664593,103.29532323942198,35.62609404209799,-10.983314128737277,28.364641060248072,17.754071959328797,16.30862077601604,-3.5867642742444494
3.180762725061358,71.0136610274748,27.069018465392755,-2.933518495602747,26.627030448342236,17.16730580125815,19.872569437462616,1.894224752124452
8.512361287847467,44.87399902343708,22.638241093108757,4.375151159890902,25.507004648191437,16.303762429305536,20.882768169070243,4.756857539312817
12.290847272607646,30.749294357187658,22.914510798981894,9.004391017487563,25.349308332249148,15.228498725839696,19.343264739587866,4.946518974347772
13.384780765802299,28.610366198571022,25.93183566807969,10.0689137855893,25.719233142642036,14.059328524699321,16.2125279520227,3.4077920231506025
11.670381296638878,33.78881734822336,28.778866409539383,8.061112329098664,25.918270336705596,13.129120953141758,13.0393902825423,1.4943997040574857
8.058358427877492,40.411796974430516,29.521819106369108,4.451052366668201,25.588947284154845,12.935115868096155,11.253232016200847,0.2088474071485767
3.9937150152381222,44.48006216498572,28.066301892215737,0.861825891484157,24.889028113949962,13.805180569537056,11.452139556475142,-0.26123268316533277
0.7528447604349058,44.90891328746965,25.57297461415135,-1.6609737245414362,24.153163755283252,15.501051372471887,13.105783154553501,-0.4447221719744231
-1.0506758690513178,42.69496709196702,23.20212810415596,-2.9160741725526105,23.436237718510398,17.10859319647324,14.88293654821486,-1.0382458142346984
-1.5392322913753909,39.50651474772506,21.274973928569192,-3.340263283452849,22.388898413128985,17.38291200375024,15.419649573593352,-2.3129022247599034
-1.3007345869425684,36.72713829172307,19.312039430752183,-3.587085510379479,20.54601885772918,15.36834336161055,14.047641448856544,-3.8864664877681867
-1.0010487125435277,35.10068846776035,16.6323848344356,-4.159128399326119,17.735355823952574,10.911466331053859,11.050843225074907,-4.989075726921633
-1.065953776277812,34.71554761657949,12.97548929367335,-5.212281430047385,14.286806258992053,4.789179235924591,7.374562378853791,-5.000208386087979
-1.5159530685676912,35.24214533974119,8.863421235754652,-6.530275947817463,10.96339100853849,-1.553588392610666,4.074333421009389,-3.8704428752210855
-1.9798414183792412,36.4239564690648,5.635072986652937,-7.64153564691924,8.720864978795774,-6.475860395388348,1.8799554756814965,-2.155720771129874
-1.8852201608518946,38.510650887710725,5.068746378254519,-8.041000461987403,8.393280275122207,-8.639943064095286,1.0584777268429182,-0.6683168435263224
-0.7637589755727223,42.131090956719206,8.563528569046266,-7.4308813532964075,10.349946278994382,-7.4241658844623455,1.5153984047391678,0.01789726441659549
1.469791255166411,47.55057928133716,16.187093774658305,-5.859635540163567,14.231969930773094,-3.1447640469050215,2.976994421597746,-0.08723179400216538
4.418493989651559,53.97542718092707,26.21855953383634,-3.689916207232237,18.963880248094178,3.031154917032555,5.145260212623472,-0.3779893550839614
7.344141974517636,59.67347101206019,35.6507758770511,-1.4347168111703308,23.144955801357238,9.510342097859738,7.782763622807101,0.028550203336279646
9.474363890646531,62.93363780555481,41.4782550259331,0.4361834536313052,25.657275133437878,14.86847420236092,10.706623852864023,1.8097377443997646
10.328112835453856,63.08422215778997,42.04241914429866,1.6432324291339688,26.136501102159368,18.31400454324596,13.699099224901307,5.036925681359629
9.927154460734437,60.79930015894015,37.71603906412843,2.1730152446110678,25.043654873841632,19.797915573724513,16.412672862126318,9.068118096240376
8.818603466851943,57.6434377837882,30.6801089559576,2.2690407533531185,23.36056518613108,19.787618672979384,18.392912665837716,12.802478185053458
7.891493391399184,55.3659750737957,24.00757729752282,2.318462409745056,22.136607325241037,18.92289164490192,19.2736410411445,15.181553892332872
8.03675671293767,55.34789505198068,20.45719422454361,2.66046750478593,22.103556548966576,17.7791513901285,19.041224895420193,15.69130219209918
9.778987733412919,58.217727160910535,21.4100322521549,3.417895866628121,23.45709525878707,16.810072503771732,18.16111103207608,14.609670035842298
13.046404263204604,63.596581497911586,26.377900461044174,4.459207263826388,25.832097681702503,16.379517755550605,17.423047709390712,12.860088612568603
17.181584453905376,70.16235682715975,33.35598046953655,5.492064130079871,28.47453015092806,16.7420888380082,17.54841921773562,11.519625753256918
21.159842172625492,76.19821901174062,39.86411728141579,6.1774437803635,30.546582243825053,17.903974419099843,18.76310306260014,11.213249795638617
23.889953402165357,80.36149257429551,44.066456677544416,6.170885530512152,31.410728565635544,19.430925953564614,20.571270983578028,11.717972069647166
24.494087328359193,82.11358571734128,45.32527449022885,5.130321974770481,30.752175305603913,20.38595755702,21.882384710325557,12.033744423841627
22.53736512481004,81.56081350297204,44.02475028914082,2.8079792119322318,28.55073480733949,19.580440935983347,21.494246454103322,10.944341220313024
18.18954113170313,79.05061612010292,41.034615847389034,-0.7520448945061465,25.038695155136228,16.144734716867212,18.7476056691784,7.790713766531505
12.245030887707953,75.01261853050976,37.26693584735006,-5.062254469763971,20.71786206360294,10.144173216125726,14.008638640444039,2.999432200146116
5.918603947632408,70.07555988210032,33.455216385899845,-9.274726121709332,16.33779633267277,2.8156094285225755,8.643227922657198,-1.9939405424474823
0.4510820317653286,65.08216026758588,30.04170871790249,-12.513015655302985,12.70549476662359,-3.8284298527164906,4.405575556060674,-5.434519851547165
-3.28654902977116,60.824813771570035,27.1565790083538,-14.249988853649203,10.382939244721753,-7.867542768517673,2.5451466936410334,-6.173568758354977
-4.982158250252182,57.8143146530658,24.81844880764388,-14.488907994162348,9.506083390734497,-8.32344863344879,3.153691116458674,-4.295959638833682
-4.812436436606333,56.41514373530271,23.309626851381477,-13.668943722165357,9.875887189074765,-5.524295736360631,5.14101365543518,-1.0872213993358257
-3.2407273425905547,57.13334961250517,23.340209063431956,-12.4038013302124,11.198083152311368,-0.8464177849287475,6.839129489873661,1.6437688323837258
-0.8382281116402941,60.48513376658838,25.643857471904315,-11.212264642466312,13.2080330336844,3.9472494359909542,6.873895953474506,2.514231754455544
1.8293004534092348,66.30411698329874,30.190996775120965,-10.334545550153214,15.582109858081258,7.410423876358751,4.832424351200602,1.2717441279436807
4.300205358339903,73.12843419786563,35.71531690094762,-9.66974409250517,17.80719472517516,8.874376887541326,1.40631683084315,-1.1282629274926115
6.321228577916127,78.46815907736229,40.106787862834274,-8.856533576647223,19.237086573371364,8.538350652602206,-2.025549148283975,-3.102833655121216
7.895023401109278,80.01324821382613,41.51096636951497,-7.488204024649136,19.361825418754613,7.203023269394836,-4.1356848205103995,-3.334346846827235
9.20348675123825,76.99224725950558,39.39794347150813,-5.3776148186494055,18.10309562358501,5.793898598661626,-4.307797828678709,-1.460155073433148
10.425956281701655,70.80101392207739,34.93438065632905,-2.741078576551481,15.938121160882424,4.929146483743313,-2.855850091862058,1.8038753456719798
11.548263119033804,64.6091624666887,30.501510867522907,-0.21708990860952884,13.785546961457577,4.764849308157695,-0.700854199375377,5.1014665514526385
12.257181904194764,62.15137146081595,28.610299495334605,1.2756179255650493,12.675942595843745,5.143965442868205,1.2417839329257698,7.112753946760747
11.972028757542258,65.97243131579849,30.587307588979115,0.804109043464349,13.25069684656688,5.827634289511405,2.518471247828534,7.082887395831273
10.03581472004589,75.4776108536006,35.48273711119012,-2.2067075265556175,15.220578473666107,6.549020168061728,3.139866118090523,4.998160216208299
6.048871257463919,85.64710152916518,39.802625760010436,-7.555686193791604,17.09184171237572,6.867410025592572,3.220736337086388,1.4515300495873764
0.22935247546040669,87.69810425606478,38.576635800574465,-13.99972097918964,16.514041610804387,6.073467304526066,2.6413629747685765,-2.6331445128226902
-6.422121565952737,72.36783272153791,27.63091018168063,-19.42606306530111,11.308558448867284,3.4012610591431875,1.0548859204548915,-6.2780642548383385
-12.351878460876943,34.75548740393125,6.021829070081533,-21.586486283458715,0.7251247209629744,-1.4889035774233585,-1.7737584919182217,-8.680065230815242
-16.05802512784732,-21.95281788897462,-22.83747053080354,-19.13213976631523,-13.836160016659031,-8.098768151918057,-5.611569807871954,-9.386797654734654
-16.778017511475245,-86.51767429671862,-52.25815254062888,-12.374725052441358,-29.190852599262364,-15.117510077306296,-9.71098258736182,-8.397280452689078
-14.861127308008477,-144.0489959119769,-75.17872313895988,-3.263313386434065,-41.738729204007875,-20.959695979044064,-13.146440131317977,-6.137583031724947
-11.593425199680688,-182.6036948730602,-87.33997461452034,5.480591458160392,-49.10214264118972,-24.516542147153565,-15.30771332822552,-3.288811194170362
-8.568131769583513,-198.2253508599617,-88.93622090371696,11.596000605318471,-51.092236502731126,-25.649793655645176,-16.203837881539158,-0.5222966933264277
-6.959474700241878,-195.57144903532668,-83.86388543639715,14.185276986678723,-49.470077513986375,-25.125640856503647,-16.375067783979382,1.735635423965681
-7.09584374040914,-184.176698455311,-77.22414491490647,13.830283319172608,-46.75520758041897,-24.078567642554844,-16.50698535568825,3.396021477348565
-8.520093784469383,-173.17998073887063,-72.7914965446097,11.987735930149581,-44.9268147524592,-23.40725187142591,-17.050804019102713,4.634310843290698
-10.41485951077935,-167.83043260334523,-71.90527524287259,10.143690703916114,-44.79392236309021,-23.48282280887019,-18.099499441500242,5.731837055846806
-12.077508539216385,-169.09520057809448,-73.95498892458062,9.229064643035375,-46.176750080290304,-24.23848899446351,-19.517527421818702,6.940487884690783
-13.179405549569028,-175.250153131694,-77.52125483470999,9.484616380072794,-48.45106790707814,-25.42023552599525,-21.128474031466908,8.421293531712386
-13.757974958855767,-183.59255650052424,-81.21155362875545,10.635129494213672,-50.9594164505392,-26.761834563419416,-22.79975342564075,10.232135079135086
-14.063383528089767,-191.4535742200254,-83.98882123616094,12.14449941173893,-53.16879081779141,-28.0375375265153,-24.43234229457205,12.321932675395667
-14.394101315787774,-196.81481293925592,-85.31717041897022,13.440031814834049,-54.73859311833252,-29.081318672980192,-25.949432556238452,14.528849561450368
-14.97146283715059,-198.833049703847,-85.28465194403584,14.101934318554814,-55.59452526766239,-29.8196820628648,-27.31406936167538,16.615154514269058
-15.856211944702801,-198.0111518447625,-84.52213089888663,14.00381706475242,-55.92607986863404,-30.276591209534715,-28.52911877984525,18.35666398609494
-16.93100926213236,-195.79265669382136,-83.83851532191015,13.349404546062393,-56.05979868687317,-30.53226534595789,-29.606750683532326,19.66032357226949
-17.97967470189964,-193.9878072283617,-83.87087911534915,12.586623740103422,-56.340107092939334,-30.70517556495023,-30.573110927924013,20.655893289169562
-18.832433382113315,-194.56467436275443,-85.05736771889043,12.253289372214489,-57.148227512640126,-31.009398606778184,-31.547907800618148,21.71006260801979
-19.4783081428878,-199.55109453682527,-87.76299808191972,12.809104798145516,-58.9422286049554,-31.797459092890616,-32.808622418545404,23.32556677077056
-20.063571341781916,-210.1801060254009,-92.0836278667314,14.444422258903334,-62.051930241042086,-33.42438063426093,-34.690106561487575,25.912913515857127
-20.78969736254832,-225.1292043834808,-97.25506294597687,16.85887473303145,-66.20179254057999,-35.91452802205673,-37.30172427650613,29.483634759236452
-21.791769787383707,-239.20590252586933,-101.29037944381714,19.12633989014224,-70.1511498022211,-38.65978286891818,-40.25098653045976,33.40808542388057
-23.056737548776404,-244.28172983577846,-101.5429297226794,19.859182129087756,-71.92498277933989,-40.448475219162084,-42.61716544468635,36.433569328426294
-24.38636592691997,-232.77963338236586,-96.10314758269166,17.762747622251215,-69.6813630495319,-39.91252550991004,-43.25149997502549,37.07662792082664
-25.408585736217873,-201.84103406315072,-85.08509413386771,12.355709342220292,-62.71926446744556,-36.17581502513236,-41.256141443674906,34.282956912383405
-25.682009662521125,-155.50688184053863,-70.8535202096292,4.394028970288919,-51.99261071120873,-29.354210638771445,-36.40560254454065,28.021598826368304
-24.92478502769632,-103.51193975508721,-57.065145540397474,-4.36579988004818,-39.84696289084502,-20.66169016503686,-29.341990997958725,19.432670315690213
