FZ,C3,CZ,C4,PZ,PO7,OZ,PO8
-10.251219339221318,-3.066458624273217,-20.902608849727898,-13.350446339837795,-6.661400661561087,-7.158119820560242,-6.955440909769486,-7.627253930330447
-0.2669158916446328,65.59636234967684,53.5758424485032,-2.089530168849676,33.25476928888105,6.913429030430459,8.365134900983737,-1.452107613361096
7.8411921661061115,121.08152281566109,113.89900086060322,7.1137343940353075,65.54339715899519,18.28605966629815,20.789021587674895,3.5681653225645995
12.899265169313097,154.9504598670961,151.09706470112633,12.989042214454177,85.34999693067535,25.239748230478277,28.476092249111606,6.72246585907171
14.79378595998484,166.09714634718753,164.1386871553243,15.440478922714538,92.08382120939777,27.559410148131576,31.206568304710732,7.961005271196364
14.348946082424433,160.05846825946907,159.09592655773076,15.393452322929281,88.98881306372215,26.388267860709405,30.216403526547136,7.810484201043796
12.8349066667165,145.75561771098387,145.54777067378265,14.239656674783921,81.22653587315322,23.551226226371238,27.46434376642646,7.060775071294961
11.396269181608286,131.4743708878955,132.27331111727193,13.216866412135516,73.55152377653543,20.728174778881048,24.74654794949934,6.408634226295627
10.682018113734332,121.99758306916712,124.30230219811699,13.028677853215033,68.69149497049806,18.877848075109682,23.08838589745477,6.231837412755611
10.793450884953433,117.96286674705637,122.34518213852425,13.803256309175556,67.01510100839133,18.126134686964633,22.631830688664706,6.560822067707813
11.469913899193319,117.23867079575204,124.22821455495333,15.277771717855247,67.32131099645665,18.057223803710617,22.94116748063416,7.197573477997618
12.334854319045306,117.11222589664078,127.04218493303738,17.02359188943737,68.05063779391779,18.14728370555198,23.450168849488755,7.878032286475277
13.06577751500907,115.92474080906595,128.72585092506034,18.604473374252244,68.17997789451218,18.07017305156043,23.777089163096736,8.397028804619517
13.459676570892118,113.46452593200871,128.5385501077915,19.672379360255693,67.45715471925953,17.757912167040796,23.797445046414303,8.668202572089557
13.439221653871774,110.34351291845182,126.67897581285501,20.046813723569485,66.11144650109958,17.27836594933084,23.54168829911718,8.726822833378458
13.047105653735978,107.07974541053244,123.65528506953392,19.78951913623556,64.41439855714138,16.674913873261463,23.057311915543565,8.691989160959784
12.442577060176507,103.52206807141229,119.87898189788565,19.242147266020677,62.406421813925576,15.88446359377233,22.340143688703016,8.706568087071963
11.889275622914193,98.90081082626322,115.64883379902926,18.981022156338668,59.919588412386396,14.779348745783343,21.36900969337425,8.878681670453117
11.712382004462276,92.48026361431444,111.43805171008289,19.651427811692102,56.863361501608495,13.315169582873775,20.218255614011415,9.246168617281533
12.197527470991995,84.52195490204397,108.20522551151993,21.67059109120253,53.60234580486477,11.705475643877248,19.169763631454327,9.768245380569077
13.421921281860694,76.96671661295137,107.32923997602948,24.86292915193529,51.133261749556056,10.487986315246335,18.707499460597777,10.333352079760974
15.072736975092395,73.1238460757942,109.89471198599449,28.210631104556096,50.775993996254606,10.355962684115001,19.308436861043152,10.778137687245168
16.385951567287538,76.08690958786374,115.53986971235202,29.96835884611592,53.36361687061693,11.75995316376497,21.080448623950517,10.928827174057925
16.339071522734727,86.54324095073764,121.65223003431443,28.269935942700847,58.35649699643161,14.487239606239891,23.468362596986243,10.66952391176179
14.094863952334858,101.43083717768391,123.80125062595262,22.041262966631162,63.56302583296626,17.534239452008304,25.297315178460906,10.003275584288787
9.486431611571705,114.71787961160364,117.62516790796948,11.726166451350768,65.90746027528091,19.46374120649508,25.25148285633782,9.041341123276148
3.223866947551097,120.2981943087812,101.29651139804825,-0.6922110622619403,63.00134004991355,19.121418164569096,22.57769458506782,7.886692709640319
-3.378960004027076,115.39643266183526,76.99994672803561,-12.518572281508499,54.60398025064586,16.289295937025773,17.579684287922046,6.470359212830367
-9.046107311864525,102.16833713222705,50.22512967619204,-21.59036392825766,42.938460448951254,11.822465265009367,11.531006442445175,4.483312006463225
-13.141878027005802,86.14068198843499,27.053284870913405,-27.150322296731016,31.485715468895815,7.133579925466338,5.999424600371139,1.5307369453930169
-15.799400195943358,72.3808972091358,11.1258976155053,-29.753473282428054,22.967183596430257,3.3690454735598556,2.01456148952718,-2.5107055499796327
-17.469709860944047,62.195231064797575,2.4022145815805684,-30.310832175245277,17.930927099758154,0.8797298145381672,-0.3325405946122895,-7.14721283450272
-18.25410701080061,52.946303420608245,-1.451967628510308,-29.053941672301654,14.978359645855965,-0.6412529137764353,-1.5866619581613792,-11.2303969715432
-17.59584930446103,41.098092271185344,-2.301728027660431,-25.280664855578472,12.375367368377626,-1.5469239908093317,-2.222867750716466,-13.374265108930818
-14.637351566667883,25.89004942885887,0.21788441866431424,-18.0966755771545,9.669480139078388,-1.7391138159260855,-2.1612032581101603,-12.6516238566907
-8.99380485209906,10.576988938595289,8.030858613182156,-7.532151568457966,8.007252956348617,-0.7272956528744472,-0.8958448989200117,-9.146727074910661
-1.3311816700128538,0.32544540875312233,22.245031016431295,4.89495716136901,9.017770034753491,1.8441729385431864,1.9231268092442502,-3.9913982779026314
6.723409989849573,-1.4169405851755685,41.200504677831816,16.645883359449037,13.295871149304489,5.691886224347851,5.984667515689473,1.1568935779914
13.305993703283162,4.719083970203457,60.58265511432757,25.346692576654462,19.710419745974495,9.849242759254173,10.308811254768537,4.880042613980847
17.194989728286952,14.478118124779476,75.50492072026918,29.893866414731825,25.985271578604422,13.122149341578549,13.731316418490163,6.568508070999725
18.298083207832743,22.62934007549324,83.01756685716762,30.80416751151719,30.019655358966016,14.709746530147825,15.513733259833362,6.5187179582215276
17.504065262024746,25.821491962278067,83.3550650444906,29.688075579399086,30.976111025463762,14.571117607057527,15.663575137334119,5.585460694472951
16.07372847101743,23.857575511183846,79.2822189004471,28.275224945064007,29.472734713184796,13.334463739149136,14.796304538742676,4.652990344646467
14.984171052361203,18.952718639681216,74.22170812554343,27.609526757418315,26.923742628807908,11.865692570840345,13.69473165448821,4.232505515720318
14.584394436139707,13.885241428163882,70.48674074248673,27.80943382438208,24.60985926936134,10.80281896349671,12.884951142130097,4.356531190336884
14.666071967089666,10.362167904457898,68.58502401681535,28.385874296525888,23.082302024723386,10.31519245746599,12.467039723926698,4.743036861651725
14.807861982503647,8.38374521953725,67.67977140298484,28.81705657590744,22.12937755838894,10.152405536879366,12.226700315286118,5.073819553080665
14.752446176023614,6.630896740800434,66.63842118483758,29.020600186302467,21.15787002043567,9.8851647250309,11.893731744094167,5.2202042625327625
14.614887854315839,3.5106658266693813,64.99923171406527,29.472979577654883,19.71193309302927,9.19818416573112,11.384529948541,5.313090938689917
14.819845967709478,-1.5872150441412225,63.40802701425844,30.897679944565798,17.891392037831647,8.119627394351006,10.91265905328439,5.634317697990396
15.78174844209756,-7.3879097260551045,63.306918781791666,33.6422848015658,16.46474808916011,7.085390763651066,10.902175530003854,6.381273060251536
17.475985442635043,-10.849399380765128,65.9057800032466,37.07092597383785,16.51991387682399,6.758693475588958,11.7036220268722,7.4260299132141
19.160967005062407,-8.615561190771842,70.88482039148538,39.401846893028484,18.71144104135743,7.629332948979399,13.230524586122685,8.224897975800074
19.498537959966416,0.7846615164628191,75.69063333392349,38.26662955241321,22.51662236894628,9.587246242063829,14.752760714120937,7.982595152497953
17.11995380848054,15.389709916493675,76.2079267152225,31.84938718057453,26.088843643603486,11.759623431097848,15.067050271173608,6.03045083350982
11.383374954389987,30.170256307600916,68.77933518580913,20.020240424548494,27.007898184023933,12.78980011615945,13.049310091239649,2.2215920228172976
2.87860211768246,39.35734106798985,52.47178651496718,4.751195356611975,23.586812287482235,11.458053397856366,8.30161450391607,-2.900635621589785
-6.671390838486251,39.34469665808644,30.03222180947369,-10.540660456305803,15.892237676590849,7.297008882944773,1.473819931403788,-8.283226324048647
-15.105393171161339,30.2529160147349,6.670384272533837,-22.421019549509772,5.728080446963903,0.8337776372574421,-5.987987041541548,-12.79192936397261
-20.716867911957955,15.175337003253652,-12.684226990897578,-28.822117177510535,-4.451546527316338,-6.664531867929778,-12.523104255695895,-15.619380329007514
-22.81186825058429,-2.0594799744609906,-25.751897398694528,-29.596199513377528,-12.8807757713717,-13.720014463614001,-17.09774684521166,-16.433428024552406
-21.651149943207216,-18.5390315003257,-33.103263221204315,-26.044747069404607,-18.979932171341403,-19.054787135302362,-19.357362716375984,-15.246893763241054
-17.9550866282644,-31.874553342952215,-36.04102508020664,-19.937428883863436,-22.599713051218682,-21.661342212253498,-19.244392927236433,-12.221157265176643
-12.436713305800566,-38.46262805991384,-34.01091126064546,-12.77839097235837,-22.768123665115226,-20.685141600475784,-16.508209244255077,-7.6363178234121385
-5.699864853729647,-32.78513498301975,-23.958832380896713,-5.6834215501272345,-17.293761537440794,-15.479157002074963,-10.641005296258278,-2.04001448106977
1.5607712899657997,-9.477689765108515,-2.492589164329911,0.3817024505616783,-3.925816624074995,-5.9932640706954095,-1.3832495298643042,3.6500408378475595
8.402143630354258,32.72871341177252,30.719930462119645,4.499388767704298,17.63787442574681,6.760518099136193,10.606425489782414,8.314860238097262
13.782121996941978,88.22765996317912,71.04852025437229,6.053308267408917,44.493034996029806,20.64354874008771,23.529432927663333,11.056356293766365
16.96025942621411,145.5162361873622,110.14497802120805,5.108726294832402,71.17126419852181,32.97841310061111,34.96842665042707,11.60932410404893
17.851888710663676,191.84359696882285,139.6451773280266,2.5255028553167906,91.94068476182184,41.55620400541104,42.88496485708112,10.457499994716715
17.06434226306357,218.78425085018438,154.94816381150167,-0.3741762051481442,103.34568790674278,45.494683481710204,46.47932440279354,8.57175490221983
15.580989589286709,225.41989471931439,156.8131290824469,-2.4031973877185444,105.46894988771281,45.45396375361726,46.4056416521244,6.9367381942996085
14.299956468703828,217.5553601020936,150.13386043437362,-2.997483272200651,101.33478720353824,43.1287530598279,44.276626834387145,6.143680812776058
13.70477485201535,203.97342999488242,141.04597140844527,-2.3178042528037306,95.06724835704316,40.372213632793525,41.82514561450968,6.249182770938566
13.814827084944518,192.27537901834185,134.24842549512292,-0.9739671179109136,90.02127091649099,38.46379898242917,40.22234254563607,6.913595560747897
14.358243923981558,186.47765014087346,131.7901037560606,0.38379506928903107,87.81436812521554,37.84082884393095,39.843546156065784,7.676083713909239
14.996539891652416,186.89526393801927,133.34493130804336,1.3465809738532026,88.39618896280092,38.266597604302426,40.43851538240563,8.191609053514778
15.47167231283663,191.41784546701913,137.2111226009092,1.8121373872219235,90.6914421195217,39.18513463187683,41.46696497372796,8.336300042618454
15.657833981385883,197.01393620628946,141.31139046727026,1.9093570292315065,93.29536581663984,40.031323107786676,42.391074368936415,8.189972615247752
15.560649841291587,200.8905908699702,143.91818225150254,1.8842672882898641,94.98916143816317,40.41344029314525,42.851700971661806,7.95035371268435
15.289410658989516,201.2800601176886,144.1030803687641,1.984340713294677,95.06886716449307,40.18800039143455,42.73887114542901,7.82427822872655
15.00217198776628,197.88832041983264,141.9104620199247,2.3476276869013795,93.50019756411592,39.45425401939831,42.17381880428487,7.927067193217054
14.838902835233096,191.92782500704786,138.2540087326424,2.938632471392208,90.882668140154,38.48333708799877,41.422864168289486,8.225870744876831
14.880375795030126,185.73600178112773,134.64105832159592,3.5860183658149456,88.25818866633612,37.61784062085959,40.793274226964286,8.559784872546434
15.147276543048664,182.1261554881129,132.84050908503437,4.108381124786352,86.84139378366821,37.18793261260017,40.56272012211692,8.733664962089634
15.605146470814745,183.53474853165454,134.41770800641817,4.43162567853755,87.67173637411159,37.442681130107474,40.93279200729245,8.635196253348985
16.1391658395842,190.87040996299214,139.9523284196865,4.6113678920845675,91.11067510189504,38.44323235451892,41.94360657053085,8.310548933143187
16.525797983389072,202.21280954333008,148.0700695998225,4.769348290142699,96.25301780700683,39.90577810008627,43.33492844989672,7.9626946789744775
16.476553641536036,212.1664427337981,154.9712495602771,5.016642513614558,100.64406286485662,41.105745665196174,44.46130565377249,7.873615954908663
15.782035514792028,212.97522485161218,155.26195696068845,5.399176794539973,100.80656076679196,41.011955471649436,44.41448521261165,8.269249026792625
14.472934664588786,197.6871423900375,144.17668950961132,5.83676433977653,93.67038273596542,38.69122960201955,42.377845332121865,9.159398099442367
12.85913943661739,164.023742844971,120.15365121969823,6.048477763294874,78.26273510284034,33.785676651884145,38.026279328213896,10.219220196158085
11.382556976739384,116.50566082385916,86.14580541862827,5.551739533242768,56.579488316219766,26.738618623289927,31.695094125274316,10.811773322598228
10.36747198274933,65.01333947713776,48.63530885916547,3.853028601370331,32.89902508945981,18.579723196806917,24.182366282941864,10.219314142873506
9.846554899604518,20.20120938301781,14.775827912733396,0.8233879872891607,11.795929391882266,10.398844721937287,16.325261235253173,8.028781307756596
9.596949148138007,-11.473765088650676,-10.590996085653263,-2.9540329803353127,-3.921463849266727,2.894163252997459,8.680892285991362,4.473207951286587
9.357551235470398,-29.765051691435552,-26.158673635993814,-6.186847136867143,-13.965419835560379,-3.654307032851172,1.5709927555265304,0.488050009517884
9.031196701101262,-38.30895095728744,-33.05507324731348,-7.423970586603617,-19.545771109992767,-8.981304592639578,-4.567185683332716,-2.631557399419713
8.660035150720848,-39.872782113423625,-32.69473953934025,-5.994027042337918,-21.489223380489907,-12.40458891282453,-8.900654284561874,-3.8455144979696416
8.16214601797985,-33.11504708169527,-25.617872622307004,-2.7798526030989485,-19.138014138701248,-12.863069786074925,-10.379470095074433,-2.927352730277056
7.082550612396242,-13.670818950954157,-12.266069449088256,-0.18346545509759096,-11.01603377744309,-9.56189164334997,-8.39051724154485,-0.6270424346952764
4.671199649369433,21.111650451710517,5.275146548337162,-1.0484488917273387,3.2535154424378354,-2.8170923482361823,-3.4445610234601594,1.6902217114243416
0.3475789683951759,67.42818808538946,22.473457909263182,-7.026184041790878,21.355498577530803,5.558457276549946,2.6681780251503557,2.744924847101569
-5.745242843725282,114.01805095787408,33.561003912733355,-17.361934027774975,38.35699984704388,12.720540284758492,7.480917154500554,1.9896592710271133
-12.527921092529882,146.03667901808,34.133746750359066,-28.917911852047073,48.56881761537793,15.945038260343841,8.92152865263965,-0.1592546809949481
-18.333088844442567,151.72165253078145,23.429297056031043,-37.52357004185227,48.11883239212154,13.866690202645673,6.260174456766348,-2.6129744461605102
-21.653415391737102,128.09119078685492,4.809435265871025,-39.946145682375935,36.769980876379826,7.149885248783522,0.42581668220466884,-4.228628120609538
-21.861300833353226,82.54412453906538,-15.843578895534105,-35.41414774877395,18.022963099646418,-1.7666733132716526,-6.455280097348893,-4.39048248229465
-19.4841685664407,29.561038107514182,-32.843987236238576,-25.89021986458652,-2.4714717555931474,-9.743031470228894,-12.040596494115523,-3.2412534166672486
-15.881130614972292,-15.635411120372511,-42.95886327926385,-14.99307346806642,-19.280827626668238,-14.306995902455318,-14.765670416190535,-1.4750259380879744
-12.512352391330781,-43.05279312360243,-45.9979258613935,-6.205918284119299,-29.098275108147824,-14.633114194719834,-14.362643912203357,0.1407441333960213
-10.225933281900565,-50.55290636349313,-43.64877141463488,-1.3743769902796479,-31.329754427519422,-11.641135035389414,-11.689503684082739,1.2034663435624826
-8.976143355815246,-42.35957746071814,-37.670167359492666,-0.2811804017864301,-27.378564214426863,-7.222051548295402,-8.059960607337983,1.8075327033541042
-8.121928114808004,-25.293818814758477,-28.997066843051126,-1.4004064053918195,-19.455611529364866,-3.1285302087379643,-4.559583666036936,2.3089951950941656
-7.076769380774334,-5.6920771941769,-18.511205488283284,-3.1991917519940203,-9.874276192589742,-0.24872779819118068,-1.7938067425681516,2.9093775776343054
-5.840172858594039,11.317838312943191,-8.6574772993714,-5.069270855231253,-1.1048552161229535,1.3582773803805983,-0.12674126828071344,3.3759868513817364
-5.033049361953529,21.00427782492387,-4.070549252801074,-7.341935482570317,4.020363922431236,1.8970458777340138,-0.03941682068300087,3.1234610502080002
-5.4341647290397805,18.85176797883593,-9.99661426099153,-10.567494089351174,2.767021497463985,1.3379711191959234,-2.1529459910795854,1.6132756902779872
-7.380299143823726,2.15908403986604,-29.184925335497507,-14.741506356517476,-6.271706661155696,-0.5867449285445338,-6.813243940302701,-1.2168935998396562
-10.465627468055102,-27.665920777720125,-59.44252614421235,-19.080577070328864,-22.003400334168273,-3.972315083828607,-13.587493064995982,-4.808393072637128
-13.729155645591032,-64.34791663305232,-93.81618538466623,-22.444205393036892,-40.774205241944344,-8.358692419233357,-21.153866217021864,-8.225943289668539
-16.171853216870193,-98.76683642246019,-123.55860462330094,-24.018226797845152,-57.74708449985219,-12.756574297811843,-27.768703237292765,-10.62258094826931
-17.250333063020978,-122.86231376875485,-142.11755802570474,-23.754625949523682,-69.00762694196284,-16.09084689827085,-32.045720992418524,-11.625838471111079
-17.056774642400562,-133.07115475748947,-147.7794187422001,-22.3104562645437,-73.16038400833422,-17.733443519776,-33.55143432134689,-11.431050620119345
-16.136026722497366,-131.2717040479325,-143.6152993084112,-20.606124907837323,-71.53833986799367,-17.7545724534355,-32.86648283860764,-10.598824160069114
-15.123205918151115,-122.93528094744867,-135.15862378016226,-19.347796435317086,-67.07424742048744,-16.7646068118141,-31.140386206701578,-9.728281370358639
-14.448867183658484,-113.95312978020111,-127.49393375075678,-18.79782821088008,-62.677199109288296,-15.51894728056751,-29.477204495166838,-9.20629447015657
-14.241721175920247,-108.13669336585575,-123.39125593801495,-18.83427671546954,-60.07858609222627,-14.571749502166929,-28.517484071440993,-9.130314003994576
-14.394560631359,-106.4769656439634,-123.06492573974757,-19.148198061741372,-59.582286458337165,-14.142722219625629,-28.36208385558795,-9.375588245658424
-14.68803692564091,-107.87187585430522,-125.06027435254687,-19.42174944821875,-60.500862717289536,-14.16726910952943,-28.740724994469044,-9.720911199504886
-14.903580062037038,-110.35199448410853,-127.42738752491603,-19.438421043958773,-61.79294016377775,-14.417339069939455,-29.24833557317229,-9.966017311202574
-14.909219635232764,-112.10195354442176,-128.6457696452522,-19.14233398759953,-62.57597231348617,-14.626104235601597,-29.541458450628475,-10.010214131546773
-14.70534998991379,-112.10587704689028,-128.1345286409924,-18.641807451663436,-62.430354165184,-14.60391866163112,-29.464239883100078,-9.876762204097385
-14.404208327604174,-110.40961615357722,-126.29978201517731,-18.13348218648381,-61.48167113673145,-14.319345059527995,-29.08386037610599,-9.67613424890134
-14.14554049942535,-107.90706339965104,-124.1209875097031,-17.77525444514084,-60.23403277143655,-13.893300687984906,-28.61503639665453,-9.528281823037963
-14.006392897462032,-105.68987288743234,-122.488552520059,-17.598720055586476,-59.21899290846917,-13.498211034765776,-28.26814343408154,-9.493330643103098
-13.972392453018061,-104.36249182148067,-121.71578134789377,-17.525625414080974,-58.68069679463505,-13.238762289837595,-28.12299046497152,-9.553421826233851
-13.97753139859449,-103.82371488816857,-121.53128518573406,-17.45182765974326,-58.5147786954971,-13.108794370445427,-28.114944112324125,-9.643932293707747
-13.957150560955503,-103.59627178469005,-121.44368510858867,-17.30685207138964,-58.45455714888444,-13.036870496216938,-28.118518698152624,-9.696187870101616
-13.867385036473204,-103.27778563389437,-121.09083315486552,-17.053189555517537,-58.28645485806053,-12.948016922620827,-28.035936468640543,-9.663027696990971
-13.68383541872067,-102.68432928762196,-120.33502318363922,-16.676187371964637,-57.916738018005745,-12.782443943478079,-27.82832893666275,-9.532492575121461
-13.417227674676036,-101.72613990567908,-119.2110190251706,-16.21357027875952,-57.32970629800177,-12.493500434264467,-27.51188398073594,-9.343655764566464
-13.140816960252499,-100.36547804755797,-117.92529192602785,-15.788995836123203,-56.582228907670945,-12.077359349414591,-27.16376772989282,-9.191936687954543
-12.978245252152194,-98.776642397442,-116.87391434389208,-15.57078164758812,-55.852170151625884,-11.622579078673146,-26.92266212620336,-9.193351237752506
-13.025622737420933,-97.42361731085354,-116.47886893252587,-15.64801335491528,-55.405435860920726,-11.302378725713798,-26.92788775068508,-9.405791182551642
-13.257314112735374,-96.78888649392755,-116.82897420301401,-15.92105134124912,-55.40818836237682,-11.268999822767373,-27.19845221084115,-9.756858423084461
-13.499762044830899,-96.93126145171144,-117.43186278446966,-16.112063101590547,-55.72447073339311,-11.516964794258746,-27.548904806011382,-10.04278309615086
-13.507829890727937,-97.32745720980844,-117.39456886059004,-15.902814452620712,-55.91974975266254,-11.832558886557127,-27.64626888921446,-10.019842580807355
-13.100520825522121,-97.18338709504103,-115.98506961870402,-15.115637920264033,-55.51510799097147,-11.881277262489872,-27.20466115742365,-9.5482755524992
-12.284824401811878,-95.93056308082485,-113.18715281253655,-13.851318779379987,-54.307838457338285,-11.382416212178065,-26.19981866401591,-8.717704141292046
-11.317916798635421,-93.5290438673689,-109.89006803108846,-12.537785589266655,-52.544740872867365,-10.283412153487713,-24.970463279134773,-7.887218396415626
-10.672452125852793,-90.50547391204911,-107.62397848487751,-11.845291300087876,-50.881238290774455,-8.870616863463717,-24.140259900510472,-7.5902697635491805
-10.866514295348379,-87.84605491130239,-107.91284313737724,-12.414460830654884,-50.15512790538013,-7.759461819097013,-24.358010249029025,-8.287877983253852
-12.161134974418118,-86.66899757469056,-111.32503157767304,-14.428650462356657,-50.969571553692546,-7.688290136236426,-25.897636300909532,-10.031822036765227
-14.247912374054694,-87.42960116792072,-116.44773752577817,-17.246984361036436,-53.10333251855653,-9.093866260328484,-28.243971042132078,-12.209901745365043
-16.159496534071696,-88.78355267450652,-119.38449050654721,-19.426414484413517,-54.99761528072656,-11.627012198573894,-29.915646387329414,-13.597359661102804
-16.58876190833079,-86.95567461167589,-114.55476060916577,-19.310751562130463,-53.81839253314111,-13.95128346562317,-28.804860933801535,-12.830945148595745
-14.558244790694731,-76.69552001654294,-97.06234188235358,-15.977508523103525,-46.48332344996909,-14.138679338183405,-23.100940734901833,-9.161875073666595
-10.089420676124007,-54.10199223392515,-65.80543502385787,-9.981360122283771,-31.463142817737054,-10.652593161186466,-12.463231508776886,-3.0864856283350335
-4.4170712853896426,-20.15689935040953,-25.60242824933559,-3.3225743516205024,-10.47125334253299,-3.464933161371914,1.2095995468494023,3.5927761482979803
0.49345169838143793,17.2560846599361,13.311895742666948,1.5101677928135722,11.119168263058961,5.390303484904753,14.01988330790696,8.457261384607202
2.934179200981155,44.840138694245304,38.84173119181353,2.946996124468675,25.82601366147705,12.338850750156489,21.45154342000949,9.6311124355987
2.3836899994974265,49.1110860454204,42.27001678618402,1.3216231045144065,27.190133654348514,13.788345595935091,20.34561144255468,6.767899330119814
-0.20767250220331482,23.093204757580864,22.518762088920543,-1.2555359210976151,12.986939578896024,7.914710717085878,10.463233614360384,1.2582095430619074
-2.971281919818056,-29.310800339043023,-13.042143530300903,-2.1139999568945433,-13.32770012341636,-4.298793324512816,-5.262109913013293,-4.489221576876617
-4.165028125963865,-94.19055724940792,-51.884099519304684,0.4334091809074595,-43.92977268182818,-19.41427591226181,-21.987940332560758,-8.262632575542424
-3.062309679981048,-153.6274871798519,-81.97541997181382,6.192242921256924,-70.0880841242771,-33.116439423730235,-35.084248554155586,-9.046285363468812
-0.18381735603541793,-193.5709621525424,-96.74129773850215,13.337077180813232,-85.89309032148454,-42.13037491631095,-41.989547602688,-7.284060276554069
3.1766531110516922,-209.27313729169407,-96.8379647644121,19.54770570523807,-90.28885739168412,-45.44601948371815,-42.89421225967601,-4.377605042424114
5.755323861453338,-205.62073310302267,-88.24614474590624,23.25350861659276,-86.54481487948343,-44.296792953795624,-40.06314760959337,-1.821061156891309
6.940499000048107,-192.85252085567106,-78.26391126670939,24.253913843655493,-79.81445913708976,-41.09878009173497,-36.355978846593345,-0.49608415270733824
6.9030432575840255,-180.67928206808674,-71.87087555952425,23.479916104455466,-74.38119547539867,-38.09341065938152,-33.834675714976065,-0.4502542943356944
6.278881167419117,-174.1944537900877,-70.24369979248699,22.22076306818839,-72.06539800976901,-36.449431631368576,-33.12682226556123,-1.1441736791996497
5.699988874560662,-173.24965092262,-71.6064861270795,21.384472896989905,-72.30409287737712,-36.152477978969266,-33.662484111461715,-1.9079444978678775
5.475972831807008,-174.66518150747424,-73.29656061302138,21.19321893872751,-73.38760438158036,-36.505299615366155,-34.423025852824665,-2.3162664740852734
5.548824814675771,-175.34546378710806,-73.6523259638599,21.35105930896442,-73.89785140763696,-36.80596322147618,-34.69329035155255,-2.324837625975117
5.659950810512725,-174.50217216708776,-72.86866915748874,21.458899551448265,-73.59273226121925,-36.82075554206748,-34.457296467594794,-2.1720074954352033
5.595704100946587,-174.0504406559763,-72.62779594161785,21.402976694942154,-73.42325874779837,-36.86102413777307,-34.3157047700653,-2.145289563763707
5.386863483394934,-177.09070917849584,-74.75184323344405,21.51607469295775,-74.74085202950565,-37.46227210593498,-34.99864704810895,-2.3431689107551223
5.357448567584951,-185.14341209263137,-79.4879323127223,22.40418678814979,-78.06268786397237,-38.833195318069414,-36.70955332860688,-2.560839457346885
5.955357623146322,-195.59399385055974,-84.40260964965307,24.464177471770178,-82.06932402122906,-40.39611862427786,-38.668173770573354,-2.3871051777597683
7.407080376368963,-201.2017803044817,-84.85240711726765,27.323652088355395,-83.59877433362762,-40.77668564762931,-39.21127721749295,-1.4937384042337813
9.39605393797577,-192.7575320230514,-76.21346044738638,29.600470125081515,-78.96834794880996,-38.39173364524864,-36.54325302365026,0.039368890438862866
11.030383520111636,-164.0149775661038,-56.78933607575323,29.30069393108987,-66.08157986923523,-32.38141538965632,-29.79545484006131,1.5890225133660576
11.225770749302542,-116.11548255946333,-29.539776945452367,24.79582103212424,-46.06375615908461,-23.31309255862773,-19.754935866451003,2.1890042376546446
9.342213301239706,-58.49025554057655,-1.2655675302219163,15.874543515660012,-23.25727915787707,-13.13694273601521,-8.731851551905665,1.011269044376763
5.688046522156231,-5.167502749505701,20.541631672438207,4.203471826415245,-3.3684418155438265,-4.320386459400706,0.4620327919621522,-2.1187459884705424
1.5288757215617181,31.655217741972724,31.39237406331875,-7.177813874406752,9.232208277434141,1.3607203278317066,5.870674313110022,-6.474963391454453
-1.475795637984592,47.050240322125354,31.801754147175163,-15.126803613201664,13.45722374612359,3.640248552515908,7.283323919192787,-10.628417094203298
-2.1166680005081453,44.7051949094813,26.44925894536475,-17.75791237659302,11.58173753970524,3.7025861089307894,6.138934229946914,-13.02568524639301
-0.27198907717835064,33.79090092782644,21.212870880176823,-15.173213380813367,7.5808414851818124,3.3462769946260216,4.571213680819999,-12.669038425439158
3.020410411436427,23.76271557330798,20.056845829784034,-9.25867166640987,4.922113143933552,3.955469961584745,4.246159882304276,-9.564322158857033
6.055179479795222,20.28285610337381,23.49782252566876,-2.7885278881928213,5.11972580499341,5.884909301312696,5.666302043765978,-4.7334431255325695
7.205882367240419,23.923386826034964,29.024433146203243,1.6464799973891229,7.564421042838111,8.470688728074244,8.188646436873062,0.19640476065241336
5.570710913988572,31.198710982543947,32.70808752905353,2.491438321274084,10.274989172819778,10.469884997817642,10.547322999580174,3.6456961038344162
1.3252764631432008,36.63735343183879,31.10833587980104,-0.28119359587681203,10.972686774071413,10.62921348874555,11.527132551007892,4.725127204212418
-4.259128270009878,35.1254694716661,22.99281165845909,-5.093269007011022,8.145834286668615,8.219014887636165,10.549029998343144,3.6193739302870886
-9.143509798178163,24.252967508064895,10.479364446822029,-9.204844134441485,1.933248800683762,3.4502570189919797,8.029454099097997,1.532991464962512
-11.18765376124718,6.0032781417827765,-1.0813203644337377,-9.71762157998718,-5.525000212133638,-2.3905334656488293,5.359378878024346,0.17474035321841427
-9.00126734227588,-13.393091046118913,-5.017322054970808,-4.851380705823676,-10.712254158379293,-7.293819744080638,4.387614702374895,0.9768211079538155
-2.6186432606379793,-26.034226665283143,3.4600678491735444,5.124191071780779,-10.329755686689552,-9.355055944180613,6.539220750879322,4.417621242668152
6.403321222750865,-26.301289493786378,24.45867835739406,17.885389577576408,-3.092563103607471,-7.698278336244883,12.012957411526859,9.802746011410202
15.604181741948933,-13.881166540572783,52.85735631550292,30.074194397677207,9.39356460192201,-2.9454344877242056,19.56474466562136,15.6258098506768
22.676841962911237,6.07806990726454,80.57115513840536,38.81539069950213,23.312297583128984,3.0861748295725775,27.064846976020505,20.306154498517397
26.404411310622912,25.795581386671348,100.38809338039832,42.89765593831154,34.51625810225833,8.295383204728381,32.526534109898215,22.894369416651475
26.990668216434315,38.87555779454134,109.13481848849013,43.01358772535578,40.47948051745039,11.279598994822837,35.00444362931744,23.382863438581754
25.674545105725493,43.06499052121344,108.42576952073011,41.051362435313095,41.1934703950901,11.837126055318794,34.86265655882759,22.51827660464837
23.940072906069094,40.31790821940527,102.86043224910728,38.97701003861216,38.61958549255287,10.778326885944855,33.33427037473689,21.302964246810866
22.8141722610029,34.63406159491441,97.10411336296632,37.97931917974002,35.25375539777727,9.277077512130539,31.732796941267363,20.504841874256055
22.591151673566582,29.476624830615123,93.7291444334822,38.240188558833935,32.81911878255767,8.224407001275988,30.82576566249026,20.410871133351176
22.995972871622243,26.39820360271509,92.82449768232881,39.24539693293405,31.791778233962678,7.929441910502141,30.672125921600987,20.863842863682233
23.559813474217368,25.22242634111987,93.05690673501644,40.305130494963905,31.74569849903299,8.202860956645926,30.873028225693183,21.47424034421686
23.958193704427277,25.027828832228447,93.14011404353629,40.99005340803717,32.01655329465473,8.635945026600057,30.97652561360647,21.870584350473006
24.173187168339318,25.064677381895844,92.82669157321169,41.335040475223835,32.21670334895807,8.881368164694138,30.798991289393168,21.892942177438826
24.446073990250593,25.234729399410643,93.0531579569502,41.759797198720854,32.423613904530704,8.840403233867116,30.544789117679148,21.669351324250222
25.050519474168688,26.080709672811842,95.22719943414886,42.7274268023583,33.0414185545187,8.710754291970124,30.68310323101247,21.537412440723994
25.99244097745147,28.229995068398683,99.90379924690073,44.29439862194347,34.37848665226123,8.852263585289041,31.599393832696833,21.82647218297606
26.827619516898526,31.423754882489916,105.50911936203222,45.84052146218937,36.1140456829115,9.494991938259657,33.16334338188885,22.600760332256886
26.777210481719326,33.80087518712344,108.11396115460629,46.22807958069001,37.05000337731015,10.456000732138556,34.49517336156016,23.5122102225797
25.145317201899406,32.34466787675536,102.92820415566082,44.367551912251564,35.537767583247835,11.096900140803776,34.188381516448985,23.86401959485404
21.802332128107214,24.69033899576707,87.04221624272333,39.8552177859779,30.52043911134685,10.61781909118387,30.97858861264277,22.86973896685992
17.399869597475607,11.217438065222577,61.77163698996505,33.266435172807455,22.533052827112414,8.528714073643561,24.507353496763137,19.995315946164652
13.136284013866815,-4.2665715873395555,32.859058005632114,25.914472607032472,13.841060836523445,4.991044455718407,15.70424132265731,15.24739341348445
10.192640129922678,-16.14403357564869,8.05001076386287,19.23863323027537,7.421994185009452,0.8093688366923406,6.5232685946573605,9.301974401518159
9.182888378727322,-20.112274348371866,-6.660761514045438,14.206877150579425,5.3367709252162525,-2.9116170137140216,-0.8328020757386974,3.4115791138098746
9.945172666467714,-15.784755491808397,-9.840266977491734,11.064832036723853,7.537705192964291,-5.228722133396533,-4.770832557306922,-0.922930895268933
11.75864838301438,-6.936907805220396,-4.791441206527471,9.490498829133681,11.924227665727756,-5.684143450846147,-4.816289609529891,-2.458780087443049
13.786425600319797,0.8624286652986202,2.8486975317119594,8.939699094700398,15.628410611735903,-4.360742536811315,-1.6051361975006726,-0.7412820365398589
15.438808893568787,3.6402337057107976,8.369686432213404,8.912873581069073,16.674685108080357,-1.7295918925108056,3.4945282265966693,3.57932839530247
16.485688139682455,1.1260262442448328,10.052696958510277,9.051681725839984,14.941309993592382,1.5468582912771498,8.857885383512437,8.867037690492868
16.967288030281512,-3.684681372678224,9.104515705129154,9.159822520037336,11.917046512835713,4.759487682646979,13.012681106790483,13.109192817343105
17.048660070918277,-6.877601073458905,8.03315951279751,9.23492089565346,9.595745945995438,7.280929854960606,14.977941669090209,14.7933814493735
16.897032360298972,-6.135963680552984,8.733323225276683,9.462745791685153,9.282226700030394,8.728624810149526,14.530745336536981,13.616662607647969
16.57830201894056,-2.063359546354752,11.24148433074282,10.089764135296432,10.891851511463695,9.091630387970325,12.27872050539061,10.62272966911775
15.9878813661152,2.0144569669080536,13.547069294844308,11.225005613703742,12.926756015654314,8.682152199702095,9.398968368102548,7.663027639266537
14.889296493858943,1.541966870297732,12.56522699298203,12.739673499230358,13.122729274304618,7.904392019827464,7.10760175332448,6.463491247104811
13.092717277422244,-6.770792071639488,6.125795955510395,14.347654871953315,9.684330740817988,7.039306001127961,6.1671275145383255,7.789431635323612
10.66330836260916,-22.14757536363914,-4.819999344655524,15.746072850154151,2.7171497295231553,6.256992784795248,6.737401802025455,11.111622988271552
7.9699336924620505,-38.20601316879014,-15.262480393290625,16.633644161053866,-4.9898123956722475,5.827108805217132,8.592243323260202,14.882997664684
5.495176648104444,-44.426123366706804,-17.69472985131552,16.60410453621298,-8.6801463344351,6.257138421679095,11.433883687251265,17.243518641403767
3.5421651984309497,-30.859012601369905,-5.8606206463548265,15.121396200120584,-3.863693992438765,8.128765705059616,15.022088144122698,16.819181614591713
2.075537255420532,6.163529857779357,21.392809674121224,11.751150561469329,11.079759616998706,11.695844441313131,19.07405552926013,13.282225710999292
0.8180057036284469,60.8713239019753,58.6781723811575,6.553152564965048,33.569985473815166,16.55627566770835,23.121170276594814,7.453605951616895
-0.49390927414750696,119.77013173851586,96.14690576641033,0.3141078280984975,57.71686157778468,21.681525893606317,26.525479956741126,0.9217908830283569
-1.9113545342606455,167.52859249994546,123.94828824681167,-5.639568661170663,76.97966515015901,25.82464621872413,28.690498816150022,-4.634012889216813
-3.2799124901341994,193.74336657190938,136.5135422707724,-10.005051837500696,87.06776095749926,28.059708121196387,29.321664566468062,-8.095859702319911
-4.414928420818503,196.910565445841,134.42673138264144,-12.103793370503197,87.5233625163423,28.135990053805948,28.552954270746582,-9.243017773552303
-5.262638410218968,183.86531115404708,123.30453552865379,-12.128827362392084,81.36170034733475,26.49447548154071,26.878760110317813,-8.654448694380344
-5.882879998908293,165.6858101476083,110.8199002496698,-10.887767753469879,73.30839068121715,24.038740734555883,24.987567250222884,-7.282054377406568
-6.267253508606555,152.67522134725533,103.60289413486838,-9.25031943762093,67.75139019868901,21.856350063646584,23.620082708401014,-5.95414140097632
-6.186188147220669,150.68399179438362,105.11772908135347,-7.702469808027271,67.25853897317523,20.976126004650173,23.447922612259273,-5.073500617527491
-5.257191072079119,159.54262849789453,114.67921410356578,-6.272400386840743,71.87423018133593,22.08813963032719,24.864697226590483,-4.621040699953509
-3.228325389288346,173.30343928761815,127.48477540741901,-4.758497874374543,79.07640339199558,25.176352697688543,27.672799642032697,-4.363964546600491
-0.259700980715267,182.0057391127402,135.85464812458807,-2.9739825557093766,84.40814767832826,29.229056170220705,30.87320031287424,-4.054451370692717
3.037461513339082,174.99999168917915,131.91649335896633,-0.8056300086229847,82.93226362058161,32.34862530615563,32.85723871165186,-3.475006279617138
5.859755612540762,145.4155414442573,111.18797555597335,1.8601956081911386,71.33087424430865,32.43742893274789,32.08509686484429,-2.3685474244582574
7.592709043752556,94.19709047194593,75.43833474444683,5.132815255484303,49.834730435900134,28.23554880076149,27.945325023832456,-0.4211475816417709
8.043311460095348,31.45865022597488,32.96623007787068,8.902141558983738,22.851299435986693,20.138588751898833,21.250038139741648,2.5692122132059514
7.363106729856615,-26.294806174369683,-4.437909699853382,12.518601120249926,-2.382543664346132,10.232921677130905,13.961088876241464,6.381561580051106
5.740488292278301,-62.46147515585436,-26.654438290694678,14.668389355129731,-18.741938358922404,1.4027565052597701,8.209605726900543,10.149093940751364
3.133494161557299,-67.41728810758372,-29.8831961501519,13.715216109544707,-22.36626517178959,-4.053911283076584,5.161873732137976,12.490911454181155
-0.7063522700876564,-42.818176147139916,-18.208499946660876,8.483962886260809,-14.362145283672906,-5.508867376549593,4.439950951214136,12.069683877339378
-5.909906998294383,-0.761176131743767,-1.1920956422306328,-0.9201198963298505,-0.10842992506793017,-4.151033939994067,4.469225241442043,8.32071630118845
-12.125328109452926,41.866323273657684,11.103385396288845,-12.815019725913222,13.45519080005907,-2.152962059713387,3.5103771962152814,1.8957323572714302
-18.4342114971624,70.88421520920633,12.837342985569226,-24.46906891145224,21.051110648433948,-1.4195633855133578,0.6938508536616693,-5.511275225078299
-23.66949345876513,80.28634285139152,4.3796580943134105,-33.234195426302676,21.092083591526727,-2.6800164113883316,-3.573698096836059,-11.899201782745063
-26.952199617683593,73.15106943823471,-9.130330192332154,-37.66085195974868,15.616501795113564,-5.378792991996567,-7.998648655285615,-15.835956168972627
-28.096457542453805,58.177822021544024,-21.33600390077973,-37.970958705148036,8.489821615473957,-8.27783655896583,-11.239657996837892,-16.98487247805933
-27.62627676124043,44.3867110796553,-28.01836993791811,-35.67703650220992,3.140690841009227,-10.278027183887938,-12.62709040720441,-16.040564156440624
-26.426656672157044,37.094148942425655,-28.493594939431752,-32.66705338543653,1.1276138057914418,-10.94168809690692,-12.365112319209537,-14.204048637825753
-25.293356677822295,36.87210843970473,-24.84262005499702,-30.346378753507434,2.0552309541339993,-10.509309734636162,-11.222386673604516,-12.561929447831101
-24.662399412726238,41.03735411098162,-20.096787654620176,-29.26804749280503,4.4298604193417885,-9.575257416754061,-10.035609127218942,-11.70254074019906
-24.60689387194212,45.969589511114584,-16.70760391480495,-29.27133355895909,6.658064859537096,-8.731853337933241,-9.362611653515733,-11.67643599253245
-24.983928870206416,48.86300677484162,-15.8673209535342,-29.848273568955513,7.677896399964452,-8.363984947056112,-9.391939284202033,-12.187901356859319
-25.573017776812804,48.54715566862411,-17.473512230783374,-30.46249950524087,7.189694705165589,-8.583505287432143,-10.006807613767439,-12.835356798222751
-26.149581912589856,45.59243165647977,-20.403436314555353,-30.729430588169116,5.629609629487615,-9.236264176719047,-10.88641277311075,-13.287173588362425
-26.52755062781813,41.82390909969696,-23.03396789679283,-30.48989108832153,3.920450287330657,-9.977504721394645,-11.62834021894511,-13.369422178715478
-26.59746320224731,39.28972709781424,-23.990082028732935,-29.800299885592366,3.0006179336217436,-10.434692593937514,-11.91058246836872,-13.078559608874352
-26.343815501854856,39.08602399354624,-22.827788773313564,-28.842977607974152,3.312901333496535,-10.400846951730779,-11.642333694666545,-12.536632940545097
-25.836563883696872,40.764174527308896,-20.233286654357162,-27.814102675092148,4.568414367284363,-9.939001971289052,-11.0078691621216,-11.92195036717275
-25.232245956781966,42.72180232115265,-17.640776708461107,-26.887743851274674,5.934075422502426,-9.337154232532237,-10.37635335816439,-11.420075587489702
-24.79852184407427,43.217030605573186,-16.584520692262902,-26.2707971287974,6.474889512654113,-8.970970576287597,-10.149365333219471,-11.208194113767393
-24.891553402298957,41.27764201171969,-18.110826136946617,-26.221935037380295,5.575303653948176,-9.162729835342024,-10.618579211201581,-11.42850718142984
-25.79058238945155,37.13798663459933,-22.27318717947145,-26.89985220292028,3.2335996235164672,-10.051283645302052,-11.829706828037372,-12.10000798621359
-27.412963170406517,32.31561533574566,-27.676994083816673,-28.090833390648157,0.25379614533268313,-11.448575475163945,-13.441282389967023,-12.997007356392249
-29.102292584092364,29.36583600200104,-31.411053403652218,-29.055626466712162,-1.7742870282262553,-12.744133582696222,-14.675666228129666,-13.61245080165453
-29.712606396970767,30.986268326081902,-29.93325672630233,-28.70438211166786,-0.9784972223920846,-13.016921763321607,-14.530753298201365,-13.312193000145294
-28.034972884868342,38.33802928537274,-20.956349344403932,-26.06300955518805,3.750862707533279,-11.437225391098861,-12.284768432686542,-11.654754954506055
-23.36777993484919,49.37296652861168,-5.367121517700183,-20.766934162814877,11.676952739895963,-7.791110550105673,-8.045941817941,-8.705518906034825
-15.917972509094579,58.62805334563757,12.277956780354833,-13.300810623596306,19.940743674106283,-2.7714436291553595,-2.9458670869181303,-5.1384208220298495
-6.809992679460919,59.3341821070427,25.4285173969575,-4.868063900594095,24.58579207565493,2.2272330236848172,1.256058588961909,-2.0212361720874386
2.307811075504742,47.0159068740196,28.662375317003452,3.0302122164973246,22.488240380530986,5.739563053828292,2.998644642335479,-0.35450448921455363
9.86424096730351,22.421870218673234,20.447377358568662,9.105897093852851,13.08241526486746,6.91125352119972,1.705086390303911,-0.5821727556406602
14.886367776841489,-8.191488462160246,3.8874451231392317,12.664697198883056,-1.1858683877844605,5.823189896920666,-1.9368536007227761,-2.3343940903032783
17.220381960692624,-35.77461633283437,-14.929846002039337,13.724096688646352,-15.966331697084097,3.3020816761784624,-6.35164061694278,-4.560356287295488
17.40901073443044,-52.65405668810939,-29.887128234832154,12.87780988289067,-27.001083352615705,0.40201591432970374,-9.859624969365381,-6.002224557317133
16.343493764274385,-55.780624609808164,-37.351683841203084,11.01594097249202,-31.872728358215046,-2.084754845776204,-11.409506530466498,-5.773732511992985
14.866739662545891,-47.465012859976916,-37.08420271263268,9.021852873027706,-30.677577670449303,-3.830623298617593,-10.909312396134712,-3.754753095076279
13.48440846459525,-33.72782113382907,-31.5620959847029,7.545076673041315,-25.56624258229325,-4.8852355631716575,-9.096459114829136,-0.6112968450301927
12.293696144662508,-21.623530267584425,-24.50854531118099,6.929790375437878,-19.660409011609424,-5.464799668441507,-7.111109683308863,2.5687512333890616
11.151425780510674,-16.793398403433947,-19.348590826928465,7.303398411887529,-15.864218846238373,-5.760303200450184,-5.979077359970191,4.845100853909027
9.956583204051869,-21.632713412400854,-17.913731667966402,8.684525924125412,-15.81266352742057,-5.793420411899927,-6.166716019691999,5.895304973119227
8.809897417206285,-34.08314569275274,-19.6541751672837,10.903391585957008,-19.127050994675766,-5.31828254799424,-7.359806117328574,6.105177473605524
7.882003990738111,-47.54941501765985,-21.820715136094943,13.30197075158783,-23.331586314317114,-3.838158299703093,-8.605320443740766,6.2097864806157475
7.079482020941363,-52.805116603564734,-20.895160882396738,14.504247117513554,-24.78162258350007,-0.831925003923415,-8.822913087369695,6.710372781399733
5.833645078238304,-41.949985795047034,-14.745159174891086,12.680311105544927,-20.44832777726145,3.841660476510167,-7.456736316705919,7.461507723005216
3.3031827449863735,-12.846630006325729,-4.223266829013356,6.436614593855434,-9.71097700648602,9.584728261328848,-4.8872010356424695,7.722480650848493
-1.0408229962364477,28.50620167413937,6.921317977473108,-4.084431916980266,4.912340820425348,15.027580458035336,-2.3258239913537806,6.655057824823163
-6.831792058516695,69.44611441794072,13.869851935887835,-16.655920894010432,18.626101191109587,18.444834644064688,-1.2281136509348334,3.9443412794582504
-12.686757407339531,95.66130351537277,13.20837519634478,-27.524919632521804,26.422447998104083,18.472742380064815,-2.551539077721381,0.1311140555194273
-16.726474373026477,97.4209333120041,4.619911911683842,-32.96840545205316,25.30264275059478,14.781595351370667,-6.259474234077079,-3.5723145789872337
-17.481760681953954,73.94720930686555,-9.048178630551996,-31.060948994577945,15.568702545065083,8.345054167941118,-11.310583282966638,-5.883482426722763
-14.660515360841066,33.73754637206576,-23.214161978665672,-22.656360859302346,0.610506504705525,1.1275160668784825,-16.10927159803352,-6.112439337072754
-9.327034039173347,-9.329981670988778,-33.63670480174438,-11.002328413801237,-14.644246554870412,-4.701737840446104,-19.180629853497475,-4.499032954166086
-3.4032413000622657,-42.13744411457641,-38.09782746589369,-0.1931920474491124,-25.82953701102733,-7.662188325582544,-19.755698901885204,-2.0384645767623892
1.2103919696977057,-57.60744175700127,-36.9531348490406,6.682593783977773,-30.76848051914678,-7.515799371552083,-18.013835461599832,0.08944370338266582
3.4166367196082073,-56.55779695907383,-32.394343670475926,8.722847081054056,-29.884551540433712,-5.1995401291009165,-14.894997585218347,1.1444721624312413
3.231165261226449,-45.58322713211041,-26.94372811356777,7.188146833239872,-25.350764019646434,-2.2079360049201697,-11.608817073958576,1.1397363088502943
1.5371727405502564,-32.72096083116064,-22.14036851780476,4.450846834993255,-19.665435945456544,0.1779035417950081,-9.12086332422188,0.6880556538062392
-0.49469159178757127,-23.679207989994385,-18.205167525947004,2.630843720364481,-14.587469905500104,1.3652419303699388,-7.868332450916226,0.535741046091646
-1.9592520058956213,-20.453742695603545,-14.697907654479815,2.691928434622043,-10.913567552841478,1.449707155766496,-7.754442870973169,1.1339600021877205
-2.475206979785011,-22.166956648394592,-11.429743344911412,4.362167354022378,-8.847552837015542,0.918221043617157,-8.280791212745315,2.5230096059690443
-2.1216404041707015,-26.677576358808814,-8.847309904674141,6.688165836154534,-8.368380808396171,0.36145633741537964,-8.684366021937436,4.523906901698696
-1.2161305987293185,-31.751168999100173,-7.724042825276448,8.72985569920909,-9.274915409392644,0.33611882876965327,-8.10465548538618,6.986512093176105
-0.11348028803886634,-35.591169273280066,-8.579457150097285,9.990013921657278,-11.055785663633827,1.2916909288124008,-5.8822437963146,9.836898006274172
0.9044056980754677,-37.0850046982451,-11.28330179162314,10.465720787465584,-12.88696520839587,3.441662900083986,-1.952877744511953,12.885724031662756
1.6658714225992572,-35.94870828419872,-14.993588143618046,10.436712676680921,-13.860112255981495,6.60333152920592,2.9024731384248366,15.604330959598226
2.0997911812884724,-32.71048434763022,-18.404433416217415,10.17400271744432,-13.332314018497756,10.140792815555919,7.2072689569684005,17.142954060985183
2.192814506429406,-28.57536247307303,-20.28500661962685,9.737449545178523,-11.25458457343162,13.09838782616692,9.364920232285465,16.701293576536422
1.9540111006728516,-25.29716120034495,-20.146059228715732,8.982849010445804,-8.344730013717998,14.492921635346727,8.403642644615505,14.076639715697263
1.4413017699418929,-24.882454113475816,-18.559502610133002,7.772018368600253,-5.909569701936658,13.672071340754817,4.516801365043152,10.00631405035091
0.8328072170650819,-28.686348050864623,-16.67365683960194,6.187696010923935,-5.1768284205374995,10.638417929376892,-0.882133581234079,5.963730342252601
0.42272971883807703,-35.93580008812066,-15.115034252886412,4.479283864715011,-6.360094234920771,6.207852419541111,-5.660757444309533,3.3923369494329374
0.4358881980769431,-42.731740323079826,-13.219804848040154,2.672566445845822,-8.114684329421037,1.845626255047849,-7.858850021796399,2.7844949575039903
0.7341078259550302,-42.93183082283348,-9.485042359361803,0.14821522672046877,-8.01098110719992,-0.8747819365355319,-6.59775453698843,3.216471446912257
0.6681196499863318,-31.177419465781426,-3.0942657246235825,-4.33960950052534,-3.9653878407527627,-0.9978416293617378,-2.5547573093654377,2.7295532330965693
-0.704777687390715,-6.450280539465726,4.721204613401715,-12.011850352929054,4.2586528805809465,1.3021371748346418,2.2981559201905983,-0.5923876055693684
-4.083605170458339,26.334071731123004,10.771674497988682,-23.121930490521645,14.570840627054398,4.7700075382549265,5.616261700665683,-7.48097015015159
-9.394788973033695,58.10720781223003,11.62319410698805,-36.386571652554785,23.52465464868125,7.700519650316835,5.801053846925836,-16.975022180976975
-15.648103557665676,79.9441041138324,5.800004382156788,-49.26815876847012,28.155434441303846,8.800336871139832,2.721435612788701,-26.841800576136826
-21.319150110401996,87.31043148859371,-5.084390758672704,-59.0257997022748,27.5189913746063,7.784187561015755,-2.329755177513591,-34.64890790710624
-25.054736917030578,81.78789597437951,-17.06805378137533,-63.94222464561841,23.01040984302745,5.386115866788432,-7.3726912931894395,-38.85657366223118
-26.29173773766088,69.5517738878319,-25.929230532815406,-64.03612005456391,17.399374586534055,2.842980113582007,-10.72428545096259,-39.36723351183136
-25.45403723664666,57.946269209595165,-29.218034562530764,-60.925431939794,13.339648810959334,1.2204485878769968,-11.6887291207691,-37.349139083678594
-23.67571252892578,52.364395966531134,-27.04473549581496,-57.027755033392744,12.293383027974148,0.9827460858904605,-10.650698455605346,-34.560235812389486
-22.265195689138725,54.79284319731861,-21.50033796638144,-54.58248451222775,14.286372812778454,1.9565567395009205,-8.663197975875779,-32.58826854205997
-22.18667751243599,63.851974888321884,-15.49505522481735,-54.89514051550853,18.232239187135693,3.546857295068261,-6.88531859877646,-32.33135854063389
-23.71280333368191,75.47382935746512,-11.785949929783364,-57.93257495267169,22.368814102244738,4.985231044432207,-6.176427541073917,-33.81177486964037
-26.28247781106714,83.90935485981545,-12.296376414152629,-62.25851083420362,24.682728852897608,5.536880635407723,-6.9053293900805155,-36.251278898715256
-28.59921764060996,83.43888726590866,-17.458781449003066,-65.36835630209703,23.501252028070432,4.727084309499144,-8.871963254401663,-38.326453535002905
-29.040081244535706,70.81323450333652,-25.68729418731474,-64.51963087155741,18.25549667766229,2.589552936642793,-11.30473293169414,-38.576737141768206
-26.344671652820345,47.33432024786441,-33.605215150566956,-57.926755695900816,9.984548431831628,-0.21981354524565097,-13.034832956291812,-35.91763074960216
-20.317228630069028,18.980882970856573,-37.447504981297584,-45.80722577516544,1.0570459657139597,-2.6196062780787486,-12.920965381287582,-30.099779426152107
-12.119952580091647,-6.0427478348903385,-35.111940505446945,-30.61817324280423,-5.925906889250025,-3.5830620927430217,-10.382443720610254,-21.879540643357675
-3.87787567476438,-21.166707723866956,-27.54663564733229,-16.169004219277525,-9.424387098108372,-2.6296525347335193,-5.721601348905947,-12.75814595962004
2.2766476853615356,-24.440560947124823,-18.377137733609576,-5.972573999335387,-9.607151394275578,-0.009532187757941254,0.008784537443466855,-4.38602250570592
5.202648999042071,-18.852869758742212,-11.833793055570707,-1.7195207633914338,-7.941491247171725,3.52953076143303,5.537889552789965,2.0540053039621147
5.21064311736197,-9.964223914768153,-10.267771343864643,-2.717098750327176,-6.065826160275882,7.205767099180321,9.966936124903581,6.154067087237963
3.73507027236276,-2.5797674669831316,-12.885952371313621,-6.529923079535442,-4.774830782704249,10.559488282792081,13.036168703724018,8.15951727456955
2.467812597722387,1.391561324989329,-16.484298201748537,-10.33202458312556,-3.787688598181645,13.479865719351812,14.940377290758434,8.581628540029127
2.500408897368748,2.9018133146797935,-17.552176444898965,-12.152008210786413,-2.3045906967550445,15.969006234677003,15.912404204913114,7.849807509791363
3.925787883990265,4.20782006849694,-14.283015742815985,-11.440089847425677,0.2217334612662406,17.91599910692812,15.945484518456496,6.214547190502976
5.991255429407446,7.158774514398524,-7.3721667220111495,-8.905813876836307,3.669618290253864,19.08800638114609,14.851917619792564,3.8836678092977426
7.5904708264110425,12.160077481105994,0.4904547889305896,-5.920696300941582,7.292529770479866,19.289414486995238,12.533277668311252,1.2072757646438586
7.820554001610985,17.858544185002387,5.8526094901018,-3.795709483917799,9.979193499782353,18.47759254635662,9.181282339249602,-1.266010774122785
6.426578653646486,21.482420051931907,5.959186481924231,-3.1340820384036423,10.582718170031216,16.72581555314856,5.26474630483554,-2.908411439897267
4.022571297652184,20.04756156935006,0.20820398826766223,-3.44870398616318,8.417753797656347,14.1459652677924,1.3987396934571414,-3.2285890594260045
1.9764925438429983,12.35687241424594,-8.813448889148955,-3.2666713530655307,3.9285810654537285,10.941068588673911,-1.738384592229717,-2.059563330111717
1.905005669707228,0.7610054187331144,-15.525524016807523,-0.8047425242453342,-0.8888407358043489,7.574451877969118,-3.4249016948676627,0.3734057046319363
4.923777969414173,-8.877256689607574,-13.351528653392345,5.0445171133161475,-2.905393212114595,4.840203259474827,-2.992892312475191,3.529487492250044
11.017972211511866,-9.674397563919499,2.0511647769091668,13.963093202691814,0.75984201189919,3.6468204841903367,-0.09433398435533918,6.732121987387765
18.91615497408459,2.5070589445098164,30.076181364916607,24.1789861485198,11.082121604591938,4.57289375523787,4.984209562960004,9.375228867984262
26.593172421823308,26.386525594958798,64.77387580003456,33.223275723856716,26.2807937066273,7.48249602649532,11.220689118617528,11.083546829300223
32.15365990625654,55.50629548202645,97.26856008278347,39.052660442507765,42.43127378542749,11.48767394996107,17.139492723834657,11.783179596674675
34.619299348805676,81.31043621146785,119.71407806757362,40.908940507413504,55.247818673171494,15.314563908203816,21.378743538185166,11.668832554384018
34.217288862550824,97.17260832344907,128.580473277265,39.48737273935039,61.99367595969995,17.853835903247035,23.22633970241707,11.085553547028043
32.087565295021356,101.02537707948596,125.58889375199377,36.43643580432401,62.45275847457623,18.572815139326337,22.821655762282823,10.380654453835467
29.661613333423244,95.39354657900024,116.15929492121118,33.5779367769298,58.586871188996575,17.610470297065152,20.960060397425096,9.803012552159057
28.083191161726685,85.44104176954932,106.6486512882822,32.267300309012384,53.353221446684465,15.624286132642107,18.69956044619786,9.493762045100741
27.895565404448543,76.64829280681238,101.9505649342932,33.059889389958286,49.506794431553,13.571622526522283,17.025421121819644,9.532819968893225
28.98758759939343,73.26152031522119,104.2187790356725,35.60726391325928,48.8716503993676,12.501123289010884,16.65728158674062,9.953425056082501
30.68830218877094,77.46930965784325,112.53641139644469,38.703091996581925,52.00129321484622,13.27236449216273,17.89990580188681,10.67617714357463
31.962506490452,88.75244019340184,123.16772564536502,40.54666718658177,57.98008230227126,16.14807799109768,20.45968280936516,11.415527776100726
31.732714684614944,103.45775058993567,130.4724603656608,39.320038276531136,64.43043315946697,20.423241381821462,23.339128431036556,11.672033141140007
29.296799688419217,115.39964358505281,128.7460340788171,33.96500369221406,68.0715149783601,24.42161132919979,25.031524672362995,10.876287279799978
24.672414072026612,118.03171100636382,114.66322020818818,24.78682141560296,65.9513535101154,26.06693747370287,24.092187989556855,8.636229915671793
18.650741470787217,107.4895484143517,89.16619771026465,13.489135398320132,56.87959493252053,23.859372789139854,19.859540185587104,4.958380159253755
12.47633523077763,84.77142146030349,57.517941103219016,2.5381411936325686,42.212644083715865,17.740521486044052,12.906044510621378,0.3230788539467351
7.300204179293595,55.56691237787805,27.195099373956953,-5.840062386953095,25.40715985502058,9.298710519960913,4.898841792229491,-4.428553861102546
3.702197388889566,27.708248355971296,4.687366456353989,-10.505171753909782,10.52138663474813,1.1200618052383668,-2.1024647440383424,-8.351248683234457
1.53226645529312,7.807993212197178,-6.971484064535626,-11.688835368682172,0.5403374396731719,-4.378685864698651,-6.5216410359170105,-10.69783839847769
0.11183377926374106,-0.9131336031747026,-8.640626852758652,-10.679680420006273,-3.523636454410952,-5.9726126728957585,-7.821544099841684,-11.162947982833526
-1.3771302381915556,1.263837790855811,-3.6489664971257785,-9.185049981651957,-2.445823364834016,-3.984240637207649,-6.4988086906144895,-9.991972521296832
-3.5444506805836817,11.646054674499663,4.075620524287387,-8.697665901821093,1.9598146169869441,0.06337356892500245,-3.6807009055090654,-7.913832486362983
-6.594693180874742,25.889948325094714,10.975462606039986,-10.018651953999644,7.381903496577797,4.12952353716049,-0.6820293534483268,-5.887242180791402
-10.247279374601288,37.986459010945126,13.834323449470206,-12.945695906683474,11.127719399390397,6.293517688928471,1.2787451381198105,-4.7058337024034
-13.735589568339732,40.61468429672458,9.780017695896833,-16.19361575008646,10.319349872551307,5.218523779186476,1.2795853428886805,-4.605743237723854
-15.949393114297648,27.18071755094788,-2.8345058506280303,-17.728833808412382,2.7158540479022752,0.4839504917805375,-1.0577053823492355,-5.097609956565462
-15.805770729466897,-4.810223330305715,-23.072104597302182,-15.59072007314032,-12.03199775703129,-7.236162988090533,-5.3388794541080244,-5.186833853054271
-12.772651812720701,-51.2498019942471,-46.89931962171239,-8.912270348734564,-31.616613911513692,-16.297846359605398,-10.422074163999369,-3.921322199357741
-7.264665374469103,-102.04578520218944,-68.43839583511163,1.440296445045056,-51.62864277152568,-24.61203715923008,-14.831375650008505,-0.9606352138667439
-0.6149872708600068,-145.13287423510124,-82.53378825524328,13.076735781884697,-67.36744643606355,-30.423191252802336,-17.401877454897186,3.191494632650816
5.436614505166591,-171.74314798622973,-87.09926353551505,23.10619350840891,-75.90949926446153,-32.97417503739196,-17.790467704050556,7.4391370784906075
9.483501222615848,-179.888011577971,-83.79631167485257,29.416635073607427,-77.22014751766136,-32.70088000174072,-16.547663598081137,10.662065221158503
11.009556524169916,-174.20069769152641,-76.72633739217055,31.4949020331557,-73.73068785188636,-30.862374304867743,-14.727322894307827,12.245628234557277
10.470612438056765,-162.64654706246273,-70.11176750986863,30.38257328520194,-68.79401521189867,-28.8491091254408,-13.302937258330576,12.281317427644849
8.906128182336971,-152.40549983076733,-66.44957021976673,27.907801301309775,-65.05480550688317,-27.581919712317603,-12.752088525976713,11.383998453403246
7.361050822892429,-147.26768062381257,-66.04118350992944,25.73034913024582,-63.617296942164614,-27.29703498375915,-13.005724569846727,10.302505407918007
6.460475112371031,-147.39641637412458,-67.71530518924696,24.733961586684003,-64.18887835796177,-27.71560347373965,-13.68310962834527,9.575963121354272
6.310994905626066,-150.69740504931988,-69.90011294871583,24.961886766175127,-65.75616928834481,-28.370774917889623,-14.37829120495354,9.391832670963547
6.663148890535811,-154.49775961987004,-71.37024564355323,25.92757423902364,-67.25172463364666,-28.866954008910092,-14.826818571092696,9.641380087541718
7.150968733791615,-156.75605774779845,-71.55186555454135,27.0069636670575,-67.96615738148975,-28.99816335326735,-14.942416809756015,10.071053217879438
7.473564382424582,-156.67334560974692,-70.55708776962005,27.726757758318865,-67.71947081477288,-28.76627937794781,-14.792922447610602,10.432215975780519
7.488242450586493,-154.74809591107731,-69.01822266237353,27.90781738321594,-66.82632747544231,-28.33678171334854,-14.548033900082286,10.581215072211718
7.2294553632875855,-152.27207159656106,-67.70212384524108,27.671367337682618,-65.85127127689526,-27.935526505221596,-14.389959570817465,10.514494029848002
6.857413884268764,-150.46849103655634,-67.05490940948204,27.315984034784176,-65.2495614187609,-27.71749703450764,-14.411465523132248,10.33614957793537
6.5499665645041,-149.80820216069353,-67.00112060506086,27.119599886549675,-65.12673865301157,-27.6901818634924,-14.574450686990529,10.177390699166375
6.397338494128828,-149.9721663798749,-67.15290601511008,27.187329833004934,-65.28634134110739,-27.750090280397583,-14.768474826915924,10.117374844703768
6.373376189036108,-150.3624911251628,-67.19295449660603,27.444957577678277,-65.47487865546884,-27.789424838307802,-14.91155880606263,10.15569052054774
6.394782967491585,-150.59286672429522,-67.04970581815144,27.75385191985815,-65.56498859888725,-27.767057631565617,-14.994922189255371,10.243327050288869
6.399906876178985,-150.55403754945493,-66.77114117122686,28.02268310688641,-65.54036108772074,-27.692950331838258,-15.045319474476953,10.331219988828867
6.373805204946811,-150.21251297816846,-66.35692887942815,28.22710873557713,-65.39542439036173,-27.57854704509451,-15.073443750829954,10.393442285731012
6.319685587162286,-149.54595196191528,-65.78809071095563,28.368434164540364,-65.12453690817365,-27.428221226296976,-15.075969025956338,10.422120414917318
6.234725934951586,-148.6924280196742,-65.16633569961377,28.45532930454089,-64.79816117449725,-27.270210832140776,-15.072567102606405,10.420660109419309
6.122959122529438,-148.00467731789476,-64.70702205147253,28.526343180421946,-64.57290842949189,-27.162018566901935,-15.109258977653788,10.408194853349135
6.014196500399961,-147.80518572697105,-64.54250944040028,28.652609542055433,-64.56909615333765,-27.142088850482466,-15.211461775556614,10.418685610681697
5.947299892683145,-148.07387673654532,-64.574669995588,28.883650172957015,-64.7452838932027,-27.181609078726293,-15.3471155339179,10.478870309978616
5.930583135159967,-148.44292836573698,-64.56733648335211,29.188893178764623,-64.924981417458,-27.200515838564428,-15.452806029711414,10.580473994903379
5.9312592174815295,-148.51214765200473,-64.35964599920354,29.4722225204082,-64.94685952271601,-27.134314419956816,-15.493843896156953,10.67877856888389
5.911498830099334,-148.12366549989315,-63.94156603715521,29.65495001905905,-64.76745954134125,-26.978460311445627,-15.486436431963774,10.725149815288438
5.866941290175683,-147.3473683074849,-63.350891094102714,29.7407663973102,-64.4332075366145,-26.773641462352366,-15.464400269649097,10.704665184729148
5.820340982891661,-146.34324762658838,-62.608183650417125,29.80216299902005,-64.02125819277711,-26.57239945480827,-15.446572161930463,10.646962274764444
5.783868858805329,-145.3813256782672,-61.82761690844489,29.922650795462296,-63.66162039302702,-26.435592432981032,-15.450495100422046,10.609189666000377
5.7448495004478355,-144.9515289259412,-61.33014840492858,30.163988618156964,-63.57933351208516,-26.438944188819445,-15.51951657485568,10.651860807933362
5.694410672459368,-145.60710179531844,-61.49189287691999,30.56406191380479,-63.997167541526856,-26.631845211304064,-15.698927752350892,10.816915622964855
5.655689137288919,-147.43984393877471,-62.361025236818136,31.11268718600532,-64.89187334980227,-26.95194686870352,-15.964674450412177,11.099396532637696
5.665700925020972,-149.62816774117783,-63.41118503173807,31.695465444983434,-65.82999881412294,-27.187501735823847,-16.188440415457052,11.416812637183325
5.727906132158087,-150.63061816677524,-63.737342699007684,32.08555959090423,-66.11595607729168,-27.070627996781713,-16.203767772587707,11.612042725034584
5.795523670010631,-149.08423290967795,-62.601450967492944,32.06202648974284,-65.22326567631566,-26.46843182979494,-15.933958284285254,11.525574813427225
5.809789467953571,-144.84423443903134,-59.95473706648836,31.609909632444378,-63.22710461692081,-25.537335892392736,-15.476592630094796,11.11918703270458
5.7504301462011425,-139.4853484505399,-56.64956325008848,31.042136590893048,-60.95497058688502,-24.721784419391707,-15.08182871876228,10.570238720853666
5.645703513750579,-135.9468570869208,-54.276484492140845,30.910178611055212,-59.75423641599097,-24.578342700196245,-15.046641203696247,10.248173516807594
5.544007145142301,-137.36338071283427,-54.621039947162224,31.714695062431996,-60.92148248144769,-25.4875814731023,-15.576184015480262,10.54611944125145
5.488047169724978,-145.30535259953467,-58.72948765432472,33.54985683310155,-64.91141091433477,-27.348955577701243,-16.64182871239515,11.624492927515544
5.5034251393805205,-157.9617470737604,-65.82769019276606,35.83871015090735,-70.59342379715817,-29.389948001457306,-17.87755831910059,13.180307678469886
5.567528187722382,-169.33623990851504,-72.80173508077952,37.28987786049359,-75.05415479617102,-30.263934047334082,-18.61576362064739,14.371137147195167
5.5445541875908715,-170.68579258450765,-75.04974892649834,36.17945227303512,-74.44374083672238,-28.55557104576056,-18.16048576453257,13.996029473219668
5.149963616966846,-154.45429749362597,-68.78924624466691,30.98465940271712,-65.84003030444222,-23.57463541876665,-16.23998472739659,10.950454868840994
4.04080675047069,-119.05643809249808,-53.68515237834894,21.20125104401138,-49.25572377916347,-16.012728194135107,-13.358980090839047,4.823726566084917
2.0474058932730133,-71.46163951431191,-33.94857056382981,7.947866956542968,-28.41965078109097,-7.940718608175328,-10.70675273901554,-3.6408329416585246
-0.5808579535943389,-25.101480536076632,-16.648243823200012,-6.086208351104598,-9.414114447909759,-1.926624596973277,-9.507333028608647,-12.529702209161831
-3.1215602991439964,6.6927867877945895,-7.731825607408728,-17.527170163331313,2.4477668218395245,0.3704224832393249,-10.11173406134842,-19.32430375708279
-4.649240213460475,18.322019884635587,-8.054957775153651,-23.743685336063304,5.7908756778445,-0.6827203625892913,-11.42849772467231,-21.878187687514377
-4.550419705114649,15.841537951753587,-12.16186020834977,-24.12680080629973,4.3330647240891205,-2.638575418673466,-11.195345653654636,-19.365608039941495
-2.983355216377525,14.202468012855283,-11.02114255100884,-20.486488492678255,5.043797980328682,-2.1544549276087834,-7.093681650942201,-12.705426050418254
-0.9367272508980966,28.987960385520772,2.7325337448991283,-16.235553605549306,14.234049923403827,3.2011008332510293,1.8898262326711164,-4.199222480573608
0.23199696411733847,67.51476092220646,30.322743016252392,-14.722690825271604,33.919790528768964,13.580033761772816,14.694605725884703,3.457767210735325
-0.4679945219344066,124.68300730436177,65.93794501420673,-17.619782336441315,60.65730644672268,26.73150138897822,28.520626619232104,8.28501202086765
-3.112789832866875,185.873504289766,99.84529590838986,-24.25739281785494,87.44301633103112,39.15658920635054,40.092404305489055,9.690789864776132
-6.845630329773424,234.76927692350367,123.41345051653354,-32.21705946644488,107.3760087001073,47.820713736640265,47.124581541797475,8.437815621368811
-10.37608497123023,261.25996654989024,133.0110011000521,-38.7386505827739,116.8733036383213,51.4529807935504,49.19154319759149,6.028382646216973
-12.661843498685606,265.1274595536577,130.80621043018664,-42.08441340848899,116.76591113319357,50.810229538058664,47.614991548724404,3.9093588359317644
-13.361498324829682,254.2470646306228,122.5946301003139,-42.14070629321653,111.05843019843446,47.94257297202394,44.57226604460116,2.9094193789573923
-12.837602735300868,239.3310423505066,114.4393690202725,-40.08093805792554,104.47486175023643,45.029914282492186,42.01691000455372,3.111965254168069
-11.796348252818625,228.70247531425812,110.13899612215266,-37.47713824684416,100.32483352230633,43.46357330405687,40.97941537296302,4.092535570325392
-10.855300998796386,225.65648105002123,110.48869340927038,-35.47670375307606,99.63291165375854,43.53983390548149,41.4657646706558,5.280810321949777
-10.303986992446493,228.82115996501528,114.01332123382124,-34.46155484824068,101.51133701769912,44.70492758853876,42.79629842695915,6.225540061612879
-10.124394904488156,234.3209687434274,118.2810659389181,-34.202978232072006,104.16544567796522,46.05331779116089,44.083591563446966,6.6866793592618485
-10.157086315447069,238.2698674501946,121.12613937397705,-34.24691762491933,105.92713579030203,46.8082055291344,44.63861628111282,6.614456145287658
-10.26252616893475,238.6469533631816,121.50418312459763,-34.25359239269944,105.9858162973783,46.64659993903648,44.22997323638342,6.107492933992963
-10.40062179988762,236.0647734366414,119.82756768614655,-34.15417269920979,104.65911350902358,45.807774298357735,43.162563110869435,5.389695402366396
-10.619472850476345,233.1756250349504,117.63879088871448,-34.10102562422872,103.11568592753744,44.94782669880693,42.13479022304172,4.786676703612082
-10.965541344248642,232.89407738764632,116.71258841026405,-34.248074826533774,102.63723277464302,44.773190704298216,41.89029647279148,4.664076110887925
-11.353665189923419,236.3103838079316,118.04278748898636,-34.47785552680041,103.78396673959921,45.61067668546517,42.7996774583288,5.304565059587723
-11.492209575807317,241.5231749818329,121.24872642394298,-34.28040615744849,105.93355146539835,47.135747919906585,44.57172913669209,6.732234366491563
-10.974133340866286,244.1118477200393,124.59409156156995,-32.9537985748482,107.42630098242522,48.40032121259037,46.23194018513329,8.546927667946008
-9.541699927314854,238.93228896454963,125.43120756086013,-30.07149126806136,106.16824399953721,48.14124873950198,46.38402927902095,9.893494765238879
-7.363687009201564,222.22590808944068,120.85861099939709,-25.90204859975476,100.36065903579996,45.24092221201901,43.686193686398916,9.69543649592545
-5.09268819738443,193.11494682945033,108.57797603562365,-21.427790882206768,89.11428596566236,39.188968525477044,37.42486724585637,7.160224019132013
-3.597768025693229,154.0662481949567,87.91380882234935,-17.874679856582294,72.84362951913027,30.395213635841838,27.994332908871854,2.3460291064697607
-3.510329416197351,110.32546510108271,60.62102884907159,-16.039951584184102,53.35189108706386,20.20290484983522,17.02054319967861,-3.5757203387949184
-4.879257284291535,68.54561539297286,30.873205728637693,-15.881340984817683,33.49849218978477,10.514469483518605,6.932887663373435,-8.650713312196213
-7.1698909924651675,34.97994626489577,4.091271527165015,-16.6571042880084,16.436787605035374,3.1120958255992193,0.04571330261821285,-11.025578842884151
-9.599412776607497,13.702077076031168,-15.059446578680136,-17.49765702447791,4.608355931673856,-1.0499441608609659,-2.4696864808500685,-9.954182225207605
-11.560964025953265,5.370394205884004,-24.55509920741428,-17.962376134091166,-1.127162633435602,-2.2228043567049447,-1.1817996662011565,-6.321783671870109
-12.840866820714199,7.097666764185359,-25.70274582210483,-18.16683805742693,-1.7730822658573304,-1.6618663812801544,1.8388312616396263,-2.2944702847054357
-13.52104443841701,13.784461522393519,-22.140861449517505,-18.442909116424907,0.38130070619163864,-0.8875798329933468,4.074559345419456,-0.20852541473333575
-13.720340910253478,20.52168101258201,-17.735752654626307,-18.88213075694122,2.972411422895658,-0.7999209838189124,3.902603758313641,-1.3020228118415205
-13.429637237493296,24.738416997984427,-14.746917613827165,-19.16088150515748,4.6866232925984725,-1.2115676021386261,1.4268522666753043,-5.026731929867628
-12.559024839438642,26.69373540551126,-13.374381375932437,-18.744130820127786,5.576177139659552,-1.1442980055760215,-1.7416594172394468,-9.352552944135118
-11.099669984548846,28.111311542278475,-12.647595738836342,-17.241820346046374,6.464214785969271,0.3049916609131086,-3.613819642281685,-11.890990172210394
-9.22545531665482,30.22482360295245,-11.646819555595092,-14.641957067350702,8.02695216470811,3.1614152952651158,-3.1068383650363818,-11.192978761794393
-7.260618944536647,32.789281652533795,-10.122289040886326,-11.327701794841689,10.256383240770875,6.413163256371568,-0.6683689981957508,-7.502159823738563
-5.569507966517769,34.532611722876325,-8.388568567497106,-7.946574957240319,12.535777536400516,8.58010507468824,2.0763583665092433,-2.578280785880674
-4.449052753404931,34.32695510368068,-6.929498997956945,-5.209757265232641,14.081482780564416,8.593545697313067,3.3473640406961858,1.2773284638903843
-4.054422775104676,32.156866479450294,-6.032013348889863,-3.6663284153230697,14.431298887084598,6.442812009666037,2.272118169192021,2.442900222275479
-4.36932301509667,29.48266595152781,-5.493810353216171,-3.5348882201468075,13.803518047215668,3.263668245617681,-0.584083744243913,0.7707983942428556
-5.25101069236476,28.88761688107401,-4.55374235869977,-4.702985708907537,13.151790485354208,0.840569603462102,-3.502970717561011,-2.4753606923919835
-6.547138789022137,32.810348978092705,-2.3866582749981022,-6.88721501668443,13.678270488695928,0.7140990947814388,-4.611855695897452,-5.470098094806538
-8.183876610283647,41.47616933863048,0.8513212258742768,-9.759332115959646,15.828821788122807,3.2602647464554777,-3.096118227852789,-6.913822715008871
-10.094068386772838,51.14063570597879,3.2272999801714954,-12.841098125707656,18.377171605866437,7.229670706789384,0.10067173616881961,-6.679379772148301
-11.995752249627104,54.40338271920928,1.5321319425190345,-15.24388253501937,18.492900777117367,10.131477903297808,2.62220703851882,-5.659311747698592
-13.235893250819878,43.39925715517852,-6.787337961334418,-15.61298217032961,13.139897837758358,9.413682223653948,1.9953568364658998,-5.004806343533592
-12.940954544296519,14.448500872167322,-21.502575042978965,-12.572730961772345,1.0707519561288863,3.84539023751266,-2.890302076346148,-5.327710773889724
-10.4797202376317,-28.839494013276386,-38.98313164803867,-5.536328876050232,-15.965369589115758,-5.71965053777823,-11.06583737783183,-6.3901543716354805
-5.944586922791334,-76.36524653271488,-53.772740972724314,4.668594996218806,-33.75057617622858,-16.687741705096396,-19.980981836670267,-7.4042618936576226
-0.2806942813042171,-116.06801000070018,-61.42399365671384,15.892531670677728,-47.6176355389398,-25.985173905367727,-26.86639387385048,-7.635258372243677
5.081185806643872,-139.53775772349354,-60.753410903927204,25.540469122688222,-54.70801924085659,-31.48917218124165,-30.093482820479988,-6.855943321658425
8.885881769136644,-145.43116968152697,-54.13541676933427,31.744270734434743,-55.11410705419208,-32.832687711296295,-29.76130253408549,-5.394398401838602
10.606264799488969,-138.95121229531452,-45.8235144939335,34.12889548634599,-51.353818713658995,-31.230352419174544,-27.30670519616209,-3.844301435082919
10.566472304428284,-128.18422577489673,-39.545925511477,33.74521923300199,-46.71166417078131,-28.583107529204753,-24.53829965015445,-2.7061618172555586
9.61125642714296,-119.84090173338109,-36.907958038519304,32.29350031255237,-43.58489148467475,-26.482039762777692,-22.74351475247262,-2.189952106537771
8.58647867948513,-116.80615877195919,-37.33242265774434,31.184535343568765,-42.734274849665944,-25.646019237574066,-22.31285512108927,-2.228672007447813
7.970169677417386,-118.25605024875154,-39.11673034055673,30.993070511532583,-43.562829232883644,-25.937256276961616,-22.90038835444941,-2.604242514961674
7.821651388987822,-121.43603800709673,-40.628816779190714,31.504009587725353,-44.915660856653126,-26.744716599101682,-23.842696572905126,-3.068527952131235
7.9689521366587694,-123.68701938769155,-40.98266876994507,32.15961492830093,-45.824216902383746,-27.431325237795196,-24.54914135468454,-3.4120684783376514
8.236155623142633,-123.82260314450875,-40.159159835939576,32.56200762194672,-45.92506134921833,-27.651096123060594,-24.73196512323457,-3.493299149596236
8.567958456800929,-122.5675891864256,-38.79957436246932,32.77127354726546,-45.52761995602926,-27.46463749611968,-24.461046982664282,-3.2499813837793687
9.022492048609056,-121.97884016903184,-37.775002104532966,33.286384944315024,-45.34243887666696,-27.23423569964769,-24.053624896619315,-2.7037654045169157
9.665487168128589,-123.95530418145378,-37.590470642493315,34.70384387285811,-45.92978223837322,-27.335371246197628,-23.838968653896274,-1.968489407483764
10.419577352953267,-128.48753843828493,-37.91047229461394,37.173017368302304,-47.13514276451136,-27.830844831176144,-23.91833168109897,-1.2653960687093073
10.96000179857953,-132.80042898474707,-37.62262492828663,39.93931551437285,-47.931314890592006,-28.3242521363161,-24.07844132761372,-0.9132854417951365
10.777303900526835,-132.24014851119392,-35.52069331583813,41.34684037919669,-46.88804254678974,-28.118048143999495,-23.91754713253222,-1.234315516349922
9.456282494188153,-122.59662487423806,-31.124289892604565,39.47898554044002,-43.011450341882146,-26.582708513997186,-23.0722974592529,-2.3591787628269616
7.0394881010365244,-102.46456730519051,-24.980750928983266,33.18838361247696,-36.37365179629269,-23.486884671907074,-21.363874975822657,-4.024805943688437
4.200442295009329,-74.18871290706173,-18.247635771764966,22.916587835199955,-28.106880026471273,-19.083905739303734,-18.78439303568654,-5.533869085999437
2.018727241577689,-42.92287622200008,-11.977427636275339,10.746050569521577,-19.81789919403456,-13.94241094977356,-15.403666833221402,-5.985331348262558
1.4259000392945334,-14.519536227605288,-6.710168148908244,-0.41493986511306136,-12.861264709991001,-8.676409387384867,-11.329257825258624,-4.701192378712588
2.6709880821789325,6.4912447329528336,-2.599782879839276,-8.052953367453798,-7.9155228656883105,-3.7553990807892426,-6.7626770225458515,-1.6033783551245901
5.193434825952699,17.952236298246348,0.25356591467904593,-10.96560275477727,-4.984604112927253,0.5348082267217819,-2.0620226043225873,2.71249772639473
8.018490890125218,20.186725190254528,1.812144384502769,-9.424929130062587,-3.583323063588013,4.055367005357574,2.3228960801081646,7.266945344862113
10.386175507669034,15.792982778071094,2.622307342672178,-4.710394283632308,-2.796654570969719,6.822138495671034,6.067116037366659,11.144877953700316
12.115322545622307,9.423484510217802,4.29462609693397,1.4675589361960382,-1.2317182078304347,9.062273928936136,9.16857110629038,13.776444286151898
13.40478529574104,6.999791781434057,9.054206469969202,7.250131097178615,2.7413430494117397,11.170834016961603,11.88145529735937,14.879185641530668
14.261792055572444,13.693511346457004,18.137498382295068,10.696977257634032,10.17538580457297,13.448752581899676,14.336221061950015,14.209131386186675
14.104593412790537,31.162556943195494,30.07504004295698,10.033194704832768,20.5228801930481,15.749621537517166,16.138872981864676,11.453540241114322
11.965368524004136,55.86496811962534,40.478745526245085,4.273849481206959,31.285233354317167,17.36284693052042,16.36851145797922,6.450205406991657
7.200955103122296,80.13198527079342,44.02175138552721,-6.087237931672948,38.92699192620695,17.343855271857723,14.10558640431257,-0.4319053574716625
0.1618227066894387,95.84566542831249,37.53514052254456,-18.916009407494016,40.68577862218662,15.132567804003305,9.155233055530962,-8.122767554466904
-7.726247907937193,98.58711134110261,22.12516666949515,-31.12772375183556,36.13627866485866,11.02778515754284,2.4193481243892205,-15.125012486607144
-14.570467538670858,89.70035362482538,2.832267670795025,-39.9507209753119,27.470651449560673,6.162253722820346,-4.391190695587422,-20.114169164596195
-18.913004099048457,75.12508957121116,-13.94525959022042,-44.05653274697244,18.32690514097021,1.9748280958898852,-9.542340429574192,-22.496910191932894
-20.355002183151814,61.94275556153677,-23.59360828287073,-43.922266009972525,11.937208440075574,-0.48413566356348336,-12.068984997072635,-22.59192971235238
-19.56692862087806,54.88194693798688,-25.113223060914365,-41.29521024742065,9.726477887275289,-0.9879551063780221,-12.10751024749942,-21.357956990310715
-17.777145009337016,54.74681328132478,-20.800010387287696,-38.17870209118874,11.08083702862121,-0.08411531146402847,-10.63148360713896,-19.873161842486407
-16.125569192538904,59.205974341268934,-14.391614929379815,-35.965166679304986,14.175494696456035,1.3318294448789492,-8.836037246806262,-18.881623902162644
-15.251424370468232,64.84043592186043,-9.08139310736896,-35.110811964965684,17.13356982945815,2.4947944244402724,-7.58426253302166,-18.618171745367402
-15.236684873874108,68.9372479054013,-6.469673051995474,-35.325454971636276,18.801387984165597,3.026849008885372,-7.188348817651876,-18.91290841037743
-15.789647724293266,70.27566165581501,-6.572156185008348,-35.987011066754114,18.92157331568546,2.92781548356885,-7.509952022976609,-19.427102913470893
-16.489000830882624,69.09777633375369,-8.3599195551914,-36.512236230054405,17.92818080686074,2.434957027228577,-8.186271036019857,-19.863740232806038
-16.981183375676363,66.71307035019173,-10.363231652355662,-36.574927997343046,16.634770527180084,1.8820181419876985,-8.823427616763421,-20.077597602001727
-17.097642625891854,64.88206521676274,-11.231002440280767,-36.16439844418478,15.893809656861903,1.5820944556189864,-9.124976203662177,-20.08322594023144
-16.876344040094715,64.98328794469295,-10.242909089203915,-35.49583733597678,16.231844109460436,1.7141845505335405,-8.975800034134155,-19.98770981522293
-16.48626520246604,67.2528930576312,-7.604745131733131,-34.81927891632804,17.584250062760642,2.2424253908258716,-8.467032225985937,-19.889364710187518
-16.106137611898966,70.6049734290603,-4.323705737199262,-34.24862185741305,19.31657833307713,2.930795184363068,-7.834917193184649,-19.80392762493206
-15.847164436703133,73.22770221126518,-1.7229316497524498,-33.741650671325715,20.555674273053626,3.4594081556007272,-7.344381981525773,-19.67513839387761
-15.76385932323619,73.57403805003877,-0.8946058223714931,-33.23779286543353,20.628299667318615,3.5687899700536825,-7.194828329256916,-19.467344893912088
-15.89912899088582,71.16739789952513,-2.2982839564559687,-32.80542777562239,19.380480843085206,3.1608114268498255,-7.48139222258134,-19.260528620319832
-16.273195824214863,66.95136267927936,-5.467343734790175,-32.63587557146033,17.311175652149938,2.354088037142055,-8.164593057270146,-19.250295271871508
-16.801931311511737,63.204007730272835,-8.810852634303727,-32.87010220694247,15.539105079927964,1.5134834304051954,-9.007217058620505,-19.62419406493075
-17.231167606919175,62.940929167470216,-9.796602349237178,-33.396133903669806,15.52772702562794,1.2091458562970168,-9.538426060603355,-20.381327639331804
-17.17730207003799,68.61506211252222,-5.8636506272503635,-33.76203580764263,18.45563792616411,2.0222061960051527,-9.161555749302234,-21.204237373989603
-16.26572849114795,80.36500616342796,4.1138726217574915,-33.24482742255147,24.381399523638496,4.21705066467549,-7.422223004238184,-21.463406956664667
-14.271998731874621,94.885282354083,18.716689663096695,-31.0411504539144,31.746846894284058,7.480239305722753,-4.276403716657588,-20.378657628418033
-11.186652300369367,106.21216155225106,34.241327488621295,-26.55008378794424,37.80749912365868,10.977610393950394,-0.14177510458238407,-17.311365821260104
-7.209242749079207,108.66044790997947,46.50562648531551,-19.714445111541213,40.02268404419258,13.787095989527163,4.330103919680328,-12.108734559210793
-2.7297909647828194,100.3834364286436,53.14743486197286,-11.305011508290383,37.62913787366215,15.451679009363588,8.584867162433405,-5.361826842717329
1.6738400945927043,85.03516372342372,54.782593675938685,-2.940068977913528,32.25335799776007,16.236278499586053,12.323373513992822,1.588168704496488
5.272961028258007,69.87274214796054,54.05805698252947,3.3399424722491347,26.920947371118164,16.840668084283422,15.359329745293932,7.003106545152355
7.357883594575991,61.03502215865932,53.21033458446419,5.922768437049775,23.95544921794324,17.734891321915917,17.341815466573653,9.412808386442782
7.576157684387733,59.028765432065065,52.03296284395152,4.574963370997442,23.206194488456752,18.629640932250123,17.68328927972842,8.34081805025776
6.29534002227796,57.76178606296158,47.986471389604766,0.9373054684849208,21.979260976258537,18.55090727353894,15.886986349839942,4.702320185723368
4.692893330731267,48.19548163825168,38.490437845310396,-1.9115090281657008,16.86350172434702,16.529739294270403,12.080994412118638,0.5567546776664997
4.354304913569264,24.356073354625167,23.587833588724937,-0.8107116964951678,6.209002893984265,12.406423608550543,7.2956904059549785,-1.7737424212168469
6.496720760563625,-12.356270027504507,6.805599766217051,5.864472459434382,-8.500404299003671,7.133109053739331,3.158148749137061,-0.7953835494322006
11.269873545761309,-53.43829034396375,-6.530118363911907,17.27707990679484,-23.31760825273974,2.3393576314769278,1.1256802187326682,3.46651438754793
17.604675919224718,-87.8272123962305,-12.310101895806072,30.49226448484882,-34.0246389372834,-0.5353902204645915,1.7459762491359303,9.567260684454194
23.735949419005227,-107.66275579794788,-9.883320601564908,41.933190059204854,-38.35986336670364,-0.9662151403665609,4.417691960057082,15.44240179638331
28.084000433327482,-111.73608405817154,-2.116515749063069,49.06800027485767,-36.9255407287227,0.5037390136686911,7.779911393119305,19.416656907053902
29.96593014603625,-104.9225176644242,6.552094234049036,51.383216841660065,-32.4100890884581,2.7028911105636317,10.459477321940039,20.86778548879306
29.752371372914247,-94.56393400280105,12.613122674979255,50.20719045437697,-27.846980234116575,4.519430636734193,11.713528407417167,20.261162117845082
28.46179569120414,-86.44247423742743,14.943888471318099,47.6676733253442,-25.09997490480807,5.395894024798896,11.620147235129748,18.663090135311545
27.12180254614152,-82.69373694814598,14.580350036811437,45.518434432903454,-24.384936228915066,5.394838732204193,10.79554281978273,17.10232234542664
26.30371341154411,-82.27350092775657,13.377379941418544,44.496637229971306,-24.810202229530944,4.92621669892682,9.913529704075897,16.14608596244332
26.03990943984969,-82.92511382064835,12.672990361227868,44.41039923495247,-25.317185428737467,4.4103822427132044,9.360816525236705,15.842879784139035
26.05276907688577,-83.11265258231292,12.704806636492297,44.68920882869041,-25.38780579385424,4.086154338709385,9.176436838873729,15.939596831610338
26.072241298943684,-82.94986316756771,12.827528559919486,44.95656253872274,-25.24339139247118,3.991153800644699,9.195490771274814,16.163308201679925
26.048361260932374,-83.89363519012247,12.197436916610918,45.30333943203083,-25.567389610091066,4.036259806866293,9.23577501732512,16.394863054726006
26.173013494699966,-87.41305876153257,10.576173747615204,46.15933214913825,-26.904216798249198,4.111813828418351,9.228100419103606,16.670470079070363
26.713751593572148,-93.22262321063727,8.902045571694815,47.84604997784941,-28.98931610703614,4.194309277522386,9.261357053158674,17.04605149436858
27.734697230779048,-98.14351403353025,9.193231438377257,50.04931558252407,-30.42315500735032,4.398536089651151,9.524011716868579,17.424391590502022
28.865021454814634,-96.73381576208891,13.535521657177748,51.56603974986243,-29.07922764408667,4.909523919280113,10.143658807764757,17.476529616911414
29.317900231017184,-83.91269963725023,22.567352660536166,50.630553985047065,-23.211722126011917,5.817590876521893,11.017741440215644,16.758948493542558
28.256435210435654,-58.22967975851817,34.540577049605346,45.808669564718684,-12.61860584105488,7.00941166702177,11.809959803068235,15.010679360059434
25.350808277142637,-23.50197694063593,45.93445681965233,36.998007094662434,1.014613102290349,8.271613781280296,12.211789926320264,12.457181149999341
21.15212672175492,12.669729624809255,53.53796349878364,25.845303364655106,14.974522078113885,9.575952863113255,12.331023483789094,9.87511968879571
16.940085868787424,42.82089281458532,56.633588747925494,15.15352026741286,27.0484046923682,11.28659055620231,12.86497169502824,8.28170203989714
14.025671796552185,63.33588577020002,57.51163417086832,7.499766873033241,36.57276942198156,13.995186493279418,14.76901670531721,8.364566808386208
12.901596783677437,75.21808468543534,59.54240669275191,3.8733887807883196,44.11396231724506,17.94017955274188,18.474141012822287,9.989322426362172
12.81788178046226,81.28729025010531,63.88958078102182,3.214256935147977,49.94928631456758,22.35030998559735,23.122695232596357,12.130470198602966
12.13540176620861,82.03847747123756,67.29638244745095,3.1771224975304118,52.5976318898624,25.263995381021584,26.447184873610173,13.32946236257547
9.294001108314047,73.68869926631032,62.97845036551824,1.6314844443218524,48.813189327797645,24.177354025927094,25.606825083496837,12.443558050881688
3.7912817178378355,50.36443131826359,44.52660910009474,-2.080926777329732,35.41060825995996,17.3188083875991,18.654517233332367,9.249631335934351
-3.4572606872436253,9.051623900424055,10.392189412041429,-6.906478460632679,11.790938427142969,4.822304935347861,5.78421792787683,4.551453276708221
-10.592627813973248,-46.409552243882835,-34.11952386694535,-10.911893183357192,-18.672021002748775,-10.984845695807046,-10.458714084057032,-0.25339757718060535
-15.796480522042042,-105.41782731843251,-78.81011397883054,-12.552717112917879,-49.52258288542284,-26.448464871647577,-26.20374465134095,-3.8715410645229458
-18.171918379640815,-154.97189174791083,-113.32617259295789,-11.549935855916532,-73.96392648860162,-38.14907338997768,-37.94578582917229,-5.6733882940092935
-18.032607944412582,-185.54218493100217,-131.77447957289303,-8.904822592531673,-87.79618908518434,-44.280144272377875,-43.94598954772213,-5.835675555810498
-16.52171873410382,-194.88508756606984,-134.62397446701192,-6.177158883027397,-90.86379331418732,-45.12670965030792,-44.632839057922475,-5.06310331832191
-14.88782200521118,-187.88100140700845,-127.24419088135022,-4.576350112953497,-86.39743959957926,-42.52161587767235,-41.95353860479916,-4.125407007689124
-13.891719475192314,-173.1686132219126,-116.52372921675243,-4.427160002147643,-78.9766795647473,-38.75691630772206,-38.2305622081122,-3.5061733659995906
-13.643717679410026,-159.0833494570033,-107.82796574206431,-5.229097911266848,-72.50003065185307,-35.64032943634893,-35.2373578420327,-3.3254489085215613
-13.841185715149452,-151.10549623508726,-103.7363843080459,-6.127997612469892,-69.16949405320109,-34.11783381290008,-33.87756365673739,-3.4896643600704085
-14.14636041846314,-151.30641779158398,-104.45681652143442,-6.44781534508444,-69.5416372438252,-34.39952914775976,-34.350701379963574,-3.8942978514974693
-14.44296171583824,-158.83394200016124,-108.84833220044712,-6.027570401541771,-73.01732813201394,-36.225973860522544,-36.41664149962103,-4.523076566397567
-14.858923414677466,-170.42543736649833,-115.13118282242137,-5.281515884509082,-78.19355640181932,-38.98523323113007,-39.480873953403965,-5.397100157783704
-15.58614638319771,-180.8659518537683,-121.093687773444,-4.987804982172061,-83.00396800710816,-41.680530910688,-42.52452921389825,-6.431251150404223
-16.60426222421735,-183.94847067261747,-124.10894293366177,-5.8505391236524025,-84.92936556968809,-42.953554831236914,-44.10257195383625,-7.305846347752391
-17.46105929051188,-174.186227255439,-121.29903801684377,-7.989292765718649,-81.49505183679358,-41.34160724217372,-42.60463388278782,-7.463716707308165
-17.285755783886845,-148.77253071401276,-110.02669822234344,-10.65404798894279,-70.99992192542437,-35.7717576860543,-36.797246962324905,-6.2993383733082595
-15.139086749551174,-108.92335935063801,-88.77078120884165,-12.447136938846343,-53.242974056058245,-26.125073412610398,-26.475456276955757,-3.5049578254225553
-10.595894788906955,-60.005522048278884,-58.233757178881454,-12.0491302229828,-29.98198221268082,-13.614218601918298,-12.9223579515105,0.5933500576078514
-4.227242523840154,-10.380074112534743,-22.165741889504133,-9.058418490271599,-4.8853994259487505,-0.7256170937736397,1.1364276123018346,4.94283854354715
2.393054566943308,30.70808303759776,12.846495952190956,-4.3866938734651075,17.188367042724337,9.398286945923676,12.236404309953121,8.058445120976115
7.293667285139834,55.712962929111605,39.131263410965154,0.11466058280565598,31.577042535730286,14.035672756458126,17.39234232834223,8.630392867939756
9.067940375566012,61.364209195146806,50.976199110086846,2.6205341350243887,35.586217228532696,12.079066981559418,15.401694091858213,6.166475169779998
7.6562868114396085,50.63014332872628,47.768895403699716,2.295796793268115,30.039980364694287,4.845858103521294,7.668211704812876,1.3350472364577957
4.449963854051562,33.049486387083356,35.419978710983806,-0.35244444790464413,19.743392864370513,-3.995716207074762,-1.9503532219144544,-4.201343260514283
1.5938564841130767,22.261846603186637,24.60431851692614,-3.9176773430572625,12.114561994073066,-9.634966435075098,-8.454840397772754,-8.432457039382424
0.8629030570659395,30.591810742932473,25.953311300447872,-6.964073106655275,14.059755086423793,-8.16585416367547,-7.809696264656394,-9.850034275488275
2.76139379912973,62.68866870304751,44.42670005516752,-8.715017456508694,28.405941468068605,1.4388430954243054,1.095841849352367,-8.091724141350674
6.3395616766418526,111.84133102834113,76.11101580910974,-9.19080491536225,51.9304325851439,16.545961281428944,15.713814082251343,-4.049303541825914
9.760746980183818,161.83145880688775,109.5822047818699,-8.888260990662925,76.41794062296236,31.871469506431083,30.870455056864746,0.6146770638406013
11.2322439597245,194.05609332709756,131.31462612910408,-8.364246959614604,92.43708869544149,41.863782828501826,41.1217965697443,4.27901168538129
9.79290839719282,196.27558162920093,132.21792805233565,-8.000934668479143,93.83986318623394,43.21051621248883,43.20641675326659,6.071322859602246
5.621122695887949,168.19652835605777,111.79208936994067,-7.983877234870457,80.53197629500494,36.1460041956487,37.31808371535767,6.114468974724935
-0.19057309233961556,120.97056390145761,77.85040421475726,-8.376649160505629,58.11115437149614,23.959501134385214,26.618680685058212,5.226257917944367
-6.207541716134644,71.20540717706096,42.250192697592965,-9.185554627862908,34.77269303254075,11.125467225354395,15.396948425837689,4.293502066182187
-11.255323654705778,32.9723638568373,15.137351291079858,-10.361406593203062,17.308869188480095,1.1658550598854216,6.961743240524719,3.716746651686041
-14.7518801521385,12.065175472489837,0.8253302223441876,-11.72147639967337,8.35245236845474,-4.632691153623414,2.3957491721135082,3.2653735242942776
-16.64861319040881,5.333920526892188,-2.6333882422890045,-12.847062643989522,6.201653732857338,-7.100078558889622,0.7281025245720164,2.4105453585142307
-17.12605152994787,5.104103562859294,-0.3235648143081189,-13.118150726851898,7.0827574932979385,-7.924504292384993,0.24449005651420866,0.8724628765792302
-16.355146135916417,5.77009799747116,3.9072552875583506,-12.032506522831095,8.29396378387452,-8.140777686574282,-0.0004048408910405048,-1.0368534051475908
-14.536818117253596,8.24134440064493,10.047119770004812,-9.715134133550256,10.152199913791538,-7.352083697740506,0.5240997046249828,-2.5372939555733947
-12.133493240661913,19.235827857007255,21.087766646269685,-7.230468879126944,15.490350793616487,-4.1542907812023095,3.305768598373572,-2.8751359868889383
-9.983928438189738,45.93933709675496,39.67817983725601,-6.3057735360282186,27.173431271088898,2.6024051395336483,9.48973206022087,-1.8207523462430244
-9.072677550172383,89.84007600830547,64.97820496941574,-8.47210279628236,45.48628374250303,12.651449210483092,18.76667884497164,0.1768508316373849
-10.041115977136478,144.0974254088123,92.09245030809858,-14.122704124215188,67.25544055696197,24.076752814638535,29.231219311077325,2.257752809043299
-12.783006425818815,196.2389152121196,114.41667194854755,-22.133354152602358,87.26116185870218,34.15678696063804,38.278106745821006,3.631756672539326
-16.436991040088063,234.32304134457644,127.15656843398469,-30.338672910419852,100.91664274452668,40.70702642982865,43.910961729599315,3.9537579600633688
-19.808979982294968,252.58270865354703,129.6426303049044,-36.585801157146534,106.45405312321,43.06809026049033,45.63197071226906,3.3905843371415743
-21.960465114008517,253.24040126851403,125.10095890627174,-39.72010311879082,105.34962535843505,42.19081930907893,44.434663130051014,2.4043806509387955
-22.60206454726109,243.9216946810327,118.33909495140523,-39.94175263827996,100.97289314516061,39.88364134185431,42.03318640611527,1.4481370832825984
-22.089589887866083,232.86728388647785,113.06410553076678,-38.419902283959324,96.54549560584975,37.78057647586824,39.89982200848459,0.7734122136432827
-21.100087488151875,225.0994258255185,110.47460871688546,-36.525193621133525,93.72458896093612,36.656797522640005,38.68573706617629,0.41882708810899116
-20.249240934005602,221.45095142032847,109.62465350583258,-35.20226152165534,92.46019255623672,36.383957060291124,38.24277181057305,0.3098143782669354
-19.873257843402214,220.17902377963156,108.87309291402923,-34.777352561734936,91.84796430416007,36.38079290536953,38.063491845125085,0.3593317524371138
-20.014224274165453,219.4655164226126,107.33025597222871,-35.12774253163266,91.20286116374366,36.184168143739406,37.78334173572848,0.5091648663115212
-20.508458244518508,219.12417831100848,105.5517083788514,-35.94827953974811,90.68627447831751,35.810265848066386,37.46230530258316,0.713777976063412
-21.083575544838823,220.69402750939742,105.23003069710803,-36.9237809859105,91.20419884576287,35.748662395744134,37.52852575944792,0.8950254727815932
-21.447355994703162,225.96640944910536,107.98975997525308,-37.78075099060325,93.6386289478124,36.59613779043766,38.41289045819813,0.9030076318155078
-21.375368875820097,234.67421692116824,113.76277341718742,-38.26458645284396,97.76459464935465,38.48778431231453,40.04345557882327,0.527877767387875
-20.763331041323216,242.69588811411842,119.68580934354542,-38.07614778368448,101.49319615902736,40.63813486900475,41.503229630629306,-0.40516591990508344
-19.59907951987872,242.3638425948635,120.57840968757628,-36.81745898065594,101.15711479691714,41.361827867496956,41.167692578753545,-1.891650265645641
-17.87843788735099,225.6278299768514,111.31422113032455,-34.05016966516949,93.09896150746142,38.748418439312104,37.40655647356176,-3.670861063193399
-15.566071968665057,188.90169844844442,90.01075657500184,-29.54458406410918,75.90757474658548,31.74068506347552,29.535071127956833,-5.334095058888146
-12.682631303009533,136.66794942881904,59.97635614467229,-23.63318807450013,51.91242993573183,20.989440098207652,18.42715804049206,-6.606026109810157
-9.477740892863824,80.95393835821584,28.76027848801906,-17.401955625792958,26.703633649382816,8.862214504802589,6.3218646630650985,-7.6070778194728375
-6.525520789101371,36.077720338084916,4.431074424093223,-12.443429887975427,6.58901826545162,-1.5498839392541228,-4.155710814304346,-8.841207626815454
-4.57096226355201,11.251188251202212,-8.795376811139938,-10.126237261491227,-4.676599740858032,-7.928216460542328,-11.20417941191714,-10.80991923855983
-4.1085980059183465,5.47932211984135,-12.740547866846097,-10.695441134456859,-7.878678747723874,-9.840275837124718,-14.548357661082036,-13.45402580279702
-4.917225611222966,8.166531565063309,-13.709894461242927,-12.772244525200385,-7.704653724416907,-8.780900147122141,-15.22777620916165,-15.839885379341537
-5.916725470531449,5.327471604424806,-18.19054770919649,-13.728228048930434,-9.81511520470354,-7.1386665372967775,-14.691520421587047,-16.42290604084155
-5.577010850685125,-12.378049596668236,-28.72357877813673,-10.91516369876151,-17.490810029583887,-6.785760781472772,-13.87389317254075,-13.8408386578469
-2.7287833463196556,-44.73194209315487,-42.67444831846293,-3.1200640000715603,-29.96294572334816,-8.185127710539556,-12.859440826752385,-7.778065521697535
2.713887705040945,-82.90423152220357,-54.45961067666493,8.640919082768113,-43.31145437673198,-10.477363418930654,-11.24215016237013,0.6689605320877987
9.608301622083298,-115.1284161340166,-59.401390307782734,21.5221204023883,-53.09301685081807,-12.321256657154892,-8.774795721221766,9.396671178368972
16.135826787180235,-133.23617133761346,-56.537000453899836,32.23129892741945,-56.890318402974046,-12.831112461279615,-5.772214761786849,16.248485210153728
20.713043944439303,-136.21042515311893,-48.772978700989576,38.57950184670298,-55.29649944689887,-12.023200191919631,-3.0047767462911428,19.96361033148696
22.706317309493908,-129.2742814173486,-40.72304482720932,40.32058643035464,-51.043019027289695,-10.610280650776726,-1.2269218074107404,20.60356157635767
22.558759278995616,-119.90394604852645,-35.96904194400387,38.89672077593008,-47.14652726395526,-9.425362056467426,-0.7263085420221393,19.28621530429303
21.34130526334704,-113.67994269105867,-35.51412890467221,36.39305374550557,-45.361567113499355,-8.925886205572061,-1.2135476080619703,17.463982324568057
20.087775440092145,-112.32340600927006,-38.063980907695324,34.42102954110021,-45.74611210057462,-9.065129665876427,-2.0865542252861515,16.19712479833161
19.337569841904344,-114.37017479773937,-41.47123142396427,33.55467246186045,-47.26715069013628,-9.501533622685638,-2.8338984425521603,15.795491953960903
19.088667411548197,-117.28815461879113,-44.16666844217626,33.48245325305103,-48.78619885383083,-9.912334935858297,-3.2903037942536435,15.929117691374588
19.06698396625625,-119.45813455110122,-45.813828011266985,33.591141417876166,-49.77995700579832,-10.197806076457853,-3.6218875796036776,16.042692967110796
19.064863833604345,-121.06250279967402,-47.12121863039676,33.54628398075627,-50.519968027514466,-10.501915889648545,-4.116697235592211,15.798377702807572
19.138263854003917,-123.67883284946747,-49.115701771517735,33.55647351032125,-51.745756006863424,-11.076700184738314,-4.931932119428058,15.31881465218926
19.57268415903366,-128.83910877576142,-52.22832253863096,34.21472544583329,-54.00625516565368,-12.051609764407711,-5.917643221455868,15.121476316885813
20.636052542622078,-136.22125790868768,-55.609555229601504,35.989381265691726,-56.97139053971697,-13.209531272888098,-6.60049365831755,15.765286076910362
22.232516284421365,-142.58691094832346,-57.188171926979955,38.60865869080795,-59.161273106083414,-13.929073179793658,-6.388616463097324,17.364100743147834
23.666670756451875,-142.55638532259806,-54.742514348625726,40.728447006485546,-58.46307720575033,-13.423239847834225,-4.96910277838636,19.23563159999356
23.748033521137394,-131.31670093164664,-47.53276277444925,40.23935332189854,-53.33274954781932,-11.217092148285454,-2.6959222829886076,19.961586849097937
21.308551101776132,-107.82473146106908,-37.37639271354369,35.234629616679804,-43.97477450138645,-7.574348777819921,-0.653720549399728,17.956758536057475
15.90742390729299,-76.27133027772106,-28.17303306353477,25.168129422818595,-32.61031502981023,-3.5298134678679958,-0.20942413586768102,12.331614113536105
8.275320361589081,-44.444790081336436,-23.911280562905468,11.460220608010832,-22.46869454977134,-0.4157101859161241,-2.2157572441937115,3.578686436929222
0.13031774206258245,-19.75791799184067,-26.38065684201891,-2.946349328119296,-16.053206274462074,0.858818767552529,-6.3597487247163915,-6.377419532090992
-6.611925083900203,-5.532419403656986,-34.194718210594324,-14.91209732038246,-13.845229440268405,0.29091105449618837,-11.16492402522038,-14.90400515921194
-10.77072019260269,-0.15902090569040978,-43.9003185502981,-22.510397998991746,-14.389368691300982,-1.3309235489462379,-14.77283141349045,-19.828192046152054
-12.364072310045493,0.2880286503325139,-52.41259314539532,-25.62402560910456,-15.71098432849217,-3.0772967699964937,-16.068448104554314,-20.405546764413554
-12.290773455075028,-1.9062936465394207,-58.9327550702108,-25.391711755188336,-16.9665315817252,-4.580892878511753,-15.389587833971046,-17.5288948309087
-11.47903290618612,-8.156399311415312,-64.85809928601697,-23.001190523985564,-19.00543169879733,-6.246811803900881,-14.284793372123234,-13.0830545089128
-10.148905148074038,-22.04635226008678,-71.83894123449937,-18.784135641065692,-23.406668047858634,-8.812374055078838,-14.457039611324758,-8.890374946716994
-7.739582555877282,-45.528242464686535,-79.70201095200862,-12.273626650454565,-30.825156765983277,-12.623044183396226,-16.63661643308925,-5.9087822341378535
-3.5242497688323633,-76.01931799286623,-86.03440936058907,-3.0820459128912687,-40.027728187511116,-17.203402614501893,-20.162011753174497,-4.092504435496973
2.5943439669289754,-106.74566745908596,-87.76513769476037,8.18301181280846,-48.378422970991345,-21.441392264824117,-23.49489305991041,-2.835993538871639
9.724140093149675,-130.07927631246383,-83.4405739731823,19.727814000356805,-53.36359283573512,-24.224861523198733,-25.229725096724184,-1.5789873299825359
16.316748931209894,-141.47131103497986,-74.43415600379602,29.271768171089402,-54.02084914886492,-25.064498748734444,-24.88934225316176,-0.162531979668468
20.9417811482798,-141.40689876750852,-64.25955063171357,35.142424977764875,-51.32726122002183,-24.29968435352957,-23.05062604379225,1.2001115589592655
22.97705338703023,-134.41331287348393,-56.582382270142794,37.0344281544241,-47.42500961933412,-22.81236100843972,-20.85034167941534,2.1889608647402397
22.80423804457594,-126.17674784880671,-53.35977080700455,35.99542258483402,-44.347807379181454,-21.504449775702827,-19.29618778918574,2.6290492628759488
21.46763245640253,-120.81700335167481,-54.262437024102155,33.75080803292205,-43.11906544595658,-20.897198000790507,-18.829612733890595,2.5762045014763535
20.086570025513076,-119.7872574819026,-57.47767703302322,31.86197140629469,-43.65623700127003,-21.046164511060947,-19.311379328030508,2.249513763126313
19.388491467521607,-122.41010035376236,-61.04423660540501,31.188661678550975,-45.26453297386983,-21.704712108417972,-20.287840596068076,1.9097409912127226
19.552823361598225,-127.03542596879082,-63.751874935633246,31.80470062572108,-47.188044836694644,-22.53755981562139,-21.283020487471486,1.7584088422362265
20.321297955173762,-131.90274653735497,-65.26662550275732,33.21955893948068,-48.87649612436466,-23.25277799921051,-21.96787317388059,1.8746823796910057
21.226164146192005,-135.5353045239048,-65.7918144425841,34.69816423175608,-49.999627167169045,-23.65574999341268,-22.210939777763922,2.192324277445306
21.82650150704279,-136.9559517451136,-65.6944411214375,35.57580618401809,-50.39946455293324,-23.677424569315992,-22.064461948875998,2.5347965298494866
21.90227342185879,-135.88769353529912,-65.26274391679765,35.53172970176315,-50.069662327685535,-23.384572780121044,-21.70614433406491,2.713700960280567
21.55625655712096,-132.84595148656035,-64.5950414693157,34.74701736603555,-49.143254435346,-22.948431700691128,-21.346009319169248,2.645217719718437
21.163933238641057,-129.06361597787344,-63.68021065071403,33.84588325646753,-47.89885388939607,-22.581981196525955,-21.144571000615564,2.4097525344619157
21.167943354018046,-126.3262099552282,-62.70886692470679,33.606430705476164,-46.822518075866526,-22.48865978762292,-21.193760286242394,2.215276536840088
21.81375162883739,-126.66541258250147,-62.381232139714506,34.56298954167575,-46.642800911080094,-22.829892678938574,-21.543756674136983,2.2904932794079045
22.966122537747907,-131.62329938620482,-63.77804464275762,36.67199975317317,-48.12648509410806,-23.6650351156115,-22.19782541397271,2.7636188753838566
24.0888104319284,-141.0120060657999,-67.64311238503852,39.158585006858225,-51.55130334512218,-24.847489651804686,-23.042296452090163,3.566171630277879
24.381208940427335,-151.83704030773754,-73.54663740633787,40.60460677021327,-56.149402055101014,-25.968446322703354,-23.794330082676993,4.3891779499517165
23.025497567985177,-158.5583254314431,-79.7072542522341,39.32717911884555,-60.05690696998743,-26.484405659842054,-24.08720931334515,4.736453949746635
19.49191010817852,-155.29090176738924,-83.82713292546723,34.03291929588932,-61.060334955400016,-26.039844703364423,-23.694571636831977,4.115659713298597
13.81394920087538,-139.0594426974281,-84.46032044813032,24.537724317641867,-57.815349726964065,-24.78402863799286,-22.728245072514884,2.325166858057709
6.690710626967576,-112.03271095945354,-81.93270002761727,12.140531383701699,-50.7435925517626,-23.392357590768768,-21.612479802642316,-0.32926156876803936
-0.7035659629228854,-80.95685564352344,-78.1090991137893,-0.713647211888462,-41.92892422104572,-22.66867153165981,-20.802880802042456,-3.093525594014375
-7.173699130580657,-53.820283743195425,-75.16675941537808,-11.461519433753034,-34.01346426870437,-22.93918899915345,-20.45469802788585,-5.168938334450245
-12.005581025303655,-35.8618993118424,-74.33072502284739,-18.625388788000325,-28.850054005738432,-23.694869334833246,-20.34106687432322,-6.269051497322402
-15.222249571182164,-27.68824078684031,-75.56980928279732,-22.450935508711336,-26.87852814703754,-23.85103678927414,-20.151942622370395,-6.941141006108378
-17.408617966781904,-26.722388403708223,-78.37776483817751,-24.50541079890408,-27.597853620301763,-22.551140243233647,-19.96032081628717,-8.329921576136504
-19.17336563762148,-30.532420660570004,-82.68760427413535,-26.421178599009338,-30.55144891719412,-19.953737067846898,-20.41785370905519,-11.42316101261978
-20.575231874138385,-39.07156203362249,-88.79717142248568,-28.594647128229926,-35.80890918987083,-17.35301240057636,-22.399126231377956,-16.24508575543429
-20.91911571130102,-53.95803417597432,-96.2402896785917,-29.756071272043126,-43.475882848665805,-16.45228371240462,-26.28493824303945,-21.592251031427615
-19.12135366602207,-75.66816643312565,-102.80769915230047,-27.760707421518404,-52.78169948117244,-18.28082371225375,-31.451730270251655,-25.575642057352415
-14.459890992866917,-101.36822365940759,-105.04603685510797,-21.10125738345509,-61.77104024240824,-22.53695193989226,-36.44220969700858,-26.671488225586383
-7.239181967478672,-125.45458141891234,-100.31517876384154,-10.144014733044676,-68.09935752708564,-27.803064601020072,-39.77395274269243,-24.622878062933804
1.0689007908987382,-142.48108774615932,-89.01108147870725,2.701615680297061,-70.42303396240715,-32.4143734590464,-40.828714911460644,-20.628989556743225
8.322068900024867,-150.19114391258702,-75.18502429253782,13.958268627591805,-69.30127035547739,-35.32110556270021,-40.17546868775105,-16.70871376138278
12.571373096109133,-150.34941288083036,-64.8135350798753,20.588738553312368,-66.84503616797505,-36.375069788493775,-39.07733072968847,-14.613735706377534
12.823611524172701,-146.81002340676872,-62.59747160134622,21.188344598646733,-65.2725363410204,-35.965489441023244,-38.51347491961225,-14.904887830275873
9.324936388098807,-142.3460643809861,-69.23848517133673,16.303059548503295,-65.35598964145072,-34.41719470755347,-38.39752536852431,-16.689133831054175
3.280894246384421,-136.6466127300453,-80.92695837002279,7.8721516134366825,-65.8653088812596,-31.68491259729857,-37.552130339153045,-18.139373780106215
-3.770599472302383,-126.93559204890204,-91.40324659126874,-1.7596960722596695,-64.42636986067866,-27.569655014626626,-34.487826385077675,-17.505456021078757
-10.576724050741957,-110.64129434419628,-95.33080428102481,-10.713701065423244,-59.203947558354066,-22.216969703734577,-28.483609198018833,-14.08555363964043
-16.490084289970387,-88.02113800068949,-90.93299080746102,-17.9929897228161,-50.23317308414363,-16.412550649178637,-20.25453926632338,-8.662522436190526
-21.412022382615827,-62.75972361422251,-80.41331759752904,-23.42290543982113,-39.49102458976031,-11.356547617858258,-11.759683117453074,-3.184720033123192
-25.499484325749783,-40.159795862964735,-68.19902856072378,-27.329434752390362,-29.722613277433116,-8.032678227088946,-5.2666286645867135,0.1486172682295546
-28.880224900444773,-24.37951447992549,-58.43963888805901,-30.212309709841605,-22.92977075368901,-6.641162113491807,-2.2637123172348548,-0.06429011946294208
-31.540875364951283,-16.785065464629607,-53.41265016932582,-32.52979038586978,-19.596653891897603,-6.539940365227264,-2.8687400805309164,-3.766943809775635
-33.361786287630096,-16.337309468198942,-53.3948716281512,-34.541447794467175,-19.01315697101002,-6.732970635570536,-5.987578230240051,-9.473250398453418
-34.15895171158842,-21.0098407186057,-57.19879441707591,-36.14413083883843,-20.078873763222553,-6.488539909418678,-9.946548551260092,-14.925413272858549
-33.66751164832553,-28.42354658315394,-62.307716432531514,-36.79169167746577,-21.659054370427558,-5.578616224844311,-13.093556841170473,-18.031027590347907
-31.55712088806595,-35.09140118653918,-64.599768315588,-35.68495719909358,-22.240854327839045,-4.00544363188177,-14.08799076992501,-17.65178219429479
-27.59940155025139,-35.64965944229809,-58.76061842163948,-32.26248940516957,-19.587669853971807,-1.5737776647197304,-11.995223649975149,-13.941522225757014
-21.952216682003414,-23.964540767551224,-40.23217935165698,-26.723252586768087,-11.259222717265477,2.2018221984594857,-6.444633841278091,-8.155205373306051
-15.347889333041303,3.7058452073889736,-8.002806043068762,-20.18339740829488,3.9845630170030524,7.714750316747349,2.1125145113067725,-2.0645837384172427
-8.973895092506012,45.58386292178204,33.7284186420712,-14.278488432166641,24.892883521240396,14.744383800054635,12.302016728440202,2.748897771403314
-4.038754602321228,93.89518054684872,76.59780734284057,-10.410600860711137,47.692825134684526,22.279878491161362,22.1507545239861,5.434051738872532
-1.255997965993679,137.88543689115647,111.58647846133206,-9.094700631695208,67.58740628438167,28.892129904803923,29.800953817351367,6.047911198750892
-0.5603149674162051,168.6663752029341,132.98857490442953,-9.796986478981358,80.92908540516983,33.4206023367168,34.24732323886697,5.344093304088851
-1.2262129809223536,182.99603766712943,140.53041313794915,-11.335116633201393,86.75095729902748,35.51655382758366,35.666199173297294,4.313924579056211
-2.294796906207296,183.91717020015145,138.61841153783752,-12.552452093870478,86.81903381144303,35.71335119960081,35.16243004508734,3.722469396499792
-3.0266447212526293,178.26931042778432,133.52205236865422,-12.835300994429208,84.35797232867343,35.038559802550594,34.129095212008416,3.85782151147945
-3.127311814286655,172.91933236923657,130.35537159383807,-12.21167633724591,82.36318289376814,34.46606964321621,33.61942822895735,4.569322634466443
-2.693197164470327,171.94647392816253,131.41699992189626,-11.098169245796122,82.46444081270751,34.538845647913625,34.04385277156809,5.497380112941529
-2.0113054388293703,175.94122536994774,136.27499250149597,-9.964092463810985,84.74769535076202,35.303628615846954,35.24140039389639,6.315804124601793
-1.3727745182287985,183.07299191323438,142.9595869363911,-9.121778799292324,88.29990453614133,36.481334208359755,36.7627543863407,6.862511904941115
-0.9631522215004004,190.79113051132393,149.3668422321094,-8.664301728174747,91.97312681623445,37.71167279209479,38.168819634400734,7.150065808565981
-0.8148869842753589,197.21462902586848,154.2837794731894,-8.479976205862402,94.98842740238348,38.7533801028534,39.23325890479087,7.3118187991172015
-0.8148769167078955,201.83245472033366,157.78937800011707,-8.321434432470733,97.22331720157254,39.585167161281,40.01153279502452,7.524350937926565
-0.7827958900557265,205.4696398270305,160.9653703840256,-7.949169169400581,99.14476079663605,40.38036371476701,40.7657906613287,7.917947080342371
-0.5968128117482043,209.58587126218268,165.05431354456684,-7.302127947063369,101.42560894452572,41.359683510813326,41.7722608209528,8.49980875172242
-0.27982731675568495,215.1988527381597,170.5198258885152,-6.563065412949218,104.42968885651602,42.597887255891784,43.11132351034822,9.140934849294654
0.02888441541728115,222.0526863646334,176.62558688514997,-6.03453785178826,107.88876410985009,43.919553230542114,44.58130659484378,9.654635767132941
0.19266188412659935,228.65928391847564,181.86990864683077,-5.906081613835129,111.02790045392541,44.98269062156479,45.8119929307127,9.924309573109
0.18328147825214933,233.30272888353554,185.0337534327767,-6.094460538051692,113.10070778980295,45.519217927560106,46.51704310057435,9.993199730833908
0.09787948688881998,235.3905163476774,186.1928943448788,-6.265920430272643,114.00110495430053,45.58244899097922,46.73062833862722,10.058839357715083
0.10212993742837861,236.26518460077065,187.08719466549994,-6.0008981312144165,114.56007199774783,45.63702521045965,46.88744560921302,10.382319178692894
0.354905078202122,238.91923336197078,190.57205141334552,-5.003804407441082,116.31389496382164,46.40802555863235,47.68493902339925,11.157472928440534
0.9325538654614981,246.62335478696178,199.2222245492401,-3.303968992621472,120.77195851994385,48.51384699722316,49.74570661040017,12.378762788613473
1.7453173276387273,260.9277357483281,213.49398969807882,-1.4038935898674156,128.4163059775201,52.006248523192575,53.17634070174081,13.750455310061652
2.4881516704178526,279.8358610667455,230.27209783903425,-0.2545924650211657,137.86095825920648,56.034698574719236,57.22240596810669,14.711296980756272
2.7237124015945606,297.2415373062849,242.91795475449277,-0.9165035820350949,145.7473596044876,58.90168621709478,60.29238467984698,14.644611416673857
2.1378072714261562,304.63399395579745,243.56811264237146,-3.9481118625025613,147.82709221554987,58.67554124849535,60.53230356090646,13.239411474451908
0.8430452657462446,295.1155431247364,227.1825793581655,-8.860095378191113,141.0946875713434,54.22356683885445,56.82140060290238,10.811342238296609
-0.5079601288072457,268.06822958594,195.327770167596,-14.079885305114503,125.98372339298321,46.15446179885421,49.68306579523977,8.330031487882223
-0.9606407337597377,231.47509864534769,157.08886070388667,-17.600069011363548,107.14483940177338,37.00290255197556,41.46136467745164,7.034265235167477
