FZ,C3,CZ,C4,PZ,PO7,OZ,PO8
0.8527555260159161,58.36715213745437,34.54346424021254,-5.141542293083359,26.98656877548176,11.213076934577279,9.653676137266817,-2.9536285134834417
13.176542138560633,130.57440092097016,99.0566349776187,3.8004266407539937,64.90379804341593,32.08824531386942,29.066815402655944,7.266348741928421
22.892071619820168,183.14830691357014,147.6727851118711,11.79046464115407,92.88755066409398,47.276348131091574,43.69402825388784,15.787635199587044
28.574767313742502,206.19256911054657,172.28072807506544,18.245223028422544,105.91921449621532,53.79504461000522,51.04092072563294,21.63041015951897
30.371650801742753,203.95561666856509,175.68619418549082,22.900197232548322,106.02376926285119,52.63892489289645,51.916608004647316,24.804192915289562
29.419344346006365,191.48468322532906,168.4140256998163,25.396787851013713,100.45467124772433,47.95709655375834,49.63515782059822,26.006135411544264
26.860396428634328,185.71398587023631,161.6936392167115,25.0250217053638,97.22433823566378,44.67663115971349,47.98225981930261,26.03005065441283
23.234605336451736,196.37702853377095,161.32327100977056,21.0388266568614,100.787998091972,45.96854350671657,49.21385176476271,25.32806377547218
18.59487088565108,221.92672365487877,165.97085942578502,13.39512263832934,110.3493099284183,51.949219067180536,53.2117760489875,23.980741043575424
13.061940093807635,252.17660159813758,170.08856943191117,3.295736846634812,121.36973460675767,60.16255369123144,58.086848082131425,21.9823329751188
7.236342788207494,275.18593485055817,168.66855521427547,-7.008646475684698,128.85567088519647,67.30259694750785,61.61797213220799,19.53105621563437
2.107151720446492,283.8338039321112,160.50951756971298,-15.135430709102918,130.20985411294836,71.02865875834961,62.54483362818787,17.0769693708354
-1.436473044736872,278.5258045320261,148.36064504788004,-19.640916729906227,126.1388853551999,70.89224242078471,61.027813183476454,15.120366026845293
-3.0829544965963738,265.3553753931648,136.61869906836472,-20.570161024369675,119.55301402351955,68.09052596880149,58.22587409844703,13.949981025600438
-3.216508837645225,251.73088544338978,128.5680852889222,-19.192316549978433,113.55092497588174,64.46728957700148,55.45697197907093,13.522177041256096
-2.632699735556456,242.4560977193473,124.91883460570398,-17.174071431051885,109.8384088784342,61.485598145909066,53.51835266912707,13.542424202722954
-2.0859850245224454,238.28012103718115,124.15674456143027,-15.746027289072737,108.33888999914764,59.7126958750168,52.490239212677125,13.660191691747178
-1.9602031927154093,237.0146127078044,124.0127930254418,-15.3030251252365,107.87438644114863,58.91982263994471,51.980137195665165,13.641073699926306
-2.2070012324068746,235.87051355200686,122.93322457724675,-15.520453129385016,107.2418723972569,58.542460034590555,51.54107217669909,13.435909273682649
-2.514772234738207,233.43946854297332,120.78289853195602,-15.779155101765115,106.00883234180955,58.1493509664922,50.99254168237867,13.145385881076418
-2.5813114294183412,230.39986090128272,118.60843055943315,-15.628276732007086,104.68085873622779,57.676919498692534,50.49406155945564,12.918088743638332
-2.359960442899614,228.79388123941908,117.69659033625577,-15.09029119247237,104.2309010411727,57.3513017070741,50.35523571935336,12.828189704217783
-2.162620447989896,230.26642431775375,118.39033462703247,-14.684425195835946,105.22686528766107,57.367951792780644,50.68494617198656,12.789420416223939
-2.5291963902604166,234.1294866259954,119.3071036281502,-15.114598710698154,107.01182325787839,57.5277152433439,51.088662617778056,12.566978378177163
-3.870497629282615,236.48772518736996,117.6054040255475,-16.723362665121755,107.51005461187165,57.098585929627475,50.65625421895164,11.908323720593883
-6.059107951145982,231.4344457132206,110.47452461811305,-19.022166020556796,104.02144248284169,55.085404243561946,48.35141197840258,10.726645595266241
-8.255630280238563,214.16774969765206,97.15402283101363,-20.67371730139915,94.76124658996547,50.82283545380086,43.63800903203351,9.206531879894127
-9.175410724076222,184.35766117145207,80.15154913415249,-20.074198845579062,80.25811401719399,44.52224239305384,36.94704680376861,7.73496925682281
-7.730203165681211,147.46022527600482,64.5814461483157,-16.270403695807715,63.59773729777062,37.34920743351301,29.616545251122844,6.685019632732164
-3.699581556996503,112.70290009734097,55.69988412745176,-9.65799109764548,49.131003075685285,30.887374068938605,23.26063710190726,6.199123896634214
1.9923282793038046,88.63286978290118,56.00972228590079,-1.9811614958079409,40.29270691842231,26.28605716846268,18.93345030021649,6.132129948887207
7.619125038984775,78.89675048449752,63.786253039849214,4.434132761710436,37.86811367409043,23.661511805550667,16.637363512413994,6.198429885841881
11.46419405880276,80.90820412384184,74.06805712362453,7.795409296615932,39.829725553735194,22.181488150754518,15.508048823063369,6.204742505504509
12.642103002868986,88.10637130981675,81.5057762169049,7.657311749333931,42.80666911495567,20.768802533622015,14.516454134324189,6.17475433788405
11.447908613532391,94.01757479321334,83.16052019774438,4.982622806689772,44.108385438706826,18.885072591226244,13.143553187269083,6.263120814042374
9.06202639079651,95.29894581874201,79.48412124506069,1.497690334780674,42.93082000026119,16.811084379163713,11.545593699582643,6.54746702594558
6.853106942872631,92.16905094622446,73.2108546864869,-1.191689611997907,40.1618521947031,15.279525527777823,10.187655347345993,6.901781232490382
5.72408375291961,86.84867910754393,67.39133012161437,-2.223487768837246,37.31409824446846,14.83839115475809,9.350880469034243,7.0739438482990735
5.819206953022716,81.75983196007418,64.00257468594198,-1.6373705100854021,35.54282837780582,15.460423372434866,8.928922968120432,6.888814618235432
6.627425160142721,78.55393679433352,63.585166733533505,-0.16331468561019363,35.247915309018275,16.607968262146933,8.583403678563466,6.383312803733578
7.33077510147664,77.79975240056488,65.4516845613852,1.1823032577235912,36.11432193950181,17.582977006437105,8.027421832176998,5.76835602689863
7.223802358534506,78.84423772218874,68.0303396902017,1.5704095483028495,37.30232115224046,17.883060454444827,7.211502477417112,5.295445718182266
6.060882972293651,79.93722293659293,69.40352462970343,0.7735340357587499,37.75775502376236,17.415626421512503,6.366558559167791,5.175511051515976
4.195474540150908,78.99331214816293,68.15377897382317,-0.6767729347845535,36.704018527423315,16.537820681082113,5.944135037531867,5.592923376141498
2.4195352646237507,74.7934917957385,64.15631157439958,-1.7364025697208567,34.122319807885255,15.89363500117363,6.447496673520502,6.7212800476919385
1.5559297869733626,67.80248910247477,58.72515033394508,-1.411159088872326,30.845966761985697,16.053394009835998,8.149716988560511,8.64024678366082
2.018378834979326,60.022529895247246,53.970780649609054,0.6788497474368734,28.14255877800078,17.116793524603594,10.824714256335218,11.171182205175587
3.5782922770614825,54.12985291647375,51.832943439717994,4.041035626402815,27.081430831656643,18.55959528049775,13.70555676118183,13.758624911170276
5.439376736975013,52.48116201398551,53.28818252538925,7.4577699285847565,28.070051652240554,19.4747658074455,15.75628327177962,15.525505981834756
6.556639998672755,56.14124401949363,57.809563630632596,9.451398609425326,30.641831437394615,19.042009275870388,16.08994853708914,15.540832147921297
6.069836954776733,63.770315330765015,63.02222910693909,8.924248362940089,33.36185358004727,16.871186608880837,14.25834837100716,13.228649623846067
3.7236611824533736,70.7622918442693,64.88907284148856,5.798142214303631,33.89862617500788,13.011513333059337,10.293220008919798,8.753935478155247
0.1255446201194852,69.79306493390608,58.97157775430629,1.369749033210137,29.57322546347544,7.74330259359268,4.608198842019876,3.1697654204726025
-3.3353376596631996,53.57324638197713,42.660973922526075,-1.9476578710684582,18.514280587851445,1.4289924496573256,-2.0802005034907847,-1.8401370373194128
-4.993228938785894,18.88862620844769,17.180536147400883,-1.5876953019854954,0.9322086742272809,-5.4474855016780275,-8.803874330768181,-4.597687560101999
-3.673352896588119,-30.55681173868178,-12.184501098923743,3.886154891729405,-20.38627817627267,-12.183984331694804,-14.488923408656325,-4.1683196383846735
0.6768420388630659,-84.73080424290377,-38.17309829870272,13.906871092876848,-40.93518258825502,-17.923674553986395,-18.25992028393063,-0.801392924736741
6.886547399645401,-131.40679208424154,-54.88413433996315,26.023704967616993,-56.3821267127857,-21.939799651737165,-19.785450015067816,4.190051753373113
13.088058160363419,-161.5787137710168,-60.39505872098255,37.009188121060205,-64.445044090237,-23.97590473434651,-19.4411312872712,9.051875178145604
17.582015015645496,-173.05589798188913,-57.17942527254359,44.3303158907093,-65.6826375659009,-24.389385726310792,-18.145038377358066,12.368458469215234
19.552965336623338,-170.37493653360755,-50.280812769651796,47.15637994971451,-62.82374275792434,-23.97055662253982,-16.92771862971577,13.588679808956995
19.265020983737056,-161.52301887696572,-44.55189237097362,46.408039074932354,-59.16518411406173,-23.54399679735131,-16.480220877881795,13.068085872622696
17.708875480528725,-153.77314458882393,-42.62943713860742,43.96877060187728,-57.05582436819465,-23.61334976041991,-16.938882574064074,11.69080094298364
15.994233962399193,-151.00576525457097,-44.543185883822815,41.64655778208062,-57.24859335846128,-24.255191719165417,-17.993953773469205,10.35104061210912
14.86849740573673,-153.43021530671922,-48.65584229077505,40.48923969472725,-59.19749156280944,-25.258579995845686,-19.186082355242604,9.5880462838974
14.565213240063994,-158.9742322639251,-52.96504261109505,40.68125924606511,-61.80542448394334,-26.342703087519816,-20.16674316721116,9.503314259132374
14.924781409870642,-165.01317913558486,-56.01633998638456,41.83650714017,-64.08195572560341,-27.300348879645373,-20.799267335811248,9.892773037575797
15.601904651249614,-169.5991643768499,-57.280301643981815,43.36429897197472,-65.49367519384393,-28.043522363111475,-21.133638454309548,10.441311401136511
16.23057207117182,-172.030014108855,-57.15655342036348,44.723136162930075,-66.05214619911791,-28.603709485157893,-21.340917221787194,10.871643572300767
16.530264174254228,-172.82362716236466,-56.68088253507731,45.553761244480384,-66.19835801908899,-29.10612640297373,-21.635595659731802,11.022650765758172
16.375556215530274,-173.14524138992255,-56.948466719263216,45.73100495855361,-66.49887491910395,-29.694011961838225,-22.171076155005792,10.870909875795052
15.8219073476904,-173.9399389493494,-58.47231427316721,45.34445316433219,-67.26919631509729,-30.41901116284415,-22.937027626897148,10.506532686236596
15.07234777287101,-175.34467426486853,-60.88856571391098,44.630887841629246,-68.37618017349492,-31.185807500678006,-23.74278068386527,10.078277866675766
14.407524452509989,-176.84987523754458,-63.23209697054269,43.92354325449552,-69.3918809216412,-31.82282107754632,-24.331949981702845,9.740330024098553
14.117618474465527,-178.0358529834941,-64.5585383507402,43.64557460751749,-69.97732458809087,-32.23502849758874,-24.560468331128718,9.626080427308978
14.42957709974993,-179.15545755519145,-64.47006701742444,44.2577551869575,-70.17173992064099,-32.507756678960114,-24.510048230438752,9.832231996384296
15.385970878664827,-181.00231119842041,-63.313771131361136,46.03426310279032,-70.3750997542706,-32.87398082174401,-24.466942962814116,10.371335821025328
16.68986859142187,-184.20193419827174,-62.117257251683185,48.70049668447447,-71.09014566718824,-33.57578113376513,-24.793363212029604,11.091650418405886
17.645606633842124,-188.50980697589225,-62.31839970184914,51.19759708911595,-72.61512230029524,-34.70797932036198,-25.749216292223178,11.637466152713316
17.34841625926372,-192.510056305435,-65.16752171805926,51.87574679452772,-74.781276752497,-36.094166140072424,-27.295937228483233,11.538950810934416
15.122501839958696,-193.705450429649,-70.79345314477165,49.16010955170142,-76.74767203544204,-37.20862858810283,-28.92911175229734,10.435267024132008
10.983321473378956,-188.92992121168632,-77.40923994890106,42.372730386449334,-76.96695851457616,-37.19277144942967,-29.660427814277472,8.314485976825491
5.810570828784696,-175.20234670620826,-81.44171075331343,32.229561496905184,-73.54465885330356,-35.0516308939712,-28.284081090092663,5.609560682194657
1.064164910906486,-151.03595527674554,-78.95215797864098,20.690930941488254,-65.0493686216656,-30.04202699015445,-23.914584990303204,3.0651966398925814
-1.839292536925963,-117.70485821357012,-67.74916202092471,10.20970300660312,-51.43016209460902,-22.099961366980395,-16.54979459388765,1.4289187312989877
-2.1497858259588742,-79.60238185113492,-48.893796248710686,2.7617809728968714,-34.44277160379303,-12.059492410354974,-7.305666984921375,1.1240095824026444
-0.06393990039238893,-43.13541796138792,-26.52571557061809,-0.8457389856851019,-17.184237486602633,-1.5023220284304513,1.8844613970510862,2.0698374665456316
3.459344134568119,-14.469172069429934,-6.00595183254971,-1.0827186911243696,-2.891728020523574,7.709556206399682,8.997582067705387,3.7308464829773333
7.182316602321213,2.7365362149690036,8.482203335674528,0.7335157162735567,6.324062451104945,13.98655054051854,12.70086533218447,5.360129606405733
10.071961668936027,8.296080699287643,15.389841620016496,3.10799655706728,10.063780614413696,16.399332695893122,12.780016306604391,6.326739731312951
11.583452375525141,4.664131926642078,15.624895380045471,4.969380784771579,9.280522152728574,14.805903078265136,10.051376055110877,6.398794811208281
11.72935413474118,-4.858737325358143,11.351316087276963,6.009332830818108,5.439486047511109,9.821090250664042,5.925976502076884,5.868103500531213
10.993583769906493,-17.278526193877497,4.995108627309502,6.645125450377087,-0.016560395521763416,2.7772211039497754,1.9476254462796811,5.430816897115899
10.095130358311298,-29.57349738568343,-0.9676166372375945,7.561458974697167,-5.556023771773072,-4.3519154459484435,-0.518140708837705,5.815249120735198
9.59810413467787,-37.757958908154784,-4.025291202184698,8.9889073964466,-9.272411642758081,-9.287189961727316,-0.5217443389843609,7.293670037014054
9.50473059057718,-37.131589412619434,-2.3280576828106816,10.15316930857844,-9.187007816040829,-10.17899622422466,2.1776276869476474,9.355157669051989
9.114523424291415,-24.432259339890585,4.00971463308271,9.381006203033586,-4.2885553769052605,-6.491788096336476,6.853582600917697,10.805824324810516
7.353724646265099,-0.5134904573388503,12.185187273790842,4.972062753060126,4.456643252084778,0.5375788345505242,11.883235644574615,10.33252776362643
3.4542039520622754,28.818415299827926,17.65882565526368,-3.6439558298499812,14.125305504032074,8.31503723274895,15.32884741893752,7.243227198600569
-2.446610675439077,54.98672415742441,16.55043633748311,-15.25142870859314,21.151297405363994,14.063764481355374,15.821848449548401,1.9312397970172186
-9.213270346000112,70.72209088004394,7.942048941336251,-27.20279944086097,23.160440418523606,16.1014445278638,13.235427406455074,-4.243658590811997
-15.221452040285014,73.47557604643804,-5.517892169271509,-36.61826179584698,20.129953538653695,14.485289518248536,8.712499439457364,-9.596848261401398
-19.152451175719555,66.10251590182693,-19.116926736800565,-41.70690259704612,14.16796937674311,10.715285662740762,4.029634979338669,-12.898301411962658
-20.580045648851982,54.651704487216506,-28.640305812102106,-42.43688521747705,8.166472179192873,6.774733869893622,0.6992032524705449,-13.847495807066752
-20.028143785560292,44.93134733869427,-32.327553745068386,-40.2487040982201,4.27451448991567,4.132031577546671,-0.6598627617830426,-13.028645181120089
-18.54719441873565,40.02201944332064,-31.156673935543182,-37.122012339085934,3.106515269624447,3.239335769413316,-0.3807603374799567,-11.461856786485015
-17.141615990117714,39.8648003590418,-27.6481873552265,-34.6299807575421,3.9512600920901404,3.6619360549505724,0.6716835536701702,-10.06977548964795
-16.389308986172075,42.46923674867158,-24.27873462289624,-33.465192486594674,5.551793158292827,4.5766422210791475,1.6455041039117075,-9.345937771655981
-16.377574429160767,45.47370840716724,-22.50341267332662,-33.503934285345245,6.822915626565236,5.257150812789421,2.0465132035341043,-9.315929438159639
-16.857348222654696,47.16180789799731,-22.617076706428985,-34.1638679157901,7.186624825861376,5.326204440231409,1.7947287064467712,-9.700200459958147
-17.45531536312954,46.84686573109911,-24.080238665336783,-34.78661244257818,6.596898951662736,4.779411980069703,1.1016678339501158,-10.132312934827112
-17.852564694521817,44.876351677087165,-25.939769556701062,-34.9176089628529,5.42221521157043,3.8787959002216637,0.302140367446784,-10.33448317959861
-17.903360441948564,42.32613154198937,-27.263507974255354,-34.44937945096446,4.231250818940237,2.984370817162132,-0.3025895972000591,-10.211282935579304
-17.669582719597386,40.36776457719232,-27.563949153309856,-33.60031849926092,3.4919824413363996,2.3692880483510828,-0.5693104298512132,-9.84880990580883
-17.348494777158866,39.583505103490396,-27.006187773776748,-32.73236195818169,3.3220611105953437,2.0948942361511644,-0.5585006573868448,-9.428725537622554
-17.130626020941463,39.72473529368824,-26.198602442092618,-32.11269817433252,3.4820975941531143,2.022581903812929,-0.4625121999772066,-9.10762685453845
-17.088169629128128,40.09120399087513,-25.7047282468938,-31.78367703624208,3.61829843112946,1.948459800077489,-0.4614446862597795,-8.938101069198789
-17.170605987796467,40.123075927315035,-25.700431836993992,-31.614470626930657,3.5224896014759928,1.743940186962505,-0.6209007597855251,-8.87449148984036
-17.282272053250924,39.6552914858769,-26.0310438982759,-31.444319695828153,3.1883494625746014,1.3953662342328677,-0.9009960389296298,-8.834868864833734
-17.35054595185941,38.76174266132738,-26.47783230430474,-31.172756508383756,2.697250693623719,0.9530176047272344,-1.2293510257143625,-8.754401563923576
-17.336178989846918,37.58630241284737,-26.877200405375195,-30.758349446165905,2.139624523243888,0.48232982646830996,-1.542597057307592,-8.599116316993733
-17.222975063930072,36.419570107788125,-27.037140951080296,-30.20445571160721,1.656076560297925,0.06378214457445709,-1.7744134876359208,-8.363067419254728
-17.03622632827826,35.777827976853864,-26.725503338430492,-29.58763242733232,1.4565321807674494,-0.2092698016329118,-1.8561480315402608,-8.076891281105032
-16.868886806037434,36.12246689393919,-25.896305020397,-29.07141967394105,1.6765642237823302,-0.2912606997701487,-1.7754646408389856,-7.813921557281284
-16.849883060585924,37.33833061783895,-24.92087633003521,-28.821690206269626,2.1715184255377613,-0.2634655705787775,-1.6378854836723173,-7.659083150766922
-17.044940431187655,38.53470561777495,-24.46530227641049,-28.855365265384727,2.501620331823271,-0.32877068539486165,-1.6376945498487,-7.643582704611021
-17.37178216051572,38.513227832469376,-25.01406590863833,-28.96514311286698,2.1988031516146265,-0.6879334993662678,-1.9305339893429123,-7.69929563496583
-17.618856477476367,36.590963471056185,-26.444225897853073,-28.81635628977827,1.1147428171307177,-1.3865561022153565,-2.507396095951306,-7.6822370673472795
-17.565440835781203,33.15210649723377,-28.00789719005597,-28.15535497348614,-0.42208413460390753,-2.252827077523046,-3.1693849425402734,-7.455314495236512
-17.118403854254378,29.621568496825347,-28.683012504586518,-26.983099925143495,-1.7147116573855414,-2.959731479753666,-3.6084055162712403,-6.974435534621211
-16.390330244059435,27.988162737226084,-27.624794635112256,-25.606728101911607,-1.963958073349767,-3.161079264556448,-3.5363068200741465,-6.332706478513731
-15.700815941290136,30.026572652975897,-24.59302779530825,-24.571137331532768,-0.6155232622208537,-2.655559678477616,-2.829032648804869,-5.752188427967963
-15.496430579564331,36.209479344825105,-20.36830586727199,-24.47503602374415,2.2143113772208802,-1.5635822086731102,-1.6764645391721005,-5.519807142237627
-16.161858511147692,44.5616936750824,-16.958606446943683,-25.651450370846046,5.369834311343294,-0.45433209819234666,-0.6687548274819279,-5.85489746529945
-17.733229579766,50.32079806889948,-17.118981809468668,-27.783237370965743,6.718079655060965,-0.27450433821122344,-0.6776459877638507,-6.728653459667845
-19.65386030075815,47.351665878590964,-22.962605791605522,-29.70623599328252,3.9544725439312263,-1.9687818490861326,-2.462460144632812,-7.7366956667366225
-20.80365340472833,31.214689683292864,-34.27284481736194,-29.69748168136544,-4.064104825510016,-5.90830521179804,-6.161543322046202,-8.16829904851784
-19.92850672616465,2.267349880171013,-47.75981088666471,-26.284469673930644,-16.266235882278334,-11.482654452618274,-11.01973348482288,-7.3297151198684976
-16.313691797438427,-33.37995422364579,-58.14740872002998,-19.18618117587801,-29.43990257312802,-17.204234600210484,-15.627099886571033,-4.991466206206673
-10.3045595764977,-66.09131464706167,-60.737122238721604,-9.771521607513,-39.602586622569575,-21.3606920826873,-18.607969795444863,-1.68476216445197
-3.3016435369490407,-87.0646110124037,-53.94882477803945,-0.6357309729997894,-43.930380812299475,-22.857714453974463,-19.354923480478753,1.394722159221732
2.836332375670842,-92.31489341079079,-40.22839741486989,5.563993757539808,-42.08160527278383,-21.737500721869846,-18.33056924024448,2.900590320816806
6.66473333964174,-84.03661080046606,-24.75567092686931,7.382519969111773,-36.13854210175227,-19.068901374544172,-16.735010257889613,2.0223294736706143
7.796339451416928,-68.86707798356807,-12.828315317199236,5.249903550729212,-29.314505438824582,-16.325010258296814,-15.767628165225137,-1.0415790123336512
6.960571515371271,-54.49964946288503,-7.571071290390995,1.1831081623972937,-24.34151578507083,-14.671336731828474,-15.975839822649192,-5.11126613867095
5.506063977833708,-46.71840488394466,-9.146753849656259,-2.21577182359499,-22.483327455836537,-14.555111547296057,-17.072574105999756,-8.544749590345019
4.70591266274325,-47.932591000267465,-15.37597467704875,-2.875375277072267,-23.447106580592177,-15.677502622246942,-18.21589308392366,-9.943068864893664
5.266279322536959,-56.86959087487007,-22.777038377160586,0.03720108590884552,-25.768713990034797,-17.15469879171482,-18.42553111875178,-8.652752941063804
7.204585333410248,-68.73088050923374,-27.2863353656878,5.977053936409661,-27.18103874624166,-17.68814261781005,-16.839381768488565,-4.859200133182284
9.997526907792851,-75.95121630114585,-24.850736909903148,13.314420548751983,-24.978669614676193,-15.795395576395585,-12.808296098068125,0.6527394952922497
12.821905430619646,-70.33524188840825,-12.502568547390494,19.877991392446773,-16.749692720075753,-10.266626608052135,-6.03362988075273,6.8401397185827975
14.809136005802253,-46.56772554899969,10.123990342065097,23.645306653479928,-1.5284144340592263,-0.8017409772999592,3.168576861036481,12.67308939190714
15.321203065919327,-5.440411284942653,39.863865805268425,23.46016520927825,19.266270115998733,11.554293073961475,13.688130328540668,17.318669218958888
14.212370710971431,45.577131159323564,70.8219497094598,19.52436214807701,41.98803533587102,24.618359017958248,23.837799296526246,20.29559454670391
11.940415930256364,95.4483449870068,96.92600669591147,13.361135158513633,62.272911515993854,35.9727011831238,32.013653201678956,21.59593370184129
9.390369830840832,134.79114220210522,114.77657000178593,7.148328304836848,77.09974147072806,44.06900773898738,37.43148098220931,21.679750363336666
7.430529467623392,159.8714645988274,124.81117542265673,2.6982360360405373,86.01105385941231,48.79595747570174,40.40075011154873,21.265153631800214
6.433133403304373,172.66886610658102,129.83413141239416,0.6464201415798619,90.57214124641649,51.089586961544484,41.86921139415715,20.973867245205284
6.081147494842114,177.10812081019566,131.92113468603768,0.34870387507861766,92.42522062907825,51.849611372764485,42.51480250487346,21.026338854398688
5.633392988010337,174.47146826661785,130.08084389114376,0.5502465667315637,91.4293559621378,50.97287380770241,42.05352321648354,21.173279937097664
4.501359413558205,161.70634669519524,120.62260135287197,0.36070283574482576,85.40953872916236,47.28026906070526,39.32806152691103,20.892357341969568
2.741987380188315,134.10656153955273,100.13808788374583,-0.14649381210933002,71.8442677935704,39.47151765071242,33.180616606316185,19.702126650131223
1.1106572910245436,90.36591074592931,68.94700290200528,-0.1000772424159803,50.30449653385689,27.4546162892691,23.51690707047861,17.39598916288472
0.6326889206390389,36.0593236747421,32.429099281616324,1.4245417584152,23.823152246952183,13.065514567760541,11.800309382703588,14.097030358330066
1.9911086387778196,-17.294896505222752,-0.8386233268213583,4.668694733527188,-1.89112471442295,-0.42015738103402617,0.5983873030717494,10.173499986597163
5.13498671534764,-57.24103450032708,-23.002833444957442,8.983487596318058,-20.974117641073697,-9.757541843127905,-7.557004673886084,6.120119898803372
9.329467422487912,-76.2772814872097,-30.4638802209731,13.241709691937752,-30.08415343900679,-13.291681744191362,-11.300964013805917,2.474501973449486
13.555530808047703,-74.98205038827746,-24.996623372112857,16.509564218283916,-29.64832792620027,-11.663829830262745,-10.917298019369083,-0.2444775297398171
16.959105386208122,-60.767618254665784,-12.16235408827663,18.478478594551152,-23.129164794890283,-7.301111129625371,-7.991218298580517,-1.6355462338181086
19.083589477032877,-43.54432967041367,1.6221058947666163,19.401945168902525,-15.030501919729067,-3.0914758429187734,-4.556965068290471,-1.5686139897411058
19.838509818763917,-31.18944908892132,11.551761796475947,19.69245225411396,-8.938282269586637,-1.062759254940571,-2.259244334767985,-0.312587275760095
19.354591355967152,-27.128031382771145,15.477290760754991,19.560954088773816,-6.508935672395895,-1.7246642638736884,-1.8752217868021122,1.491550388033514
17.889513350231997,-30.4670722944432,13.709511852976277,18.957804056086772,-7.498154249465951,-4.215310598963905,-3.2411794832614502,3.063415920939564
15.812854015264403,-37.68044170745879,8.239619237990548,17.766714733697523,-10.39779811932068,-6.950730172852598,-5.459142949552087,3.818585243429962
13.58655442571255,-44.64708379591943,1.7936446614574542,16.022957054310268,-13.255256273703019,-8.367845449838494,-7.271344182255222,3.6120002064140566
11.679215511175332,-48.35105103912426,-3.138852811185586,13.996049538889814,-14.455707536278295,-7.500880988780069,-7.536990940814333,2.748388407348503
10.4472151007124,-47.879174568746706,-5.0898329872668455,12.140603744179161,-13.300785776822845,-4.2950627146480445,-5.705319764097487,1.765594993348845
10.05207921975917,-44.41046400329187,-3.8839709003009206,10.978216846904871,-10.17558449468694,0.37878301160398586,-2.1022644371086185,1.1209698938380952
10.432655240916468,-40.19338739662533,-0.32067945525516894,10.92692563101713,-6.226212201362199,5.015936645321027,2.1293056138867015,0.9462419621819586
11.306058357746197,-37.137129022381465,4.367390221119108,12.089000010969324,-2.7690771280120634,7.99869479804024,5.4427094540850325,0.9917443155373531
12.203492362091787,-35.95561321866292,8.840560675412867,14.095664326176943,-0.8034160773962961,8.171157372482716,6.490684272688654,0.7883418216070347
12.59577988421909,-36.30715082023217,11.74172077278053,16.161144203095432,-0.8163281480020089,5.268552809304704,4.681113044040813,-0.05837870627454287
12.122684909723054,-37.515766762466164,11.893121792232884,17.394915855130417,-2.784359461471955,0.0553300901642429,0.47007363155740584,-1.6130556854257327
10.820854332526777,-39.14330038271422,8.765198449751429,17.23105708643627,-6.224123345264863,-5.896319793164798,-4.748010952691838,-3.550134681045566
9.184867042266974,-41.11917478184939,2.9034936620390805,15.744234903614979,-10.308836507920411,-10.75736134124405,-9.157736908466648,-5.30764187798396
7.986167085027683,-43.629792613116464,-4.115037571512706,13.699028729463581,-14.12504280594862,-13.143204685592478,-11.251264540589766,-6.32529531700057
7.9363014742749645,-46.91171217387217,-10.200609448105427,12.30670673195356,-16.960273197190983,-12.647298816445375,-10.414667662567794,-6.219847306586221
9.358816217086032,-50.78885732162781,-13.344817224787096,12.733355875008161,-18.367769726680695,-9.912329212077218,-7.069348512060758,-4.872585002681635
11.986310326032594,-53.96028285845942,-12.032023428268676,15.464168115872855,-17.949792175211428,-6.197393070102641,-2.34149241001833,-2.506433861808629
14.92624131260311,-53.670066274235396,-5.644092348136167,19.76606956443452,-15.180253399704705,-2.7249542118068155,2.4717464489865897,0.22122547468686754
16.82683299969288,-46.59042968001556,4.932671307342907,23.61818088576012,-9.661605536392845,-0.2182912638039261,6.302446917422392,2.2272262144929664
16.273955813243063,-30.906751561006466,16.824852814346766,24.372738032300283,-1.77718007232436,1.1459207058228087,8.440061467826808,2.271878339241578
12.359490841553747,-8.314742949596797,25.571832360366088,19.991724599054113,6.836438212449592,1.476453449798683,8.504232154285347,-0.5149586831506513
5.195427902190513,15.765637820081457,26.786267526734978,10.232554677202591,13.6135113250107,0.8966733452096067,6.451677492346729,-6.106816822561324
-3.9386560161283266,34.38982855819386,18.418985413551578,-2.96296513976655,16.215229195046426,-0.5147190591208841,2.664510979717844,-13.412405010247124
-12.995695692187194,42.56618792004386,2.211086501702817,-16.212933571838125,13.838090785119428,-2.588087321058978,-2.0123550497080616,-20.651104296298687
-19.97910620022845,39.8210763879975,-16.805453292090522,-26.21559394743694,7.764707544529204,-4.932634528333577,-6.446869184182178,-26.111580666904466
-23.765819001315528,30.173034595882307,-32.678281934757656,-31.19130011835622,0.7145415987541309,-6.998413719820488,-9.617540348802278,-28.87451888614168
-24.483244052367972,19.5942318535574,-41.4016820708301,-31.447826341237526,-4.614571317319916,-8.327797362372444,-11.034104721447973,-29.100561910457568
-23.251918260769756,12.7537529408188,-42.52266561185599,-28.847546489020203,-6.851694694200298,-8.798069520272085,-10.905385346130101,-27.765806371987537
-21.500236431699893,11.16645377615276,-38.621939837197424,-25.640686170749266,-6.299501446141115,-8.646575839917919,-9.930664176078306,-26.066059503895044
-20.29470088949068,13.561421813822987,-33.31768284130912,-23.427463459174984,-4.285845245704568,-8.266338693352617,-8.86742106725153,-24.86960094711312
-20.0360479973142,17.552788232901218,-29.32586676913299,-22.749986947940197,-2.189172452408371,-7.963446980780857,-8.182246028238081,-24.48541445062079
-20.558125076477793,21.09950393662598,-27.68201964594784,-23.289864921541533,-0.8425220253389873,-7.864359653098211,-7.977106824832561,-24.75631437685518
-21.420036330838876,23.058047502066554,-28.069077903827313,-24.324002158456768,-0.4792239033159843,-7.975031773256936,-8.12799292412482,-25.30522631167577
-22.176247410331353,23.17420311077593,-29.50198735570111,-25.141444566678533,-0.9170038689713422,-8.254564374330752,-8.442391706573725,-25.764414742338857
-22.550029732584544,21.99364713746544,-30.864250361893205,-25.326271570649567,-1.7163768709178966,-8.621158393282384,-8.732971763407129,-25.9192672309065
-22.520373065109936,20.626418383052144,-31.32644396269465,-24.891695036875337,-2.3468775547382985,-8.946949184883389,-8.852689983895614,-25.762999670038496
-22.307170779441023,20.129053255950517,-30.723319352797827,-24.213922693863804,-2.4523869311730264,-9.118778896420302,-8.74880728123732,-25.458456295393933
-22.226136525822255,20.79006517804121,-29.634171784262307,-23.75587642455198,-2.07232946193788,-9.127022240921107,-8.495253045935666,-25.213844341481
-22.470684806067734,21.993437554328143,-28.91227313557869,-23.736432863913812,-1.5684423012572377,-9.073267361966936,-8.233490096698711,-25.138137791295833
-22.972770501317612,22.863263459448568,-28.942150835783245,-23.99241067288534,-1.2747736112905026,-9.07468755561791,-8.05522014891523,-25.179959777457764
-23.455360209885292,23.045930329978425,-29.305175990560873,-24.13618995719281,-1.217556292026656,-9.173354872915343,-7.950301176100113,-25.196139897745862
-23.630753507649676,22.855669009502332,-29.191576001126354,-23.858461853060053,-1.1863523458593535,-9.348585728209386,-7.87560337707118,-25.083656150512855
-23.39060639921264,22.788278706675772,-28.143727062531173,-23.136357504515935,-1.0282325085885735,-9.588480616244254,-7.848100514417049,-24.861211794521353
-22.8801731413725,23.090689446282134,-26.438603400928248,-22.250303232451074,-0.7992704869305602,-9.899153552458309,-7.931198329398049,-24.651263497881203
-22.460558718135857,23.807545689946284,-24.89339367232279,-21.675295876331067,-0.6360217665652623,-10.229075844100645,-8.12237845149874,-24.604241249173178
-22.59129471493509,24.962937146607825,-24.434354977940004,-21.904287852568796,-0.5787291213560711,-10.428207602113758,-8.285973395488115,-24.82184495587624
-23.618858799836868,26.387510126678087,-25.73146858438854,-23.17647045527398,-0.5919558638205786,-10.345123172047176,-8.230665993491826,-25.289871652136885
-25.479111266465377,27.375006864545078,-28.81068750086476,-25.143775812019197,-0.6999510294647414,-9.997430046370152,-7.865771884787648,-25.819747897008256
-27.46298945459438,26.841431475978144,-32.56363623976571,-26.70898243096789,-0.9755831011849414,-9.64494501882957,-7.294857457151093,-26.04960821003537
-28.29313497583611,24.150044211316676,-34.58818332461714,-26.32540710948955,-1.3649893940503237,-9.687157863264813,-6.798159281387524,-25.576975284837545
-26.624004023015548,19.825449635008287,-32.012398204005855,-22.76380342003568,-1.6487858082392137,-10.476078392534129,-6.766740614037782,-24.201610993540825
-21.754883628051953,15.270207459768773,-23.253060260409736,-15.921887191306995,-1.7404732496538566,-12.174339360641586,-7.625943466770679,-22.1138649057512
-14.11417162258477,11.592273155804111,-9.576602580347487,-7.096567854749247,-2.0638715199052684,-14.679589283368541,-9.687040398849275,-19.835975870254508
-5.166901279288074,8.636459872786515,4.921638268655137,1.547816804954172,-3.512240316245599,-17.560324487784396,-12.883795917873165,-17.88532365298045
3.2344223481632612,5.170607780293905,15.256385759804807,8.034903833698415,-6.827884277806511,-20.01897466008264,-16.519290409095447,-16.362360033966443
9.67126895336238,0.09253028682184512,18.26185603418205,11.517033598106472,-11.829203120342447,-21.005236184002186,-19.274386872599948,-14.770624497934238
13.670425892029701,-6.3816063461789,14.294494813353493,12.542693011981138,-17.144216318057843,-19.57023314701631,-19.62930651702597,-12.251376901078409
15.649493576395342,-12.546112676136381,6.857750485313025,12.535381491887652,-20.76363858607732,-15.367684810780013,-16.57148088629097,-8.138788659354983
16.422312108999012,-16.22175723402923,0.5000629839041124,12.866473222935072,-21.114586479287816,-9.027901294077875,-10.222706038697561,-2.502965991558974
16.651058817047186,-16.205970141195987,-1.5904923902129662,14.120309795967884,-17.959251484627618,-2.1142261927772887,-1.9951575381364248,3.6825324950753227
16.59318674107479,-13.06832868921567,1.1447024518355227,15.951906275133066,-12.522835002708982,3.4326366151492156,5.8892343117216255,8.899225019658859
16.215121571373555,-8.723090423341294,7.000020001496477,17.506101111994436,-6.781268257944718,6.140016209611247,11.321813540963477,11.796385364286499
15.474445818126796,-5.183821744597692,13.394049146533298,18.037736283681447,-2.4080500565781775,5.683227561848032,13.199830436394308,11.868411250504378
14.509233467099689,-3.485501618157043,18.226435358395182,17.344102718940917,-0.05645136980189714,2.9954051450185304,11.817321701424591,9.729341902635147
13.612390112227564,-3.4539626165885453,20.539490030778225,15.822570545042316,0.6729857085591614,-0.2575185830964365,8.578731244962501,6.840689093362591
13.052653632994101,-4.20162928723175,20.493518693004603,14.198731822006792,0.7374816297754044,-2.5093775208514026,5.244816118213964,4.82514980177983
12.895054414760233,-4.757627492679105,18.99611487679274,13.111514233066217,1.0500571636210465,-2.9506984643657828,3.1416123539540664,4.69632697681889
12.948522872977026,-4.4340461062537795,17.235728664227587,12.783076204390602,2.0909457321827754,-1.6948745334922408,2.7180351048250424,6.388134562378519
12.876805344315741,-2.9591580404439437,16.219324586675334,12.950765953048249,3.813906919193335,0.5311355998203271,3.602846607118683,8.844832894419644
12.406741462088366,-0.5293319877531849,16.434267063809262,13.089862688183352,5.788026411826478,2.900622609976628,5.035897621591678,10.64548137053531
11.50262857387885,2.2464373905826016,17.791982008013033,12.766520296316104,7.480346914549309,4.8811974972033205,6.364598656568281,10.813057148508292
10.389059851556205,4.601567557412756,19.857752591787452,11.871725977919057,8.546971899621143,6.317162682985298,7.296850854755282,9.32271478879283
9.40394834275277,5.958262551152537,22.141075130287234,10.595269065275458,8.96714019776995,7.230391403919017,7.801196942229872,7.0141212097394865
8.786082044535364,6.100558770687328,24.212902392846544,9.22052973232087,8.937911116996167,7.5578276360367616,7.825144030918976,5.014630335121757
8.547523429898517,5.078984389147946,25.66826307858349,7.949934250326285,8.642621263430025,7.077889050291594,7.146093321705225,4.0899586103325065
8.505352806195235,3.05297528441153,26.146519113077876,6.890783718234168,8.121886754667626,5.615566685387908,5.534886784378142,4.329364351204208
8.416672076295411,0.29747959837015653,25.500142966928188,6.142799007077641,7.357123753349117,3.3627887276238724,3.099332373969392,5.286148908945873
8.096097516713295,-2.6946258312159674,23.93402624007559,5.835375567335068,6.436871058630935,1.016367702723677,0.4702496072346355,6.3803757967136185
7.446065361744823,-5.277509556112002,21.900331079097672,6.044777804936116,5.590256231845851,-0.4458860406214274,-1.40078226753773,7.251739092044848
6.427687181581405,-6.951886690247389,19.80395760687651,6.666491936110639,5.038417114903059,-0.24719410441565692,-1.7359508833085904,7.861985036796106
5.0412221521810965,-7.629164725388424,17.807729305173012,7.3707854169364495,4.828503423488407,1.759286385988799,-0.37374841077028387,8.360791399330603
3.348328149379101,-7.572939573985989,15.916796008494003,7.70252889869555,4.825415547889648,4.991222843098263,2.144496992971618,8.883846147647827
1.5149734564684856,-7.077080724917933,14.206212423679935,7.288623624867228,4.854803561521493,8.417390796433901,4.88064557401113,9.454056803464928
-0.16212941101041733,-6.215983146962788,12.92765099784396,6.060689298798445,4.849761818555701,11.040763034568608,6.976207449785705,10.0280942246433
-1.2728036171232335,-4.877725096836331,12.416579303125639,4.383953111911021,4.89514145951729,12.326379083254192,8.009214335198237,10.591530038509891
-1.378148613336222,-2.962031934602126,12.937568873790541,2.991910138288521,5.181218347547669,12.378229768786655,8.064513366371097,11.18135803517766
-0.1772300634618791,-0.5191842015309596,14.578300306422195,2.6908666785838395,5.90589437683329,11.793068668283716,7.537316335757896,11.815662889851877
2.2843292942716484,2.205384405537752,17.141944914471146,3.938273245037458,7.119498723473626,11.256842312855536,6.8233434192416285,12.425620021094222
5.488283293976059,4.717026728573853,19.999291074223443,6.535985510512257,8.540091435123886,11.09009086415182,6.088789903508141,12.898146402173568
8.544727837557328,6.244732603965294,22.07245066856139,9.66985500758539,9.495940597471083,11.02522638094398,5.256178566204302,13.229692251867524
10.546321577467907,5.956432706375504,22.195619618473977,12.315865144543912,9.176080170914055,10.396396986161202,4.194644756188323,13.650492968200515
11.007210563464016,3.480240286455377,19.798570445218044,13.763728600501185,7.143007563047274,8.64265575451231,2.937750233718118,14.540108561564551
10.116584769151801,-0.6133943032936366,15.43905947176565,13.917437759809953,3.755384284334083,5.773161480595779,1.715671346568937,16.100880850589625
8.637277128024978,-4.870569480240247,10.6750829858964,13.208423518516266,0.1146783780933376,2.456216132676414,0.7583118716838468,18.004548489220188
7.509947278975533,-7.6623112141659835,7.256435119957033,12.241892562769806,-2.500279161041315,-0.320749082895252,0.06669631159899449,19.3498695131823
7.399775059700703,-8.057788103291626,6.184441074621908,11.44670067636608,-3.319753619783566,-1.7633452137690073,-0.5892315281406135,19.09249981811793
8.426258367085941,-6.215996404324303,7.28578109574495,10.925780546331248,-2.4087000653122406,-1.6186873880280064,-1.3998267006295457,16.72790094861612
10.180158018180023,-3.0894478198164865,9.506393661445244,10.525343129742161,-0.46776153146991417,-0.19998200906490468,-2.210130163280089,12.750007298095806
11.971903982503214,0.20417407514712343,11.605097910880131,10.018472152370126,1.6542400611524886,1.8368871153036483,-2.4815389479108947,8.526120920888582
13.162166989246687,2.8510153126421733,12.757366679438439,9.282756156014399,3.3710231364468752,3.78696509102476,-1.5955700636067325,5.63830012063493
13.418522104470474,4.468502957985642,12.787007661790735,8.392306264315927,4.499178326730576,5.134758429166772,0.720274354277469,5.100773581273899
12.801790994168135,5.033427493970671,12.037352967898713,7.594778041475628,5.169583495872602,5.7009656476824935,4.157982532040111,6.907073311533362
11.676869173784183,4.7859816011251475,11.055382591517311,7.1966082359556465,5.652156361778765,5.688507597293835,7.939467720121357,10.116034659540876
10.520879820788364,4.139136391903394,10.291193322816854,7.42302204514991,6.206034838006389,5.599757701995095,11.177171717646905,13.369438653800103
9.726805909601373,3.558119278439956,9.969710586325789,8.321949836935486,7.003304430934545,6.00511112602633,13.244436024717572,15.535975338190177
9.470451476573471,3.430272103383423,10.167103025221234,9.738831908829784,8.12054193344138,7.218368355485307,13.94697783708193,16.16276169699776
9.661497370135857,3.9675913790590114,10.950904835284875,11.347304300865318,9.54602092360361,9.034714883335015,13.443250722029155,15.552145513294882
9.974746685275013,5.12440525414073,12.373973782662246,12.71820000806506,11.140493442079817,10.715579600594042,12.024351626297673,14.478637465713168
9.954312157543068,6.506389739266269,14.273237261690932,13.4271197003083,12.557651634830064,11.295355691408604,9.928874210707239,13.723112310672834
9.172451960235357,7.363517773972526,16.090563226693924,13.191835694900629,13.233879659675544,10.083823072544531,7.309261174824454,13.669880843745528
7.39597282616864,6.831018074933631,17.00146557419413,11.990797085303614,12.567930934713557,7.088652035194441,4.343125715032228,14.169030426886241
4.693022496889924,4.416802559360836,16.37615518446251,10.092765157968987,10.264239008769504,3.1050470888744637,1.3800120508296256,14.72226456918698
1.4310249486898146,0.4334262179155279,14.245109042677633,7.964072666360676,6.621628844567909,-0.5969132155804279,-1.0175623462421497,14.860258158834236
-1.8334953011544697,-4.016269609003824,11.3664636647165,6.090086370572484,2.5134988370326696,-2.836639944698388,-2.2265247606261602,14.454466377643188
-4.5260938422115515,-7.590549919750254,8.78787778991663,4.792368446813731,-1.0003253268899532,-3.058160648835995,-1.8711580271330694,13.751892527026559
-6.223636707400371,-9.446905391723917,7.187116109992267,4.115923290964162,-3.214394839206204,-1.5686182746965016,-0.1099974026105568,13.127896822937982
-6.768922474735764,-9.659684774232801,6.428559059993161,3.8250894151251758,-4.1303863363465645,0.6434650316900622,2.3184087454079094,12.766063894395868
-6.295362441003973,-9.071481607785373,5.612031614156431,3.512995618945772,-4.401161093562467,2.4240894656305154,4.38893407059836,12.519607392965542
-5.145857609794875,-8.733531828241706,3.5967388419442226,2.798971993007125,-4.899210092895255,3.0477176386601474,5.296641545942962,12.05167067812403
-3.70447865207909,-9.28666828909111,-0.25043593712727336,1.5465330580315175,-6.146734390361266,2.5971901691197417,4.889760719822522,11.129297849100851
-2.2121938015648035,-10.575955350044344,-5.452503959660497,-0.006511135151922358,-7.908416575043353,1.9448846909697641,3.7625088496144308,9.836917459430863
-0.6762151939566237,-11.66332548119184,-10.341544956855588,-1.3073019821762837,-9.186239412536906,2.3277772537075765,2.9289387278789287,8.55398702538888
1.0463738723372669,-11.29336453601269,-12.702026495123956,-1.748442029838262,-8.692101628854294,4.6830089415220595,3.2406690619249177,7.731958727393073
3.019908920851576,-8.67986796994379,-10.947364671823516,-1.0074846819946268,-5.621814206418565,9.042551246623786,4.873439004914799,7.649332072156033
5.007017621779391,-4.201602754211526,-5.206430868626192,0.7326487114806732,-0.3125626877561011,14.320814453008841,7.189037147428234,8.308502396929706
6.426985007732418,0.5166303979772083,2.4052980671604085,2.822576475288355,5.665233884879327,18.689129003178078,9.068353763652775,9.496661752383414
6.562459511728857,3.345926128793403,8.62756564112117,4.430108040410431,10.13785872787759,20.42181057715505,9.525487154142663,10.90765549689226
4.916850491458742,2.830384630337707,10.605240129684994,4.9188728748433395,11.376820773314646,18.78910943718582,8.242966735507661,12.221076765815027
1.5244288910681996,-0.9556996049755623,7.2882112529,4.137953872613523,8.975880521444608,14.492716463408911,5.732320119388478,13.131026344280661
-2.965258928650293,-6.416381238460994,-0.06842590510870877,2.49318159394724,4.066844117776349,9.377293400580403,3.065524607022103,13.389647527056098
-7.493508528765561,-11.256556416699901,-8.522779231257527,0.7639784304512729,-1.221829810780065,5.563165269357685,1.3623541214541188,12.900826298358005
-11.005968859077914,-13.588114286011667,-14.829513916025403,-0.2625619228049268,-4.7555203832421284,4.465791664473795,1.310078717430804,11.81009979445176
-12.873478784034633,-12.737616016419905,-16.905952168689154,-0.167269398201401,-5.333489913260418,6.205107538513111,2.9217699782104725,10.497487067274626
-13.101435896001249,-9.438676887864887,-14.69557968156979,0.9205553279283378,-3.144941692122541,9.663740585426163,5.593101883247045,9.439199030248389
-12.220786747614671,-5.398754867723482,-10.033064072951214,2.4438844452153914,0.44474148199523483,13.097268285607367,8.385695108250484,9.000183394941041
-10.941993816604905,-2.4551633828864916,-5.601442564654395,3.757884087045707,3.643926510131266,14.940767786314241,10.39295613561001,9.264853341343294
-9.791245378252462,-1.7042393794357087,-3.551861795419482,4.470055089413061,5.122774041570677,14.413812874298394,11.040556478687936,9.991751726472769
-8.934463857779622,-3.052971462436281,-4.542563641693719,4.588142736393498,4.571737406247105,11.688876763199536,10.229388965786109,10.728091176239566
-8.246032835154598,-5.4552876000256365,-7.679341308690446,4.43826868147883,2.6619128037099817,7.644058246685187,8.314585845591747,11.05881840538577
-7.5180754331779545,-7.66334490281815,-11.26229640461815,4.454688916771776,0.5066921218278284,3.4172972449840846,5.975388944654858,10.881113458733909
-6.649324440242654,-8.961482771678396,-13.779115521625059,4.964278592365224,-0.9911521012575901,0.003627423971543785,4.024656963228075,10.52197105530331
-5.712266921701375,-9.403959442189416,-14.55538490975717,6.028387477808088,-1.5251194996556063,-1.9923869336057412,3.1620512940748453,10.548600194907477
-4.893519114584395,-9.511737442695393,-13.818636077460184,7.365692898191564,-1.37021789571785,-2.472305504266416,3.6808988010476456,11.31199395096122
-4.361176608976474,-9.778991618560651,-12.315231394916614,8.395666877128633,-1.0919729512036855,-1.8612797626724686,5.234719158779854,12.510997152704311
-4.1291274317436075,-10.358521030482061,-10.784227553408952,8.441624201758453,-1.1889069290584753,-0.9834976892682277,6.856830333056964,13.148396001276437
-3.9908548325329143,-11.034539275508804,-9.563533285655339,7.049218803644693,-1.8259255788331212,-0.7449029572489047,7.350843552239927,12.032741182658445
-3.581145815376096,-11.389454393744314,-8.51195011786064,4.26182491612762,-2.7547310384290746,-1.7058847397153611,5.918429404834077,8.573778416636179
-2.563881467019345,-11.060737133930559,-7.291495899882475,0.6751334056800128,-3.4689047133209145,-3.771373225250477,2.6645113568988803,3.344311451439412
-0.8498182271754589,-10.00364595434681,-5.829030375478692,-2.780449512260488,-3.532471283671157,-6.20012217440584,-1.3512196971963708,-2.0100989973926593
1.3024039671010805,-8.606768391210087,-4.583285557916046,-5.208413430354974,-2.872083267498851,-7.930820319877583,-4.561108462828236,-5.502312063176714
3.3871685886112743,-7.497238268454017,-4.324094514106177,-6.0708487854390025,-1.8002563626682087,-8.02748498769912,-5.577290601721879,-5.750185679091534
4.8964842491168525,-7.095537637867957,-5.529047288868129,-5.338515990106561,-0.7429271392514281,-6.0309085489392675,-3.77831906105333,-2.6170065795146877
5.543479126084989,-7.284839528005632,-7.893319891224945,-3.4510150225675207,0.07694368593180342,-2.134897676729149,0.4169405956466766,2.741000697995993
5.323830479410978,-7.561484746888054,-10.420989412124815,-1.1426799277490494,0.6908915186050592,2.789857950895429,5.633685848361293,8.36836383963548
4.404837802914494,-7.60822729162435,-12.089977320536955,0.7969622255894756,1.1228254097757038,7.325960186869597,9.95033533318415,12.273972642953492
2.955520120090091,-7.772955062932468,-12.587270921743391,1.7632056725377188,1.0948132593200626,9.858949440541911,11.560409942909974,13.155304105970469
1.0539889117918777,-8.956642203910112,-12.552264702353009,1.513338752700485,0.041548203433054154,9.153977458686985,9.518701815882707,10.851805413773093
-1.2696053589637557,-11.941547552903362,-13.165951158046557,0.23048350244723012,-2.5059899921491304,4.967839327987082,4.267723758766884,6.40094822678463
-3.904077625292587,-16.700424012430922,-15.396216272967516,-1.5473975921679841,-6.455551646802452,-1.6567749047527662,-2.3869814855976164,1.663500011793535
-6.555808319287251,-22.22858656621041,-19.389549451015625,-3.1230226801777534,-10.991837100572978,-8.688471610564195,-7.979449137019987,-1.40873865446485
-8.773942904985082,-26.993801782105244,-24.347579823067623,-3.9157125287593724,-14.883409799176855,-13.943488884966147,-10.510410832785183,-1.635037892236599
-10.116464760806684,-29.671607632227374,-28.929855786994366,-3.7251624497473914,-17.091093418895063,-16.058060588035048,-9.430593990724857,0.7807359452673358
-10.365605560910863,-29.743794977473986,-31.9474304496897,-2.8481068613315648,-17.308490124782647,-15.076267778246269,-5.91314072564018,4.2624428194013
-9.648720036079206,-27.69978774358131,-32.944530912668064,-1.9426594813932765,-16.099691473296478,-12.333161461166576,-2.215619799443624,6.614752112338247
-8.373761128886896,-24.773492537409357,-32.30696489532764,-1.6728399334364077,-14.531964863217619,-9.700598318872464,-0.4568538210146767,6.196847297644517
-7.018233628853646,-22.322379028888843,-30.84119365923017,-2.333982151651621,-13.511718457906868,-8.609161862818786,-1.4889723627291565,2.870520455620325
-5.912521944338161,-21.152071275434025,-29.171037413569692,-3.7056573137323596,-13.246038030596228,-9.373134207418358,-4.501721744041268,-1.8680192142096932
-5.144562841106193,-21.19450745356728,-27.44577434965597,-5.229071568772583,-13.198639484944467,-11.161047659893368,-7.566676508487779,-5.699789583266052
-4.603204332168555,-21.756735557411876,-25.555743248043385,-6.369533590623335,-12.568733194462313,-12.572316178221756,-8.770905265212255,-6.7764376489615525
-4.0819644445001115,-22.11984596070208,-23.565389107193354,-6.904440419712521,-10.92528906867589,-12.434968909114199,-7.255966429175119,-4.72267071288416
-3.3648399108295757,-21.97793831991389,-21.886155334105844,-6.968327755071526,-8.513114254749409,-10.3553446751018,-3.58098157004666,-0.7621698133793048
-2.282986958361231,-21.396967913186902,-21.01180076333019,-6.885428723338161,-6.030171308690773,-6.769802108297398,0.7188901949496901,3.0644395872052077
-0.7732503387983053,-20.47009350080391,-21.093088184444007,-6.946629357245938,-4.108519840971887,-2.59026925545495,4.024953169655637,5.075794517229461
1.0574787284552567,-19.113915014173287,-21.757846848425896,-7.268646342884711,-2.9265352693766356,1.2540210031250643,5.421934985814673,4.810913346184204
2.906228587630138,-17.213593937356627,-22.30264371182194,-7.780705695549144,-2.2007328660183805,4.115127721490311,4.980654904643978,3.1078472189083515
4.32871612703531,-14.902404207944786,-22.059869209009968,-8.31490432022392,-1.4799810129870448,5.695182262245764,3.4877586014512123,1.4277535838617572
4.86239754795714,-12.65692303450789,-20.711946602578667,-8.747661126184708,-0.5024276859329381,5.972365718332953,1.8660933932227923,0.8890759873012857
4.1599068580362,-11.162194257109812,-18.49384157721736,-9.118022865189985,0.5647273596848036,5.09226635783591,0.6260530975900443,1.6054121011059577
2.08444525982055,-11.1357903536258,-16.281219332701962,-9.639343834822872,1.0776753737716254,3.274405514089964,-0.3852829392984413,2.689936665645903
-1.2430675672229037,-13.197761743265733,-15.442776573572319,-10.569437550349354,0.10765774125701985,0.7495339449369837,-1.828544927903248,2.863399089222608
-5.441618560388649,-17.656925240342325,-17.319645217198072,-12.00820169026824,-3.119165005634756,-2.2508983828174,-4.39224685241603,1.2552440834000484
-9.925504608480166,-24.155212832491305,-22.47279236220371,-13.763797876260352,-8.684498136803052,-5.449471629965164,-8.249585323343943,-2.075905789202809
-14.032099428433071,-31.444206802943068,-30.17262842338204,-15.387719397098273,-15.676011049644949,-8.480621576315167,-12.784880097203441,-6.154357868640016
-17.19723301912134,-37.68660820767236,-38.570837736227716,-16.356588849308313,-22.415401374309884,-10.945831481738125,-16.79932159291116,-9.565090464219956
-19.10711773471415,-41.29213525341957,-45.52480656888337,-16.288433423312366,-27.182087546685562,-12.594747666830584,-19.119888021677756,-11.119722561398039
-19.753207253916703,-41.75381348528621,-49.5582153152647,-15.088688089844071,-29.023855799936925,-13.524520672112164,-19.261845634115964,-10.398295940415592
-19.363379240635904,-39.851018817070276,-50.38328180500325,-12.982984307033169,-28.158849459438343,-14.208343354417265,-17.7299860895363,-7.941042523679482
-18.242764845960757,-37.0707020321795,-48.77725041341171,-10.438882551310725,-25.74919765026118,-15.241839131256963,-15.749872766347,-5.012631138585951
-16.599522021825972,-34.68367100433676,-46.01697073886061,-8.001242272797743,-23.222908597416367,-16.90314624907073,-14.569758092414514,-3.038610966711913
-14.447646814096661,-33.075628100505604,-43.23757926045521,-6.102189161616399,-21.54647868036039,-18.801828372651617,-14.737473976348296,-2.9648968670547213
-11.661263532707785,-31.669775837351377,-41.02939390388514,-4.946165529348442,-20.825502853056236,-19.893018090863713,-15.775120016437098,-4.836387935652622
-8.181661131528802,-29.450723256532605,-39.4628214219229,-4.544800973916044,-20.43182668153873,-18.942764311351546,-16.455101014045702,-7.792464330222127
-4.258756520195429,-25.87952131092845,-38.52043640915645,-4.857729274525981,-19.603779752667048,-15.260656171908343,-15.551499214570184,-10.481465350068083
-0.5239381657346894,-21.745346499488516,-38.57861217772254,-5.877585285082805,-18.172615165116447,-9.307835182979728,-12.656680478841905,-11.700457268493766
2.2481224779950435,-19.257579004371504,-40.353694147405676,-7.5250490735246505,-16.872816702345734,-2.763124921986675,-8.561208090035677,-10.959133903029016
3.609667471130684,-20.861164759564986,-44.01056425296612,-9.415609088254373,-16.85092292667552,2.136013059183216,-4.897588038774608,-8.697180390613058
3.832965920632268,-27.133707300453747,-47.93392434279815,-10.750875123217286,-18.56214537752558,3.724134490453069,-3.1960383690614105,-6.0512671085239225
3.8951027595125503,-35.171308280437316,-48.322120968495284,-10.55708932560194,-20.855763753954616,1.8751565954660647,-3.92620564079757,-4.2995532427650955
4.9784212236263565,-39.02845453677955,-40.48900585193798,-8.219239655054157,-21.111766548862796,-1.832573467396549,-6.166113513795692,-4.279059848728952
7.7682326681346865,-32.550439170027104,-21.52018050113628,-3.966331595750637,-16.601775750195262,-4.930843832494701,-8.143160423485572,-6.067362059408615
12.006837457704021,-13.106902383345876,7.336807206551396,1.0788122239831608,-6.286024020821967,-5.395874242503985,-8.298529826869041,-9.049041905569851
16.610252145984415,16.22185031242045,40.341894073529225,5.398467968474127,8.193475510621738,-2.692892504671229,-6.175764065900805,-12.269444406204437
20.275120406055777,47.662668840384285,69.56470986305234,7.846952038521979,23.099720858292137,2.0810401814855934,-2.581206274947097,-14.855902273497554
22.173742991305332,72.55081404651149,88.59573940156795,8.192693191086615,34.471682241829384,6.969144293344953,1.0144738523074674,-16.313817957531818
22.298650723925448,85.58708634504656,95.40453638650816,7.094170510137833,40.08719150472097,10.282182468448609,3.3620499455553077,-16.618574895891378
21.297871747220256,86.91329247256262,92.64847865474462,5.583863718678326,40.287258262422036,11.367727597144505,4.014858309147962,-16.123157627742483
20.00678285080125,80.96604404786204,85.52664219404993,4.474226354838484,37.29304819653218,10.651126433572442,3.327167189583548,-15.34746141987084
19.035205912822736,73.34815955662722,78.87437291647444,4.07553329479425,33.711022036153324,9.115986017530895,2.041489485716903,-14.738029424590678
18.620308915192158,68.05139175370347,75.33919909238139,4.285303242830745,31.315610980294657,7.694413803820405,0.8453521406264894,-14.501717852593279
18.700492705450237,66.49843083301394,75.25016330611503,4.822655698886616,30.693052210492148,6.923657628723291,0.14096804495142648,-14.588645465893412
19.053542083115847,68.1392184516521,77.49636642476652,5.391317032555223,31.543542444279186,6.906696300591053,0.017340742865554003,-14.810799092225128
19.4143209483413,71.46374429542225,80.47213261146877,5.753411972993415,33.13144051472256,7.4260401399603175,0.31251354033828166,-14.993784223661116
19.578858993202303,74.75812975280805,82.73651606966094,5.795854770818496,34.63458887424197,8.100632815974606,0.7202735868805563,-15.056420250142722
19.488252573300088,76.68668994146427,83.48657801007256,5.584689017688507,35.44160418803081,8.567588063420581,0.9470518887168355,-14.998278834944593
19.232999425207087,76.80916909523165,82.80984463331382,5.318142507660111,35.397051360288145,8.651815836964289,0.8652135025599742,-14.854924273084729
18.95389795405913,75.70808553432909,81.47716442713397,5.170852252270493,34.81675498061946,8.4230042880274,0.5518617392592229,-14.675904003588231
18.7235516956638,74.45002811121563,80.31691950436225,5.167906549163446,34.19238471998395,8.088311635064201,0.17899269812772384,-14.520144949745253
18.525813056096595,73.77112121772898,79.68856784582712,5.21826072393973,33.827486374285506,7.818590958088955,-0.13314137779319796,-14.436270207063014
18.342471043052505,73.75370570326625,79.52669495120797,5.256604438160822,33.74767574521975,7.670344329432247,-0.3582587856416033,-14.430659281302745
18.22993622799342,74.21701153344837,79.7846944876183,5.317317085657176,33.91067437958635,7.645518562281647,-0.49574641085774424,-14.461802738627533
18.282605590212793,75.19822638846075,80.64478852274235,5.459181849169706,34.384653219124054,7.768316610712664,-0.5163591285761353,-14.476472498250018
18.518193780413803,76.84660817583115,82.18838087486895,5.651651278604956,35.23104660277421,8.05772645666589,-0.40725504985290234,-14.450458604558422
18.812058741630878,78.87816684414773,83.94144603493334,5.773922779483668,36.24069080822117,8.432217384542081,-0.25141818556833273,-14.389675547769334
18.94884986292512,80.37215579426291,84.91767732843931,5.724921953956338,36.89729616347114,8.689602477495797,-0.21765148338032014,-14.299933821784972
18.74071651744548,80.31856585209555,84.23730711386058,5.50823490845751,36.694833456924925,8.623651040926642,-0.44462366221154265,-14.174963881435346
18.12956721341464,78.44705653716055,81.80231726746726,5.212273013028708,35.53946067716349,8.18056402338439,-0.9296416615756887,-14.024094751127844
17.25082115628187,75.58617870107749,78.53695917060851,4.953385698562919,33.90288604665547,7.522343279016037,-1.5183280454503303,-13.899711456153943
16.462358453943974,73.35664832570413,76.15498123354988,4.870013246307658,32.67038977112487,6.9718688808002085,-1.9740665619604307,-13.874267157611117
16.281969899046803,73.54944244990018,76.6125760431824,5.126355662313731,32.82809716862251,6.901449286443217,-2.055738165430384,-13.975286248398442
17.1450829264704,77.4194891264705,81.22375631236213,5.811860301271883,35.04737227911176,7.590700915017482,-1.6010339624624013,-14.141258132737168
19.016171011287597,84.79064600732296,89.4429588492545,6.748464707205793,39.13356014138216,9.027217410942564,-0.6623747845903817,-14.244255015204354
21.090726919790054,93.14024020171536,97.89833933086672,7.397431461936837,43.53073473255274,10.700505747605721,0.34576517525163325,-14.161889071113785
21.88443933411826,97.549918323724,100.76624339239103,7.038127721043826,45.40553663372351,11.58603777886068,0.6588683351060375,-13.849864252288906
19.800340720826263,92.43753337422098,92.08007812099478,5.14878991397826,41.71345729565262,10.504547359523627,-0.5321016595192114,-13.389913969754279
13.931784647348177,74.72303867198029,69.09737321139033,1.7111587355089928,30.924777440260968,6.7772710850932265,-3.585414958390928,-13.0104445226813
4.664710571250331,46.505478436643955,34.639736300414064,-2.78489673874248,14.34649108314215,0.789567988117436,-8.046097457587202,-13.05524996502776
-6.272279300115162,15.093788029463553,-3.39406723638579,-7.608712344103419,-4.005815328819718,-5.963086429366228,-12.70113222775974,-13.85239809789056
-16.37010193329439,-10.142237552860228,-35.39508964866527,-12.106234003847579,-19.132443932591023,-11.461743801030105,-16.056661067734694,-15.485995741817352
-23.259286797439607,-22.382894119795516,-54.42497062545835,-15.863164416849004,-27.414363095246383,-14.077485918913947,-16.961794452066872,-17.58885838169895
-25.563663434612867,-20.62996762912982,-59.07148623035375,-18.6748238629082,-28.211825465885916,-13.298138601379362,-15.042442414203459,-19.34039451420771
-23.32097275987812,-9.72085624316069,-53.27371867115261,-20.437807086332235,-23.81151123283037,-9.890942981986395,-10.772409854020399,-19.76820388085978
-17.843034780181895,2.6943677517977336,-43.570920826186274,-21.108975486943226,-17.916786146359094,-5.477619193221572,-5.236084032979436,-18.244469209347525
-11.150755304528351,10.167690555540176,-35.692590801552505,-20.77527180279168,-13.722673320925391,-1.8127746903098938,0.24003328289579662,-14.895965017885068
-5.259071791899273,10.144007629266982,-32.40682229955902,-19.743721599566452,-12.66529719480274,-0.13658113895893326,4.44142440381645,-10.658256065653593
-1.5820167112342973,4.276917890070348,-33.33323202397744,-18.531315000198255,-14.27932929961843,-0.8211728904200805,6.560585493746597,-6.908827261550804
-0.6427519007030482,-3.106678723503446,-36.16139193404002,-17.735133179468505,-16.872077510414144,-3.3314155193510704,6.424078699557261,-4.867786079005041
-2.1489634979700734,-7.232165051750651,-38.29543724878912,-17.86381861811224,-18.48045677347729,-6.44687252828288,4.575016476519122,-5.080333731022163
-5.338261158707125,-5.004762278503285,-38.25122367396624,-19.188264589341735,-17.77492786841274,-8.717337195349435,2.0826008917698755,-7.218395362360057
-9.365381580979598,3.323782152315391,-36.45873507100866,-21.580082556025527,-14.753535577062697,-9.08271956213089,0.061225391073602795,-10.23838951191299
-13.501512824586191,13.483035460124006,-35.16365727355186,-24.321937945797508,-10.987495009575973,-7.425048980267903,-0.8791008307308603,-12.762932209361436
-17.0885198205956,18.29665201831215,-37.25096941185502,-26.029925209546516,-9.106579178656856,-4.711307900459113,-0.8943488717054715,-13.513524413764323
-19.415903443649572,10.777641655410887,-44.38406768859456,-24.93008465503632,-11.52013236495018,-2.5387308748861908,-0.6790047980812575,-11.677925345010161
-19.76288100795462,-12.022403430131272,-55.53207280003992,-19.57003063238081,-18.96470257585124,-2.273061548125941,-0.9030281684235011,-7.150692794183869
-17.68855513174778,-46.68591400111709,-67.00128300563875,-9.679885703492157,-29.804344445002677,-4.284923941733354,-1.721043866092239,-0.5922412321947621
-13.393342858184305,-84.38531068725311,-74.21212670957682,3.3578701781155895,-40.66528180358987,-7.766041123504287,-2.699751374958347,6.742832380189212
-7.846579387651989,-114.91409764612169,-74.24270280082683,16.838415707138502,-48.13214847833517,-11.238137653304886,-3.1876575333897494,13.39429101914688
-2.4996853358559377,-131.5305187748549,-67.52846013036687,27.797076523707357,-50.49098352378983,-13.413096483538288,-2.8255360679186783,18.17948811602019
1.3069548006434084,-133.73873611077605,-57.58649797043491,34.2492652136652,-48.43864635358598,-13.847664054137148,-1.810514318478088,20.572560686529513
2.904530125132862,-126.48847835326191,-48.942783577158956,35.916114547599335,-44.37210594410453,-13.013174302546657,-0.7376612671354229,20.808035700796122
2.4968796750560895,-116.6722780880825,-44.65524790387755,34.07588282583118,-40.83661988538363,-11.83023005408494,-0.1752827159499087,19.674517858806226
0.9270955000783248,-109.44086261298204,-45.005276741496665,30.74830377575209,-39.21198827291082,-11.059757933850928,-0.3079936717566885,18.13334181445019
-0.7798635123519357,-106.51194782826335,-47.9398385943886,27.789499347044426,-39.37476597876353,-10.9433643441819,-0.8726657132733378,16.976845466693693
-1.8069138616139542,-106.81351687486722,-50.59115815112395,26.373673108628896,-40.259129768465044,-11.215500053648453,-1.3581125418804552,16.665162078895346
-1.7352220414933448,-108.22855808593549,-50.76888278000456,26.912176090637743,-40.707253700518315,-11.360426782576639,-1.2948346595149989,17.317440120532584
-0.6007736902200614,-109.08343486001868,-47.83904156749366,29.144139987110314,-40.10293385388517,-10.942839913514023,-0.5063740316222605,18.738443263309318
1.0946309215711936,-108.87286170596386,-43.00956697513243,32.194792768200905,-38.659950571502605,-9.908299641894935,0.724353593220134,20.419809464851063
2.458284645063195,-108.29293021683519,-39.0451620042746,34.67284466854586,-37.375026138464754,-8.750042052124181,1.643548268842502,21.584671624921317
2.4733132779286655,-108.5835258381996,-39.18256145002383,34.99486891206032,-37.5593388616889,-8.387850984319597,1.2864969406087645,21.382962580290236
0.43853947225917606,-110.20494056878361,-45.30619546592832,31.944322359142706,-39.956152359492485,-9.686235852565401,-0.9875508415508835,19.23172495881026
-3.6320235481327967,-111.50342255098353,-56.283640246366865,25.21515773752387,-43.87255488354383,-12.809248453237846,-4.946488628883867,15.136046799978798
-8.909784310243504,-108.58278469452911,-67.78667525186495,15.632755586637813,-47.04273666312519,-16.844079493685154,-9.336609109196804,9.778172793895047
-14.046028741586257,-97.0673861685893,-74.16465753975999,4.921138947273258,-46.59563975468616,-20.04494671767012,-12.360602760702783,4.279082596114832
-17.71678320839894,-74.93874775396597,-71.44245901050228,-4.877713783679663,-40.670548775093614,-20.649478689725537,-12.571876253617544,-0.26196135445039537
-19.143738303631174,-44.51429464895472,-59.56921513811821,-12.079844406246885,-29.63674517433748,-17.809049551108483,-9.643532996647137,-3.197647648099637
-18.3551720419254,-12.03016066619111,-42.47334742663396,-15.861304288415822,-16.07515935342682,-12.076022995469918,-4.528661019313008,-4.495886767875795
-16.103838588141524,15.09357826652596,-25.936137313364615,-16.41600704417693,-3.5137062986276892,-5.166261490249642,1.0650301695537836,-4.580274334021273
-13.523272789595875,31.669558367335142,-14.678149204668955,-14.760673392390371,5.27789274488262,0.8458725859662728,5.524372455957225,-4.005842786030938
-11.690196616574875,36.81102755822963,-10.409446385939635,-12.30570099613129,9.406327593022466,4.434875829078737,7.9899438643468965,-3.199813095203555
-11.24662903742197,33.59348248194966,-11.764041362327275,-10.34954735621169,9.837172570545611,5.170446917325012,8.519703604022073,-2.383178972522823
-12.178245834163043,26.864626396363587,-15.720470310934196,-9.648177009919301,8.481405342219814,3.707146698372133,7.8105253626505915,-1.625137499201754
-13.81048601808393,20.814931582230596,-19.324826636943527,-10.21023149166122,7.120609443207978,1.3336253468342707,6.749651892123356,-0.9229140732308112
-15.058753465179985,17.67005350197031,-20.76526731177832,-11.426847077055841,6.77526206479311,-0.6508299041204302,6.032373918121849,-0.2550348581028825
-14.888701252375972,17.707141221312128,-19.63803618166495,-12.49505962222406,7.607021689878955,-1.4858208099494692,5.929191747807547,0.37980223091951315
-12.807780306719351,19.904055670894586,-16.742295543003443,-12.899323519770041,9.098573626121423,-1.2439062843313993,6.213614766212502,0.9294234996428344
-9.13494191740522,22.59730350884698,-13.640873695772163,-12.657123106024226,10.324715463224683,-0.7383764525368905,6.291969233910466,1.2900945910803299
-4.89207331747269,24.088789389220608,-11.984323121365428,-12.203840718710683,10.337648596214567,-1.032658621506605,5.554659297531166,1.3690710937651114
-1.3832177347184638,23.318510595158468,-12.706815805169622,-12.054986709609407,8.65739601539681,-2.76941005046181,3.807821147220931,1.1718338416479908
0.3027977485763101,20.36759355946641,-15.513669168259735,-12.507314892523766,5.621429208704174,-5.7200304840110485,1.4935728249552394,0.8316805040689905
-0.3600352164717683,16.354921945495782,-19.057147907864632,-13.541214359235136,2.2894889978050537,-8.861427423024436,-0.5076119394945973,0.537208226119884
-3.2263491170006033,12.710411665182018,-21.707550287496826,-14.902262384820311,-0.09556097187061735,-10.918755776623797,-1.380965193501202,0.40848768411878356
-7.578982839846921,10.407690438785396,-22.365336009249628,-16.247674918019403,-0.716092915944479,-10.977156478766442,-0.8147278422256068,0.4251438456030182
-12.371083121078318,9.752300709625105,-20.820146580868304,-17.2729915649776,0.5481196607291002,-8.77241657104402,0.9389182249747211,0.462949821799231
-16.545820349653013,10.701414824586625,-17.618753310805676,-17.790063301184293,3.2593637296936624,-4.594608436698374,3.357651251749113,0.4014110098349356
-19.346858432587826,13.185136580456417,-13.719214076428065,-17.747555529690224,6.735068248622863,0.9525242723218222,5.998393750127429,0.21333497140479424
-20.51250109175973,17.07327471583607,-10.136523661192923,-17.200504529639826,10.29092964438792,7.0797784138943785,8.61913592203561,-0.030336599683643987
-20.285825843277713,21.967023882471878,-7.607491400512282,-16.272633215554404,13.363548893274226,12.804617462924131,11.037022654310814,-0.24349414635144292
-19.262395644781392,27.176882365009284,-6.3359385726951984,-15.164715628414452,15.567201596894076,16.98618680783132,12.914091259858283,-0.43517253539164047
-18.160205991985578,31.924870084872175,-6.003462319159499,-14.196482663032578,16.691989481393925,18.56182960309995,13.69846658119368,-0.7535453256158231
-17.591645303495127,35.517692025321,-6.11539428499392,-13.788565418274073,16.629596999120924,16.95547776862427,12.818595670887591,-1.39483517575194
-17.886015470202775,37.3860485024152,-6.4192434542127055,-14.31335622705397,15.307927206328168,12.45619967596235,10.051597593598599,-2.4007097869512934
-19.004041710518536,37.18478667920273,-7.004038675962975,-15.879976688883302,12.766616013930383,6.327016174000617,5.852855444863768,-3.4810493651880963
-20.58247074276283,35.07847713871952,-8.002089145474715,-18.222247167799065,9.357575094210064,0.5029637052084079,1.3979871306518206,-4.035089923742593
-22.09748134575228,31.945312977271715,-9.242336673837666,-20.794315993939335,5.844047918852239,-3.0728273956642864,-1.7950609223576293,-3.434990626962079
-23.059602459950096,29.107098285097113,-10.238095707980172,-23.002370656732694,3.1877491638787423,-3.21582584842068,-2.539256361208202,-1.4364842850864707
-23.13547618368331,27.625644335825612,-10.500037990824785,-24.403260687853482,2.101760299923784,0.0048214319066341195,-0.5813932225759688,1.5513529800990675
-22.168046122517968,27.72150876209923,-9.832616532570189,-24.774535071784506,2.7034355184052403,5.3237431865519325,3.246945012287453,4.550419372708187
-20.156939776212354,28.815147265757943,-8.366719028766422,-24.094667168742333,4.533421866255798,10.879173339158626,7.447654687109652,6.450765951650531
-17.262964162404355,30.094731006475108,-6.407124217114998,-22.50953238883955,6.890993077030831,15.035727013390208,10.600134272473401,6.572732190373805
-13.822592408240217,31.06851868511261,-4.290976958846995,-20.296551178087302,9.213353218851388,17.002492001825303,12.000166101264568,5.036249617705151
-10.30849585755267,31.72601682861632,-2.2878819504638246,-17.79677030717808,11.283867889400947,16.97915001695302,11.868522707603523,2.721544814356513
-7.21727437800969,32.396361143000746,-0.4600094053835006,-15.330416029843372,13.239755374993303,15.850989093360102,11.088180419605022,0.8352532369667416
-4.9449345067738415,33.55159602952554,1.451673413905628,-13.159063504174254,15.430961284776451,14.659885758275903,10.672693325538607,0.313310919722144
-3.720491306236965,35.58537146385252,3.8930131063974813,-11.51228956066185,18.15708106552574,14.110050200565361,11.245722310359463,1.3714326727624162
-3.6001441546888673,38.48374895479048,7.0665777278355995,-10.605255437758883,21.349180063923875,14.289122721610132,12.753203406885062,3.4221865548559385
-4.473628576863043,41.556545967029614,10.54323635462627,-10.570305282042545,24.396711400407547,14.69384483445892,14.518599267490034,5.379639332918729
-6.066203387230748,43.62275382367425,13.351437510439279,-11.338701591504234,26.339367430273445,14.55709423229159,15.617947356252818,6.180356759680947
-7.9796759222089,43.74772500106825,14.571397768997716,-12.600718688228513,26.398555851204637,13.344821692994383,15.400769106425237,5.262318608784499
-9.805050179633641,42.005763843448605,13.952491050924303,-13.91370975217174,24.49622058641184,11.165355092602232,13.882162433211544,2.7971223163277816
-11.256194704315343,39.54512161365857,12.040479657670604,-14.877511645004343,21.35867144024616,8.828865220989478,11.77825578235233,-0.38574158606949066
-12.225446049099531,37.81606187870874,9.782215965858986,-15.2377123262302,18.12683968974611,7.47405274740297,10.154089007280135,-3.1117147486109413
-12.72318209489735,37.605173281133894,8.017266134629741,-14.879286838528056,15.77750771339575,7.945118944658453,9.87272776932999,-4.282011953200036
-12.771119237704278,38.654239684127894,7.219446408753435,-13.798744477656362,14.737060946120241,10.271751362271656,11.137576870152325,-3.2692940578127296
-12.34804038965683,40.04896361290011,7.496627972886128,-12.130641871313133,14.840622363743051,13.568383620346587,13.368704340482717,-0.16124984187798005
-11.41044271071698,40.96241690500832,8.686654154713601,-10.183470468217653,15.55822382618746,16.452939040616393,15.495573304631977,4.249053327462669
-9.934328144048427,41.28115138854062,10.51207451454803,-8.388294889421465,16.354848093262454,17.796461674107277,16.54012401348819,8.738534225109413
-7.941217268181647,41.88440421855669,12.818180595416514,-7.160049476113866,17.047489764127846,17.38545412031044,16.17283282168519,12.073030618893451
-5.535257068116543,44.39281585390482,15.712630497353192,-6.780030694342834,17.938869845950414,16.052669369600178,14.871929142538212,13.372625249990337
-2.9704512186073173,50.152258359334674,19.292244600435605,-7.363651476883439,19.497185484260854,15.102802908243891,13.518555827829488,12.293993282649405
-0.6733964681061959,58.61682551224489,22.993532695774267,-8.829968898837961,21.645879716176506,15.334141395867045,12.659860149157948,9.048614965729042
0.8987030888341361,66.14173735526369,25.201884084449848,-10.760571026622841,23.192633003984895,16.317420808758268,11.978832907600676,4.347582711802145
1.566370004784257,66.57204432325045,23.835788622741877,-12.219584918482516,22.0550338312286,16.504492625718086,10.422621407143135,-0.7017479526958881
1.6982746009936964,54.071295624334844,17.838609949919505,-11.806946371267843,16.417609693226428,14.18184453489277,6.9622656451808815,-4.811470614235631
2.1694699698778623,26.825286962933813,8.513207376809943,-8.151083742282964,6.133379627938,8.654085284909577,1.4524101998679955,-6.876642131121495
3.9257216294552504,-10.85495847486636,-0.5327656628732031,-0.6902906567744675,-6.683761490550854,0.8458560707092233,-5.048248213896245,-6.381335509614783
7.392925348130619,-49.7659581211444,-5.1049408972394,9.750500777439857,-18.445995979399427,-7.0898513344584035,-10.750890309475007,-3.63295603109337
12.137108416076801,-79.94829857045228,-2.7784123796137683,21.065180664564302,-25.854812644773897,-12.890851650574495,-14.092699846969799,0.3452447506875158
17.033418679465917,-95.31799493910644,5.689646117226315,30.71341841694569,-27.537770639238815,-15.31200621139987,-14.544052457478786,4.248917379927741
20.84939928499525,-96.04558879595257,16.849349766949334,36.85211905439056,-24.54498910626045,-14.595272382368526,-12.77473441240441,7.040477816440573
22.862763756092544,-87.47049702795978,26.5809274489487,39.080318832470844,-19.485464545651748,-12.098152362738077,-10.148997989216547,8.321967391355267
23.1325927837517,-76.62955338192128,32.24199084003512,38.388628497940545,-14.993200312671403,-9.435572936724455,-7.953839323862291,8.355299522558411
22.314952976385115,-68.8293698812124,33.57402826533156,36.44505705929278,-12.5590212913904,-7.720991683470765,-6.865033209291081,7.7752161990097495
21.230291851241514,-66.14673272811828,32.0749217550932,34.74569097713065,-12.311746080672908,-7.289907070092601,-6.88595099124821,7.213916361214699
20.49718684689611,-67.9669323324872,29.687257766201338,34.11974407653434,-13.53474042057896,-7.874442184198973,-7.619356226586371,7.05675569466788
20.396941808789833,-72.33851921247128,27.873114463466354,34.704889587478306,-15.287854084222834,-8.936346657394326,-8.572656195348817,7.4007558972214325
20.914837841238796,-77.02447410190626,27.424865875784082,36.17741237374621,-16.73849709186186,-9.920142269059971,-9.324743219112934,8.138802230845078
21.827575781521467,-80.07320538308,28.610501305196234,37.991491198467024,-17.271904883140966,-10.394169726056592,-9.58679547816419,9.06078820112372
22.786538164113036,-80.26448221406403,31.219929483876456,39.55919592302915,-16.601776073732708,-10.148227362549173,-9.247186881119303,9.92908658018532
23.427926583150636,-77.51310484741332,34.546497375427286,40.41978101395731,-14.894629995024681,-9.258712868564473,-8.408086508907923,10.543529129122941
23.516671113347993,-72.93926033320884,37.56583341682491,40.40027939218797,-12.751500649150172,-8.06816674118515,-7.363964426132118,10.80398075453004
23.06109094533799,-68.47037004561048,39.31960469962527,39.69367736034992,-10.999158060920632,-7.066251140158254,-6.515795124873208,10.748306290564047
22.3320240545706,-66.22732274206071,39.249112353475134,38.80986490558514,-10.420969574785275,-6.729977824092449,-6.26430239636211,10.547404486520403
21.783804946890303,-67.92209073436004,37.361811508082546,38.432809065462436,-11.519110567442283,-7.366950047713172,-6.8907749033573795,10.465560269447364
21.909584094742648,-74.12791226971487,34.383517425031215,39.21606998198668,-14.238581188123675,-8.943655216830187,-8.38508308457032,10.793858028774006
23.03739923244287,-83.31627871281475,31.934078817844405,41.49013202250304,-17.635547262637857,-10.911373316378835,-10.246720906089749,11.739167943269063
25.073953807180757,-91.23800076577305,32.34179051021527,44.89727712693071,-19.774995724877364,-12.176796806629497,-11.43407423537005,13.264343734767328
27.299756501051636,-91.72754316694446,37.6601337031782,48.15356582414447,-18.277305504471645,-11.414279029132953,-10.664440304151144,14.954078545234164
28.42251320326071,-79.3539261322247,48.130260181430614,49.25672620994672,-11.540366720881268,-7.717560038044293,-7.043675342486286,16.049531173121956
27.031503027968817,-52.75786799320567,61.162372641248666,46.275970812229914,0.01850439688871827,-1.2506045559560546,-0.6792333821184855,15.744054778937528
22.328755403921182,-16.441294027097403,71.92545560864043,38.42454166659869,13.65383008327519,6.595951343827192,7.183907686409773,13.654294571890816
14.738972058825842,20.5918399454533,75.59534233509694,26.782392731191216,25.379265012220902,13.790944262893316,14.707039043554312,10.20489555358072
5.977250239920992,48.89826133104031,70.01995109461551,14.134460936677907,31.94640607354188,18.72636335310796,20.411895343503414,6.646433960278269
-1.5503264939582906,63.000777801498,57.100186479928134,3.9038795867099076,32.51657896494596,21.096653697719443,23.942926516641617,4.608387931538773
-5.720424698106113,63.47887305541895,41.961815798768946,-1.2687462289308011,28.965521950878603,21.986049653319743,26.118258736564353,5.367098921840109
-5.512953176099322,55.68782734829028,30.45319325703678,-0.533856033865628,24.67123128316372,23.077295716300874,28.23176415173267,9.202146053341739
-1.272984304418911,46.36265082402625,26.561600660446228,5.039002743523071,22.656500650720073,25.521763280423478,31.10604704531171,15.185105429264791
5.607582667358764,40.567190699343854,31.18218999413704,13.101279817002304,24.292493663037472,29.245377997628097,34.55357134559876,21.500074391298654
13.267969310908976,40.61356145536982,42.468944933365506,20.91202456612542,29.16302869042354,33.098058938322026,37.54319030949697,26.104325735348255
19.858103563358764,46.62362483687946,56.87034619035966,26.00755486962887,35.73037685060624,35.60190683669024,38.82015066625556,27.402394568504157
23.81149314319605,57.27115528516748,69.93356881968931,26.576811179061306,42.02810196846357,35.68603390954088,37.477946548357316,24.68632701762235
24.052872221371302,69.87583884306797,76.87747665713273,21.745766329863052,46.01254059554358,32.98318414599437,33.18999351927054,18.267854373737986
20.27275951162307,80.41725396866178,73.58939213617292,11.881016342360407,45.83149992344479,27.729174157840024,26.180578937706713,9.343195536992015
13.172911223748585,84.49528440063844,58.258942483382604,-1.2768873386547686,40.37005573299189,20.5689783917191,17.157369728601218,-0.3455222905460985
4.421251292716908,79.30407433907872,32.81544203345682,-14.956646609270502,29.95420374498735,12.457055744147517,7.272498359514869,-8.985099806254143
-3.8382956918276956,65.4208110458331,2.903500958447817,-26.23711881857625,16.64336403404419,4.580820955611887,-2.015712365147318,-15.194776478916648
-9.768621428479515,46.973823085916905,-24.100942356256557,-33.11764603836246,3.6536579653950514,-1.8529174811452562,-9.2957051903738,-18.39837025073712
-12.518267827193892,29.790886270467954,-42.16532622257023,-35.214614656929264,-5.946938627774563,-5.983817664243675,-13.682695440159902,-18.912063909854467
-12.425392977577726,18.56975413638036,-49.049651822609405,-33.698140339344214,-10.55792578363771,-7.629500240192418,-15.15915704060448,-17.699821799501123
-10.661231313238968,14.826968694590096,-46.7509620516168,-30.53926341621227,-10.590019517216053,-7.343133470977263,-14.536312011727432,-15.909974809481763
-8.564834827293923,16.810040174340806,-39.84890111497614,-27.54338113977584,-7.942918615801716,-6.1171595558370555,-13.029477651331268,-14.421961131935813
-7.067344815802255,21.136508525401013,-32.95495119652074,-25.705903817036805,-4.837072484869408,-4.903664838698819,-11.700226388678205,-13.61254278552612
-6.471568287918498,24.807067317544885,-28.827557544668405,-25.126090154977724,-2.7853428077544775,-4.248782009997686,-11.091984124219753,-13.402436612449483
-6.578480546401988,26.316715216965374,-27.955504059342946,-25.330220088448456,-2.2385955160559945,-4.226370327468337,-11.212767259930857,-13.478067729025502
-6.966460392963402,25.60634801723681,-29.289793608208925,-25.688759828939528,-2.8531281258219465,-4.61502110344109,-11.761963091976794,-13.520837761205552
-7.238102982718844,23.46203899032913,-31.272504045768684,-25.714397643898923,-3.9615018420260424,-5.121239909225054,-12.383986126827775,-13.338822015228134
-7.164352107658575,20.965658393039757,-32.588159070939234,-25.202784640118853,-4.924216746906146,-5.51227504314949,-12.818011088119084,-12.895735842492636
-6.731477763901194,19.092210767600147,-32.56484969191467,-24.245578443436482,-5.328249188210744,-5.663962738309855,-12.952680312485777,-12.278214426520327
-6.099634501410935,18.335658810403938,-31.305520945164133,-23.127549472921842,-5.101630835482914,-5.579357983326481,-12.833506790805933,-11.630959362757975
-5.485943896805287,18.490338079805582,-29.51050901640893,-22.139536758820462,-4.509605432211689,-5.378354365071737,-12.622787076274022,-11.077678538937112
-5.0312976366127575,18.85737002414895,-27.99345842303486,-21.411815189050433,-3.9634025658832797,-5.224834608822052,-12.499258740231092,-10.66041813409113
-4.739375295948119,18.807758809812974,-27.1692592052696,-20.883331369577455,-3.7339100134131926,-5.216996673725415,-12.546696494688796,-10.335195293431122
-4.523267794339923,18.211476141436293,-26.905362879998666,-20.411084262863376,-3.8046768874076875,-5.332302610432732,-12.721027162700686,-10.024734215614522
-4.299202478949932,17.34841890123115,-26.814090785122673,-19.89829674786512,-3.9838884270387003,-5.479111524630704,-12.921789041580036,-9.679563199436807
-4.0355005267777155,16.488412469539476,-26.636925734564546,-19.326533849388632,-4.125977385235864,-5.594269773422648,-13.08811478787342,-9.296037906533792
-3.732638453771944,15.658254826927568,-26.343494483348458,-18.70372385897908,-4.219733612399229,-5.681123594596291,-13.223226665672719,-8.890576721184676
-3.389765877071854,14.797544200343419,-25.95994573938146,-18.026846372077625,-4.2950591064277,-5.764322605605148,-13.345903116620727,-8.473140379669644
-3.0084498482851543,13.98369088042569,-25.445030351887322,-17.30577573737209,-4.324761610673235,-5.839288662815022,-13.450734769025612,-8.049447396322401
-2.6153195266922853,13.369891224879996,-24.78197514678776,-16.591259805831875,-4.264989679826145,-5.885325164658426,-13.528241237934235,-7.635215640907451
-2.2535927334594144,12.936387859206397,-24.101807760930484,-15.942840140750496,-4.156432923452607,-5.91298410363831,-13.602621292292675,-7.251000710132294
-1.9415243392913466,12.444764355133763,-23.60159538555621,-15.366168832283666,-4.1153640848245425,-5.967583109570664,-13.720299275450097,-6.899596192254611
-1.6510667180214913,11.702229111422175,-23.329119246543147,-14.804761683686191,-4.20454957452603,-6.076556825814892,-13.89687860554647,-6.558636203035599
-1.339947331189768,10.792753898208057,-23.12377884445796,-14.204696344511841,-4.355608189067599,-6.212659077566014,-14.095060255889475,-6.203520425764928
-0.9996506682727703,9.955688623720272,-22.810840191984582,-13.572052650041632,-4.455342470956513,-6.327321174897194,-14.267919449793,-5.833788600276593
-0.6586106229998793,9.268942397742547,-22.40249513254853,-12.95061238782724,-4.48615902265321,-6.412040579930925,-14.412742835065378,-5.469130161377702
-0.33863630663729055,8.56475018516986,-22.044456585796116,-12.354136733375046,-4.533948736160521,-6.505114708816066,-14.565108851904716,-5.120928342421739
-0.02436697525400075,7.68979917646247,-21.79014243170943,-11.747795628982702,-4.656116314596919,-6.634577949352722,-14.744118345050945,-4.777932263333378
0.3137521228192236,6.747741388786911,-21.517436938834837,-11.103885008307854,-4.79345205556434,-6.775729571553131,-14.92606434044261,-4.425095759043488
0.6761047110478212,5.983179871415882,-21.10447650081076,-10.4530414937332,-4.849041945244193,-6.882370384482251,-15.083363586289973,-4.0690284338895015
1.0302329976320288,5.456019677898729,-20.62240864595742,-9.856821159015736,-4.827537807882481,-6.9504474167449155,-15.233692751182366,-3.7341647517632524
1.351195841838913,4.942421622623362,-20.276527513773267,-9.334412647872242,-4.844295349268811,-7.028561363612528,-15.42794633974608,-3.4334900206088634
1.6500041793450926,4.191664437575344,-20.16762143469479,-8.838498003374289,-4.990357614133183,-7.161722665462598,-15.688183223123236,-3.152069550405782
1.952824050959331,3.1934929817507474,-20.184220054937466,-8.30841967047997,-5.232197285036855,-7.343312024752924,-15.975422955353379,-2.8639653224567
2.2639721464661213,2.12005339530955,-20.14992686156591,-7.726994740389027,-5.470561892917674,-7.534453665454885,-16.228446633048968,-2.558550563266596
2.568017158653667,1.073829412499565,-20.004934327803593,-7.111308957120101,-5.661510125945935,-7.714743983773941,-16.422657017887982,-2.242503883861355
2.86810411099122,0.03294482069330683,-19.77952697095585,-6.468358645542171,-5.826216902486852,-7.888488171222214,-16.578335529652637,-1.921178370218299
3.2006431412055862,-0.9333890164751624,-19.442549846426555,-5.797260106198654,-5.950609001391375,-8.042225926251446,-16.723388462375365,-1.5932625293022693
3.5937583237826476,-1.5511365013435698,-18.90793718374046,-5.144167932867029,-5.951081081585223,-8.129513155664057,-16.876591572549106,-1.2710693133945432
4.01552831371666,-1.6172106015049612,-18.25326926756865,-4.619151287714711,-5.799589853345747,-8.128604156823867,-17.07578593276002,-0.9946410690750993
4.381404802498116,-1.4067460205457574,-17.849829459653815,-4.310884836833421,-5.660855587345154,-8.111547245773338,-17.39194490294588,-0.8056479479179562
4.623243666506701,-1.6759571113533593,-18.132638579941194,-4.165648162808452,-5.82942450060638,-8.225322740005645,-17.870935990369553,-0.6965998328380583
4.750611754784437,-3.124415855505307,-19.160931433408553,-3.9653607825378163,-6.475341257230896,-8.577292651089358,-18.443456657619794,-0.59011699358925
4.848731624265359,-5.781782413643759,-20.40944254405695,-3.451706083791032,-7.442203180513844,-9.12794828170127,-18.91295952399886,-0.3792942368766424
5.030797249703831,-8.854746893433484,-21.021782233064528,-2.503169915604156,-8.295962214559141,-9.688348277185115,-19.071027534413396,-0.0004260604915724345
5.394179124596999,-11.08634163656998,-20.318384998049975,-1.2392909508670795,-8.568472731485627,-10.014760376861481,-18.86203169495146,0.5165256390447797
5.987632001101832,-11.304434380731834,-18.204899419614993,-0.009948291435458653,-8.000845800102304,-9.925483674499075,-18.469223307726182,1.0454276514635354
6.760185930102683,-8.964334691892358,-15.345287326484508,0.7066717096807015,-6.6955475070245996,-9.39819088934474,-18.264549052396294,1.4004765840027242
7.504434190691022,-4.719437022270218,-13.129599728358468,0.4946085326799632,-5.208177901584228,-8.650805139160388,-18.65356660638767,1.4046534862227107
7.876096319355485,-0.8382938354079998,-13.334511945226355,-0.7144669925075915,-4.5297891963465995,-8.168167410061438,-19.864508710171012,0.9943439345019552
7.5514047817271,-0.8518227521397701,-17.277290082599652,-2.363369933388569,-5.769860193996393,-8.569487283362346,-21.719310068032982,0.3325656297753609
6.456185199935289,-7.974812536606511,-24.631306779576352,-3.242171259403238,-9.477219364073902,-10.268311824032711,-23.473916752085444,-0.15711712183576493
4.893689340243828,-22.860670322364154,-32.69898750621956,-1.909550654240594,-14.947132358615981,-13.077234762434681,-23.892457392772762,0.07291029623566507
3.4432197613227022,-42.23875059283745,-37.057246940427405,2.5411968436631143,-20.12760285077584,-16.06455884065718,-21.6741733630341,1.4019723406172815
2.67546440211592,-59.79167006514492,-33.66933763157039,9.812419433662779,-22.45240035159973,-17.875929901437555,-16.11987775673764,3.754270855995222
2.877900065054457,-69.14323939417338,-21.335847944016063,18.320203166589224,-20.22651869839652,-17.41338416850686,-7.6690851431699025,6.529501340977871
3.97601024288033,-67.20221964238225,-2.812530813045023,25.855371345355863,-13.667055097870424,-14.467243213391589,2.08430923235845,8.845943390338928
5.6814300913732305,-55.69519462815046,16.35812543350138,30.643990531544244,-4.844999574983225,-9.87239662661623,11.00057004278467,9.977363801500603
7.719908095272007,-39.905078581825165,30.715750150830438,32.17073951969709,3.481278480026467,-5.052126232342974,17.320469144316526,9.71524960255447
9.935522978923249,-25.555857891678144,37.63846127730189,31.270449046723684,9.354736398349846,-1.2273457991142571,20.377558341385853,8.426424355182194
12.192101733678617,-16.001256262120762,38.22516142028446,29.486756288512506,12.420674530591937,1.19309769937434,20.697711094879097,6.7875565441999735
14.198310205918084,-11.432504517873019,35.89926403802849,28.179313535038244,13.583673642601783,2.6595014196318028,19.496086590504753,5.40380079873144
15.469966736900341,-10.11926189779523,33.94283333060423,27.9588558903701,13.956361841687208,3.9971936490036635,17.968269013484782,4.576814532014501
15.511106024490113,-10.2532432642081,33.72922734875342,28.690221091745858,14.002113921966897,5.777288278147853,16.83773610201137,4.332437644064724
14.074842280116643,-10.97716335704508,34.56911404763125,29.85831752702121,13.439169694820546,7.949632522995094,16.33148902062953,4.593523501453425
11.290968250666817,-12.327630821448317,34.75796559389368,30.929886019011075,11.743512565231534,9.884780596621992,16.396457650591405,5.294287522153814
7.589990570236864,-14.728347242829091,32.82083300231286,31.524724539308405,8.69595423983424,10.712056680208478,16.871022416917704,6.3478474997678145
3.537549633068103,-18.562416149949883,28.314837538330423,31.453150066722174,4.620061302506709,9.761006526221426,17.518352703947667,7.5602387473277926
-0.28466234705865273,-23.80745396658281,22.102089472872045,30.72283198759175,0.3378269204002835,6.943036347037101,18.03762661137637,8.63776063632417
-3.3435560427151922,-29.667124221717483,16.11590054057754,29.512195426858227,-3.035428779163122,2.9200660733108927,18.16208148749277,9.32151816573729
-5.2465554141142166,-34.551474416200534,12.55035127597724,28.0670189286023,-4.467059928989701,-1.0730062459194427,17.794719327871274,9.54475715009304
-5.880762971012991,-36.802165153429044,12.655040447047151,26.567999105333616,-3.539835252402942,-3.7414946138330705,17.05479695234861,9.484878486012652
-5.501419288127132,-35.873547870106286,15.823089956002761,25.086069600898377,-0.8671014772884411,-4.336881168643253,16.195572639146498,9.465787674990136
-4.658710514548263,-33.0124991908809,19.731372461192805,23.66320507292864,2.009246128289929,-3.0031787612194862,15.468608582890393,9.758884904509735
-3.9661816716991427,-30.727527602603253,21.60372881304671,22.41914376165317,3.332392268745507,-0.6666304048119958,15.01391773069763,10.37870331346842
-3.8307263417798785,-31.33715505860993,19.805136740399043,21.56330389518778,2.052914518373841,1.4306629572897647,14.791671614894062,10.984928902757641
-4.279275918809388,-35.58368846081937,14.77755949617755,21.301590919889044,-1.614361075216005,2.274432817982879,14.566097011901872,10.98495511647942
-4.9539210381344185,-42.070906255372805,8.89301782699479,21.718416914462978,-6.263084197491675,1.4679590178430268,14.001203179563085,9.84165484187316
-5.281693900900678,-47.64050364244537,5.441065455746615,22.69036170360698,-9.853991477128298,-0.6305476017288205,12.892623359778439,7.439300907977368
-4.771269478155529,-48.5424073769513,7.14931208551607,23.835933391093636,-10.511054037943607,-3.0650672015842377,11.396285922986609,4.2632597504366325
-3.3150598336451744,-42.328318539080556,14.582824401968455,24.540559563550296,-7.418997090562322,-4.755128581820326,10.00356667848141,1.2347578995491446
-1.3135765951988936,-30.08732425189876,24.962454686038022,24.159031471399803,-1.6362912748919194,-5.1708858034952945,9.160156353774331,-0.717134837694144
0.5092527232099994,-17.816177703943545,32.25853786335785,22.420555849290658,3.6346936389738898,-4.863061571772746,8.7650851386963,-1.0694813967938395
1.534670952754802,-15.350431507752118,29.17061679944782,19.82923606436148,3.849258840182747,-5.423940583910431,7.987192886568805,0.14261524026924982
1.6489378852994916,-32.35993701102665,10.511457541315293,17.69603101567034,-4.980533920079416,-8.733962363516058,5.6531092423042715,2.4680929371780573
1.317260809391073,-73.02260392044367,-23.70569960736414,17.591915506312443,-24.09893633733378,-15.845480401226439,1.014181296834987,5.3080571252845
1.2480250298916942,-132.43685432642107,-67.39614942472991,20.424754560027516,-50.796294784816695,-26.17494845588482,-5.628823678544987,8.115167157353714
1.8639762032308995,-197.23321658303965,-110.49266140495422,25.692815745146888,-79.02906151737443,-37.53254398236632,-12.895456904702108,10.454269974821582
2.9567591280987897,-250.4577893085316,-142.93932671152504,31.457787801816853,-101.670270749173,-47.00368766635077,-18.93444907622375,11.992220119769815
3.7950268996517003,-278.2794165487102,-158.40404100059197,35.180642458657076,-113.23413327138664,-52.18228382311069,-22.287956765310433,12.520968255725574
3.6445541504349794,-275.1066991043015,-155.8480579877842,35.018885337030646,-111.71061160189494,-52.08660517486085,-22.487647375416945,12.040711727017328
2.35083735014598,-244.8119045554107,-138.58326957019162,30.845749910360126,-98.77621786984878,-47.342404013160525,-20.083430025977723,10.822541295572313
0.560439769050106,-198.04540102746927,-111.96700063741754,24.36666997559905,-78.61012307249767,-39.67767022573507,-16.195668700541294,9.342467030830552
-0.6050734932350855,-147.5186136201428,-81.33887011130967,18.237144227423805,-56.15955465998086,-31.113920700117973,-11.93762850911804,8.07165203686534
-0.22174311018563497,-103.61697476620522,-51.06507350365623,14.694033353113783,-35.66713682025838,-23.280014706177592,-8.030173045343142,7.243026485079768
1.8643309950825806,-71.93411220495432,-24.48112932423065,14.494132759036246,-19.84932442784992,-17.087026882318643,-4.726263103637225,6.7610351133977185
4.9341842567241745,-53.11763364410716,-4.0323435125579214,16.730467087733533,-9.725118789092042,-12.773480774917953,-1.9730130027684227,6.325232403163974
7.801915730793656,-44.432109202718586,8.834496025877005,19.534345251232796,-4.91274319746683,-10.17655148957104,0.34116550417154135,5.679073239097738
9.438645115016596,-41.95951477231101,13.940421313741677,21.15513523439224,-4.176558004230006,-9.02943252517244,2.1971307873734434,4.8079967939666455
9.430312419843837,-42.45962840152942,12.40851240587813,20.77695008025957,-6.036929382130091,-9.125643176288333,3.3975395851532726,3.96378356398352
8.065668620296606,-44.389247544752564,6.217498799422744,18.723069770911973,-9.290669359531828,-10.3021468338069,3.6695281981437025,3.5320238065234917
6.122231923370559,-47.94691787327834,-2.4830439679306595,16.127017294088724,-13.270928169186224,-12.300964569220385,2.867255960992289,3.862247381741821
4.547710809635508,-54.09049310981658,-11.708462417557381,14.36439761566641,-17.666769077506583,-14.609051229936258,1.1947342220802182,5.160669078932248
4.163359599918607,-62.693758442641,-19.31729409257546,14.468979580376221,-21.908137441186906,-16.36505350791637,-0.6555231821504325,7.441057443782833
5.397726009699854,-70.70778300264243,-22.49947833202499,16.631767669999967,-24.516046576267662,-16.415016959511522,-1.5726884718667782,10.467906638222757
8.063339553251282,-71.8279168241296,-18.011079347197118,19.913001279275676,-23.073553072375294,-13.588783548879002,-0.38263360664312546,13.686162699022733
11.294498135274873,-58.70965587469228,-3.5874170462425083,22.395289809204357,-15.185130906546584,-7.181790312179084,3.598919993245889,16.24189619434644
13.7930719872298,-27.048971077011082,20.201599502134247,21.908573069356088,-0.024323918939278558,2.5471291691139797,10.094088519862712,17.20803424005025
14.370979307208014,20.902234723930984,49.12559591998899,17.097393580340874,20.56324416621405,14.180544650666214,17.794639511976904,15.983350805067563
12.538273800790389,75.96205112545651,76.48600703376891,8.25419045457727,42.32190331791263,25.486258466323704,24.8251054043727,12.650402257006622
8.785838744300698,125.52808866658444,95.92747326530751,-2.6375909858881426,60.275884882763684,34.233854789478215,29.53795433041418,8.03914324228432
4.364875931318547,159.1609424988904,104.27036183815419,-12.759632518109276,70.9333164897964,39.091602233188524,31.21546560497857,3.406573746290004
0.6737425468775332,173.01879072691654,102.67044135139946,-19.754645063342846,73.71487148952401,40.111686799470654,30.29162576630118,-0.10933323886960464
-1.3917423518787928,170.66893470817143,95.49017031515822,-22.722804250728657,70.8163808721569,38.5376159920038,27.994210169092632,-1.955845080375872
-1.7570103390182272,160.17727438899388,87.74526470864365,-22.386599258797666,65.73298850238228,36.0803408262715,25.657607423174337,-2.3021660498735614
-1.0199613808294739,149.65054069664038,82.79053737380069,-20.436572567352705,61.47083233226202,34.11813485287495,24.13063000357725,-1.8113648016649389
-0.0035496255814213397,143.94928098559149,81.46581856733687,-18.560459901612678,59.480385531655784,33.255287235163046,23.57839303455254,-1.231488274895605
0.6698775932953611,143.92258778698042,82.70832690302896,-17.749336606688622,59.6512046328724,33.367108200422756,23.66896676911189,-1.0615440685620043
0.7612586847844699,147.63033321122023,84.74626097275863,-18.15373871802306,60.97415916567243,33.94028894954407,23.908562117472673,-1.439800618419111
0.35822276967717026,152.1720921455053,86.04943329012117,-19.352744257361888,62.280372839394246,34.43219425622945,23.90210284305161,-2.226708924599049
-0.28019153665974855,155.17061971096055,85.82460958145539,-20.734059357154898,62.75353623103508,34.50289361685465,23.476153756358507,-3.1606061415666096
-0.8678310820801294,155.66605795925327,84.19391075286454,-21.793355779686483,62.19768032149535,34.11274729509107,22.703813711345937,-3.992686865015614
-1.2048757431041293,154.35319965157012,82.0661360873789,-22.315476537247676,61.052827585500516,33.49869164974268,21.84908498651388,-4.577037565189922
-1.2592532226650361,153.00081298543532,80.59729767126184,-22.427732654182865,60.091918679639555,33.01951983461689,21.216307728441308,-4.915227249766543
-1.174602797814654,153.1943051972349,80.41770231286395,-22.487285273486883,59.88474026607978,32.91525424024601,20.950432767791835,-5.140102326017018
-1.1716553397124496,155.16144496957202,81.16092203153198,-22.828552926593485,60.37187687829584,33.125951633724966,20.92014064182399,-5.433237801906926
-1.3956060624793418,157.57770588105154,81.70506199683396,-23.527944203740542,60.891562312834424,33.314993408497514,20.789705872830137,-5.918284151569461
-1.8242881989387745,158.52692433474644,80.95214643872612,-24.36604159279902,60.65229229441601,33.09537053052432,20.240564269968207,-6.5992182767549075
-2.300736693585732,156.88114225873198,78.55647214888602,-25.010208421178305,59.291985073945995,32.3016470268993,19.18833589357943,-7.374619928561427
-2.6417071520808078,153.17084591309137,75.18244764643394,-25.258819603672883,57.16365975244194,31.136670861761786,17.868130113511416,-8.096672273662108
-2.7308897201613593,149.56425789298194,72.30467050796024,-25.17330679864661,55.2551330272849,30.130117653625938,16.76773505152378,-8.629306203339098
-2.56542368703297,149.08013527546237,71.69597006532382,-25.058872012548132,54.82497246259835,29.933636663804112,16.440881886554727,-8.89872003118521
-2.28360345245945,154.1869013014072,74.58742365344267,-25.35205884178066,56.80238972016874,30.989563030081417,17.220049308518213,-8.951859717170732
-2.1715087837872264,164.96386398055776,80.55796516379371,-26.441733276532176,61.02108347714142,33.14179762986786,18.884423977116434,-9.000694626042216
-2.5840664080158295,177.55175433314793,86.71848397761943,-28.41183733071465,65.63028766763108,35.376338916835465,20.463848548654546,-9.383784930795361
-3.7484678448359636,184.24549180217738,88.10424685092025,-30.788180119945086,67.27229376519684,35.96441446445751,20.425952411539313,-10.405670266105044
-5.553374079154519,176.17825172388706,79.66829261912966,-32.5149401709676,62.35676108173258,33.13609316608565,17.32588899035593,-12.118985406692795
-7.515657784913831,147.82705596170115,59.042874356100754,-32.34593536662843,48.97690714268386,26.038022214988242,10.645654542235409,-14.194577136661277
-9.022670803581489,100.7903533288996,28.36554311427225,-29.53820425104347,28.32519503666489,15.40974919119186,1.3018967440904459,-15.992174761867027
-9.724483083998189,44.16781880202299,-6.1531414352963925,-24.41724528047985,4.568932637431847,3.4707242009237693,-8.582293519594662,-16.817312705395562
-9.794872903466622,-9.138617030528284,-36.79888984413054,-18.367976715373445,-16.908719179517455,-7.019026528180191,-16.59483738519012,-16.230011423902678
-9.840885199517555,-48.15038806736756,-57.52972625885095,-13.167489456924946,-31.88789286217255,-13.996312115108001,-21.122518000557253,-14.24046905270156
-10.490345073217195,-68.10997290116582,-65.92414075611448,-10.057578201444818,-38.87308009601622,-16.87628037651771,-21.954454292484133,-11.298174913713575
-11.947551388747918,-70.95005102397309,-63.083837709892535,-9.184029889543762,-39.00771074596605,-16.439752711641447,-20.0755389136219,-8.105530605201885
-13.871988306197919,-62.29850459108765,-52.20046335202334,-9.802875080291239,-34.71237383589732,-14.025386191116544,-16.894084924400747,-5.385140535403031
-15.713412336546558,-47.718506879702936,-37.265647497867434,-11.098370654181076,-28.259446476412393,-10.68573553715447,-13.515351189752216,-3.7282025059869253
-17.266116879930422,-30.93414842829273,-22.764663453423506,-12.977674698255312,-21.29778081310047,-6.8863090811249075,-10.535898157379325,-3.549249093241946
-18.986728855349202,-14.63565336858008,-13.805963878020828,-16.198961119551573,-15.315178723672641,-2.8081812801672807,-8.326195058642604,-5.065946810400701
-21.763561243211814,-2.093158109718386,-15.426122502637137,-21.693232386601625,-12.133478737802506,1.1748265467233592,-7.354640600051612,-8.22014800666049
-26.238177786504984,2.6934465471991915,-30.546743183503818,-29.568176816925696,-13.574064748289052,4.337600782920781,-8.141796793132407,-12.561888897216532
-32.13716587142431,-3.041995959839717,-57.583301090039626,-38.54502336383953,-20.31411942760719,5.904955595560832,-10.845002066377896,-17.22255410304768
-38.10124494629077,-18.257272355934454,-89.59021505459445,-46.29162872800643,-30.841443398778324,5.533194711038222,-14.863890913672579,-21.095610351935335
-42.18537752868647,-37.2487663322256,-116.21489265085613,-50.505827273793706,-41.53744455626293,3.551907639215895,-18.889180602123886,-23.213414003422837
-42.770545858057545,-51.75333816476276,-127.98980526909486,-50.09798969769803,-48.17488148726688,0.7634942427261814,-21.479003216126323,-23.151475549810847
-39.362821997542575,-55.083285296005606,-120.81638985298017,-45.746949533895126,-48.06927069778528,-2.034165693157707,-21.820225314857975,-21.229242651547413
-32.824647275560075,-45.76168311199131,-98.06919169484536,-39.49675523850901,-41.54801644392452,-4.426431915786692,-20.155251307844075,-18.368415852369854
-24.931680515627182,-28.27975974297961,-68.9728990124036,-33.657375857970344,-31.756149596844807,-6.400414387308995,-17.571920258876187,-15.666082089245279
-17.543689225861108,-10.460773053116903,-44.07709044927132,-29.679886220818474,-22.888682917520438,-8.066134118119034,-15.303603226656373,-13.911901146071722
-11.872185676647714,0.8655066547904686,-30.37249286590706,-27.64823877156261,-17.96490464279258,-9.383338406564608,-14.023913514538425,-13.310445052327026
-8.214967545624493,3.1821303538510177,-28.724180021303198,-26.609138290352888,-17.509757846765247,-10.149611796588522,-13.596176731880078,-13.539042686108315
-6.198708890877614,-1.2587722933691827,-34.77455457057018,-25.429501521188335,-19.8374853300175,-10.238237990835765,-13.389715694156806,-14.063958666662893
-5.255832747341949,-7.723060116415828,-42.323671902739726,-23.574227546572633,-22.547031652305034,-9.836747767411387,-12.876115192323054,-14.49432397866435
-4.981427651931909,-12.180413276562158,-46.857224207854635,-21.332841925838288,-24.100032811097062,-9.43071846167308,-12.057775845164729,-14.768789256815332
-5.201925222923056,-13.240296511032103,-47.20925279058826,-19.46974204840365,-24.45728838953046,-9.50312799216327,-11.453997956192282,-15.110800974484368
-5.84603714868024,-11.935002129474217,-44.92947222858423,-18.65619990375562,-24.564808463192776,-10.183068673979795,-11.715314231234633,-15.82658011235793
-6.81067312805637,-10.141101743122283,-42.44718691599601,-19.077499809552364,-25.320453023874627,-11.139533524290377,-13.172851059729663,-17.06734571758696
-7.923844318586181,-9.146922084855708,-41.48364906720792,-20.36518826042919,-26.859207090355984,-11.808164977648195,-15.5997702287076,-18.65886384051916
-8.980711487602292,-9.214633988621024,-42.4343877263685,-21.779082984419162,-28.53308826530756,-11.753809815421473,-18.260584283878007,-20.077120905789283
-9.805369185316763,-9.899208333106026,-44.58205978588092,-22.52136858600869,-29.380064705278272,-10.886194307246784,-20.163896478925523,-20.614999639096236
-10.33514260653304,-10.500945246856901,-46.71403357424118,-22.10195381125026,-28.676515836571042,-9.42910478705114,-20.410111701773463,-19.70156353793399
-10.71868824104941,-10.40894882655699,-47.84326599747157,-20.63883470172447,-26.32202368418204,-7.776826675675984,-18.551297846853355,-17.22739621005352
-11.35049404588584,-9.425016933812254,-47.770393929393215,-18.91294008704173,-22.962781965146082,-6.398380453990544,-14.850620690169231,-13.691903853545828
-12.74742684490302,-7.9787847407910215,-47.15340495976412,-18.07045620915274,-19.7800475162377,-5.776861293834944,-10.284214608237702,-10.07711546133479
-15.281776841212631,-6.915588192593389,-46.95216375165938,-19.09472645207473,-17.944069707693515,-6.25367745008115,-6.199681062037115,-7.504487507356952
-18.926534393157038,-6.8373005013800965,-47.637146495021604,-22.347047004765415,-17.98279535132341,-7.763928655690682,-3.751547364958905,-6.829993654780797
-23.18333357372526,-7.5447897434077245,-48.84835757225298,-27.41336994624269,-19.49916935594894,-9.667045237503377,-3.409989413995527,-8.33131895683838
-27.22831361891297,-8.164043993801847,-49.80247345845297,-33.26448365117208,-21.475815610511862,-10.91007683935739,-4.807614227093796,-11.586436849584398
-30.169504784365966,-7.841419457208665,-50.00485468028174,-38.58100401626399,-22.92345151534757,-10.521331159923262,-6.969116410252152,-15.59091158090639
-31.291327411042342,-6.266940400786828,-49.54637122790336,-42.120413080776025,-23.344977060707887,-8.143039975001974,-8.758281376274793,-19.109115428395796
-30.235223272042276,-3.527057773907287,-48.76603449406535,-43.081355953148275,-22.71789527107868,-4.2584592827315895,-9.329616991141634,-21.169495798072507
-27.106911306359894,0.3798380776628755,-47.74355507571966,-41.39362680249952,-21.18624831620505,0.010125645934801114,-8.445717376865932,-21.506309993382835
-22.47351405721096,5.649686307753866,-46.17835824724617,-37.778130920355245,-18.862437516314785,3.3812645355111837,-6.581794981300992,-20.702580693186555
-17.20563428326681,12.214597581856168,-43.69856505727508,-33.463989740398006,-15.894076233956872,4.9092914402852355,-4.758727802675655,-19.896628235570688
-12.198743787178023,19.27541020637862,-40.21066301258916,-29.665672069312276,-12.610495722982272,4.29545949407881,-4.117764869645176,-20.165981419710473
-8.1082778205923,25.41366365258554,-36.00745972930909,-27.11464342818065,-9.523642215906492,1.934203208382757,-5.401161233528268,-21.929733168666854
-5.230711229204906,29.237655727119567,-31.698356094666817,-25.895522524545193,-7.16981877514692,-1.2881560964359924,-8.602044784454963,-24.716831573032948
-3.5474916342394303,30.061231831882893,-28.085613123709017,-25.59914072638462,-5.906638476048987,-4.337740249926072,-12.959601923954954,-27.41269575943478
-2.8453870588662484,28.28563187886282,-25.911595681520605,-25.622147324536108,-5.7161455059988455,-6.356487808572664,-17.261363803668573,-28.811321513356546
-2.8366311603217986,25.47252661956442,-25.42746742574228,-25.4572614991249,-6.040887561853737,-6.839286436898358,-20.274084201772084,-28.17177538048383
-3.2705947493431,23.9977185853246,-26.102291248441826,-24.911427671535876,-5.829987076543653,-5.679019396981784,-21.15310716711524,-25.53559456968182
-4.030208388509355,25.96418497986332,-26.95299267289639,-24.187829706510303,-4.036680828093586,-3.1929246785034318,-19.756308617740448,-21.691281349219395
-5.13613321765473,31.483297044658507,-27.457952780920117,-23.714887570546512,-0.47729243047415293,-0.16445658472791266,-16.767961817288743,-17.795206235609246
-6.579284451217709,37.423727707882506,-28.239877231554644,-23.700063224966517,3.567730829129873,2.2430820681597883,-13.484356679617008,-14.791706447676294
-8.052273941691686,38.09882490491666,-30.642878617987574,-23.658858717711144,5.720600192329213,2.8659075937846437,-11.224188485902365,-12.912417958296837
-8.822586027670035,28.214493880289165,-35.29925595679673,-22.348360988598735,3.8830381945370833,1.1294887760009098,-10.61941923202536,-11.560700926334503
-7.960813825230687,6.454697002322607,-40.88474601641899,-18.335506918029502,-2.248160359485612,-2.5229233884199815,-11.243270539577686,-9.69512404876934
-4.865928052921687,-22.840926178652136,-44.31098993713789,-10.93283380686619,-10.672472492319686,-6.730491235835617,-11.874176024383628,-6.4999048248139575
0.25477060183232997,-51.33902140078278,-42.45795249578267,-0.8660126802710773,-18.046780230101206,-9.863478825554635,-11.255636774728526,-1.9201626918971355
6.319738974178968,-70.83476471214813,-34.25181162555159,9.84750910391204,-21.510349130671557,-10.843191800303797,-8.857521399355896,3.2735172112472437
11.818651926319745,-77.27311252670832,-21.570722576117113,18.798097329992768,-20.177072181792816,-9.635478792061527,-5.1580442141606575,7.908812707564
15.51336407506349,-72.2559125557884,-8.313910703259777,24.317626918872456,-15.385157430372612,-7.146161419545093,-1.309106625951583,11.033552973904131
16.970829860416675,-61.38111106099614,1.7211538369261263,26.163488200198227,-9.677862195545663,-4.6341215495339485,1.5500129557230622,12.355304600607107
16.633039213361123,-50.816724720332886,6.7200442476273325,25.401980457844402,-5.3083132508333595,-3.040228019727064,2.8752283859458854,12.2772763403275
15.444994437555428,-44.40655403248473,7.341866683593953,23.675515043463314,-3.2473970964987497,-2.6291354643859455,2.867461694729967,11.58210595540679
14.327629573165385,-42.79622087109677,5.7643292564950075,22.377346421672865,-3.15039067272753,-3.076262727967555,2.1902279160347473,11.009257414203464
13.8146731392402,-44.39743150358555,4.216610932350792,22.18788878004706,-3.996226442689406,-3.8217968899982977,1.5310106561215169,10.973112511821837
13.986715928853691,-46.940993669946415,4.025648566000287,23.08047343253527,-4.778902831075288,-4.400270909003557,1.3046885024820611,11.51697917368295
14.619332107107704,-48.584515202252575,5.491859476247675,24.606737951183693,-4.869770422324725,-4.583545226616204,1.6011852097164514,12.437109931855243
15.384662272354975,-48.38910919704593,8.221219354130094,26.220658083360817,-4.083966531875302,-4.368223156599181,2.2839958189638208,13.453522576509055
16.007914598580566,-46.42196172429922,11.48016500519536,27.518186597976417,-2.6258269022164673,-3.9064194770306426,3.1137541492383933,14.344978426306733
16.359240781708383,-43.56986757192515,14.493437258633906,28.36565010273081,-0.9552014637599827,-3.4206920019302047,3.8544511539232973,15.021976387795402
16.478156584932776,-40.991698852136146,16.76716944792506,28.900829954738693,0.46094577505214784,-3.098311736506779,4.3683645692549185,15.533526643809497
16.51997960165236,-39.411641651479,18.328207340630325,29.40335280953866,1.4175599078498804,-2.996909443526942,4.671846246981209,16.01117611595304
16.64535775070042,-38.76524962084085,19.639364073720625,30.10492877948304,2.0505167709939154,-3.032408251236942,4.90118286163793,16.5793887282912
16.92527385373429,-38.48246272749657,21.196911380218147,31.069267412052092,2.6499249440968984,-3.068006965870586,5.199932441488585,17.28817970077963
17.32919605381794,-38.07426458032009,23.169746548715484,32.216888490559924,3.3992227613199777,-3.023470768720809,5.621820290941516,18.10977699150115
17.788229431944664,-37.42354104129821,25.409646688020736,33.43811733472554,4.295425602034534,-2.9048473234653653,6.1311015707839776,18.986785543368153
18.258713254106315,-36.60270596101112,27.74158978135971,34.67248265656437,5.275232112717834,-2.748794461928896,6.676571090541436,19.8793171481458
18.730182995885766,-35.606842023441324,30.150645434052134,35.902331906193545,6.3375286001558795,-2.5680152741170965,7.24295446296077,20.774845501030548
19.196274466300867,-34.39161361199341,32.67642978327208,37.11611460672137,7.505328381422733,-2.3620327982053677,7.830785622157076,21.67265820967057
19.643206013615202,-33.10047923346418,35.22982759643391,38.309869692633825,8.716125999470465,-2.158889338843157,8.414881978544674,22.575580021757258
20.07068014489239,-32.07457442522585,37.62481830822898,39.51596601472654,9.828733830797256,-2.012922231522737,8.952042004961116,23.49681650412258
20.507634620546742,-31.54849618497886,39.7940666342418,40.79773665682526,10.762691105123599,-1.9507703996181667,9.431467914844239,24.460744158764715
20.99279849062818,-31.39361320115378,41.89318909660732,42.19684082151212,11.592666567679865,-1.9345887968895457,9.897927058649051,25.484668382106076
21.54192623026099,-31.233849547485157,44.151920265126485,43.693598989610706,12.474549113657549,-1.891886862966611,10.413866316874099,26.559952553513778
22.143471677462045,-30.782761448913675,46.67212215601916,45.23168089448932,13.501924830385402,-1.7753346936778265,11.008263263655097,27.658532987841962
22.784031317392216,-29.996081012332645,49.42278857271908,46.77714607658413,14.670946888706096,-1.5832665092482359,11.672408462327308,28.76129881119623
23.46245141337942,-28.93833713918754,52.3807831446171,48.33965640117207,15.96288887895536,-1.3340369983958316,12.39173241623217,29.8768825343727
24.16891298208869,-27.67426933510165,55.55124156761317,49.93802349771026,17.381864380023682,-1.051947762197529,13.152234529420632,31.030604456212796
24.860415448024956,-26.415571817036007,58.792677608197074,51.56730536006558,18.86099384975591,-0.7943557651806992,13.904988978931236,32.2389725638378
25.47977952545922,-25.684705699281256,61.71311417998715,53.2173645939064,20.17474653011911,-0.6677818444583377,14.550925880603133,33.49892842044557
26.014900820373718,-26.082410959676327,63.90325954602844,54.91478112761108,21.047593223741142,-0.7672616466425872,15.00458307785382,34.79757376810464
26.539844693713842,-27.683526911228203,65.37875165706585,56.72036686941407,21.427129441888482,-1.0632909408376259,15.30003214389104,36.12204203195578
27.188665439877397,-29.624990788312232,66.79436623278713,58.669573285076034,21.660332063370326,-1.3476988496786804,15.63075205858928,37.45605333488035
28.075049664733317,-30.399826426247543,69.15871800065136,60.7202671098549,22.365027174447036,-1.320235579486171,16.260492538326623,38.77716035749566
29.21387178844167,-28.756615791934117,73.22417193739024,62.76999981548817,24.0642741371031,-0.7771994988990809,17.355545168712855,40.074510153330266
30.48737893054355,-24.608219016310745,78.95522230869365,64.72815383434434,26.832976690335517,0.22000247591703595,18.848269817757508,41.37840987511667
31.665836747650182,-19.423477741554198,85.33402109761333,66.57676176504582,30.14014278733641,1.2967459640462473,20.406408345924905,42.76626035339674
32.485316829961405,-15.930092804044952,90.55755297531577,68.3834637051255,32.92817505364922,1.8689812725360782,21.524446540415557,44.32228916452648
32.7868729422199,-17.126130188311244,92.66850313352778,70.28319072982534,33.94935767738543,1.389937643658451,21.733014479300913,46.07000136370509
32.681349512043425,-24.659736104507672,90.63363494503103,72.44080109132291,32.3901571330195,-0.30219671992255426,20.898531841592767,47.919988404042975
32.629577673233115,-37.04182056941589,85.51477433001057,74.96108748006333,28.62517204712674,-2.6680286272378844,19.49340837070544,49.65798213835314
