FZ,C3,CZ,C4,PZ,PO7,OZ,PO8
-2.6062175781205377,-7.277006737075846,-6.248337707915741,-2.1826973656514936,-4.560984928944605,-1.6869442127490568,-4.160648238445795,-2.2708724030908782
-18.988052483616844,-88.4088933357302,-75.00395251399877,-15.078659085533719,-45.606991244303856,-24.06673353031496,-28.249883767873378,-11.170846807826777
-30.673839783570926,-151.49958859969215,-127.88527664466324,-23.99541357085723,-77.1538802707137,-40.724088119202406,-46.20329084536192,-17.183306354827817
-34.97062083628842,-185.66924224970646,-155.41183881382486,-26.701284118873225,-93.56864607921395,-48.17965123381289,-54.368107505471365,-18.76701117654085
-32.10102317913797,-190.46285390082812,-157.40263422101026,-23.502299640882264,-94.80658432672476,-46.2977382916814,-52.752882128084735,-16.304346023676366
-24.644728920199526,-173.7002705666821,-141.0944339397147,-16.77133205605215,-85.19309942287906,-37.775404927916135,-44.39438697505255,-11.6502452724906
-16.042162377160054,-146.0652271488886,-116.36573092073208,-9.667280883499444,-70.47327512226475,-26.54998881165159,-33.54130311738231,-7.046519876548603
-9.115257670218133,-116.50178747299053,-91.52335480696425,-4.802279751350402,-55.32064198739006,-16.188557417917888,-23.863604868667828,-4.0911137195377645
-5.284362373573757,-91.19816248162559,-71.9753129434797,-3.379813102203068,-42.76067132972754,-9.076606053728986,-17.586434518021036,-3.2568432788362864
-4.543291539107261,-75.42454202015941,-61.30600147800813,-4.9266573006663945,-35.12213497461481,-6.451236610561587,-15.581900131725185,-4.013613566956584
-5.848399655518165,-74.91386606248614,-62.338131130211366,-7.546157170326275,-34.8286539706191,-8.709193791269923,-17.799794833055007,-5.289766135202028
-7.605725523800956,-94.2105292146078,-76.36541605090343,-8.6273636565547,-43.728785535719524,-15.447322720133672,-23.463898513949257,-5.973303303531201
-8.17345092483828,-132.6790255577061,-101.06079247407237,-5.902571298313092,-61.282657574450425,-25.22114281022482,-30.999937961315908,-5.292262231334441
-6.396757297099636,-181.56137390112605,-129.28580232971953,1.4585266557132588,-83.23489133626411,-35.46969090778652,-38.09415545537894,-3.037401137766295
-2.0812105695518164,-225.24623697351973,-150.64368350523887,12.216542380082226,-102.28190311403773,-43.03322625834179,-42.22749307763853,0.3771476519943719
3.8199293216170194,-247.10159718624897,-155.62230505156123,23.306849723051634,-110.87309731740058,-45.24640127803207,-41.60889496536265,4.03180574318639
9.48603944785872,-237.06516622394523,-140.21862203878334,30.982271912387528,-104.7648936999151,-41.10645077621832,-36.03430016861544,6.799800543195217
12.9369631484733,-196.79892896938762,-108.357678456167,32.39005885508293,-85.30675794445023,-31.84507261072364,-27.126954621123225,7.761663527178809
12.878214312751657,-139.35701918798352,-70.50599855782885,26.841249722793954,-59.04462179074734,-20.487897014363316,-17.714502530061882,6.589482714129237
9.282816418764341,-83.29124546997126,-38.973995820299905,16.141322523778044,-34.71029500991082,-10.528205136325203,-10.587408593466971,3.7226201577893536
3.4160824050484093,-44.23915211116057,-22.313077584787074,3.810087711867301,-19.166751999638468,-4.363461989589618,-7.267366652734637,0.22552925545606894
-2.7154707505723006,-28.472158832587834,-21.796088671660584,-6.416396293035556,-14.498006552316673,-2.3214401432501957,-7.444805047681395,-2.6288595321025774
-7.214811212049395,-31.6880912084147,-31.785107853795065,-12.051523373412717,-17.751717234646822,-2.7926615013319633,-9.372932743054932,-3.8565021493223095
-9.017772746123724,-43.156211034774515,-43.48148475192735,-12.59704763967432,-23.24204801452134,-3.3432608206056362,-10.94125160724628,-3.100034053855427
-8.150242504628936,-52.185085479025986,-49.59722578262354,-9.302014524367708,-25.82570796039252,-2.1108660916340316,-10.76222482209446,-0.6652992144942416
-5.465955807847495,-52.93609859754822,-47.250688522163415,-4.244571141448492,-23.195833252801926,1.3183099113903654,-8.672657593720913,2.70140906389406
-2.110580297736883,-45.41692269828341,-37.97899359429011,0.6508343313377236,-16.19490353375044,5.928885030447835,-5.516746078304129,6.118631099038494
0.9460309123158169,-33.38843288003544,-25.77730549274297,4.17400057128564,-7.566578112119622,9.97957592198825,-2.542452062022939,8.797402328938306
3.126886849774719,-21.47305541697461,-14.874616608334035,5.887259357335274,-0.29532375547415834,11.882077768196263,-0.8342043117900866,10.165610166363738
4.2659051571671895,-13.129708503494355,-8.254398324097304,5.923275081807868,3.617587708938356,10.864320441927397,-0.9566571291742031,9.965314134725888
4.558523106847635,-9.719824059964646,-6.918305891489532,4.772353315637193,3.7516127137361095,7.278613331804066,-2.7643716134990797,8.359134907555367
4.4778000044594,-10.316055631190105,-9.686168318759503,3.1161252139928335,1.3096161621328444,2.5229161794641244,-5.373605423690851,5.961477575989887
4.601210661966202,-12.258743103512186,-13.69452460900165,1.6479108203001138,-1.4253092832214365,-1.445463690805546,-7.417921918781451,3.678166730896315
5.361675963032642,-12.540933582524936,-15.704895435772064,0.8854649092037407,-2.1586482623209595,-2.8940226887930693,-7.614552625896603,2.365543999568409
6.867266056268482,-9.399750540774063,-13.642394768252695,1.0729256058366197,0.30777951086703026,-1.0463492831421075,-5.3778513211369505,2.4848435920243395
8.92372408566377,-2.9845344528160287,-7.364113564759445,2.216705576325125,5.629373282596981,3.654769348523454,-1.0839290448803054,3.951269500377479
11.21493260952536,5.347022630408091,1.7580405930937213,4.163790337828075,12.383338162268075,9.87879398677515,4.169271159578116,6.234160002704342
13.454499904169497,14.25188541762107,11.820121124891878,6.608416837833654,18.95394769557199,16.04602620454394,9.080235627993561,8.6051018495812
15.393944582829382,22.905040246593675,21.025111055403293,9.054178470194639,24.12427917641764,20.8506419698987,12.587055635715153,10.394922454824712
16.770231316225313,30.558619307879304,27.792385855608632,10.879585674427085,27.16114901600546,23.485616067732273,14.083867190572143,11.185860183451101
17.35042617355162,36.089061239701785,30.88713639157332,11.578478125895494,27.74847046138997,23.688051039358868,13.488818552229235,10.914818030361024
17.09514453080417,38.37734781410867,29.94152038362959,11.044192383189909,26.09922691596882,21.761635174444148,11.245589663006188,9.85935130240731
16.292258948238715,37.27399218024323,25.995192317507037,9.676631899959263,23.120243347696018,18.55620777636881,8.217711264472932,8.493176605699757
15.514359422035959,34.23331003712877,21.435332246597987,8.219473734055562,20.30264474342947,15.291836766740271,5.438571897988055,7.275598400518315
15.405790220737362,32.13938289138893,19.264542910314855,7.431070208765642,19.305499182287562,13.23076480294617,3.824978219598036,6.499672760703477
16.415287047774733,34.54004936136035,22.15535047239019,7.759546192281694,21.49990064758743,13.331507389172717,4.007258181640766,6.270122266375111
18.565599450196686,44.47004130350195,31.56335396538099,9.126516709017135,27.58714012304402,15.96889609299158,6.255570731050104,6.554156045703892
21.29955365712841,62.6646960140893,46.72300274528942,10.87090197462557,37.08365519918935,20.678121188309877,10.318659263345502,7.194960062565569
23.477395750146894,85.40378875929599,63.59057700751006,11.919898735580606,47.623317785527114,25.93584086097001,15.1277141905676,7.8675253332960775
23.6514407372612,103.49377647267744,74.68185231033672,11.223273458550526,54.67413185692586,29.225306022059648,18.668577823951075,8.082134494081915
20.645658720475815,104.37025935954142,71.0283460538431,8.318938797584623,52.56582290908023,27.706057334871026,18.450126816398303,7.3426061766162025
14.216316543139229,77.62415138873237,46.22994064896828,3.710280893923694,36.983412805889586,19.457413665776585,12.615799021029579,5.421773708273307
5.388563720321122,21.332767179348632,0.5978183343724643,-1.2454282144968734,7.732140686315449,4.6984461505136155,1.1285814189597334,2.568813484551175
-3.8256220985693656,-54.961089732815374,-57.45203573968522,-4.951785827570305,-30.11548871374104,-13.850592527688201,-13.803778483890861,-0.5326574389891324
-11.251127236009996,-133.2028626105689,-114.223762295137,-6.355147763195691,-67.81011858679608,-31.886777208540412,-28.496974470661094,-3.0693103943653024
-15.47679019605578,-194.54516940034858,-156.55675510389142,-5.425057054107835,-96.61624842122708,-45.330927884712146,-39.39956355655148,-4.4862041534022445
-16.370335201877758,-227.52012985820434,-177.39697037040884,-3.057825737287249,-111.54723130013319,-52.0291389503665,-44.62221355453462,-4.7173852797326115
-14.929472102261037,-232.08852757952292,-178.0421665855621,-0.5055756076639927,-113.05260925961757,-52.4178388649555,-44.53077319266906,-4.13413615422285
-12.630991164202213,-217.71571783128894,-166.13917760553664,1.2772227277489507,-105.90792891882737,-48.88870816284512,-41.176416630226875,-3.282745819569664
-10.709811547307108,-197.34236148116196,-151.10917153570102,1.979874738992353,-96.28974589411887,-44.37555940444275,-37.05439329381146,-2.6050465128273608
-9.75335277994268,-181.21574974977702,-139.89750606468206,1.8555578936496568,-88.92099609644,-41.0448825637856,-33.983441906733546,-2.298223129087822
-9.71416696413121,-173.76166790872486,-135.10819476350468,1.3975522319905451,-85.71628252148852,-39.7149652725025,-32.63332636170752,-2.33465466027446
-10.178314561335945,-174.05212925564106,-135.64407249841207,1.0430139631312119,-86.10108514456437,-40.0461730343737,-32.70235408535934,-2.5606834946272827
-10.663789162788914,-178.2666023585364,-138.58180388176896,1.0372650620176997,-88.21050047002706,-41.12280929602501,-33.405016430734996,-2.7944235509687214
-10.826947326097331,-182.24387553691076,-140.9716988702844,1.421029597561367,-90.0869221222691,-42.022701178126006,-33.9444918684991,-2.898052780628687
-10.560791626792165,-183.19846591773512,-140.99258397940307,2.0668013971856904,-90.46867152563614,-42.184029248998364,-33.8306089539903,-2.8258062357455445
-9.990636695444795,-180.48992891884004,-138.41234794462017,2.752722517161395,-89.12531906756534,-41.54292359710254,-33.013971525719306,-2.633200437474103
-9.36861289892656,-175.44837330662537,-134.3554635605787,3.2807436250030944,-86.74053423776552,-40.449360152565895,-31.81642106543757,-2.4312332545669655
-8.912252697707332,-170.30273357833394,-130.45195911258602,3.584660019885489,-84.37846081430362,-39.40068679132067,-30.683709660650077,-2.3091223067694533
-8.687908816021315,-166.73737200265228,-127.81010222133666,3.741776485027635,-82.80369408551567,-38.7335498076683,-29.903362080477248,-2.284357223246903
-8.61533051896793,-165.0240654667591,-126.49132558840452,3.879162463502721,-82.10202763470488,-38.47083563383211,-29.478149068261114,-2.315321664324549
-8.564814264276746,-164.28640797789188,-125.79634962416924,4.07202284940769,-81.83581024196263,-38.40672931416935,-29.218085173168337,-2.3495762336813786
-8.445119251356827,-163.46375313178132,-124.96715621632475,4.329795422397077,-81.50263449640809,-38.31235517733477,-28.92416176974401,-2.3539259982569267
-8.22102037649532,-162.021938603179,-123.63984070344061,4.6520521122458955,-80.85396703828671,-38.071139346941365,-28.493433559800383,-2.310397349871828
-7.894401691603648,-159.9676557538399,-121.82131392438878,5.055945673229509,-79.8933025258216,-37.678264587825865,-27.91103136985496,-2.210391110115987
-7.508091934468653,-157.55747951729666,-119.71241085920592,5.531653879541619,-78.75038946600822,-37.19295189248863,-27.22347402209703,-2.072331317910842
-7.163870432365641,-155.21097891012238,-117.68433916729707,5.994330551002707,-77.65170255131815,-36.72843788215842,-26.551519497385748,-1.9589908540276206
-6.991334756901553,-153.53371032724317,-116.26612334653103,6.318060463918547,-76.91869315513229,-36.441545438353366,-26.077959526984518,-1.9521966853254977
-7.050595500459057,-153.00701294692257,-115.83904903737059,6.436475938178135,-76.79083694442389,-36.4415780956393,-25.933845499669616,-2.087249173325062
-7.246060512950141,-153.37735455177656,-116.14952168880927,6.4099857631187325,-77.11942761892483,-36.65377935267563,-26.043291339261582,-2.3034498023449874
-7.346124478330293,-153.42938024813435,-116.18273919583879,6.3980871809005775,-77.27322168939469,-36.78838115027425,-26.09158694293414,-2.4616157949725688
-7.114186172050506,-151.67030392561412,-114.73475844725317,6.576519426305103,-76.49234475493729,-36.50502866056628,-25.697992611245564,-2.42045869144798
-6.46223516544382,-147.53936503334066,-111.33863502575036,7.067514372712501,-74.48563249845398,-35.67286217031265,-24.684494805421597,-2.1205425329523853
-5.536075954351581,-142.14548005181166,-106.82144260244618,7.888210578059608,-71.79521549193247,-34.525035753942184,-23.2474895449504,-1.635646822149266
-4.702420856490162,-137.92032939580366,-103.08421679973344,8.88592868934955,-69.6440356355079,-33.59652393708144,-21.93047252991167,-1.1798759368113305
-4.439032748031519,-137.42287465499123,-102.25564677877588,9.695136187102744,-69.36676443544201,-33.48777661155917,-21.421931633239403,-1.0574188921167267
-5.118703939796723,-141.89455795550612,-105.5681222071004,9.826341735336904,-71.68049911665507,-34.549706875976554,-22.232578475414662,-1.5303983267134484
-6.713112284949225,-149.95639063335588,-112.20472953628499,8.935566034627374,-75.97675130552996,-36.55993378370588,-24.30098484533911,-2.619633489405547
-8.560447191198362,-156.79390716318085,-118.48272902514358,7.137246772973863,-79.84849725712031,-38.49743926796237,-26.66882773276995,-3.9440877038337963
-9.425521001595618,-154.57180005819032,-118.10926781029391,5.105085921124602,-79.27969050571322,-38.62539174229634,-27.506052577337403,-4.754198709465382
-7.974740968088633,-134.86427172120088,-104.17441365525352,3.810562188365295,-69.90437301399257,-35.062900548389784,-24.71685607442432,-4.231276195296181
-3.4981286650226298,-92.7811077109451,-72.53150440800053,4.013452382302033,-49.1372844327072,-26.73185438299819,-17.00098713119284,-1.937859047908945
3.5445885735220655,-30.773736375457712,-24.85407297705581,5.821284710546472,-18.121060342881428,-14.182666665961381,-4.808247743493571,1.8449167409210359
11.555709884032469,40.54413371568607,30.749515266425842,8.61026366325333,17.85616127461855,0.2983835414938336,9.487463856839083,6.134465585226312
18.477669926341342,105.84775811118143,82.48292104183278,11.36511646692896,51.09423710834824,13.535760136379174,22.469588672877247,9.658390666667286
22.75647741895517,151.4676569667836,119.79197307153758,13.212676736625056,74.65993977885539,22.88601613847953,31.216316845501765,11.446997027735355
24.015600318680203,171.26617018254615,137.78779525318012,13.796492733629398,85.30685947153249,27.426311153185654,34.622477568104046,11.264468936949532
23.044416038536248,168.67630504064502,138.6630385018225,13.275293099139349,84.49442726307068,28.1961447540191,33.72912612629152,9.635834013870337
21.1662107922565,153.84867592192626,129.46785415669507,12.026726542215998,77.01952062693617,27.372822081940967,30.91598156913632,7.491427586300689
19.45025725082943,137.9114700634005,117.904721173854,10.342412879244739,68.26453527500162,26.94992033730841,28.537413186837384,5.682927771464165
18.269441907831197,127.94852855304673,108.84053821301201,8.34089547947904,61.80588163980141,27.756354627105683,27.862041448365723,4.657414086209324
17.38804520024686,125.26687197013989,103.29904920904752,6.096848604069229,58.59139223321621,29.31919286262074,28.835250838338688,4.4184419365861025
16.38960221970801,126.93176052174177,99.74518179561608,3.8247040272074457,57.64577467533542,30.46175600228579,30.56957634145254,4.711106134822777
15.104592398144277,128.70481788218171,96.2038655195101,1.967738006766266,57.40347133785461,30.14499408275196,32.090047986007086,5.273729652505598
13.796690769314981,127.60853828134941,91.90178169713666,1.1314716121261599,56.826406249067276,28.100327542141404,32.90507015112934,6.010666273975744
13.044122321013228,123.42414990472791,87.9351124232188,1.8516816172203985,55.985881388965694,25.047580585842823,33.21518275457674,7.000272845160996
13.38133538978148,118.97931201781583,86.91993130041577,4.232928901314214,56.07099534807013,22.460309399820485,33.73835399351113,8.330782957395556
14.858908730481522,118.94384693583038,91.63442599239958,7.609167667292677,58.762096209909835,21.920699306695184,35.2101856368749,9.856861604258057
16.764813822097913,127.1308460879599,102.9978494383276,10.497578699341123,65.05322537862904,24.262915050102517,37.75617793377556,11.05424133981036
17.748534873998103,143.47419015631925,118.47246243479613,11.05379328015186,74.09691803985,28.9330786993019,40.51091642407871,11.133190946154814
16.40000390207259,162.79469320098133,132.2621069568418,7.926200811746639,82.96638407417792,34.0332747576963,41.839696442491906,9.414109652102377
12.020921971802265,176.75845600669817,137.7591835605756,1.0564920099187316,87.81193971115793,37.171063556418716,40.16696369063071,5.76212028024942
5.12587950306909,178.24085163501022,131.04495358885399,-8.100579330673202,85.89436500853962,36.68986963456665,34.95088310792747,0.790789845589797
-2.6774686294117704,165.4143003783802,113.26223007692053,-17.14930629935208,77.23027866518032,32.546882911648744,27.16301157670698,-4.332295840766635
-9.403780859917939,142.88986329292933,90.25667222138178,-23.830691170085352,64.74137132444575,26.301662366584424,18.919095259728355,-8.392183723153178
-13.598050914278929,119.17136521813217,69.62924923146566,-26.996109880974974,52.76415027436852,20.242951351888497,12.459411024481033,-10.657282172163821
-14.91901104414602,102.10368592776004,57.00148263915235,-26.944815918682956,44.84998802130147,16.21293562606152,9.096697429383926,-11.135416555577706
-14.103404410938136,95.2109749108832,53.72406350321283,-25.01159895690637,42.21372143748934,14.831506020650446,8.747581416750265,-10.439710839433065
-12.415200063143644,96.98603919068357,57.17567849650744,-22.749772894373542,43.670022379490966,15.497744158403126,10.249438989601638,-9.393312167634583
-10.974852040814143,102.97669771374146,63.00902761232374,-21.230714247260163,46.823908628008205,17.00436484249002,12.145702723415814,-8.635216252280756
-10.352319278150796,108.71288546633866,67.58323640373222,-20.784961333804556,49.50874932235808,18.25651723670651,13.388158869252996,-8.430046096566572
-10.547097125877736,111.52782901032893,69.17554013255261,-21.155409522871174,50.57936402974197,18.67200639244569,13.601601318114135,-8.707855472765054
-11.215119360640669,110.79258117968752,67.84232556888314,-21.823185288442865,49.915135622996935,18.197120541520658,12.950562148275448,-9.223094545551781
-11.933153303145714,107.34487126919959,64.69847883327034,-22.30267746278061,48.06308275939188,17.131546975899056,11.868646350716363,-9.712535867034816
-12.389186439672368,102.87156928200312,61.25486891998039,-22.334834325892942,45.89479673541932,15.93476669203163,10.834111299168212,-10.001242846073636
-12.484276161245333,99.27610975209376,58.86942681017913,-21.9642346178179,44.289470566393014,15.040834399888926,10.20463641492575,-10.053398025344363
-12.339701928449188,97.85205388830934,58.21205643865067,-21.471845367201556,43.76310659594295,14.67539741586053,10.090500529070846,-9.962931842062815
-12.193315189282302,98.5918872651493,58.964575896219536,-21.17150456985946,44.19868106126437,14.754109816350894,10.323849807337519,-9.880352496413543
-12.22593913081739,100.24201775222404,60.0807010077109,-21.18511844179093,44.9384022796638,14.957024147750712,10.581744998349226,-9.911766190820058
-12.436890768917662,101.15147426360222,60.48423080010926,-21.361694265655327,45.21840083818759,14.938916221991036,10.590492550717364,-10.060502772473102
-12.669482862322669,100.2009776485714,59.6329693368275,-21.402520894922336,44.5905227081583,14.509096216805014,10.24885982899075,-10.252273047390018
-12.759591540900031,97.15161271205274,57.567474109297265,-21.08637955776855,43.04010756645088,13.66931922910807,9.600998404575972,-10.409850995456921
-12.674280022432024,92.53450127495258,54.68219188274447,-20.42828541206545,40.889532290014394,12.566912128230623,8.759842234196164,-10.505502763903083
-12.536616440910128,87.61211450480826,51.67299130809965,-19.69412372397093,38.748680213627686,11.475140834940994,7.903937269148361,-10.559128703067193
-12.54767662997015,84.40905196856865,49.638052761904675,-19.299524981487743,37.5059169063844,10.785216854239916,7.314989901232271,-10.611360469122001
-12.875968231379137,85.1641867209841,49.83632992373779,-19.630405640318067,38.06485833472549,10.88226635510193,7.310816435785414,-10.706467683575202
-13.54551349689716,90.92417677256664,52.89901842776099,-20.792769476486182,40.7275447131838,11.87942154329517,8.037000849843034,-10.87490196803961
-14.318875583765905,100.17798052985826,58.08602955721007,-22.357502005676103,44.660283191926354,13.409409208761753,9.292846247336858,-11.086675704918145
-14.62613388898289,108.97736028492633,63.45873798453033,-23.29041962810317,48.07343992745451,14.730932319890446,10.606483023917484,-11.19297426372007
-13.663281810757884,112.99277872879281,67.1131816642435,-22.26311794655099,49.234246532411206,15.172213832956183,11.558126126693747,-10.925709299171563
-10.72989471277992,110.24111936355959,68.57883809985485,-18.313034770727562,47.65524520616683,14.616302198836074,12.100098041468124,-10.003071626780384
-5.684933555414011,102.45689763792343,69.21047706522269,-11.508722321257096,44.53091193230332,13.645307490476137,12.597508061440346,-8.299812215193544
0.7615910090871892,94.0012674917498,71.16600639733919,-3.1682904219347767,42.010139443389626,13.193643258168914,13.534851015478536,-5.971600164677065
7.165189238991376,89.0312311937582,75.69040689045708,4.587801640786104,41.76670289440172,13.925890215496988,15.10253394236565,-3.4394624464924286
11.880589586408208,88.9385084749527,82.00339823397827,9.747368869949593,43.87722059694522,15.774513029305611,16.982440330017024,-1.2266994340004367
13.75177764728112,91.83394669753758,87.66396350208417,11.274025367231767,46.811226713780016,17.972061290586524,18.51058848407323,0.26670823832619533
12.582353575260335,94.25230798217714,90.14152485856033,9.453620943859498,48.50348478483155,19.543712271273865,19.098767326248453,0.9261976019607894
9.139435628251633,93.56890826485973,88.3703226543309,5.582457987747433,47.66437196174309,19.877623077892785,18.584051344095975,0.9350133413931441
4.737824468220871,89.3089899818325,83.16133347893772,1.2669722764867324,44.389693387895186,18.972108357333436,17.251021378574013,0.6493339148548946
0.6905262996287832,82.78322101566607,76.40597380476225,-2.2199124190756434,39.8155235584094,17.27676984054094,15.572193240797342,0.42939291148553815
-2.0837128679771366,75.93031099989922,69.95776504333485,-4.236493465390063,35.32739793915197,15.367982375677597,13.93183618656636,0.5166405094770771
-3.199158935958879,70.4671866979292,65.0221393737093,-4.735115926591724,31.966216956213742,13.724382658022014,12.52907999088065,0.9811594387195554
-2.7708018095553877,67.55428083192467,62.09887680102043,-4.070181717754015,30.221347228716677,12.651210966989687,11.424684339385765,1.7185489411127244
-1.308309030505726,67.51152544098814,61.029489567810614,-2.7875569685226904,30.007142347564855,12.242747777760808,10.58558099091301,2.4892579207062386
0.45230615570228117,69.44270165328949,60.967065020166,-1.4258122436929241,30.680187194417087,12.32661160108252,9.879715028495932,3.0151548546263167
1.7920323027845169,71.2667566745761,60.539041978396114,-0.345664834148677,31.20388338143313,12.464893016116285,9.101088342938155,3.119045419586254
2.26293907483005,70.56622084329277,58.406824769328004,0.3487822205422423,30.55533545949825,12.096492033532087,8.084748099519954,2.83608322693333
1.8306890779105744,65.8898059046973,53.96327448347078,0.7542413221257644,28.212240113971713,10.79466317113057,6.855791510844407,2.4204926471059247
0.8444070259337653,57.68874235997394,47.7336422518253,1.0393633980602215,24.44968937307841,8.53271850026009,5.714801010849254,2.2417393088849566
-0.1122500122389871,48.43270222242762,41.35947722021891,1.3582972384124354,20.361296356982724,5.855872254576809,5.223520815158076,2.6391104260093443
-0.4072674079552648,41.998810868756266,37.296243616521345,1.837389007798257,17.67173450239381,3.863116037927825,6.087409340058855,3.802486293543966
0.42632565209567147,42.41291163867182,38.136683570257105,2.5465359320200878,18.272469817267652,3.8793160662930624,8.882699892243387,5.68851854669063
2.431748608470752,51.79280014829583,45.251222511953024,3.38712306916064,23.278332727455194,6.775037773797308,13.590304166447904,7.958712197621672
5.012493741720851,67.84482816886647,56.94573485412896,3.98713020622621,31.741011308237226,12.166435744337232,19.105443666761218,9.976870024848004
6.968463060919881,82.4540017108538,67.36667938951712,3.787087432668556,39.84254370451159,18.022771818918216,23.13766518309451,10.949022878321234
6.9270873833373185,83.34677514889918,67.70880976524046,2.3710058428524245,41.62907691093989,21.171575456837605,22.864422364574086,10.23013440563793
4.035067015624911,59.277521702653374,50.03651036250046,-0.15585255569545947,31.540262789204533,18.684142421628202,16.232119300104465,7.675017443086644
-1.486732389653485,6.430637459444676,11.923342493646082,-3.0558205701071883,7.576690282539019,9.46017758494829,3.2287031943041793,3.8113891557849726
-8.316006960853338,-67.93396300322982,-41.05024364222224,-5.268508679811081,-26.881191913113387,-4.953916727664749,-13.71525925605787,-0.32224760881109454
-14.608896179191493,-147.41558320001332,-96.92575679664073,-5.982995917267058,-63.999595768074926,-20.89856855544998,-30.58852834644383,-3.626071360020321
-18.86863131452878,-213.41206557012774,-142.53661235009974,-5.101696041417154,-94.86602174194543,-34.251427882084535,-43.52782557803934,-5.430892916941346
-20.58981281650991,-253.24101100525607,-169.30909140927662,-3.2807791136155977,-113.4225195038596,-42.262090480358275,-50.45028991195595,-5.7485649631112485
-20.31907820001495,-264.86783827348665,-176.39431927832817,-1.5212827077602231,-118.72650247459707,-44.54882792653123,-51.69019458979623,-5.15075186291353
-19.167694643196675,-255.9653244454215,-169.66395700703643,-0.5956666534237905,-114.46062287196594,-42.81071479036281,-49.39412966154836,-4.384700014549182
-18.152949874275606,-238.70558767488686,-157.79575134618864,-0.685194659447599,-106.40434273175731,-39.62737790038273,-46.201127013209934,-3.983137238019963
-17.78121127447741,-223.9979379606054,-148.20556049337392,-1.4085177203650074,-99.67035599806479,-37.184219660557595,-44.06525052814329,-4.081879199591368
-18.028778501307123,-218.23453650165837,-144.92932720684308,-2.130144729735298,-97.1640835735198,-36.58362186657719,-43.77693825637409,-4.483832142604656
-18.585009724553732,-222.9780537792836,-148.615521403153,-2.3094984451959832,-99.46402418509818,-37.84022462017633,-45.1450769351963,-4.861513891468891
-19.13003405984133,-236.01735998439156,-157.4425904650442,-1.742742566860826,-105.38328111131362,-40.24188619711111,-47.441986356096024,-4.968014226007644
-19.515013566072,-252.38323739839825,-167.9796266134988,-0.6775914545609015,-112.54970252915653,-42.75828535713069,-49.78796464155498,-4.781648999258584
-19.815753226684322,-265.3347524889415,-175.97236299817823,0.21711360335593521,-117.96896836209466,-44.39795129282084,-51.40681230068135,-4.545029525903658
-20.24614475831362,-267.9930069356288,-177.41047591550475,0.0998399307982529,-118.80462794609207,-44.51111555783244,-51.78832471426441,-4.662134441187402
-20.931968933881976,-255.54838056732788,-169.73524085681868,-1.5795767822663302,-113.27857843571151,-42.95364089289181,-50.72813736798486,-5.457852363141315
-21.649176508739675,-226.9866416316531,-152.56337428390887,-4.618740353163636,-101.23436436725255,-39.99413590805217,-48.20194110480939,-6.908934582306317
-21.742224853485236,-185.3535968296521,-127.54879406963983,-7.951332630469468,-84.0410728858752,-36.00582655066305,-44.16651877169626,-8.532804947780019
-20.383781946521754,-136.5601521984129,-97.65098608542355,-10.06849136470791,-63.985102895086875,-31.18460857971779,-38.49424995340226,-9.559067652432315
-17.09112128038489,-87.53936567210607,-66.3651007627095,-9.781749096969916,-43.57658584601326,-25.534176739267167,-31.15694167097133,-9.319384346692159
-12.172012008369855,-44.60784299703515,-37.20468727772253,-6.86179978736467,-25.080304751966242,-19.133531756580016,-22.539880483776567,-7.62177528779078
-6.75823442649164,-12.415493477190063,-13.32956468189397,-2.148062037824924,-10.287028573301072,-12.452060544881274,-13.613021624211399,-4.870141461276524
-2.333264927203444,6.6182777693659,2.934467314420523,2.9232746999405497,-0.34838371701733695,-6.4085703890206345,-5.750015278613289,-1.8581831870718482
0.00034033220903808073,12.649284327212602,10.750721647779931,7.046160802604725,4.466486698574474,-2.0413343892250007,-0.21973242356805284,0.6205613314911979
0.0768567475076938,8.52207421685414,11.286369479025984,9.569796717613727,4.999419981871009,0.041953288177390684,2.380904140712516,2.1061152204410334
-1.2914467563912506,-0.7687836864371007,7.542706188188282,10.564453437654194,3.1105604695337927,0.058648299757558864,2.40684006112314,2.5843966806762833
-2.7941457551973126,-9.59063276979141,3.2541524528390524,10.520262741834381,1.0620198508760608,-1.0063795728991782,0.981509557003701,2.3832223991648362
-3.3055914364906633,-13.729444458642096,1.3164908370069988,9.979160141740627,0.5910595525149405,-1.887439882196427,-0.5290556048823881,1.9733903903305643
-2.375210902142298,-11.930000076981186,2.6380191711860395,9.327849809462965,2.19748324536128,-1.648338246684973,-1.0838875298226054,1.7870068853178391
-0.32025057167431437,-6.119817127722079,5.986276719045153,8.764215336525666,5.02658089614068,-0.08983962957490049,-0.3317674986504064,2.08844121335763
2.0261065519224597,-0.38961699050924636,8.707147009478007,8.330740200592732,7.3129825468372545,2.1893573792659904,1.3083422405887375,2.895528305987013
3.7349471076474403,0.7044926465016075,7.890695709197384,7.958881958575276,7.13772656599011,4.0606867033295195,2.8520056116194685,3.9757530710544318
4.212798014987332,-5.835806363343697,1.77467898020084,7.549384103397295,3.3556946987417438,4.398660992877594,3.239549351609655,4.959400959939447
3.5200375004473843,-19.318613905192034,-8.750628914885985,7.089706204701282,-3.415027261300642,2.760924564412407,2.0235564117820535,5.552945699486405
2.4436258362196748,-33.94876609898496,-19.182723624260937,6.726443727430833,-10.169203700404704,-0.06261366597405518,-0.05921898936017117,5.739361404495022
2.222634653512203,-39.67214598518621,-22.142604923018684,6.709879888697668,-12.001829658907052,-2.038831055009109,-1.0845132445049401,5.8214193034502975
3.977297776518669,-26.222090808152302,-10.43004554211062,7.2387438629970715,-4.118350157103542,-0.6696450162166181,1.251806913053222,6.2503622135231485
8.09486513918264,10.88162747089775,18.63054183424681,8.328866156354957,15.29267595486514,5.668118089544257,8.301756929889146,7.327831674278739
13.907576273940442,65.81197189268168,60.09781871766725,9.797602908019885,42.991995021648066,16.53275070281075,19.362028372511837,8.963770793660764
19.868000118699822,122.8422604695664,101.99226448379385,11.342260704608906,71.04013483378758,29.159129573579353,31.551310666140772,10.649687339678337
24.161660712748557,162.44369564329736,129.93622398936074,12.629000757248201,89.85647750979261,39.43548350351014,40.8871487896691,11.682458503304531
25.46362085586827,170.16540708313866,133.63660068620504,13.34995294174877,92.53796873398588,43.684550228303415,44.05749288789847,11.526512420902767
23.475165661582214,143.39262845891747,111.66105090771248,13.274082789050722,78.07771487917728,40.321067809703806,39.948817787711725,10.117519353934359
18.998310342314213,92.23670179351649,71.88127119520183,12.322730086108589,51.71291316870734,30.5245458164164,30.127191066198893,7.937212564510971
13.547273512146445,34.30178045609947,27.500967707610002,10.649381622693971,22.31127472637491,17.628588319663212,18.06444479228559,5.8132789068214175
8.723589318426376,-13.511135265403691,-8.967440361243156,8.668319015794333,-1.665647977600233,5.608355583380071,7.571164179476312,4.550438158741301
5.671756562191665,-41.72652987583331,-30.538918129453595,6.994254759750983,-15.477575836762597,-2.539011171130161,1.2608413320689325,4.589070853559833
4.839607324770653,-50.37507518827529,-37.159888141062545,6.28696738277978,-19.16373434304635,-5.749932320493955,-0.23004469443376663,5.858272347321747
6.052397898036736,-46.06800840168391,-33.53946182964918,7.005646989439978,-16.15733057843055,-4.822533416700362,1.988137734907487,7.8583902013844344
8.719412664865922,-36.4901978750239,-25.27709177518314,9.103551912818046,-10.61283627701592,-1.5329813367822058,5.978749452093359,9.870052743472362
11.97483257344691,-25.992540169303343,-15.919925522999808,11.783145847145795,-5.204607688043407,2.4187211774102355,9.938100190189406,11.150675264769127
14.724620091006662,-14.842997075905478,-6.582411169773388,13.52679338620677,-0.6182480067418572,6.001277320310161,12.670265117609029,11.062812035599556
15.757601433040048,-1.8740989426017074,2.3188749859630673,12.567577754709522,3.3745023068882585,8.785221414748877,13.523842566281143,9.181142284174227
14.073332120814346,12.174271313704583,9.211086768269388,7.7056707779900515,6.48828552934407,10.527122597878039,12.144961441202412,5.431693629184594
9.35800606920449,23.5074732965338,11.19315846006833,-0.9352837262257161,7.4304317364953505,10.895025228664114,8.4214749932959,0.22365449061026432
2.3080190152689277,27.167914814021913,5.704261838954123,-11.708433175596593,4.674062108142863,9.579889374218942,2.6715009909013943,-5.551838884595825
-5.503047057196017,20.32759256700799,-7.427514309638382,-22.033221138545052,-2.2622473744466123,6.630457573777378,-4.196966995054044,-10.754707829180372
-12.249935459053656,4.3561256665597226,-25.31868868923218,-29.527776842097225,-12.154877826634255,2.6384830513638136,-10.859744318505442,-14.416402776048955
-16.658104478399906,-15.860716445606105,-43.366794668531746,-33.06665242462707,-22.596825081214526,-1.4535492274191988,-16.10269646070132,-16.14584999322873
-18.50393573141726,-34.66196549884346,-57.589747985384356,-33.15790843076553,-31.267307875249152,-4.793596834863329,-19.367612844230983,-16.27673905788306
-18.50754528502062,-48.16928266585086,-66.17938701503994,-31.449569433282576,-36.91030417812899,-6.942637927219571,-20.88937584345426,-15.643908628723661
-17.72261386204642,-54.845600573389405,-69.22875185823607,-29.71706879444341,-39.30684364774781,-7.829923049668092,-21.291296616910905,-15.107098621201814
-16.866129459074095,-54.28909575172251,-67.28011241008328,-28.958299602173593,-38.520924040854716,-7.469188537198852,-20.968667177103754,-15.099239788014389
-16.024676960342543,-46.18359059802585,-60.3849182487984,-29.050797661562612,-34.40162819873583,-5.809414378947144,-19.78848609446847,-15.440080997317962
-14.839456462346854,-30.887190387564758,-48.68600937659644,-29.000872595879855,-26.978913524911576,-2.924609492558832,-17.345633705339694,-15.466973884379797
-12.914725348055905,-11.021735549143285,-33.78902281576268,-27.505423501321207,-17.32437695724884,0.670134293164737,-13.50429445738585,-14.359504800257213
-10.110843745391447,8.054876381116737,-19.207806119615846,-23.530396840278602,-7.801860130098306,3.9929899877327637,-8.716315478826896,-11.492930938137135
-6.583583670103025,20.179122138026624,-8.996127486754954,-16.751784895019803,-1.1323109216180276,6.022803829531352,-3.8585178234496493,-6.7163685136246745
-2.6760637455184506,21.650337342095625,-5.484033623946018,-7.79273298363763,1.135326913241094,6.277846303511196,0.2078902037427689,-0.5084655031892187
1.1621950064874709,13.261231617735083,-8.031901862239728,1.8179353357043593,-0.5210386502337332,5.041096079562536,2.932059623868427,6.032536994661173
4.380448654800753,-0.6651717211555578,-13.9382361949454,10.03573333996105,-4.200985248357954,3.0021289643542084,4.002868555268609,11.415701199924047
6.375070215592196,-15.526382517225585,-20.7664480134629,15.007863181013828,-8.191287292457448,0.6094345314995981,3.108202831774761,14.212813807110635
6.728600762364278,-29.291689223441928,-28.030151466666116,15.888320298121501,-12.204060555391258,-2.263179603206803,-0.05508750353610306,13.643966102101768
5.609316324299806,-42.51510187680944,-36.62208930370969,13.389738193966217,-17.09821573881534,-5.948683473185196,-5.313777440190168,10.054917568165582
4.049670419984621,-55.49157644061816,-46.350141536646284,9.695885341026568,-23.224836763366802,-10.152024402521976,-11.40166145963132,4.986397651328509
3.757894826699593,-65.1642866076964,-53.808241247084496,7.615686639525942,-28.830202210064474,-13.394903695358433,-15.847268932183741,0.6684462257034526
6.383097896204792,-64.88922836005896,-52.84154920863563,9.301892982052117,-30.08921549682442,-13.389842074416842,-15.792251865476208,-0.9105806010779646
12.585154964135004,-47.943528061888045,-37.87363820982762,15.195622932301038,-23.111067836252655,-8.291937086273157,-9.459890990846526,1.0932531646800854
21.496511070661267,-12.532850423036486,-7.964385939256783,23.804537880501293,-6.647252225619748,1.967705907159144,2.6217144971999633,6.005529411802084
30.9771739476163,35.3877347117498,31.347442858338606,32.460847015597004,16.436476797147616,15.224439060910528,17.515544487864148,12.006690441086599
38.570600062712394,83.78768104276412,69.94557872345607,38.630185204040295,40.07052444988847,27.897903832463125,31.082070021213678,17.037451607969334
42.621792784390664,119.95663086714538,97.77166237342773,41.039282475593424,57.80124863207596,36.63906714149235,39.84485187075761,19.72814180754967
42.934591823389454,136.34928423568965,109.3941472175706,40.055780202248904,65.7947557168997,39.83878029782747,42.46137276114226,19.8763538725952
40.6685038932352,133.44959210453317,105.90824944674597,37.25280743205503,64.28191798762305,38.17003124963336,40.041217131847716,18.309983469618235
37.65277525831624,118.4312760306214,93.50404811957047,34.55032387013949,56.86408724985028,33.992342744130184,35.30292848660339,16.330612935998463
35.5708492073305,101.16241159526096,80.14664739461341,33.42800707292986,48.48711585663729,30.114549450721995,31.203181937319133,15.09369067399278
35.38353283094862,90.21817760434243,72.4559887851794,34.465997006434854,43.41552533608316,28.62184792110674,29.774175605462226,15.188787520129065
37.08554538309292,90.44349435634078,73.86190159180352,37.20024771511622,43.970990202835324,30.187365628041558,31.52723053006384,16.4879455905144
39.728261130416875,101.8701993130309,83.82997845511902,40.233569051410264,49.96990694384701,33.901946835579224,35.38147963790106,18.221875992267694
41.686635129639775,119.40879673377879,97.78305632538547,41.64626232175252,58.62693045482561,37.54020807623898,39.00354152090894,19.253239237072183
41.21030282258527,133.71998922953526,108.07602057262358,39.72772719961103,65.13358115354907,38.27672160130711,39.569325728725936,18.519273300317735
37.17428436266899,134.18591809175473,106.59593711311828,33.80709755224071,64.28402407337114,33.81770383286435,34.90227081688668,15.52181625241631
29.702157109416383,113.65837810936378,88.48710463490941,24.730423854701222,52.86116388947231,23.582637894316772,24.60422589019718,10.628551887554964
20.256618673265073,72.6544353879062,55.080394372788625,14.616466930520485,31.569609650808175,9.274617871873657,10.530262249950248,4.975357025338424
11.047714228194051,20.109609528704965,13.955084290105729,5.942092403706372,5.159219053068798,-5.6577742571403205,-3.8317708042958754,-0.027324272133534645
4.045085503298024,-30.35522513067629,-24.329653076527364,0.45475862770609765,-19.61118299445327,-17.52320960129826,-14.870596594015119,-3.3224834102201597
0.15705589788601024,-66.74278762559189,-51.08849995359751,-1.4686695073879337,-37.08670874883616,-24.055453766003602,-20.44239300234654,-4.6091079360825935
-0.9663493463047103,-83.88171601803236,-63.11264770003259,-0.6993591306666754,-45.08117695519295,-25.29713345339238,-20.656800411329847,-4.308840915649415
-0.46267732010127655,-84.59404468269358,-63.047347362822364,1.3464436498741914,-45.18969689897644,-23.237533344797882,-17.483188002236663,-3.1769242519409007
0.5071886104439117,-76.61465818659275,-56.74394743827898,3.4765580085102847,-41.13624023558538,-20.520994667196735,-13.53151041737376,-1.8535681399346102
1.316352777091238,-67.71277603629296,-49.65169606258231,5.1084433094266535,-36.463520047077395,-19.064580524671698,-10.792869239005313,-0.6376827110670098
1.9493891701389212,-62.15575094927342,-44.53163636778831,6.182728553019424,-33.03833983378549,-19.349674230955184,-9.990971509313193,0.4479610119470066
2.6932713333818845,-60.11971116967898,-41.39688093807504,6.848419006318658,-30.969169319247307,-20.607188813999485,-10.683386459392427,1.4516556418768358
3.7460080041895636,-59.454931825314056,-38.9577636937299,7.2182019237398976,-29.48285114190694,-21.565492294782384,-11.813937265602632,2.3500978220433146
4.993310793942431,-58.12841889280534,-36.25765447277419,7.311209101059633,-27.930071444932377,-21.249069562702502,-12.338629090340579,3.0481966231507505
6.019835624740718,-55.991856796900436,-33.649775496871925,7.116670765601234,-26.40470610099843,-19.479378840175595,-11.709037636448835,3.4579702164789703
6.295785776027248,-55.23240740246056,-32.86547023195244,6.673904687750676,-25.8475314125827,-16.950495183234004,-10.108796710676494,3.5600131728757862
5.452440303827866,-59.2092816933563,-36.10549998007843,6.116381393180025,-27.576846773491347,-14.865456905602885,-8.328650870415093,3.4129451535270143
3.545596584219376,-69.77037580106871,-44.246930792015895,5.65335469974338,-32.229683528006625,-14.222081967177276,-7.230050795898289,3.1303498119434976
1.1647086508086635,-84.17917607249748,-54.90958798995524,5.4584422006828275,-38.50292186606095,-15.045679700744031,-7.016103922773733,2.841191479757819
-0.7415916618921495,-93.88073624370129,-61.854394627848734,5.482368926119992,-42.62364732625673,-16.051398097449432,-6.803955521005482,2.630788131289939
-1.3074373596087712,-87.02290238623436,-56.93074401894004,5.312758406941362,-39.4218912261602,-15.103966496605908,-4.927749799113837,2.475414909039353
-0.23486617237728474,-54.36989682137624,-34.193756617086535,4.249611186264193,-24.89937938695663,-10.362918856114078,0.07874993696768143,2.2188983746176065
1.9900797024391483,4.545090987831827,6.053937762794276,1.6495071889087511,1.0771648431669936,-1.4728508847117057,8.41688616929047,1.638302602869897
4.32159884630225,79.12075888901104,56.04395892753932,-2.6265767597544922,33.78173053718747,9.977890136712931,18.617744373148614,0.5869785201728581
5.704763223984376,151.33227503253008,103.37762162277201,-7.96485719745606,65.26985190739126,21.090529571051917,28.1315043710447,-0.8708877925594908
5.616925849776889,203.68816151664703,136.56597570430307,-13.173176663323549,87.91170994888151,29.043337283391427,34.575921186962795,-2.442311602604781
4.2718402885145625,227.03435755945745,150.1241595621635,-17.032741476137613,97.8053115663563,32.4077464768162,36.86979837319638,-3.7467397890795917
2.3976508646875807,223.84362912043403,146.37914979682765,-18.902432660375492,96.1403181869743,31.643286593164202,35.59278971452674,-4.537034114112078
0.7945035134717872,205.608262844631,133.35337941176937,-18.9794005397211,87.96679368895055,28.60081793512392,32.47989489592203,-4.836605229501403
-0.01077535251227727,186.56495597833413,120.48745185110661,-18.04895425586335,79.43946809192241,25.49122218876096,29.510761966430234,-4.874855284228014
0.14571664076057653,177.54019889715875,114.75324297090066,-16.932912480637913,75.22616791492851,23.96953520197763,28.15606757205483,-4.865979169087484
1.135498411945888,182.4540403083421,118.6066944755628,-16.050829613025606,77.10888277740689,24.67759576748401,29.009071097094832,-4.81580985772354
2.591874922835029,197.73472928448848,129.6859731737086,-15.35938128143778,83.76241375286044,27.181141778343605,31.688922673593307,-4.518555351629993
3.9218879134379576,213.83264337328086,141.68479924839522,-14.591796099557593,91.30709687310754,30.13454768050696,34.89954426464782,-3.738581818428012
4.411410193228548,218.43522457463365,146.32661973016175,-13.522236942468277,94.53265657398441,31.670276279989366,36.73619680062917,-2.4254661698964455
3.503754364726064,201.19521225781767,136.4859721553159,-12.077494165368126,88.82882082999538,30.06900329809574,35.351443971027294,-0.8114423574520699
1.1111865080155285,158.66512679241353,109.56375435574274,-10.331283021097839,72.3173626772542,24.53388858348355,29.790172946379382,0.647019060583911
-2.3018605575591566,96.79639053788453,69.21512782202001,-8.491330101939717,47.02259998356327,15.628001229923965,20.50377792999336,1.426088717500238
-5.980895355607694,28.865004395490768,23.945286706637464,-6.892965674519308,18.11103353002445,5.019714528244003,9.149549952603586,1.1179558240059493
-9.317985634516674,-30.60451096551677,-16.94485979699092,-5.91559706993426,-8.572372630554371,-5.3586105106642625,-2.2343735461035052,-0.40554296891628483
-12.129143683008937,-72.43712414291745,-47.60136938519523,-5.777026701933857,-29.174998725767022,-14.181783230686024,-12.123207577561308,-2.8864010278844896
-14.553317973045946,-95.80880558500554,-67.3065370919799,-6.302401023285985,-42.97848780514314,-21.034413874397575,-19.868189379270607,-5.679487939526787
-16.660893958700512,-105.85878089797201,-78.63668437535031,-6.869587103177139,-51.33342162851191,-25.9722261199934,-25.34709611643956,-7.903142205721077
-18.115167753026945,-107.82885229069804,-83.658052796259,-6.6786901898982185,-55.3119095917275,-28.749513105084564,-28.286767454095838,-8.742178661222892
-18.217384417263702,-102.08933468496087,-81.17403019968461,-5.271748296687364,-53.965669824948066,-28.410967374559945,-27.91124063287954,-7.814701232219036
-16.369298661136526,-83.74033025671295,-67.23854633444363,-2.9840607728813904,-44.63470192837421,-23.68958834596538,-23.308554584970413,-5.424789717705609
-12.629424867063674,-47.06359148563204,-38.6297584281653,-0.9590388287680195,-25.172000410156667,-14.003410350269332,-14.296415277360449,-2.5180802979924257
-7.915057664258759,8.566044419994792,3.374677246619656,-0.6037935916267614,3.587889926425844,-0.30400793082266975,-2.0902070022317516,-0.29038225236319065
-3.630708189843696,75.84254344227915,51.935396584075484,-2.7577942567071747,37.07996106994134,14.942670366113822,10.854489925948704,0.3849223515485431
-0.9236848243891942,142.02647643058535,97.35520304087436,-7.096904184553293,68.72198521004245,28.750691052867392,21.859578886843018,-0.6042479108282413
-0.06586405017469245,195.0492047070779,131.76395369714956,-12.19413023003716,92.99100980833244,38.9498341878072,29.262747267331925,-2.576366459291192
-0.4044460539865308,228.7840232741523,152.4265857895884,-16.24996230282174,107.69200383256495,44.93329936979921,33.00854369704724,-4.473331716266012
-0.9284828479503422,243.75045988421962,161.30389118715988,-18.053785322697518,113.82293438896679,47.30395977309927,34.161849261554686,-5.486909078796967
-1.0380729671701077,243.22296906966218,161.43187647853472,-17.562751872103803,113.31901372918884,46.761546381430136,33.73212395773321,-5.505592235219868
-0.9416091446583942,228.48878464643204,153.27912567180374,-15.739031342482287,106.68023869654118,43.201261147563805,31.75780543272083,-5.0972427580710455
-1.3957929622546343,197.59260749918172,134.2526225599166,-13.804204152830376,92.56545948502014,35.83466099885921,27.402321542310553,-5.050631117456203
-3.0172831784615934,148.69526930276874,101.8228942980233,-12.45491745497002,69.72261613238796,24.27356338355918,19.97770181274973,-5.7949386586759255
-5.709211700428891,84.98432177916722,57.62864426492535,-11.54687318742731,39.58019278817094,9.66250754180763,10.038141490335184,-7.081644718253454
-8.62254676380827,16.62197760754405,9.064127394853896,-10.370629911587688,7.219878907970675,-5.154859632344612,-0.3744150255890534,-8.11426477145497
-10.651943919011204,-42.380609079052135,-33.15741292983684,-8.247787715207382,-20.270336778426643,-16.718694798478587,-8.582708514857016,-8.015815603157561
-11.096149365181528,-80.48776917657204,-59.94569881205591,-5.036398253831221,-37.067137643500736,-22.62624906311501,-12.65771419490824,-6.337758076873449
-10.044324760293266,-93.98819602818409,-68.0807307117557,-1.2691824012760944,-41.38375333025081,-22.713486002401535,-12.419568242371115,-3.3267718424727635
-8.280159878382477,-88.06838424667757,-61.24318227406594,2.094675334120501,-36.060181529943996,-19.016857448965535,-9.450657351505757,0.17066438239094378
-6.824304525829391,-73.32726561077159,-47.548152784392755,4.1174416088205295,-26.79029908382654,-14.5963979128678,-6.184764978304009,3.087108737221732
-6.427137710541173,-60.26080685871095,-35.39329625893373,4.289198862495185,-19.227545904821937,-11.977470449689928,-4.67511146155774,4.592445632004944
-7.277972723598808,-54.993280630005344,-30.032349674028435,2.7330722634756994,-16.641947957528366,-12.090116594662016,-5.726534464259073,4.421951448359614
-9.006743178537095,-58.08045131838009,-32.310596369606465,0.16655373345002905,-19.14553060627118,-14.166337008424572,-8.745619746953187,2.946820625140819
-10.895508225800246,-66.03332658854208,-39.492278498800935,-2.3519004105496504,-24.43837810580441,-16.468233489319953,-12.23130086041625,0.9697179500703531
-12.175350412223205,-73.97811781507149,-47.20604937263169,-3.819230240052085,-29.34311372924615,-17.3474566311735,-14.576591721385595,-0.6662928114859088
-12.308607171124411,-78.02599251515154,-51.51251391709423,-3.6917246935275,-31.338839758402536,-16.098972308734023,-14.820747208476055,-1.4769256199106433
-11.170910606869546,-76.67658372411093,-50.44567361142697,-2.104347288803331,-29.570627294204833,-13.25554964324203,-13.065345123701668,-1.5324849524634774
-9.05889873701575,-71.07199989596798,-44.62353858738508,0.23870307410098915,-25.061691628669916,-10.232982819604427,-10.383219481624261,-1.3245198778333602
-6.514063635982937,-64.13051498238812,-36.731456951738124,2.4625804997249006,-20.085143079342583,-8.517204661501102,-8.241777711076681,-1.3755005137306469
-4.064075438959393,-58.93943675235049,-30.109933978274483,3.972110087946644,-16.984693836492188,-8.821679068652553,-7.7211527397195026,-1.8493829487662694
-2.0437300026288594,-57.24452573763138,-27.181840373633495,4.678781724087669,-17.053015760194324,-10.699956643301121,-8.970001566801924,-2.4358250034227185
-0.5911156670090997,-58.890251981823816,-28.55026534829039,4.8955119396593725,-20.066100005349163,-12.858764854671369,-11.223367343761126,-2.588471826108754
0.23099628906871605,-62.39401045277988,-33.10564326196595,5.020303872054337,-24.638130395326662,-13.974818724773655,-13.339619360899645,-1.9405339614051755
0.3281252643787156,-66.03046569904488,-38.82718612419336,5.240793281714588,-29.041675938930183,-13.485125765071901,-14.475441988518938,-0.6005030129414936
-0.421091203825353,-68.62425092995605,-43.711888640507944,5.428719722675845,-31.96381728846584,-11.862634959420705,-14.476120466363492,0.8700444692926916
-2.0638617468150806,-69.75923651093578,-46.47179489363045,5.2486400736930605,-32.89410452582526,-10.261112242952517,-13.808601285175563,1.770444374004357
-4.461227804407399,-69.63981093986067,-46.8955835457073,4.392770051320982,-32.13941757495974,-9.805370415660368,-13.167180410240777,1.6611436809267424
-7.238119797005153,-68.86511060852088,-45.80619240903205,2.8106344695870575,-30.566646797997645,-10.949763935164272,-13.023169932485681,0.6144323713107942
-9.826935648906604,-68.12306562602825,-44.55170634853883,0.8114893596978712,-29.1576984418694,-13.216410519352667,-13.352155068678567,-0.8128562360463603
-11.6101089331631,-67.79624335879767,-44.202059653945774,-1.0268481940123928,-28.521573011462348,-15.410249782359678,-13.655997670253576,-1.8533778182931973
-12.138073618081616,-67.72547233744517,-44.936258975282875,-2.108838165982685,-28.623198318679833,-16.211019368658448,-13.267234451603196,-1.8954360902686143
-11.343005884386676,-67.42339874696933,-46.06778890511146,-2.098980977995054,-28.933792299238437,-14.88558932304379,-11.788539209428581,-0.7555392123716972
-9.625688427936986,-66.62921470271407,-46.66561141790734,-1.0727164512958094,-28.909100663135533,-11.770450212447566,-9.418445357539516,1.2606825631070917
-7.731706471255271,-65.67665539237319,-46.235922349522866,0.5310701991428292,-28.41980904991263,-8.227942565795237,-6.94150591123509,3.506456540348113
-6.454897284260334,-65.28072640783806,-44.949432706604426,2.1073171984422117,-27.807982244737712,-6.033037175469403,-5.355932060069144,5.249985554040799
-6.318416384692704,-65.95189437036669,-43.38417649734333,3.1190489557097663,-27.591489988156688,-6.4862706333054705,-5.356159294564864,5.9172263678801444
-7.391346089510901,-67.62274829144172,-42.150834307268525,3.275885670642811,-28.11628237950076,-9.731571732586263,-6.982965635824288,5.2479964196190245
-9.303167625364672,-69.78429568464355,-41.69264914136519,2.616130605333437,-29.400190457734162,-14.636976987508937,-9.622206732219459,3.3510566206294152
-11.410719752520647,-71.86104092249457,-42.224391409884745,1.479547990333408,-31.164298483736328,-19.27183922638626,-12.304247229771383,0.6660152824758307
-13.028951259306442,-73.40317910967241,-43.661328072054324,0.36826041488787403,-32.932188701314686,-21.727760866901978,-14.12023193426055,-2.1661484651786242
-13.64927930669009,-74.05059199451563,-45.5731176650326,-0.2703845737346791,-34.16732708278354,-20.92575280775651,-14.580947989355641,-4.509571042753618
-13.086334347211814,-73.55435769921273,-47.324463579850864,-0.24333322971442656,-34.48822087149329,-17.093709612260966,-13.804361501011522,-5.950885345789909
-11.503597060284129,-71.97996335230337,-48.391462801930395,0.3234790480374462,-33.89094502430008,-11.707687441349961,-12.453073001467436,-6.415623578115881
-9.304323039137117,-69.83505857410097,-48.59658848948692,1.100934305539308,-32.77670596496153,-6.867940313942338,-11.39638309740365,-6.102513418559159
-6.944810196939496,-67.84574868437605,-48.05506960155916,1.7734802722933132,-31.679173003190645,-4.3395300639204155,-11.208154493624736,-5.270965021666091
-4.7795230586034245,-66.5178198424608,-46.945239692017545,2.2042447792668733,-30.875289818463745,-4.71905028973795,-11.769356278195373,-4.034076106129744
-3.0226575625595267,-65.917663818593,-45.398989342676494,2.4397818554055037,-30.2195495706478,-7.192492812803004,-12.258041050651753,-2.3199399242872127
-1.8205023806387357,-65.88010059667008,-43.62092246478885,2.5653330940627797,-29.357882838840226,-10.041482775110806,-11.600651298879317,-0.044889984378736814
-1.3518877307390968,-66.37788738481707,-42.04273084921719,2.520028127241588,-28.137359245744733,-11.613468577364015,-9.155459422254824,2.6198427294936266
-1.868909650621356,-67.65744152025808,-41.29214953717249,2.001990725569718,-26.88316702769446,-11.206034822291713,-5.2297640227766715,5.092355054683649
-3.639056580368377,-70.06860972719912,-41.99755807577707,0.5467823378585245,-26.36398037072695,-9.395661765001629,-1.1137840924650926,6.489346731364311
-6.800407311085522,-73.82709508415634,-44.601015566490844,-2.221300074973199,-27.492589267613305,-7.676601718487355,1.4243170356930215,5.9978506708473365
-11.17856945759051,-78.8790804438584,-49.23388349569719,-6.269328580458391,-30.903160670062032,-7.64125398807998,0.9530842856534284,3.3321678535784507
-16.153706416491822,-84.79940913036654,-55.56252862440784,-10.956292746306763,-36.54692932548054,-10.147874823826724,-2.9029673226441184,-0.9900526406392082
-20.690855622661818,-90.66855831928203,-62.61572048880297,-15.130700613856357,-43.47940993910884,-14.905616915922211,-9.227907678841202,-5.751755157146452
-23.59943425268988,-95.12177782645094,-68.83198953522604,-17.54811774562498,-50.03130773465655,-20.670797237845008,-16.21789618888641,-9.514213065525551
-23.95515667951036,-96.80283282852268,-72.53347626607922,-17.416899235630645,-54.40624755621536,-25.902358819358454,-22.02094972407157,-11.237748581246786
-21.486750314801892,-95.0794234607357,-72.66085405498582,-14.772540034400759,-55.44815126558144,-29.47036351599222,-25.544010475710834,-10.721727049801771
-16.71820270933529,-90.48865496473272,-69.28337473214289,-10.475793991469615,-53.135125608430236,-31.02319791974903,-26.784718059864012,-8.643233865879104
-10.787538821466509,-84.50432626464085,-63.52329753753345,-5.850612321266883,-48.5099426308328,-30.88581504477983,-26.561983824483814,-6.197526461884867
-5.036383040661358,-78.79159338313652,-56.99655003296784,-2.15794286157467,-43.14076584294654,-29.671328110232885,-25.893597092274756,-4.540339088709511
-0.5611440177974124,-74.51841253951486,-51.184739458051354,-0.1434075589449051,-38.47300253318438,-27.909814215404754,-25.43136088483093,-4.300531877580004
2.098502754725682,-72.11141386208187,-47.044184948292745,0.17153145005015574,-35.38258045017313,-25.883992605722526,-25.23953171286058,-5.36870103004244
3.0374389219982376,-71.36784863435481,-44.86043570339726,-0.6073012668209914,-34.015788133878765,-23.666870134856346,-24.94464869669118,-7.031667330975288
2.8235401512523883,-71.6489035125695,-44.25574992780437,-1.5979770731411753,-33.868381274779615,-21.256791630242507,-24.096602150268076,-8.372649590094847
2.176974865287893,-72.0971780525365,-44.377550098848054,-2.0870928038516174,-34.07072636053378,-18.722723484700023,-22.530844448743657,-8.73705527831493
1.6391985898946568,-71.99908502450626,-44.32837414133124,-1.8478537339082104,-33.83509924194388,-16.3062607973475,-20.554647455168002,-8.02602980652376
1.3897649481210763,-71.22440222176535,-43.68871760913674,-1.1694146028481978,-32.892536974070886,-14.422504744718958,-18.853844583456,-6.668865194073227
1.285462951536803,-70.39058330789804,-42.78661610314556,-0.6059414024941427,-31.654824303161774,-13.519651704905721,-18.147490697835245,-5.315688039056492
1.0603137351688035,-70.50049138238604,-42.493728074590415,-0.6218639966109979,-30.970699992648427,-13.849697240504659,-18.781569115420435,-4.462494042753182
0.540163860530041,-72.2720209329362,-43.69348565265108,-1.3427066783946497,-31.63071483308053,-15.297624715095761,-20.522934897291485,-4.239189431339263
-0.24422239526887213,-75.67404161562798,-46.780529208627335,-2.5086413217350225,-33.93341281446081,-17.394158997951504,-22.688114575095142,-4.44482951575754
-1.0655378445286778,-79.95217920950425,-51.42286356123378,-3.5938402927792126,-37.518801746085806,-19.501997335431092,-24.500090595621664,-4.7356238742474135
-1.5889407755104197,-83.97743910127112,-56.58481317273198,-4.010897680839838,-41.46817345088758,-21.055705462319246,-25.425590315905094,-4.809990099415879
-1.5063298962457239,-86.62029744526099,-60.76585462073591,-3.345188094362646,-44.58870463244046,-21.747812297670645,-25.320367126762196,-4.508328027104647
-0.6906137500257175,-87.0868297077935,-62.49242660695451,-1.5637591761210365,-45.835922312188025,-21.627036881073835,-24.388889263592123,-3.841489332805424
0.689466602344964,-85.2878586520622,-61.00795777392451,0.900068049850211,-44.78877070881346,-21.09325528948724,-23.0560516581927,-2.9824534338803064
2.1856500494974647,-82.08803810039741,-56.80951123029913,3.2808954199582057,-41.941372696706864,-20.740392906658457,-21.80640399931699,-2.217152188622283
3.258567687532697,-79.0636547712412,-51.5590081937522,4.813378303567268,-38.535712250880856,-21.03054351598527,-20.99325256669058,-1.835614874925794
3.5538530374700303,-77.66823418165029,-47.26418815289014,5.091386553653696,-35.91927905131271,-21.92853462300386,-20.657522244031416,-1.9875275120155713
3.094716717235478,-78.31054814032521,-45.22703460650017,4.243489355807955,-34.80581115629148,-22.75458606347738,-20.468426213028803,-2.5783120151381755
2.264381166667131,-80.0840646054159,-45.48369660721998,2.8306633004933275,-34.947854178544574,-22.44642924013921,-19.876944444880603,-3.280871253907954
1.5914410815047375,-81.38291115883888,-47.05162352200131,1.5417477219795885,-35.42619049652035,-20.158340592343073,-18.437192770919197,-3.677879761543566
1.463914393783334,-80.8967736072526,-48.67680839183584,0.8532090756116532,-35.30333882118856,-15.865539452875941,-16.119891586145737,-3.474563875544043
1.9112314632386656,-78.27991018699032,-49.53854190868801,0.8039980998541979,-34.19624041944466,-10.600549723600496,-13.436624546524158,-2.6778518720357907
2.542179588662454,-74.24439366302643,-49.610442266457035,0.9761102333321735,-32.49139174443597,-6.148354096844731,-11.302464661115291,-1.6412909346734825
2.674871107125668,-70.28858029548445,-49.66311339303307,0.7086236515317348,-31.181606013663075,-4.313857435907233,-10.68327331173409,-0.9245834768692559
1.643894087340044,-68.23740143239242,-50.91840115898857,-0.5156871825981978,-31.409309682774854,-6.08116176504679,-12.144489888361015,-1.0059673681800534
-0.8177484236752688,-69.52743025401041,-54.33730651554108,-2.69355337079048,-33.83270999533367,-11.047992890229487,-15.470433735525999,-1.987447611193192
-4.3245382351079495,-74.30306593638615,-59.768850400466256,-5.183922690178998,-38.06431177077573,-17.443205047393906,-19.566795956086562,-3.480366015515342
-7.91946577366053,-80.8659473069947,-65.54740024216957,-6.9986196054853265,-42.577930900452756,-22.815676513066908,-22.80915108784509,-4.786761977236665
-10.532002389590437,-86.14529954621062,-69.06703319073328,-7.3929401982623535,-45.34425956538562,-25.151393560249094,-23.783834846529675,-5.315712575202417
-11.600887227389125,-87.22919101751754,-68.21029310404236,-6.417381366364983,-44.9759676813671,-23.889106914976267,-22.082218534274478,-5.006709758658849
-11.501227009327451,-83.13610429934033,-62.805480696357485,-5.07743364905078,-41.720773923267004,-20.285072514059408,-18.6911800166302,-4.498777751707493
-11.496569031751203,-75.76777745341914,-55.203598400866156,-4.965236393928675,-37.66862859487086,-16.899493090915705,-15.70986577413197,-4.9128516518373155
-13.18676598078136,-69.51388039003773,-49.620339528901326,-7.512006593603831,-36.013112754943585,-16.445536137347965,-15.489866780174278,-7.3198867997272465
-17.67508357262201,-69.62632130179159,-50.49139260133162,-13.193178575053361,-39.68442782687334,-20.535702978475136,-19.571602473881647,-12.127828306114193
-24.816974935743765,-79.75562737997474,-60.34148496299983,-21.04953217554044,-49.8363298931152,-28.82830402778551,-27.831776324992166,-18.669664304862714
-32.91816134713756,-99.23428039567284,-77.78524112226002,-28.796959933909136,-64.65624674454011,-38.85036998365447,-38.151345814679836,-25.212725017586067
-39.12339932156895,-121.2396654737278,-96.56544268853773,-33.59575030237268,-79.0333348907664,-46.56824606783569,-46.7944026963093,-29.46149422729798
-40.46882359697853,-133.46289797070065,-106.68826282929743,-33.245939329582306,-85.64457438682543,-47.63332440681893,-49.5379031123929,-29.420576682471506
-35.21439607473944,-122.27813486152218,-98.04685584478946,-27.279380667424494,-77.5867488683412,-39.023052804855766,-43.30347429144579,-24.280972565761015
-23.815069814516537,-79.30991503169007,-65.35818259821778,-17.347027431037368,-51.710308412711896,-20.49849893538121,-27.664593621229596,-14.902441206909707
-8.954911240653093,-7.029094265000742,-11.80984308142392,-6.595993922752247,-10.930369351848002,4.865494547209225,-5.4236289728386335,-3.591905868824124
5.485657018496201,80.38504961389572,51.102918770744395,1.7146848125909864,36.11324324176491,31.561402562053914,18.24063846474234,6.7866391642941615
16.057610159062914,162.32002814000126,108.09586196974895,5.640007877182139,78.34008990883027,53.72878704929312,37.81167449305516,13.961440626507496
21.12207710719894,220.7365255283805,146.79607445139135,5.245197874013537,106.93069017363875,67.47919864539158,49.678631610962064,17.082798207777305
21.265597288646536,247.88641000812808,162.88935174502305,2.235843303883008,118.88734881303883,72.26349600174164,53.40234351180073,16.827701665807655
18.612107773667738,248.34288879394225,160.8325594186597,-1.1660108774375824,117.49150709367201,70.57791436795137,51.36657020765127,14.797005515874393
15.538020790690846,234.5807688274801,150.07514400329077,-3.3684106833828076,109.62245290414083,66.28142883888559,47.14659210625055,12.617840947292407
13.576420470810435,219.43674442241596,139.53517583218186,-3.9420172538606786,101.82587806406595,62.593983344635596,43.65557297644462,11.267195175083504
13.044084842840263,210.28989700662265,133.78175715032216,-3.401120402588399,97.54076717213113,60.90452700206067,42.107573555356055,10.903393006851662
13.385654193614611,207.8108845903589,132.6380274759633,-2.58010672112697,96.73443455679369,60.84637994626151,42.14629614664811,11.138748059242147
13.833017819396707,208.64380846610857,133.41368046070465,-2.0739360267586635,97.45348781861546,61.26420863256694,42.72702175691246,11.472732888881913
13.949470783754464,209.3014573310185,133.7148215973595,-1.995502964951585,97.85846117129324,61.30477036275438,43.0520961713904,11.623328417425896
13.838259636374508,208.87314002721305,133.21464732281802,-2.0457138037743503,97.55505587485128,61.02842034618771,43.07478299943128,11.634989765512355
13.992584570099542,209.54969004498645,133.8012055527347,-1.7933088488812392,97.76384122264922,61.32501978000241,43.43449461320795,11.762501911311897
14.87064095653346,214.95303607855072,138.1592078669102,-1.0508422731656208,100.36893959962113,63.218036867850216,44.90526446255852,12.20299205882288
16.385554143031573,226.8447677967156,147.2676192494474,-0.1725011583375945,106.19932855496927,66.85951936736454,47.59401888586257,12.8182167538849
17.62312489617737,241.7454715766477,158.03322151662306,-0.039407240969912403,113.37251365338847,70.75177636960079,50.32683063460388,13.039295963128033
17.081265309622747,249.9529899913249,162.907656288284,-1.6189631748892062,116.94250144864404,71.82943922267894,50.74945002059549,12.084626675989657
13.436257989516067,238.85966786996906,152.70392087923608,-5.302032693422173,110.70594588048054,66.69974152562158,46.36015842206476,9.41979983041476
6.42811190269669,199.73166006018135,121.69383269372072,-10.4751458451056,90.62301827521419,53.577217953484386,36.031143575164364,5.176686546114431
-2.7311330170637045,134.0212407347132,71.93410867871387,-15.693563924707645,57.84332346569127,33.77646149271945,21.055773354283296,0.2213580436175545
-11.77189252688451,54.671398999243415,13.647376152972178,-19.40416639925809,19.145302802163382,11.668004693716593,4.901297030331563,-4.222262372108147
-18.40924398238697,-19.214250924400393,-39.13557604300985,-20.75102919710646,-15.8849225568325,-7.120194515817643,-8.346132003784366,-7.174014559665007
-21.382357371257193,-71.4698212055406,-75.22716767292191,-19.91651420419431,-39.40915400948385,-18.323779552754655,-15.95158689156913,-8.337049103888837
-20.853902621001136,-96.14763058570134,-91.1116965305548,-17.77357529552004,-48.84715498604219,-20.95627846958049,-17.698706421046925,-8.095766075338421
-17.96671559001276,-98.5252154303916,-91.02245096988395,-15.117133236618479,-47.209713604148014,-17.39265948532177,-15.55021658153883,-7.101546860826025
-13.926661578644545,-89.62306997732729,-82.5850516723738,-12.047101107191352,-40.25174322611885,-11.651642470206973,-12.101991199208776,-5.7611641431449625
-9.278871554346086,-78.34545200292666,-71.31974794542843,-7.962737114069771,-32.54384622450861,-7.027017241929573,-8.917764058492436,-3.9966836717626895
-3.8530725221831954,-66.65204737181426,-57.82662819613865,-2.1707696299523884,-25.12622390071151,-4.545286395996155,-5.841764397989978,-1.4317138070320183
2.6734036477470426,-50.58107621477137,-39.23754215657762,5.351690632822282,-16.07569838421542,-3.063955062332777,-1.631417071482518,2.160187390724564
10.10033085570722,-25.57562618502547,-13.308105459039737,13.61673255482505,-3.1595605170012337,-0.6829297807495301,4.689937411511159,6.496173617169279
17.467847773064356,8.27419784461371,18.21617691327074,20.97856016066338,13.605141792505899,3.655973217212883,12.800209779394242,10.788246171576652
23.440941117909826,44.894685206936536,49.46378337197163,25.954617240653974,31.335466881434108,9.450110414347185,21.07223438171179,14.112213056254184
27.020465214161455,75.43020435367859,73.4612626780809,27.967136680193533,45.86448390099026,15.10325948631943,27.505773842038053,15.882140066120613
28.063012271673696,93.33183460693355,85.97598202836662,27.535654871136135,54.187113741237276,19.03862458226841,30.86377393435703,16.11271591040595
27.272427296501117,97.64293309661772,87.47539644554713,25.85944200587152,55.98516238058285,20.591713134081186,31.22999947316566,15.326264749771841
25.737756789110023,92.55195145077998,82.15075460853254,24.142200106093213,53.35147957819643,20.162182185318994,29.725594736178767,14.217956365012014
24.38852956256806,84.22596784890831,75.16161490737903,23.109186956049832,49.25419439382812,18.74147583253788,27.746727248536896,13.326793382420629
23.699782503486954,77.5839323594896,70.21194183241704,22.917594290778954,46.02191677734574,17.31015284192218,26.310386624553352,12.888128806427869
23.7070136780455,74.89512683023273,68.7117402026653,23.340559353311914,44.71127030109592,16.48599281764949,25.82526010752928,12.869755639235917
24.175229966451436,76.12084230676061,70.25362904142378,23.999164766569713,45.281340858875566,16.458357114469607,26.199455306874242,13.0877643878836
24.769023041199468,79.8420241489154,73.45752153974902,24.532749422993586,47.0293480907233,17.06101800047612,27.049201531304398,13.319363544124588
25.188117810552168,84.0706092493842,76.6771603199681,24.71943871773583,48.98171988779981,17.904346926360738,27.89908509549045,13.393693800795926
25.278333842383507,87.03295280227803,78.63053122434377,24.547430716975338,50.28763463358506,18.577112499977932,28.38322701695062,13.254944140319148
25.078968650195357,87.95703323190824,78.93296558440233,24.183565806637993,50.603345897518736,18.863815372197767,28.4050625584171,12.968443599038753
24.757003380425147,87.35029276638316,78.16194289803835,23.833403590626702,50.2046769901934,18.826003120273793,28.137416091495847,12.654922545095058
24.47063140257519,86.37454157830047,77.27042383056857,23.60292272846789,49.66020089954078,18.672284327854427,27.838507712326205,12.400157207240222
24.28647663418891,85.82933565175036,76.83162429683502,23.486743650020177,49.34217138805488,18.550939294987142,27.649150315114813,12.21757313619612
24.21675106743426,85.76111713284475,76.84117944714141,23.468476362797997,49.26129209751318,18.47927653209092,27.564796401635352,12.086117842398883
24.297341778908564,86.00359313116621,77.17294463172672,23.58770991961226,49.338279653091035,18.45214317950401,27.572203158852474,12.002913506399139
24.579044642354148,86.82684075808811,78.00996217163687,23.876676205638464,49.699534631674524,18.553369602864542,27.746648208527212,11.98172413504306
25.022536275730587,88.770744068649,79.64567043663669,24.243302519753893,50.578092946389795,18.903905042065794,28.16902555892135,12.00450786911954
25.42755756319218,91.81537251645597,81.89291244328302,24.4581571499706,51.92820300408244,19.500710407185323,28.76261058908399,11.996382819624726
25.510849290459948,94.9206551275961,83.8728006925668,24.291484527781716,53.244580701171955,20.143924145704045,29.259872192781593,11.865800676599758
25.094780465921712,96.55408436295136,84.5207583580759,23.686593295669248,53.83979899172828,20.542233243633728,29.359316799129815,11.573474918405745
24.26231373715323,95.71700932626631,83.34241811678805,22.835724371208723,53.31403093432508,20.487321817582284,28.927103794025594,11.166706659627506
23.37850214917008,92.59277473652314,80.78604252929203,22.133478151453602,51.81404514464642,19.95659964328944,28.090037847175942,10.763845301835198
22.981229920720065,88.58242116145107,78.13606928996833,22.052495227056152,50.01118859505541,19.140655074880787,27.217552472242065,10.518882451179014
23.571744149055405,86.0613408966458,77.20435420875147,22.946863888499458,48.977667165623316,18.460232209955038,26.85448281038617,10.577231627290178
25.31440527336613,87.85845330511587,79.81378358764509,24.769727417261286,49.95129862197375,18.522425057206178,27.564099893937044,10.996285413659098
27.716353284038068,95.94511986812903,86.76245552830123,26.812655388823252,53.73637428248247,19.86424236155571,29.586347475032298,11.63279927581841
29.50400692020413,109.3569183808551,96.4369162931273,27.72337116062895,59.76414476913206,22.48170803161868,32.401004695245625,12.082451282999317
28.947357470300965,122.7553996487363,104.17513250901001,25.990240804571712,65.48278960723192,25.452459153530228,34.55143812425726,11.781362430404567
24.641289083442892,127.53470386150613,103.58467405027783,20.74444747694927,66.93219324567525,27.060853190092175,34.06568713102713,10.273202019843184
16.362562435844065,115.83418166674956,89.69847120193027,12.396406548476918,60.599473360950206,25.52543254736754,29.398871932579638,7.489146092276499
5.433075491264101,85.3139112043388,62.13991803345642,2.631156821183236,45.52195361256293,19.948009691931905,20.353782621664696,3.839235586104243
-5.737053650173876,41.434690793433475,26.051371061034217,-6.312971219629857,24.19086158470734,10.887632570525213,8.361856931653838,0.03449426163256278
-14.721591251647999,-4.5709243294304045,-10.049370292735334,-12.668809918889801,1.5579680108954947,0.1951839981186626,-4.0855959856973305,-3.2499778910977355
-20.14229595935652,-40.95746029635153,-38.2094730908876,-15.853754045849973,-17.253659726837864,-9.781455709530674,-14.509398675811896,-5.656182769864488
-22.11506942569975,-60.77118503398122,-54.3580062249698,-16.48899746283663,-29.114968497684167,-17.15166343413428,-21.386752745322088,-7.207965356537958
-21.893374009190257,-64.16869459022017,-59.1869011382039,-15.816444187719371,-33.736194271342626,-21.09533395038973,-24.493289019427607,-8.15664265386682
-21.033691408456058,-56.863548444217706,-56.55905569509688,-14.963054512460337,-32.99699717720402,-21.90344820144131,-24.602204987785537,-8.744109363479408
-20.634621782717833,-46.29053468104844,-50.94545131646048,-14.496136982505341,-29.531673389672516,-20.564722982935695,-22.873389385573923,-9.044587220862361
-21.028018085728117,-38.093402900298535,-45.589250968213975,-14.408233649237003,-25.563023774200932,-18.20881168057474,-20.33225461768272,-8.957580236918721
-21.929223974838884,-34.606137323751014,-42.03998295470199,-14.365468379150249,-22.438845410427398,-15.672106731432875,-17.629612278272102,-8.313185036170589
-22.79678717731713,-35.25721759603403,-40.538292561737904,-13.982011151430326,-20.662671641027085,-13.29994693719579,-15.038393119612811,-7.0051148274273185
-23.15282331931777,-37.84866199352941,-40.482051382898234,-13.009404267411982,-20.045514385908742,-11.00065375515205,-12.575626519477394,-5.091672726445603
-22.765619189604635,-39.88237073969943,-40.76703246320674,-11.448466867235233,-19.903386096538448,-8.528156653511905,-10.195476334784399,-2.8404004972984063
-21.7071678636127,-39.67411005443377,-40.24558728708083,-9.588830774126903,-19.439480591175577,-5.883725604741112,-8.00954485320508,-0.6993449889800888
-20.306926663243907,-37.07452491717745,-38.33327832881226,-7.934037076443609,-18.255038892211804,-3.5902583816376215,-6.41069919632322,0.8182242781716903
-19.010249485692327,-33.412020323173124,-35.34641476592735,-7.001870474847054,-16.626539678595982,-2.5765041511937863,-5.95443581268326,1.3093238815890715
-18.188807236639715,-30.516446260918663,-32.207295519761985,-7.091286297601224,-15.261429221576641,-3.6457312643209256,-7.009134260687796,0.6339315245648711
-18.000266289282333,-29.41844012180435,-29.73709968110615,-8.155074050958307,-14.709628363129944,-6.855345199724534,-9.41379487101084,-1.0454658665259522
-18.37154038606061,-29.716976227800714,-28.166885776320466,-9.843826161244973,-14.950294525203418,-11.277079971900758,-12.433733838648298,-3.3569405840487967
-19.08711714808855,-30.06768232051063,-27.234393460355946,-11.668445197868357,-15.495265665278007,-15.370255025197581,-15.091402133799672,-5.875141631092037
-19.89580413816275,-29.263627487683102,-26.627193219777023,-13.181290250770836,-15.854247012614115,-17.76217201511177,-16.657947030296697,-8.247957055421185
-20.569947335486777,-26.986884817693625,-26.280519720567504,-14.112480229963674,-15.925002949074898,-17.9479622053181,-16.984986076213648,-10.254657815753413
-20.91839878257785,-23.813457552651332,-26.332088533329095,-14.43728384103966,-16.032553286214927,-16.49531052104149,-16.499832532228574,-11.813404928723294
-20.786985548327877,-20.751685342209033,-26.912578820083127,-14.350837464415791,-16.67371485978673,-14.665379438387747,-15.916045824527647,-12.960469184251716
-20.06472265116964,-18.743559986502316,-27.979367983395232,-14.138383178080744,-18.176276833337997,-13.692933714532083,-15.84377945198065,-13.80064861468698
-18.701418556305956,-18.267350556245535,-29.215583052909448,-13.998356531103108,-20.436308491766777,-14.133190639862473,-16.491972983578588,-14.435063290411307
-16.752312777673428,-19.058718949178648,-29.99664208885199,-13.943540412558471,-22.85114769078855,-15.637714413364508,-17.601701783504392,-14.908404585326862
-14.453040711028809,-20.15645041032379,-29.572846824740513,-13.868023211845522,-24.557392101734518,-17.29135904274624,-18.656820751678243,-15.223603488301457
-12.267791656910102,-20.478336500150867,-27.55701663347768,-13.724390769803264,-24.94743441969199,-18.306926918961356,-19.265503151239482,-15.415590935332444
-10.809842609456606,-19.650869027108104,-24.426276959210306,-13.643207572703995,-24.154642239403003,-18.613432358524523,-19.45814831029589,-15.607542193731067
-10.596256935363089,-18.3615524493115,-21.494853433175944,-13.872132446711468,-23.067143135756503,-18.90493542023165,-19.657864037366302,-15.97371814283456
-11.749030332588685,-17.781911137343396,-20.153268123074948,-14.578233431132336,-22.731672720991142,-20.08801550152185,-20.31405895315726,-16.616374388860415
-13.851115250216925,-18.498296279466302,-20.876898034865278,-15.67848835304087,-23.554375834825805,-22.52571620569273,-21.47844290896137,-17.451889395518737
-16.089574151750455,-19.92771265722415,-22.82379904379134,-16.82981276796615,-24.94724438776576,-25.64347403861634,-22.671060206052516,-18.205878045537467
-17.618161292034554,-20.73879390720046,-24.367730151911257,-17.577057529937907,-25.714114201481383,-28.185445688508267,-23.148267827909454,-18.53558315296576
-17.921841102144565,-19.83621998311786,-24.11970277554754,-17.56023785533893,-24.852227086473466,-28.92584389919155,-22.362239336061695,-18.206600155818837
-16.98543966626062,-17.044543479591823,-21.676786418513284,-16.678392369862745,-22.16178300288378,-27.348461613190658,-20.28233669181548,-17.21963578701296
-15.213879413941289,-13.085243055065321,-17.705292616850084,-15.147905833337951,-18.307443187171298,-23.892980709693457,-17.395693673569287,-15.817432975546593
-13.188585490395775,-9.104724467981352,-13.494567949209022,-13.426308193401754,-14.412680425945176,-19.68116653047129,-14.433967690713379,-14.36660758905134
-11.394998646649041,-6.151338148239738,-10.296830896604677,-12.014255703400279,-11.477805409939092,-15.920073612706986,-11.999251144833883,-13.172751051110739
-10.039299698269728,-4.721824796932671,-8.679316074240782,-11.222831045743868,-9.874513003114089,-13.308272480750533,-10.27128419869547,-12.330084381900475
-9.029238288974273,-4.411925130619327,-8.123935619475796,-11.04934133101747,-9.118202104599595,-11.755244831771124,-8.943612200889271,-11.702878594808947
-8.123561642443399,-3.9443591439044003,-7.210484760008942,-11.253685755960898,-8.104882761943337,-10.574156229364084,-7.457633693681003,-11.063366468674994
-7.15517647532776,-1.8681844107256278,-4.523140433489155,-11.572699868966147,-5.824845555832414,-9.035364154619828,-5.435933859170568,-10.297799056748527
-6.16559772498052,2.322802176163622,0.17571379894113162,-11.887302865794899,-2.18229234105088,-6.904698041090176,-3.031805386379779,-9.524430274009548
-5.33669593795565,7.512441775680707,5.413206865777882,-12.199388020757722,1.7016304479191346,-4.566636688110277,-0.9030406250555915,-9.018221672581237
-4.763898917740542,11.446552878341098,8.715907151048587,-12.453886219472405,4.067058628989887,-2.637479405179865,0.22549200784675977,-8.983606054387911
-4.255177186529821,12.187051931351121,8.219744614846647,-12.387342695287323,3.6804274354088307,-1.3882011901510287,0.1071608730514297,-9.343001863446558
-3.332585197996498,9.539950477759225,4.103308879548703,-11.567111827511539,0.8070411333502913,-0.45666483148213766,-0.7868843824411595,-9.709216679308048
-1.4633919571861824,5.527953214885182,-1.1080007653090742,-9.635428736439046,-2.6622045577559423,0.9141947563583959,-1.5161235565598912,-9.58326248997978
1.6117876773877025,3.689968994520184,-3.554444334070639,-6.621203409623067,-4.010698350799957,3.2971445859504276,-1.227115364617043,-8.662530814143317
5.638127287631507,7.547183499028697,0.126032700973823,-3.122810863192365,-1.0074915288360982,6.578907486484239,0.3435229423842894,-7.065632818686676
9.821420682061873,18.675814555715938,10.879516856905429,-0.20509866997076703,6.821355499118956,9.850308127299968,2.68299175740694,-5.321097331527043
13.057324883205974,34.91678123209632,25.970928767448584,1.0298110937355593,17.44428479339942,11.72205377144502,4.678919881404059,-4.095147895935487
14.3664484706895,49.65012924716505,39.10478032428063,0.06267708267462917,26.51128432772272,10.886852086047327,5.057449434492646,-3.7829837377360542
13.385623323088025,53.240413067015844,42.39850929738141,-2.5453292181225127,28.710451213877363,6.689506534739282,2.9297911169937727,-4.189308043125031
10.672923227471136,36.91352106999122,29.821798686308163,-5.139371260126231,20.02312553731657,-0.5052525547635003,-1.7411991478345636,-4.513736931310687
7.598360042896834,-2.416336608266589,0.5807049544143391,-5.602221481970805,-0.07971860287233401,-9.301815643574736,-7.971384827479503,-3.7073162012669165
5.782779805957719,-59.168159365501346,-39.565167652109665,-2.3951221733181605,-27.770884149132424,-17.675439639623832,-14.036047857871448,-1.039221170146714
6.33047552036189,-120.29006155224937,-80.22681722556428,4.55603398533017,-56.09649323397032,-23.684242365110347,-18.15485695599029,3.4454191887761545
9.275248124068304,-170.62055505082068,-110.87032932022636,13.684532034248901,-77.90201481283718,-26.220579379441713,-19.28743880017874,8.859005684263101
13.57604156634245,-199.6594862190562,-125.48798069737445,22.479910650096347,-88.94913157884712,-25.446590960846795,-17.614692846589765,13.856110539084199
17.684310214268244,-205.83035549618228,-124.79214024165212,28.685949161825018,-89.47230331631263,-22.65004657459392,-14.396460641163765,17.261847303117076
20.35067781209717,-195.8222240631848,-114.77785743140328,31.308479233983075,-83.34512045769334,-19.55070129024628,-11.254891005279388,18.59262016383378
21.184117962247498,-179.8892626284696,-102.8760434052536,30.872664012105925,-75.57261883845028,-17.44802635269472,-9.32782865450614,18.187765138098335
20.65522413761966,-166.54574694948957,-94.36307334030163,28.87352176284889,-69.84171673260639,-16.736658096959392,-8.839464312505058,16.915590705488967
19.632066921490843,-159.84334152063562,-91.03110299096436,26.87310778201187,-67.51881543679228,-17.040920943248086,-9.301048533770178,15.677199349174511
18.8361919363367,-159.80905289336332,-92.06022018019503,25.82789953998494,-68.15263408887982,-17.734921652879283,-10.054591199441655,15.020034600166658
18.567008598769842,-164.28372770530322,-95.55286809768079,25.92608256000413,-70.50171348803698,-18.373362421556276,-10.676902594196255,15.034997159590029
18.749864535829747,-170.33793376289876,-99.4745157461365,26.805650170582364,-73.21013926001096,-18.772958331036644,-11.024288211577355,15.48633672473375
19.12980547528757,-174.98644006711936,-101.99461023080903,27.87328916588243,-75.06283147688764,-18.874215285883004,-11.081092790402636,16.012164946461475
19.44569845343287,-175.88995850466387,-101.82646798173707,28.575930057828074,-75.20195625272436,-18.64677827412844,-10.863421392565122,16.28922239859426
19.55577352872843,-172.21574442418347,-98.68477748114533,28.62212956130769,-73.41429047407686,-18.11153693895821,-10.421409971173695,16.15311487556654
19.524165339496115,-165.02918166685777,-93.43106260721429,28.124434877679334,-70.22706847148491,-17.363127783768945,-9.827787074975413,15.676018679885697
19.603566159973735,-156.83371866851155,-87.72231360817297,27.55180885608861,-66.6794944543388,-16.53235384244447,-9.132851997317731,15.152655031058154
20.044971882107895,-150.72887478844237,-83.53821405806286,27.448926733207145,-64.0106226483489,-15.780105610074573,-8.402645290644513,14.951576484717828
20.81994867064257,-149.7190042862092,-82.86253313597784,28.074106653289952,-63.4700262514976,-15.376583598502737,-7.867298796422354,15.28588763995926
21.488066524643948,-155.85032552133765,-87.1348383594389,29.196837638661034,-66.01938657664422,-15.71632639351415,-7.979024636257218,16.040472149484735
21.36918644540887,-168.56843862446402,-96.01888583853311,30.15830040522257,-71.58846129263387,-17.076923713780452,-9.166712901394439,16.760319630249015
19.92272887732126,-182.9080319884671,-106.05959551237702,30.09602253132324,-78.17785941266854,-19.205369973544162,-11.390457965709238,16.794104003932567
17.05739052024286,-189.55607668713913,-110.79117187211581,28.192624119106252,-81.79383812645665,-21.122047164771338,-13.905246020256001,15.518191976703571
13.17140249178194,-178.29907009445597,-103.2952196612045,23.91707701118129,-77.93696013336076,-21.459906098256706,-15.543062432746556,12.57812495800579
8.94909612824345,-143.672601590779,-80.18323067592729,17.275562433987844,-64.10590866644799,-19.204474753902733,-15.369149184550308,8.100526957088276
5.084339316482758,-89.19555091177182,-44.35955048347276,8.98629479366595,-41.67561493247919,-14.314009968327538,-13.219373305340344,2.790582752494934
2.0789798916069056,-26.921447060316734,-4.386291829700457,0.40043213951406204,-15.699788715279846,-7.7687275636704705,-9.724428144703541,-2.1980121697124346
0.16513699707871532,27.87233081384708,29.44232377974082,-6.908991536324117,7.408372242744737,-1.0449071421905956,-5.852924368862115,-5.653697395284475
-0.6741291359515154,63.71730748339271,49.95858296258417,-11.73211094503977,22.903240975875505,4.583095445774652,-2.3601000217684502,-6.82035190271333
-0.6385840799987718,77.55116845223938,56.023313155775185,-13.674584475207084,29.617926328974285,8.459824996424816,0.4610150649846682,-5.771001143617491
-0.04456998250495957,74.5428879410703,51.99693734171309,-13.241054664044157,29.77457967908991,10.515313534538693,2.621904212610677,-3.418132328113626
0.726461510657453,63.936628690872716,44.52231196330936,-11.535438142160476,27.100000244232515,10.963275201775296,4.106545487205313,-1.1252256225665282
1.2786100260797346,53.91266243134418,38.84058194424087,-9.771306263337042,24.61394377752199,10.060163356481464,4.711297989835893,-0.10395736879546143
1.2653026568001835,48.42979330225183,36.740322981910836,-8.850433093661236,23.407749771059116,8.108678704067726,4.213594737757793,-0.8998102555736502
0.45899418823849103,47.14957005010419,36.857404782171486,-9.17028880468314,22.854346473812242,5.603084658195102,2.705136176041797,-3.2162033889329704
-1.1924149124958134,47.48308495993681,36.54533073163976,-10.65462551989076,21.72845350492074,3.257590900766046,0.7588299655914379,-6.136822920758316
-3.5373429869908697,46.9631648401393,33.8998148188856,-12.897023955693884,19.330361408045764,1.7775088626087114,-0.7681010047278132,-8.595835165984596
-6.233915637152302,44.66025259592284,28.86550429124689,-15.322182602617211,15.985342948253516,1.5013692325235604,-1.1877538582497493,-9.841028064359602
-8.823735000915425,41.340810509124644,23.115944153457953,-17.341584155190162,12.827919869622955,2.19515556136349,-0.377195350763621,-9.68062323188517
-10.870697057361623,38.70651748662765,19.022654999863114,-18.509247606776132,11.157903500857827,3.1800718593430775,1.1527977201851174,-8.446559832085944
-12.122812966247329,38.26021232275386,18.346336410424353,-18.648032671028343,11.76296064992252,3.7294666960504705,2.554551833422241,-6.749649215509234
-12.613065080076606,40.386294012711176,21.3340469945786,-17.886588379136573,14.538900127946013,3.4900061400469187,3.1180281081552854,-5.1763437183170735
-12.631751867650976,44.140271929962346,26.676295026556392,-16.58176180021221,18.574291943644017,2.6807313590152817,2.64862352145064,-4.0677396619398944
-12.577717268210513,47.854497758483454,32.28161319602195,-15.172139062013226,22.620548099812414,1.9636371078612656,1.5451798909134529,-3.454251114063451
-12.767658365257912,50.11372683251673,36.32878126647088,-14.03813211799661,25.648199676316576,2.0588694398409357,0.5471862377680037,-3.1362695709552595
-13.296127368445033,50.41203238459971,37.95143759140129,-13.409534388581315,27.17089994975083,3.3118943328927917,0.3061199086096796,-2.841626398072156
-14.000549184430104,49.139545238996185,37.28555276925863,-13.319046576770951,27.234236134595232,5.4524985890727065,1.0351484521147758,-2.377179158336463
-14.539265197092295,47.12143498156453,35.091384628028784,-13.602451626758354,26.211925950150746,7.689209188357725,2.4329135233896615,-1.7190337854501345
-14.556419495532541,45.16185191083663,32.30974127544331,-13.967376907062333,24.599021625439605,9.095558771691755,3.8930984480111013,-1.02413677299056
-13.872365600509067,43.802902499948004,29.717398495641223,-14.129567385429718,22.858717365244832,9.079390748266619,4.8399685776651005,-0.5672494236416249
-12.603472560445685,43.214336337572654,27.672121533633305,-13.947767182565173,21.288742590820647,7.694735371856705,4.996816003408079,-0.6143513269493068
-11.121685741416293,43.153098375011645,26.004843112684803,-13.456120443319108,19.942136699214963,5.665366858417831,4.490596002411829,-1.2630574171520175
-9.845986810285766,43.11682422010036,24.222033787356697,-12.75925784550316,18.718013713716662,4.137425193971735,3.801160420412144,-2.3202187204828504
-8.978726428167978,42.759081640346615,22.022317860522698,-11.87483125119913,17.63388064213536,4.262843778738105,3.5897082104287334,-3.3089684311308476
-8.363185547152622,42.30608707413834,19.781779979060623,-10.665628780210556,17.060689386655103,6.732336429122731,4.426725315078412,-3.6531222586497543
-7.576524373230159,42.54545480537286,18.540902359428497,-8.936552667202056,17.63090324547825,11.3920740669176,6.476488590469991,-2.9782215517582746
-6.218394675551878,44.2655614541723,19.372705499045672,-6.63764163441953,19.777073939343243,17.111375955244604,9.284528825777237,-1.3678649849535816
-4.222015142600238,47.54947781175626,22.545934693553264,-4.026548031605396,23.22135370973144,22.04633631324704,11.842197158343142,0.5920606744850858
-1.9938420310607854,51.5079852595335,27.106288839078903,-1.6628746844796651,26.851143217352423,24.293430666562823,12.977887630057877,2.0399643315361913
-0.2823044213384675,54.678893229257476,31.20077896518132,-0.20309658223226337,29.15724367091129,22.699054652088115,11.913013688176644,2.2408147380563124
0.18230217528423037,55.809271591134966,32.96874833372963,-0.07311222849677429,29.01263786200374,17.449992878507967,8.695694108263627,0.9690487356228915
-0.8842573111230724,54.545495975872335,31.5210015983091,-1.171782130864188,26.354148018525972,10.140734647750026,4.288053621806546,-1.3177030230947018
-3.0403572878476703,51.722027465753875,27.53484909934167,-2.7776186929242286,22.398442881793784,3.258936008799522,0.2693774238038037,-3.6090719593537672
-5.166505787264411,49.160019085478964,23.16557846435863,-3.76481162122775,19.25551690932153,-0.7069125168077502,-1.7154160324966437,-4.735602296815131
-5.8825193709605355,48.99538907669193,21.212815263928185,-3.0824963786469146,19.055485841726483,-0.18719521202798123,-0.5595384120960444,-3.861658824635014
-4.1780559257152845,52.68890903416791,23.80128295470794,-0.28233883346433786,22.925731013436483,4.871973294667793,3.85448271449422,-0.8576171776397113
0.04836698825738521,60.129048535842976,31.174694308921882,4.188194510541904,30.296191801425042,12.972087678736873,10.529154418008744,3.621555717797704
5.83877359694911,69.39808064108378,41.3041852849447,9.10741779387797,38.9531041531493,21.628604977140316,17.642691439750877,8.387606539531886
11.524541481353072,77.51304211354238,50.662690137763626,12.976023745594562,45.92851751427653,28.340438551026626,23.189756290897403,12.180373803825768
15.42120256738345,81.83094659467584,55.848399992960935,14.64798026617295,48.83816889577594,31.557878716576443,25.725104412535877,14.129459795390007
16.531477716018085,81.31670656527426,55.21220897660247,13.792170791601743,46.98062143537613,31.20546148624712,24.879492783327315,14.025342952947511
14.921620640071064,76.95296140815907,49.63927052631268,10.977978123538676,41.62250365188583,28.51342220664518,21.41302831117037,12.311879403247016
11.611944195778444,71.1395593173889,42.12052430210711,7.365583010154489,35.34693189138302,25.26300702428111,16.799348650295617,9.834060130249474
8.061352314669904,66.49647746703201,36.36091709784845,4.162578564267665,30.823534007137877,22.853289566108373,12.555044216502734,7.461950592966363
5.506100945972871,64.68086889315606,35.07437840207054,2.1073091893394187,29.597622706833846,21.66806801994499,9.625939607502618,5.745473706424725
4.462226130199871,65.6995156954251,38.71676709668405,1.2183238112324395,31.4382235842011,21.031814198794393,8.090821009388748,4.737315359419336
4.606990442804696,67.96686007295192,45.24088093332216,0.9128436451015135,34.52277598066414,19.72119111044097,7.288285303197738,4.05423003950879
5.060563454514061,69.10233961836684,51.041575817215474,0.4037760701941382,36.372656726559384,16.7217641911437,6.277821245709688,3.1393476730807803
4.888129725622062,67.13786427812524,52.677632778038166,-0.8602096125687627,35.093839388819774,11.81631829288254,4.386750576756076,1.5830627912884605
3.545938408831637,61.526944196196325,48.497754583965275,-2.9497371081708335,30.29318451374081,5.70496009926665,1.5565411641431754,-0.6709957202761894
1.0614736840838666,53.38816563295401,39.320251519736786,-5.499847085346185,23.199659432754945,-0.36431359969529076,-1.669938548600039,-3.328552359923279
-2.0828391446599763,44.873501461638384,27.88146091025981,-7.956655114281726,15.981166485752627,-5.189201816607491,-4.4558028075362,-5.912084924297663
-5.2316873379488325,38.10688458957467,17.48439202115728,-9.84563329949996,10.70566709603835,-8.06488586287318,-6.0532014330304476,-7.963794397296328
-7.8298607798189614,34.33159783553685,10.629950143369957,-10.925711304026025,8.521999258966645,-8.885970065673863,-6.063978473252416,-9.179318188577257
-9.573796404214308,33.629982252305794,8.238758653220923,-11.201029653676297,9.392349134410562,-7.964147651306321,-4.517635579484857,-9.451713367682748
-10.418214365730563,35.16537183070707,9.64503472539649,-10.836533343542342,12.352810448856617,-5.782321689177929,-1.8124573223754818,-8.858028206967395
-10.476185186723752,37.692774646478455,13.199382486558656,-10.03887496300347,16.067659187597307,-2.8468741884537785,1.4260309135534903,-7.61387375105565
-9.885293241023648,40.10460132578494,17.14284754525646,-8.95652649637534,19.408443720717806,0.35820840849312074,4.539905996174641,-6.001955932159122
-8.722526563628941,41.8257209826384,20.34579347791486,-7.643921752733277,21.82768333599252,3.397452442824601,7.039984029135843,-4.289868701889656
-7.018598762085699,42.88949036771211,22.56053487937551,-6.106510868971502,23.37541297496799,5.938139266214741,8.728667612065374,-2.672475616669536
-4.850932736556048,43.641085096274054,24.096410080755664,-4.3923721619150475,24.371807390649273,7.808506714797098,9.679605109817578,-1.265661108457044
-2.4333879078554856,44.265766812545486,25.207826675870866,-2.6605013893101077,24.967268150262164,9.011644570194525,10.09955494688918,-0.14152252431259935
-0.12388026173964241,44.5165245158112,25.69914389349869,-1.173958845085549,24.923192477565323,9.675139627765471,10.178152503152697,0.6321474886381464
1.665462911566307,43.87939117808165,25.068170568236624,-0.22172640195501633,23.794411558375113,9.953681526958652,10.020481510381787,0.9790216704201457
2.605690351914516,42.033342935392106,23.05094739169347,-0.013664243135485305,21.373222281358757,9.925510344846785,9.670556349835671,0.8338018456078125
2.568231422076524,39.19498557130088,20.08685501457693,-0.5923356229215302,18.03201829868464,9.538808827209118,9.16307427276072,0.18175103066633197
1.6778400842888614,36.05119679827404,17.2860213107126,-1.7881575708910167,14.671135709916843,8.6604434714636,8.546681294719304,-0.9003760728366198
0.28432496277423597,33.347792878986446,15.870605196690402,-3.2400986466273816,12.27455431254334,7.226796594470381,7.873101261126875,-2.2247747501600736
-1.1486238789280372,31.454910300680805,16.440859297035445,-4.500785061186221,11.351341880915465,5.403302545398913,7.175251272088314,-3.518664190209182
-2.2156407002374907,30.17909602907954,18.523105147497887,-5.2088981169210005,11.605176118800035,3.607226589391057,6.447428912904485,-4.504428043424323
-2.7367908288844265,28.88171774427721,20.683718467595373,-5.249672269425743,12.030723134470596,2.322423567059375,5.63117635438759,-5.005565323584562
-2.8224666858387564,26.82468590681864,21.1970004300642,-4.796087971363929,11.410598865592494,1.808100053126212,4.62657532592189,-5.017249975801905
-2.7755749100034106,23.626017587092406,18.976551372693763,-4.180309816505226,8.99103835285356,1.9244336166852156,3.359003611465927,-4.687082253534119
-2.8776623407858866,19.644789489226408,14.302912046425382,-3.662768268030225,5.001896403732234,2.2319679749276853,1.891673834266773,-4.207382459793736
-3.204227057377704,16.028023907522105,8.895651185766237,-3.253263484043117,0.7059295234049557,2.3044709339714196,0.5027412568102093,-3.6875374372014016
-3.6079625332285072,14.230669359230221,5.165291953204735,-2.715984474210912,-2.1373470834131694,2.016533164053481,-0.37491200494643434,-3.0959413426623867
-3.8854373334961294,15.158720434033123,4.959285923425659,-1.7666976762997193,-2.1741341151524476,1.5898545072425392,-0.36882178619611083,-2.313304407244198
-3.999911877665355,18.448663911533217,8.487143054723157,-0.335147178515108,0.7610429176522104,1.381153235643859,0.5793267041907899,-1.259282119458732
-4.187641472692345,22.411863632230787,14.066406199948025,1.286103854889624,5.449505086539259,1.591714147562237,2.0997896132338174,-0.003778117195618849
-4.858116135685322,24.759071168479014,18.864870682550837,2.5220506958481894,9.818957722136554,2.1197623156779315,3.52560592114398,1.2147986328791898
-6.340942573208175,23.70717458297572,20.248653495567744,2.802231605384807,11.92441431265875,2.654657379733428,4.21681655301205,2.082476713384914
-8.634741721107158,18.856510066242908,17.044165335734625,1.8966588607721764,10.868670272307325,2.9331241174065603,3.8982996911360295,2.3618595510120564
-11.317769310612357,11.40597391944186,10.10706452386992,0.0931437936928435,7.207155223237987,2.963385829114935,2.8118298921432663,2.012299023662867
-13.687995043151979,3.6375644211307416,1.9439590946675953,-1.9105175022794458,2.653826911564504,3.0438839179888992,1.58442890673103,1.2061971270023468
-15.065229800787261,-2.0767861752734467,-4.4328463685731885,-3.349374022233433,-0.7571941107360068,3.550464422818913,0.8831215982254759,0.23786456203497647
-15.09077904500717,-4.302829884732839,-6.879171331735771,-3.763913787885477,-1.6385246006621688,4.641799526256258,1.0596163108323993,-0.6111345902625649
-13.865864099826199,-3.1294722241246387,-5.050589010650371,-3.1817818327421215,0.1380308053284885,6.10059572868964,1.9925784278171075,-1.171604711898223
-11.875834208704648,-0.01423169285423051,-0.42659839164014185,-2.0265390742424616,3.4833973399974707,7.423199969947946,3.197984954784359,-1.4158671521632502
-9.775873908495472,3.023096762738916,4.545278535045238,-0.8544229816133686,6.724504195970921,8.073280401650704,4.097431962651423,-1.4361944409686176
-8.174286512002936,4.376044937114943,7.655673230580773,-0.10887191087821825,8.431996105848143,7.694966560807675,4.248411564130789,-1.410866786967309
-7.50995499578277,3.421556402032518,7.797071152173342,-0.024901021992376628,7.968896094501955,6.145197903159617,3.4130814373737666,-1.5710420156159226
-8.027315650173614,0.4386099042921538,5.095711537993029,-0.6762836656452215,5.527081740722813,3.3969985372290665,1.5048736951080506,-2.1473774970628603
-9.7836215867515,-3.8787224217879923,0.4493967974818316,-2.0540583129688437,1.78644764869677,-0.4983984432538333,-1.4414531209638974,-3.2734584103576903
-12.62876030130999,-8.841027288054,-5.060187747706687,-4.069993876155916,-2.465966575496977,-5.269838078121638,-5.182196297301483,-4.865780826528748
-16.164572934389792,-13.854797645681465,-10.499119902926914,-6.478641673377266,-6.51952030898324,-10.213811338749945,-9.13302451975009,-6.556602553515813
-19.75593698365175,-18.3178072105404,-15.122564938285445,-8.819772093478015,-9.752585597272466,-14.19141918761114,-12.388326250034435,-7.770258427098262
-22.665910275305286,-21.623081926932958,-18.350001344830094,-10.503895788365002,-11.662887487599356,-16.023385944605586,-14.02125440141416,-7.967469984633811
-24.308559899980224,-23.394245963588403,-19.870066201443436,-11.06471891296768,-12.031840734830666,-15.145101922765734,-13.564807854524057,-6.959337143986047
-24.50832881797662,-23.778489279494103,-19.85072257102391,-10.449066778425948,-11.136448366873093,-12.090712901392955,-11.3690551620743,-5.099793762503645
-23.60653652965259,-23.518913488722504,-19.053923139190537,-9.132473418711925,-9.798446614940808,-8.39384338411304,-8.540802771721387,-3.1921129732755547
-22.314643701940547,-23.67583312449139,-18.66164495589861,-7.9256046440666905,-9.125615728364302,-5.852446178714039,-6.4211607711271705,-2.1036986628557823
-21.3578389479404,-25.097905979597613,-19.785814768263606,-7.540579553641889,-9.997306512443677,-5.55259772233922,-5.870778581855026,-2.281227655025903
-21.094397979088196,-27.89960619110116,-22.849894839504362,-8.17289473465338,-12.53683051471773,-7.249228369974393,-6.7860999783659794,-3.45637054979669
-21.337589784404617,-31.242886086907934,-27.181054514655838,-9.375332408283224,-15.882551364159681,-9.506057394743454,-8.153038272142593,-4.747432191549693
-21.503462186558746,-33.634908590948484,-31.13056422924983,-10.323580278449477,-18.46354928645509,-10.529491775351097,-8.62925831656164,-5.13306239749531
-21.01007448383304,-33.70461682840169,-32.78957035742519,-10.318086792445415,-18.726854645175017,-9.202454545149617,-7.328551239679489,-4.04241811099266
-19.688274400556658,-31.080141163232756,-30.99009481081005,-9.21414319141934,-15.976829842819503,-5.712725404319388,-4.356631441400075,-1.7230341264909126
-17.950363161323995,-26.812542999377083,-26.041200115985927,-7.526775219608982,-10.867514149025007,-1.4384916529515768,-0.7957472340175452,0.8293297469474755
-16.616242774238348,-23.009387481398928,-19.76324811719492,-6.168608765963605,-5.252657423639175,1.7888880458212606,1.8368022631099399,2.342581677517497
-16.50726963099074,-21.854412118927456,-14.785145961518094,-5.99095426429841,-1.4528297431097061,2.5841656997143225,2.334841728767683,1.883667890210868
-18.040869645342436,-24.589511168841515,-13.46011136522686,-7.378862529366598,-1.3000361940374374,0.5865705714866978,0.3510593941484876,-0.7027105832112879
-21.030438793569473,-31.00351533144821,-16.891650080393095,-10.08425921783573,-5.389403475226473,-3.5088085199600267,-3.501446780134181,-4.735786318384454
-24.764080171412274,-39.59761662442362,-24.454176478768584,-13.344305943973765,-12.82840946370921,-8.375563501253156,-7.984189774446288,-9.016493689476668
-28.296629699463764,-48.23733869171062,-33.99415285793933,-16.206076776315467,-21.565196571337133,-12.665655753859083,-11.798346502170206,-12.336505191829128
-30.806141976569066,-54.976633654948074,-42.67797016554348,-17.902827566710823,-29.18269101010046,-15.529290483308152,-14.110552734640292,-13.92631608265222
-31.85558661412196,-58.76989992116116,-48.18782002193514,-18.11654436565366,-33.8665224239953,-16.86212713435285,-14.8236585553722,-13.656135108920278
-31.45554701092129,-59.820424066343946,-49.72320120060874,-17.023203397499106,-35.128811020818155,-17.215383259219873,-14.500972356980377,-11.95359404092314
-29.921978525613344,-59.37985672752691,-48.259773497010315,-15.12965015502427,-33.917046113418905,-17.432356761006787,-14.00593671998298,-9.542987939068771
-27.620718644990813,-59.03823497223953,-45.88717246529422,-13.010491822907804,-32.026682371702094,-18.191354046359326,-14.047271866983861,-7.16052472295571
-24.73588717680493,-59.866924921203605,-44.60738758370266,-11.076595348275191,-31.132733371563454,-19.678346854788735,-14.855685802464459,-5.348611320628417
-21.17109384504285,-61.91561737870665,-45.30682780475924,-9.452422301562132,-31.97920837235106,-21.534971757823058,-16.131470293482895,-4.345946272862263
-16.6159918677372,-64.3290085137211,-47.45154263583538,-7.968041675272726,-34.13817075761854,-23.06516826076214,-17.24150520433781,-4.048512430384182
-10.733462912471571,-65.91265347265829,-49.5473747177192,-6.2383044011925115,-36.37473034741703,-23.54733979059343,-17.516268909898056,-4.037232026409564
-3.3789069340974915,-65.73142705157316,-49.97460396909358,-3.804565759469647,-37.322863944561874,-22.483653432248982,-16.486588793422648,-3.698858991319438
5.238834608994814,-63.450109990612106,-47.73206023569877,-0.3153288363982971,-36.10272309289566,-19.718654280304126,-13.99498631271148,-2.4485311720111547
14.517051774572167,-59.40762129435002,-42.82972404150555,4.29850114582222,-32.65691213098591,-15.47063430477479,-10.219004915262488,0.006443934166244737
23.560874978110476,-54.52953154766108,-36.286729129455956,9.720663789094903,-27.762428077875686,-10.334746332530708,-5.661817284374887,3.483338445632185
31.406809738430017,-50.092795199481756,-29.79122301860568,15.27886013263241,-22.76796915657059,-5.238248646561144,-1.104024377894512,7.334129650563817
37.306455377471586,-47.308219450932754,-25.128619323184065,20.12225549036354,-19.143161214779226,-1.2654706264975397,2.5402875587187084,10.673486686635988
40.97621829907749,-46.825420162458606,-23.55677271273651,23.502571688512568,-17.968220096600536,0.6802880700503661,4.488805367095713,12.734822710761486
42.71492251618504,-48.422271556816554,-25.344264407320004,25.0638034965241,-19.52409928862545,0.27528199830307915,4.409028490055817,13.19583599632286
43.327827722374664,-51.07773160309801,-29.62153571082075,25.022157729499675,-23.118289492455688,-1.9701356192872481,2.6421868396411012,12.326645787056068
43.8598872277829,-53.381622862119826,-34.58051794381554,24.13405778358713,-27.21582024672192,-4.786023753572176,0.1814614580749868,10.889362328348158
45.209933342172015,-54.07089065255275,-37.999495211923104,23.420125172584438,-29.88773737702965,-6.599448189861684,-1.6690104603785991,9.818508747285074
47.756139022467735,-52.519904912981744,-38.03641744782114,23.73150643198593,-29.522464253892572,-6.241620154865091,-1.8825661330857124,9.805071799165807
51.15314928040294,-49.086880670223806,-34.09656447982752,25.356679324068747,-25.60324966931082,-3.6031657353028668,-0.3014457646700455,10.96587621168008
54.42599687608585,-45.16827004694711,-27.36061627377801,27.88323357974723,-19.178184119135892,0.135092984699181,2.1161236441383133,12.769000736735943
56.3633816097862,-42.76777685865397,-20.52174892525267,30.405810571943427,-12.63844866144574,2.938151714095283,3.647053534487364,14.281303031894522
56.04966755496395,-43.594633911745426,-16.647758506412018,31.973314473965527,-8.733971400644466,2.917856317269758,2.686817961704156,14.637353851493986
53.27827824628639,-48.114075069230594,-17.68502355684746,32.03251820222601,-9.258406244890876,-0.5910744904593838,-1.2788042062079787,13.493569735947258
48.640690419469344,-55.17254352184687,-23.458785868252285,30.64352501046769,-14.137451364625775,-6.515626341644093,-7.207200483118764,11.222722669985513
43.260438057403185,-62.507231037853124,-31.76240874368299,28.387188330628952,-21.465267746020025,-12.457100534188339,-12.884912053021687,8.74145851345779
38.323478527771464,-67.83868451371893,-39.45323513746572,26.046761345478593,-28.463075021364162,-15.853547524919007,-16.002572308453065,7.065578921902983
34.634008048100284,-69.87951297373031,-43.91092851502496,24.236466036811347,-32.80322138771455,-15.260687565906382,-15.329394802598822,6.829910521639828
32.37705763120571,-68.75330618140669,-44.122678588540964,23.15020933513558,-33.600695442263564,-11.062785100927849,-11.342521738498826,8.013259328532648
31.154495213856627,-65.7581211880515,-40.96410479656085,22.53748944221376,-31.6345430213929,-5.2671761398270425,-5.989747159391051,9.986932381888142
30.245917115225854,-62.70900312873195,-36.649326197647675,21.90416017626626,-28.784924513524953,-0.528615142964374,-1.7361113334947975,11.835508029478062
28.963167865544357,-61.14586945560821,-33.643269081066144,20.817326295568883,-27.023237854541232,1.0858700801913062,-0.39756599827975087,12.770239342994802
26.934214338345903,-61.6901106455243,-33.53588053109342,19.132504570927583,-27.46407356011548,-1.00638020652837,-2.342211596433586,12.429632037447746
24.189963945401374,-63.86029812784576,-36.41989210696599,17.015412636130588,-29.938716588623112,-5.748119558080834,-6.429370223487132,10.945758485519516
21.03528919960717,-66.52483525536218,-41.07796731070485,14.775117060163002,-33.273192864152165,-11.054951333826072,-10.671074367920902,8.79270428527696
17.807235925038356,-68.75915668396338,-45.80912776147708,12.648796798361102,-36.05361693094222,-14.848184364449665,-13.237435866455538,6.536096096639121
14.675618928326173,-70.48282931106219,-49.32481149929604,10.684402488210548,-37.38410318921544,-15.976266824801504,-13.28243769162899,4.613998855880411
11.588684110800171,-72.34514816519965,-51.17003801628227,8.768236576639563,-37.20418466320109,-14.597196826937449,-11.211779326291232,3.2188684959604084
8.360402768606544,-74.94478809946062,-51.56137923305811,6.739740173272538,-36.087269631174266,-11.91160586408377,-8.34139578957359,2.2840509849732173
4.821568669535783,-78.05911698593958,-50.97270189210005,4.504988484223712,-34.78760439575219,-9.468619368204326,-6.195570519678471,1.551696865004768
0.9497565738027544,-80.55465662790388,-49.86646249979979,2.0954111399965725,-33.87619757803481,-8.432317152582414,-5.814453096308498,0.6995831520754555
-3.0767286947351935,-81.09393951570104,-48.70563116301386,-0.3378478951480057,-33.63113204056416,-9.148349616133501,-7.374140122451988,-0.5064040177109617
-6.923974110574978,-79.19377274917053,-48.123988733399386,-2.579329424252314,-34.15092101157405,-11.165978060449467,-10.252112056163634,-2.0947414544905683
-10.232313615467021,-76.01430527104918,-49.0643526888848,-4.421987251126541,-35.57213169790803,-13.65028414929278,-13.468512706400134,-3.869449103546699
-12.762692724675908,-74.36332212139662,-52.69694576853745,-5.709212433660233,-38.226287294680645,-15.926380584241402,-16.243943633041926,-5.5015121783762835
-14.455495606401263,-77.57553290242289,-59.90154510175294,-6.314463516229725,-42.509543009900206,-17.80274098215803,-18.319789986960505,-6.66756842474643
-15.340018867951487,-87.30028854276146,-70.2207660722728,-6.089866213606031,-48.30134821762786,-19.42368809234748,-19.802505469629278,-7.147981395348696
-15.354833759904174,-101.01696534460746,-80.67771775223525,-4.87402373790824,-54.11783990810376,-20.722357195355304,-20.6266293251958,-6.849036305263105
-14.246589245662497,-110.93892718061234,-85.44304605841258,-2.6246062699892962,-56.659594960059586,-20.903160069291534,-20.074981135200723,-5.789638615970961
-11.69145185159719,-105.91444961684392,-77.33480935128159,0.37746088183819043,-51.513633966230216,-18.469530829891877,-16.84340753620163,-4.111524184463892
-7.613205754963125,-76.39337583391007,-51.11631456863444,3.4224261616554643,-35.14795377687178,-11.973487437287298,-9.774080287473783,-2.115296060003409
-2.4776209857160882,-20.212249135250694,-7.037652785677786,5.528239191471719,-7.285915628844825,-1.0957918162456752,1.1629601284072957,-0.2554149356640629
2.704974256815236,54.38042816645605,47.72395305619394,5.8616889525250055,27.900689708662757,12.694529492546447,14.357692612187337,0.9748972940680518
6.762396270680421,130.98431272646417,101.21148896119954,4.211240285382086,62.900877964320024,26.476480981832175,27.004539244452765,1.2539650730804355
8.92802032440762,191.97289381258793,141.69993154704574,1.1934598100733975,89.98205114542891,37.13615604756459,36.34438421849034,0.6160722039917251
9.211223149679784,226.28360511124654,162.78930729156784,-2.004055436241584,104.59039648533789,42.80802101333419,40.94833003467819,-0.537752575141641
8.304223807917454,233.5053303920945,165.55420244686275,-4.232143628943671,107.00152729136443,43.59939316612204,41.22695020751708,-1.6453818837214644
7.10968419933909,222.19351586642748,156.71120568004577,-4.956050389404949,101.3743045694664,41.21372620268449,38.91440984110228,-2.2812284749956193
6.258139185530336,204.28927658382585,144.499445263496,-4.4235515387353175,93.15560241080188,37.87086481396347,36.01159853901003,-2.3448633827465497
5.937264543673108,189.70053487252306,135.1801961772945,-3.3705073063306656,86.69745943335634,35.31280182083267,33.94648390663982,-2.0363173988255823
6.040390049349341,183.86139603239278,131.8426286708436,-2.548086072058918,84.28385499145287,34.39629640443996,33.337311348876916,-1.687756536236807
6.393507839287207,188.01742880527672,134.97518410870904,-2.3989451487661886,86.34571508766713,35.18446656163785,34.17229859852801,-1.5951439354642671
6.862271718344501,200.22632164761757,143.24753869085214,-2.971223629180236,91.9189841718332,37.165931986101064,36.02167871040351,-1.9171029069398464
7.347215823077411,215.89659181370016,153.77295325632008,-3.9539282394422623,98.86716270150619,39.42168407666873,38.146643357528056,-2.611724247719581
7.768770293358899,228.41831259067564,162.367261481584,-4.758854433835397,104.18093011442507,40.842709004171894,39.63864231328195,-3.3969801775521358
8.05711414931961,230.7809784779211,164.45719476581704,-4.718429743956712,104.75259004961106,40.48406503579163,39.67510330409389,-3.8029650947631928
8.088501873303015,217.88794604772892,156.45084831498485,-3.4378073705573144,98.43563286181819,37.90470710984664,37.76085785648361,-3.379681345681391
7.5942859081538145,188.32340811552567,136.8423075926184,-1.1212175243600668,84.79638695763637,33.26011157955132,33.7908647296481,-1.9868799645186437
6.18826775566501,144.73377513131663,106.6573869864782,1.4236185817521612,65.21066666488653,27.11677316395873,27.966207447862686,0.03462138833729968
3.5980884240395703,92.99702585137217,69.36210655021333,3.201115534191509,42.43270586955562,20.183872083699086,20.731372919998705,1.9665881833306227
-0.037090305236747695,40.75211567802111,30.335649874950388,3.605683653452143,19.90685862113133,13.1479089774756,12.792080893153067,3.0525959534745932
-4.073039625597452,-4.375451172473288,-4.246593393467209,2.7460443270047414,0.9558420820254698,6.620053680321489,5.090819635512903,2.8640974506059576
-7.609865855972161,-36.619495367162195,-29.10331749085728,1.2957569453157352,-12.054329626686043,1.0992248079812057,-1.3863073157933015,1.4808475794917382
-9.946148801725096,-53.53596527845095,-41.56066934918839,0.010548997540454805,-18.347537972149613,-3.106899663433419,-5.931728484756849,-0.5889989771307595
-10.935289585621147,-56.53753783318805,-42.47240600039234,-0.7282842659060615,-18.9089573826782,-5.973864642213505,-8.391109563207582,-2.6686405595723355
-11.01278183515931,-50.216342599574915,-35.821422458676025,-1.0516198297679422,-16.083252183126397,-7.785842975353455,-9.219488788275358,-4.196181887410465
-10.887463062096513,-40.593642299239306,-27.07915299834516,-1.385969191110052,-12.697865154884784,-9.022193105572011,-9.26062152878167,-4.8983726559342875
-11.10097930891642,-32.8775528094407,-20.989031614514435,-2.085749087504028,-11.003112302036689,-10.112707209099442,-9.342601231834914,-4.8042863030422005
-11.729587143562615,-29.671484598955974,-19.785013544376177,-3.178545758155749,-11.868420437261099,-11.19283432228951,-9.90232721476564,-4.136354423740419
-12.396669917111502,-30.5226363941256,-22.709627350785443,-4.363361398960692,-14.639409264215562,-12.042376618044438,-10.851804542700242,-3.1625116091831127
-12.55770486611151,-32.984877842723,-26.991504420156065,-5.215641606517647,-17.728435253049778,-12.279169928380496,-11.748270214227059,-2.087077080122033
-11.855553785609253,-34.40585411044582,-29.591044834061297,-5.442993984475325,-19.55906323354598,-11.67637407172982,-12.12906057734107,-1.0195188227991876
-10.330539585893739,-33.280236806297694,-28.67733433531329,-5.045781444187922,-19.29791359339675,-10.367390888630135,-11.783903504311148,-0.013549011068432893
-8.391283055654561,-29.56891413199891,-24.189325236709546,-4.31372035392851,-17.048579779031872,-8.793504033691436,-10.820720433745814,0.8710518937678224
-6.5984080429765575,-24.246532749896147,-17.513875837414428,-3.6694275079017102,-13.587795475896641,-7.440518017311295,-9.538304376164625,1.5461702350452704
-5.392543862595719,-18.665530037195822,-10.688970280126279,-3.437029837191381,-9.920687140617408,-6.53846483058347,-8.219009162457326,1.9421199891578247
-4.901335107031245,-14.023473309794683,-5.507893054788994,-3.665085163466906,-6.860094865384837,-5.901635752430348,-6.963733930729766,2.082700869262988
-4.917238116364955,-10.917364984638345,-2.7935635291671224,-4.1264343248592095,-4.729025819940965,-5.012475025824121,-5.65833020647364,2.1017303838850925
-5.060441261293751,-9.07503295438887,-2.125198278213015,-4.514007258914187,-3.2904992117488843,-3.346383012224203,-4.108908201886431,2.1526477195117284
-5.0399196053223925,-7.540126716043129,-2.2237982900782813,-4.701862548068595,-1.9926758811779053,-0.7974635443481193,-2.290286165208475,2.265868086608884
-4.853695028096299,-5.350454392669601,-1.8324315335369044,-4.874903162825393,-0.42656189299424624,2.0598298223605713,-0.5378154087650816,2.27740358448846
-4.796374988228967,-2.234102957249484,-0.507797249199559,-5.424874617644712,1.3346262526036405,4.125719154703702,0.5113681670728741,1.9100672004237478
-5.270169921924681,1.273643087968233,1.2408148517954876,-6.6890174641991,2.8065055516483133,4.3615959853635085,0.26741347826046785,0.9666769671155365
-6.531393089501616,4.350489181249796,2.489203088387122,-8.71519314797145,3.514253174222924,2.4773578163574554,-1.38231765197481,-0.49957999788870594
-8.539200100435039,6.488458788374899,2.599250053595873,-11.197141329709298,3.382977416267157,-0.7703742714624364,-3.8901417611605797,-2.162107451884895
-10.987104857521885,7.656167725959631,1.5710114928607783,-13.59901438087907,2.781584719799127,-3.934445614109464,-6.283628034280192,-3.5693550256166486
-13.471581103617353,8.09958787200265,-0.02107591158967398,-15.388884467599604,2.2661528104492423,-5.684104927898546,-7.677451891327916,-4.37700696216437
-15.681713875125117,8.225617937440441,-1.2582758181272728,-16.26936634613289,2.3088685432077822,-5.531704070666555,-7.721605479897469,-4.5263724949851545
-17.507081925230356,8.703480866467181,-1.136821171604126,-16.30378857907008,3.1835917871228543,-4.027468677534781,-6.720311837757836,-4.266018521670543
-19.019760236888196,10.42550205383994,1.060023667498855,-15.869456385005527,4.931846961926279,-2.3559164240060677,-5.39814646869523,-4.003133130624934
-20.348618389307592,14.037676449384032,5.296498703004713,-15.441826662794139,7.301718810959823,-1.6316956612504279,-4.485580018376185,-4.065133342574907
-21.517054686735776,19.345695809689154,10.564885956517282,-15.31879088112645,9.737490307108581,-2.3082146727259722,-4.345010969567197,-4.505172781477982
-22.348259999680568,25.23001654826075,15.268816862843325,-15.459551063683566,11.577785339855165,-3.990312435597706,-4.806227582182069,-5.067322694906843
-22.521887758319885,30.28067186511539,18.09429626748458,-15.556624047321877,12.42487041572772,-5.7100225185794296,-5.285584618891522,-5.337785994496472
-21.772299680895085,33.6791916772201,18.774064680846152,-15.298161587356278,12.419341352190164,-6.485531697548452,-5.129039948801453,-4.992668440303091
