FZ,C3,CZ,C4,PZ,PO7,OZ,PO8
-3.739068497043882,-44.917514016354005,-24.39534183801924,5.094399648787792,-16.859197375380685,-23.421976780680787,-12.002612121679036,-22.00891193013614
5.553193305199213,-82.19362072564556,-31.914192473313246,19.972903598988907,-25.088025405828965,-31.944765682506322,-11.255866191787536,-19.46494447657345
13.559929118488675,-109.31937277368979,-35.53839973439759,32.37654521186706,-30.573362909016147,-38.38904731185988,-10.165622659700684,-17.204390217275996
19.33361508470128,-120.64850801929612,-33.431319707008534,40.64493763637902,-31.88837144838468,-41.569059938944996,-8.652286648824324,-15.470216914745698
22.500929506257055,-117.10925673412098,-26.6270015349713,44.41239702220596,-29.490923148588557,-41.606449706660605,-6.989343620818029,-14.399384033606394
23.322394248607154,-104.87635031475651,-18.19684750831581,44.55996402986057,-25.26146166007063,-39.681180026289894,-5.643112337229384,-13.979306317443243
22.54198510711413,-91.74480358319497,-11.43825779232536,42.70129496876048,-21.39522206501539,-37.333273434497336,-4.99641557912602,-14.053483925619995
21.07949727119177,-83.43231326985455,-8.257136232617723,40.46994567714913,-19.34890993024202,-35.74510787287587,-5.1475073026808955,-14.388710275029888
19.69709983300549,-81.7242166089427,-8.609250601741431,38.945943819268805,-19.390780550506857,-35.36595351978405,-5.899929593695931,-14.769970806022455
18.78815267544125,-84.97805981610783,-11.063584440789063,38.450569122263104,-20.84498091001971,-35.97464738941731,-6.913262089988815,-15.06741266477905
18.36579021297267,-90.05987794851458,-13.870761336476884,38.7147683655821,-22.703430766765134,-37.01525655932806,-7.885908042676212,-15.24419989392523
18.21175111866571,-94.2543973077898,-15.80791081059537,39.23365310822614,-24.170975478028364,-37.94994188548759,-8.656256122631335,-15.319584032835701
18.067211710220608,-96.23136021282889,-16.467801588576567,39.57859916573778,-24.90713551688627,-38.464259864854185,-9.201209267213779,-15.325573579508623
17.761205685956444,-96.05308068454066,-16.11135321596872,39.54546177451424,-24.991751919445417,-38.50729687803998,-9.584296106248107,-15.28365297959138
17.248666964749585,-94.67466440245154,-15.345934148351358,39.15393491135887,-24.754554177045193,-38.22767261139289,-9.90471221493156,-15.203200706206003
16.58972136179926,-93.29738006415876,-14.781886966002658,38.57041324630256,-24.570311922832616,-37.86323773131505,-10.258325064356239,-15.09231755347658
15.903513396952771,-92.75385807475875,-14.74010651560563,38.0056167324224,-24.67557344689423,-37.62428464766456,-10.705497646403366,-14.973670927394172
15.306794400095809,-93.1402799575426,-15.128697207539961,37.613678895498495,-25.07631856408008,-37.61359664413986,-11.256621815927558,-14.895059467011324
14.849598414270421,-93.93867215460357,-15.59553181021753,37.42807118096846,-25.607540959613285,-37.81845702217965,-11.889174009052466,-14.916263624315455
14.483207452293803,-94.58143355594412,-15.868990808403376,37.37116818389759,-26.10588341520615,-38.16094479146202,-12.579081063585548,-15.0618970219685
14.09176207019363,-94.9891203124768,-15.998873215210404,37.32882283476352,-26.547344427805864,-38.545315106769415,-13.306056714258839,-15.263590195788634
13.572318842389022,-95.584709368339,-16.275963617526024,37.22556402850562,-27.027180128165394,-38.86007250469639,-14.022245264554993,-15.345740372317655
12.905418908931301,-96.78757138908236,-16.91793343697874,37.04148165435992,-27.61729201457765,-38.96633583458859,-14.630110425357975,-15.096822890822052
12.169241417587047,-98.49826433167594,-17.825988845237394,36.78119378825368,-28.256182727783052,-38.741581650925596,-15.024616613120008,-14.409226059337175
11.500318279253893,-100.04412813766838,-18.60938755317969,36.45564230794643,-28.775396417184137,-38.18946476142963,-15.190869997205809,-13.40874426498241
11.03265442005306,-100.57161494445526,-18.807122604852058,36.10516109018713,-29.0192046793992,-37.52979257804561,-15.276992202105923,-12.479342778359372
10.83244533202706,-99.54493270160874,-18.132919549202736,35.82073653977447,-28.95008970959753,-37.16028915079684,-15.563891765174745,-12.129976469879875
10.831293996550121,-97.12690316651927,-16.679295897065288,35.706719586854106,-28.697074236244042,-37.46608511649849,-16.32766599022778,-12.723695898428344
10.787838393342826,-94.41469524432615,-15.07762191687456,35.79418692190574,-28.565177524707153,-38.56245457563214,-17.66151677093949,-14.168541131166737
10.342486844501618,-93.37833286543189,-14.475367853448926,35.97544270420306,-28.980870681467096,-40.1002680323543,-19.340369145533298,-15.733580485140406
9.198771941018,-96.13530493845145,-16.092389385211433,36.008805001377695,-30.292362723311886,-41.238519218520864,-20.79450957909047,-16.162567904934605
7.35893745753884,-103.48203044148867,-20.365434627273295,35.571143430112215,-32.43265147963832,-40.84234148830362,-21.243105768180964,-14.157554753570249
5.253044613046733,-113.42394628573103,-26.174768934423216,34.309909924603424,-34.65666503779481,-37.90102329606623,-20.00020719748997,-9.088591373997973
3.6315141162695848,-120.9837985491035,-30.852395250524406,31.894292022267283,-35.644234081000164,-32.040768562303185,-16.860544504205773,-1.5591313487180107
3.237472443984781,-120.01989062290153,-31.25130541029938,28.10988815732734,-34.05330915773279,-23.86620816865506,-12.343635196260719,6.59260809830743
4.427822057577217,-106.36729407064475,-25.37635344384658,23.008353408450365,-29.249427915954435,-14.850789028191882,-7.564313087746765,13.02329672477434
6.9560275797014395,-80.46443545317895,-13.589010413530193,17.037294322911865,-21.748589790421295,-6.72140657765627,-3.700068039658212,16.04555602699802
10.03512831550258,-47.74645943841295,1.380096753634921,11.026411655439947,-13.074474465420078,-0.6422569321049271,-1.339606441065332,15.548131703087057
12.633106274566762,-16.47479386092684,15.597253120887958,5.955897235283589,-5.127912225359881,3.28808522679007,-0.16786717496381737,13.049778695231394
13.832465797931336,5.661370604459196,25.502745861039898,2.572791029501009,0.5146778916042117,5.8669755301867,0.7237964520848398,10.782855643712022
13.097493825352586,14.175381718897755,28.99730826789708,1.063999023250695,2.9790295935056053,8.040379477066057,2.0579666962020355,10.363655261337597
10.404747811055158,8.563924395442532,25.73193345524133,1.0059851618027074,2.105386237503573,10.112938062421023,3.6843550896739816,11.906102585075118
6.273576581579599,-8.195891247862198,17.02707536542714,1.6272605888191387,-1.5983575563638646,11.526844622188275,4.560956640182212,14.125182667154503
1.7025187446501708,-30.171356816867732,5.91236363969787,2.1763660836727916,-6.805209129508009,11.41680834796577,3.511037211078462,15.289700678244134
-2.046617130613897,-48.7613077383493,-2.9134546522481757,2.1326684628820405,-11.201834074770588,9.530740018801817,0.2443042990167379,14.343811347001244
-3.831634711888923,-53.93842326233052,-3.9804588276514754,1.2047926596836955,-11.82373676429445,6.776385843792602,-4.126918993369667,11.49760215378532
-3.0423449543913788,-37.55789466023421,6.838090609126935,-0.6961239151714077,-6.162921912039337,4.922707503130233,-7.4995872301967434,8.030033543502169
0.18697218228790663,2.1322002164022966,29.84512454402154,-3.3320838018750467,6.391655042856553,5.644209598101459,-7.869269827217167,5.564196694017847
5.090915850066789,57.62570574214813,60.33482918436757,-5.950114373350149,23.72543110785038,9.58471708614932,-4.3911016175252575,5.305370018123861
10.616229326167863,113.59219433873041,89.86556062298622,-7.325670659857962,41.49471406998938,16.046753055162913,2.2110493148268113,7.610997949210839
15.768617252880311,152.70777328904805,109.63396123056806,-6.218601426910566,54.832503974389944,23.409660080397135,10.03579768467235,11.980980652991892
19.80039386101415,163.02359906725593,114.2169473917084,-2.0665945841506703,60.36507186774217,29.898357192461738,16.875082317859924,17.341352134531828
22.233658100047858,142.90615533380247,103.68241549723857,4.515922479269143,57.4605704900774,34.204876940165065,21.06491292349612,22.432338202654826
22.805874703781647,101.03552175041246,83.01787827273488,11.781511549847336,48.12053535506944,35.69930318760256,21.944162810672378,26.155302666093245
21.412830320840666,51.80792921522858,59.32992343527301,17.446977017340146,35.71303736252455,34.30670338710825,19.82797895133953,27.802796910809437
18.08553890647215,8.862498474542575,38.438712649524696,19.552486770555355,23.344457615771876,30.319412870624284,15.656630241704613,27.155430449714917
13.023746020140065,-19.90953098292038,22.718461283592948,17.204282759243615,12.769109939021114,24.36087600646351,10.592588215817058,24.472251675693695
6.6798582503095405,-33.68950690393844,11.21400491204159,10.910390971044542,4.325398487512505,17.49188849752343,5.7655493569806175,20.413484775819295
-0.18508877402141963,-36.44437567607027,1.6231011934374038,2.378253153800558,-2.298866890090645,11.228980835307862,2.166931065681091,15.91021918090951
-6.590904667800442,-33.17874761239044,-7.458319131315237,-6.146866469228042,-7.213302860142638,7.211244751601095,0.5364691424545687,11.97174480781289
-11.601828777574637,-27.48966132469269,-15.676218324873624,-12.693493935771066,-10.115563177963317,6.485058391653365,1.1215446716901727,9.44278814979422
-14.624641602982043,-21.72193560848969,-21.840950776984144,-16.116553072011104,-10.839938705663938,8.752505101390282,3.4078238710628073,8.777577938567372
-15.532560023217817,-18.561818066532346,-25.487544153846446,-16.15578897907455,-10.04471857319735,12.149376176360228,6.101373991926509,9.92399749325088
-14.537757874301684,-21.65328827197912,-27.491475938771753,-13.119848827421578,-9.24930149454934,13.92060404892072,7.566657850069519,12.374048388434902
-11.952520045479709,-34.00083848913096,-29.21317000936601,-7.549558356239684,-10.02196970510415,11.784004517950583,6.5973253327113035,15.363738531650547
-8.064137794895117,-55.3871314075274,-31.1197839281614,-0.11984014695763158,-12.931116729964815,5.212790567779429,3.0767750345060643,18.14542929814658
-3.216569691255637,-81.34007290814566,-32.29280875267277,8.268256852299418,-17.143452640071942,-4.202211593999139,-1.9313216134896927,20.232767433844707
2.0254629455460123,-105.05512061252789,-31.32064964345209,16.4666231593921,-21.035891455528954,-13.595135640164788,-6.773578187851811,21.532358236158927
6.850475680251287,-121.17061977572578,-27.75093814325557,23.31855697084261,-23.35428661081241,-20.354819041776604,-10.120902734964554,22.320879720316945
10.423361237080988,-128.62567978416817,-22.750974301373173,28.07322322778604,-24.010829065288014,-23.372917558732073,-11.617631140257616,23.085406174357715
12.250575814156957,-130.38794924196202,-18.295902002660757,30.675615519313485,-23.902035299307556,-23.269061950974365,-11.863267140285279,24.290428762586828
12.435629940092095,-130.20279368500786,-15.47764524844589,31.66859315814323,-23.907695862218347,-21.57003437878855,-11.789475198789779,26.15253106742178
11.624064086530627,-128.89178227281488,-13.366408008610481,31.726959211480246,-23.896135237854523,-19.501672558943586,-11.899038162742944,28.503941331005375
10.652831831551882,-123.22687514246608,-9.538999658427883,31.15269576588798,-22.587194633564096,-17.231661775419827,-11.89099531960237,30.814160166394803
10.131899183280764,-108.48413827341867,-2.079610263767855,29.72298351106956,-18.4630623842055,-13.99848933520579,-10.889249521365814,32.39047114296499
10.222739449547474,-82.85704917325502,8.415120841134735,27.015081827418257,-11.076844630326011,-8.91449593614659,-8.07184156547885,32.6823645707094
10.715101801001309,-50.331513633318714,18.45225667482785,22.944731531467966,-1.7613252069673198,-1.8132510352609255,-3.267585716816401,31.526476261141752
11.28730394629729,-19.668337082260987,23.3713909634947,18.07798600263727,6.845413891074175,6.430335365528402,2.837007145560701,29.178207309897825
11.73978310473765,0.045813489512226,20.136226041399635,13.458246041624669,12.198951513875253,14.26228198263712,8.964344265972324,26.11120132773916
12.061524207071523,4.377811945500875,9.347217373287119,10.069183103027681,13.26570242847501,20.19857963776883,13.796313673420135,22.73583107780339
12.335041535449681,-4.183089476087634,-4.871673646981752,8.31988271544457,11.038390275098415,23.465370230557706,16.492431803947596,19.248775368382624
12.592114526821963,-17.997210689613915,-17.054548473283646,7.898070371146826,7.8439970627709386,24.177863827933617,16.92611731641345,15.71214063608207
12.74026067417501,-28.704757846913857,-23.253642720367786,8.049972358209367,5.941971034670616,23.055035492208887,15.585324819087859,12.25823429401969
12.602561987014186,-31.42560835998494,-22.859180080563497,8.051446629115082,6.319695851125258,20.947427579458115,13.261684196359548,9.19900640976436
12.021596673257786,-26.510913534869204,-18.507613235918356,7.555983461765311,8.337151738090915,18.47506468893606,10.702897067978805,6.899328586482115
10.95004082409649,-18.56211229153317,-14.461474223643885,6.664093864317468,10.246473596923797,15.897950060090594,8.357713906730712,5.493279720864583
9.496051178285645,-13.818218426607192,-14.508200774183345,5.773742941927993,10.166002640864544,13.194432675804594,6.301671574673155,4.690362344261807
7.936646618200763,-17.07780038402055,-20.24336841267857,5.348411839711712,7.058616742148365,10.297981517767187,4.399870224990569,3.8721278507177317
6.691993336272416,-28.9234585797608,-30.16315444628604,5.671990224857006,1.4142595290036817,7.424472631155574,2.6529864254936273,2.446066895926069
6.2086718303930635,-44.17084262152304,-39.84081863859256,6.608775868537966,-4.614944688742322,5.3143949390724075,1.49502396379062,0.207563371046791
6.732848682183097,-52.812909232627696,-43.41596773550154,7.455366819419405,-7.851854720964783,5.1408880506879875,1.7515376065850703,-2.546898031766329
8.078662104259116,-44.02931387647673,-36.15783654180613,7.056364566160156,-5.449305300528448,7.988189767984874,4.1771570332902686,-5.2138913088682735
9.58482649522713,-11.841761129849582,-17.024965155939253,4.274320305113007,3.6022626640856754,14.146341653561663,8.848979350770437,-7.219097009115408
10.371060618031855,40.75740807325097,10.285190404733736,-1.357228829638028,17.689401771878398,22.699341062474858,14.873779071005822,-8.259501294099655
9.788255484588637,102.06632428219397,38.66840224934449,-9.192631244125504,33.100784179746384,31.756897898621233,20.67922047100293,-8.32884791905556
7.786371271048023,156.64534556128783,60.778411969522445,-17.58916342161941,45.67472305235852,39.26151992040081,24.744572360888082,-7.580036605738561
4.954681526670275,192.30973236375178,72.28720373126387,-24.588324028801686,52.663493885373335,43.910381484565114,26.31758852542582,-6.172556687967155
2.202134010311432,205.15969381131185,73.42625112932797,-28.794832889695925,53.77127316624933,45.653068812454634,25.685105963167164,-4.21296713414196
0.28227476077100766,199.9989070938642,68.09527544943548,-29.94494204396455,50.86222573607417,45.50957014069389,23.876750859785243,-1.7865825019056283
-0.5418842484860085,186.481839734834,61.342470954293304,-28.859733905877903,46.67358739356411,44.89067634164412,22.046452320800512,0.9940639013348753
-0.5139958457855298,173.82608425911246,56.88856791131263,-26.878924532524636,43.41552296536211,44.88181285904174,20.937852945433164,3.9822674972203065
-0.1331561753424746,167.21289087189987,56.0106570292021,-25.17336823614628,42.0300628327838,45.884047973169785,20.704245459889474,7.026355040535968
0.15142699348378658,167.18801566315548,57.93671360216142,-24.3290586247143,42.28306938009565,47.68986830002545,21.065248687366516,9.997664553675888
0.11171909933897117,171.23750709175164,60.96765929892875,-24.33012669612378,43.322425467246234,49.7963484190657,21.590887988345163,12.806025123543192
-0.2566954702698456,175.92287163372282,63.49288495930064,-24.797487231053392,44.24541989023866,51.72065508692068,21.92748782294903,15.424808658307066
-0.8180165992543883,178.55964059460098,64.59205949849186,-25.269164984359406,44.46919595671222,53.21107165345378,21.913988277368063,17.931742797906345
-1.3877757473100398,178.19720293314313,64.27843320256349,-25.408946326735062,43.904842212741265,54.33982586912094,21.610845575468478,20.522498004633817
-1.8169821511771773,175.80141252175375,63.38440830264465,-25.125764522126666,42.930611919476746,55.45356965172569,21.244071120467506,23.44213373025569
-2.06607039473729,173.47299985785654,63.02287968101749,-24.588335455679072,42.12813146744346,56.958076851768425,21.059699683915557,26.83810294568538
-2.2278456164145535,172.95757638858564,63.82167309888134,-24.10734013825746,41.877256696512966,59.018456953713454,21.151582859908732,30.617229034183957
-2.4586258495844504,174.38634929922807,65.45377383109872,-23.923974371681737,42.0816176540526,61.37458551398546,21.38677176014795,34.41148052732767
-2.851294113234404,176.2087684157934,66.86459922591118,-24.039205312530438,42.25039612624625,63.439255162152605,21.4997771273441,37.70548689504653
-3.352421977191906,176.36294883042595,67.03649331524231,-24.212034211795647,41.873778715718075,64.6528685594753,21.288989319778196,40.0978855103848
-3.7956864077229966,173.75981821804595,65.71060171771751,-24.124773191938228,40.79492912635955,64.88596590953294,20.76928589038166,41.6008466992791
-4.020403243614051,169.0987788919598,63.6239834434643,-23.58986464808629,39.3382212823206,64.65819757591098,20.189881985042767,42.8315200068407
-3.9814618111566613,164.73170583013646,62.24950233002297,-22.675515545201375,38.183647746336746,65.04455290240156,19.9319197230618,44.92520275141615
-3.791021771670368,163.79347478627065,63.212543395169654,-21.71547411989354,38.09062022891578,67.244681799732,20.33724350450734,49.05941314295198
-3.6955971285964506,168.73855990348372,67.45115196886138,-21.21392237262807,39.51432588704065,71.88290996488429,21.49671027329816,55.67196726450892
-3.9996829485902463,179.42578842301805,74.23829738900696,-21.634392137446945,42.15420043347539,78.2674734629364,23.048216338364075,63.72382189693208
-4.920719760244547,191.55579111184815,80.59540149640532,-23.081521684270403,44.662457344946226,84.03994728183966,24.121412268632614,70.50766108908321
-6.391748056831925,196.9542037826321,81.88619180367007,-25.01184523235651,44.89090152766235,85.66133703147392,23.585456637421302,72.3494324454725
-7.9281509507481776,186.64507539855856,73.85061924304343,-26.224993756338534,40.8292851145279,79.80586862987934,20.589202193302814,66.09078142755087
-8.72270638273173,155.69349013021971,55.17911897582922,-25.29908959302944,31.830017387938582,65.09995577733793,15.118255485458269,50.71450993086615
-8.016247374838292,106.9455815339826,28.943876692382986,-21.3301171277291,19.31049830214936,43.22158541627125,8.180979136910313,28.233643307405842
-5.565623733904692,50.89857040008348,1.6616955831085862,-14.54753119869185,6.3259180634460925,18.584693954734348,1.4304011319318979,3.23945156311543
-1.8943995127138387,1.256479621214114,-19.723433084872706,-6.377033731759423,-3.860248182160999,-3.366997536240224,-3.5900422143917314,-18.790274336332487
1.8878827236791618,-31.381588703707692,-31.192106011704222,1.1489443669940842,-9.365329061968808,-18.373307623361633,-6.122048822352597,-33.604485029142225
4.625995285357069,-43.96144272225302,-33.29352867733394,6.302689594547785,-10.451612072047038,-24.893500188159322,-6.394617282059595,-39.65942484838288
5.68769924604761,-41.08670084488159,-30.159588322230814,8.354991137979741,-9.034493988873223,-24.24429799096192,-5.2950110494339695,-38.3189664156284
5.2016241864184405,-31.267875740896287,-26.711999333906313,7.682478143957421,-7.352769342472004,-19.48902573975222,-3.799408794795299,-32.85973953533688
3.8422084818432394,-22.135352556727025,-25.96846712293627,5.3370598260968585,-6.729019048216969,-13.876655868621977,-2.5506782379576407,-26.91876760456208
2.363153716508206,-17.52980583006738,-27.99611043500503,2.4590472352002686,-7.144564885575878,-9.66475962168383,-1.7657594788677253,-23.11997963953418
1.2310342507627399,-17.422203829205976,-30.686952828064726,-0.08736829892868339,-7.6628659638910595,-7.696543904952801,-1.359710369321402,-22.351212815369163
0.5707418996224809,-19.546059773178584,-31.376995209948547,-1.7635058382867,-7.186316035859489,-7.603284923845202,-1.0681062947416633,-23.80040314289234
0.34645330411312397,-21.13508429167,-28.231239382025134,-2.2703974322741383,-5.0363840096116155,-8.32660244774399,-0.5013024153597803,-25.5912200185764
0.5342124639370094,-20.079361859959523,-20.966331078941828,-1.5301065147153328,-1.216740803965582,-8.747824934811854,0.7489312193201223,-25.718417544444325
1.1262608922526167,-15.661947571372623,-10.988038102462546,0.2473360021043778,3.538923671785562,-8.279583856057743,2.862170669854923,-22.929912553058248
2.0202773729180006,-8.944700021851244,-1.0071746839309075,2.54837112565856,7.907561500111062,-7.198920156142877,5.539475161077452,-17.22812039293461
2.9632371056044375,-2.4449176142968723,5.910552942989711,4.703770904903974,10.397122601533171,-6.478996175732644,8.022403102097282,-9.79941525790747
3.6485438248744706,1.0484387412598917,7.653941863335127,6.167996587997921,10.00504329061955,-7.116852291936178,9.488359941620557,-2.419250704432664
3.9109621100149696,-0.07268205733956634,4.124545553257743,6.787425372577458,6.797280032398203,-9.341258505329296,9.597443661801494,3.374234219274166
3.878165556543942,-5.409179947544811,-2.563716083764378,6.904860354318594,2.02922690490493,-12.255634753455507,8.790443372283438,6.928316498721821
3.9643723222015828,-12.687540919151735,-8.8415465276164,7.207056073429584,-2.2945329131743564,-14.218885535123984,8.090179719248201,8.629727937061638
4.674589509537486,-18.48438209562226,-10.992049623696746,8.322993136586149,-4.185156188449211,-13.771310268277245,8.501463396703242,9.520799524664914
6.277900590303295,-19.17659972824832,-6.537201736093872,10.326440210439168,-2.4267002896087218,-10.554764267029329,10.363069774552331,10.634280546644092
8.49653028408614,-12.204587615628418,4.591141480897969,12.433470961363172,2.885848899087861,-5.687812798493753,13.021749979147394,12.446274928009055
10.413135944895542,2.324345106722274,19.419189476418122,13.174626029092819,10.153721700786503,-1.3771653612666126,15.013986719791564,14.740585464182333
10.74429398567341,20.470996855461017,32.366540706961906,11.075127478235299,16.584451851343395,0.048622627001707455,14.687834033456587,16.90265787997741
8.429961162910958,35.050738810711245,37.10777013470751,5.515932770056486,19.104518818610302,-2.7855882294393863,10.986206367869636,18.407889748374263
3.250109516970024,38.50381670321602,29.391755223226376,-2.7486135614260276,15.658366956908349,-9.634077507146042,4.019920469646373,19.19103508081206
-3.909829300747968,26.829886795826734,9.413579806393152,-11.783798886883474,6.288656978447792,-18.68754620223803,-4.865026497781871,19.69807423996983
-11.355778448112474,2.1743747646944387,-17.78725115101572,-19.316212125426844,-6.675008302779033,-27.321344203187696,-13.587449768857503,20.62857931765134
-17.318106345326566,-27.801479693947655,-44.40379977483599,-23.754293470398995,-19.56123502312787,-33.176009579323505,-20.17477552432835,22.547379584497087
-20.71639434088433,-53.62321079671168,-63.386937130027015,-24.81102949039677,-28.99622098391364,-35.06657593476591,-23.543315538696625,25.59767517271179
-21.53106226875956,-68.58667337995227,-71.44480013830558,-23.416827334506667,-33.33828906123394,-33.307402568224475,-23.831974527600668,29.469299345174072
-20.616184903033982,-71.44730327474171,-69.87647923012517,-21.063553740400653,-33.11900779786261,-29.32885196911576,-22.14422639453987,33.6146187869524
-19.141585931647374,-65.81779688140051,-63.02128956789348,-19.041824503046627,-30.344863593799417,-24.834287500024537,-19.887288675884236,37.558533910443224
-18.04135781008711,-57.205998814445664,-55.59942649994082,-18.002333002455167,-27.23919955753932,-20.996729520033952,-18.117861971295575,41.11316871882655
-17.748571186680966,-50.02968756128135,-50.67323157981674,-17.95710811650798,-25.259103375347255,-18.131682654944402,-17.244146955816657,44.39755774253527
-18.235189645055822,-46.34494983032828,-49.12031407499899,-18.534654361169935,-24.837735681083405,-15.924372633747552,-17.139918942687284,47.69469323624119
-19.194246328936465,-46.24149742935094,-50.25794738148501,-19.246689083929397,-25.684338334837722,-13.91644808599533,-17.45023252635454,51.251060681450035
-20.216593870893398,-48.72860464519393,-52.712821666268255,-19.667860606830576,-27.1914892601058,-11.867025192257557,-17.830795620650957,55.114500581826334
-20.928991557944276,-52.294248703836004,-55.0183282079409,-19.553184947731246,-28.693667697207704,-9.812258874611164,-18.03366624422803,59.0704234474802
-21.112696023746118,-55.256410161626526,-56.00259805061976,-18.906192307899246,-29.626131837855734,-7.902257724556755,-17.91088532158326,62.716678997108986
-20.783271552336334,-56.25684849588935,-55.11572755085223,-17.95790329071074,-29.680368938301946,-6.17876206992159,-17.413064864845566,65.68676011842942
-20.184139372767916,-54.742502378020276,-52.57941496028256,-17.0483154987548,-28.901376636062636,-4.409724330845271,-16.584624186709814,67.94781735690559
-19.69131377198102,-51.03850554027555,-49.20878778134757,-16.485284858668702,-27.63289591475534,-2.0735530029693554,-15.541622756899404,69.99736652136491
-19.681876672352686,-46.085218154379476,-46.05943465382718,-16.459738962868215,-26.367563376872432,1.4049012046971978,-14.463447579552643,72.76347807262233
-20.403483881688743,-41.32661474207571,-44.19576079707991,-17.002385894987523,-25.64730493317118,6.167156216039117,-13.620256374734472,77.14226369341046
-21.832966162286144,-38.81702867357248,-44.563237672876845,-17.9148737555026,-26.008914806851156,11.432436847627423,-13.364894238246121,83.32653458595733
-23.535511718633458,-40.852681006758104,-47.613184340741675,-18.6970753547529,-27.78829771529839,15.430360114660074,-13.97606472641124,90.25139857382855
-24.636911599735566,-48.56727609009173,-52.57891613832993,-18.614549147291655,-30.71200988505974,16.013052482362262,-15.367681608608454,95.4967126882994
-24.056627571452072,-60.177411418444706,-56.98661431197059,-17.00872499513281,-33.56960113863092,11.738701157889407,-16.88202053518896,95.8256110957599
-21.000631987562677,-70.57131916416056,-57.23560147436028,-13.726496184677078,-34.4292046616847,2.8119504578799406,-17.424528153518054,88.26045938867739
-15.468411544359585,-73.31463021708365,-50.373302492963965,-9.357601496393078,-31.522840778801687,-8.731379785411496,-15.97536454047512,71.30761611555938
-8.42616416570184,-64.21206301159263,-36.07359025009487,-5.0425531237628975,-24.335141884688568,-19.778178149615968,-12.20084354761791,45.7864895290118
-1.4748678030558908,-44.08527582691379,-17.395775107786406,-1.9212041655554095,-14.146297977957945,-27.45588929725226,-6.763081741650541,14.828871203551673
3.8234732311861097,-18.773218958740962,0.375451797559125,-0.570782198962035,-3.5915797793500284,-30.31627647129488,-1.0969908551040446,-17.01432827454265
6.573672606786406,3.759554932594407,12.213156692672129,-0.7945559154288537,4.548436334611897,-28.785570536266682,3.24388062003724,-45.18763815744497
6.7961604283070605,17.39216602750795,15.695942851515857,-1.861243196464683,8.62402165396074,-24.72046052117127,5.313083421291954,-66.45677545985076
5.23369888364571,20.478767271597928,11.911365979108647,-2.9747573084193735,8.753737114551072,-20.396110825241077,5.185661986071626,-79.61600176261086
2.9186120538535243,15.795338201870328,4.578768752008316,-3.6292727885901233,6.555900698299559,-17.487054026571627,3.881112418141078,-85.37685272768397
0.7764422374960233,8.319663238865823,-1.8856778094036657,-3.6641952483593396,4.246259732630971,-16.50019021944512,2.8832154901418248,-85.6322477318835
-0.5876691527671207,2.5717534866763705,-4.223531145094288,-3.1163201154725972,3.641830107890445,-16.8331341424814,3.4987869637775533,-82.55050327213388
-0.9484745205146932,0.9854367154635832,-1.3480706165296008,-2.1025839852645514,5.49438716813498,-17.351157981613298,6.293891170080281,-77.94616764322475
-0.4497562841378986,3.6198051253060277,5.585702984382604,-0.8436587503102428,9.295753040171377,-17.175774813263985,10.786387262071502,-73.10989705024562
0.4649141743280268,8.700623062600663,13.81602179309317,0.2819603356728328,13.528185662165907,-16.273744078468976,15.536107640965009,-68.94175907717418
1.226014268588177,13.53871743861645,20.089746100945415,0.8259281460310963,16.297265897844884,-15.49624594475518,18.6971571148194,-66.07003809140242
1.400670347008148,15.69848135528737,22.00394324782291,0.512545915778688,16.19326692807143,-16.00599842037773,18.887136227653023,-64.76670044091131
0.9098787283771801,14.164974502691809,19.07443693489222,-0.5454166608086917,13.024778177015914,-18.43437353712198,15.959659979447448,-64.76133133266502
0.04648911262533568,9.880425634460567,12.92740206359659,-1.852058805756816,7.983594441329506,-22.341497228876698,11.18872425385635,-65.23279359512455
-0.7304864631302406,5.160046565507424,6.421608105405647,-2.777633796593088,3.0635543694304017,-26.381999359216632,6.658334017933437,-65.14978076256067
-1.08846340630918,2.307572147812368,2.221882819816005,-2.896925861197146,0.045859652698787265,-29.094045135177595,4.154890894789783,-63.831441207324225
-1.0176470689810262,2.4213873845620713,1.6986180604529786,-2.2230865616116815,-0.3367184983771914,-29.794991361912903,4.206489767305431,-61.37538924823914
-0.8347054482216398,5.138566691661817,4.678832788494267,-1.2250055641572162,1.3967295706928968,-29.005734937599993,5.835926732300641,-58.64269303043186
-1.0144924267816517,9.187798204792779,9.90673282055299,-0.6196823467731817,3.909603310350966,-28.143863734439904,7.1639965521872915,-56.760514149280596
-1.9323842286859656,13.100221127093459,15.73734868920544,-1.014078572769253,5.78594323754274,-28.66595737474878,6.516839917116939,-56.41063875935886
-3.6180099557105425,15.696349925242652,20.74728869622882,-2.550314146197927,6.198752378150458,-31.140318638926292,3.4246620217790666,-57.32780944042545
-5.6385189303368835,16.43838569531111,24.185849046947443,-4.757994422329547,5.259722206749299,-34.77665103174941,-1.0428282141664658,-58.34169333369016
-7.2194961519611685,15.70834366670702,26.166455925473716,-6.750495544647573,3.916540812647435,-37.72269576717687,-4.8100916601586015,-57.9894094848125
-7.607231831229881,14.718460311595178,27.4117566987786,-7.69460564933696,3.396337446902582,-38.03028498143608,-5.920516477988204,-55.364931976255775
-6.5008769305198975,14.814046346328515,28.585629457412562,-7.273670886628997,4.430415130617379,-34.78278308050143,-3.618412243964776,-50.69517047016528
-4.285046843396854,16.539223725645165,29.66678054553276,-5.84875808908679,6.714966742891034,-28.72909892711735,1.2301185313828253,-45.28490584030086
-1.8940216223811286,19.25614853043875,29.910967885133978,-4.233925681966126,8.998406847415367,-22.03278638383929,6.591206360686636,-40.86204363881877
-0.37515719482280685,21.691507493800724,28.478326481089656,-3.255186391390272,9.783698144004036,-17.270271783120155,10.284161654607372,-38.70740838062315
-0.396253920015111,22.915419085225995,25.21671898838724,-3.350747490408424,8.20457169138615,-16.237479528226988,10.983069095515045,-39.041204583593434
-1.9384906971094082,22.91676530417111,21.002161021944463,-4.377218039139145,4.548358763736772,-19.171786274030417,8.726300012985732,-40.95018647155665
-4.290113509833095,22.457388577156177,17.47126039990526,-5.659548342626068,0.18325919052220357,-24.700767177550397,4.80060249964202,-42.84198219639932
-6.330280590822984,22.565236172831234,16.399545135106948,-6.260888269585542,-3.0039600021946704,-30.45763668732922,1.1498256161159748,-43.181696220217525
-7.006840352896289,24.094052297881934,19.003721602946197,-5.406030749597733,-3.3998202988882955,-34.07203682822289,-0.43626857474362407,-41.17750080527921
-5.831350857794211,27.378552620404236,25.29339555062353,-2.9033884835475234,-0.41806742315612044,-34.16074112745199,0.9170510862722991,-37.12859492209291
-3.1539228975794855,31.888493654482883,33.66547169232464,0.6637752739829201,5.077964279044877,-30.9279960135584,4.74705201370337,-32.29434673607464
-0.03317532349933039,36.13844129274946,41.142491872225115,4.136151604282328,10.983749699053073,-26.070764487801615,9.411534973178997,-28.34316577785087
2.2737203760260227,38.28722073151958,44.50972118377743,6.30020115690033,14.865939004134832,-21.967826704314707,12.833507154181824,-26.62837581138596
2.9288430441502427,37.31599728461547,41.93986512563107,6.449555072892722,15.1850677563477,-20.541248248143088,13.480312686527078,-27.627523369715195
1.886007581688852,33.89146619055358,34.083973509782766,4.681287615197526,12.097823940103481,-22.410578059949916,11.032970669951508,-30.802983778440172
-0.16878957904829808,30.02845449604981,23.792711397755365,1.8063664765281062,7.301570832691956,-26.769686277083395,6.393414238666335,-34.91969734542466
-2.216432687676719,27.682354015653026,14.602356857319965,-1.0225421605261922,3.0380276131156996,-31.930646300395267,1.1211569827263963,-38.62102405149173
-3.377090232546257,27.417645400979364,9.018657013828035,-2.7580001846053945,0.9411336634206543,-36.105223391452895,-3.2855505927695554,-40.958559752324724
-3.2160026372985393,28.231993510185717,7.663964347036399,-2.799383591157265,1.4253978538267242,-37.998009222806374,-5.873569758426171,-41.639031398042036
-1.787235901070226,28.58605081764401,9.606420727729502,-1.1279877827301015,3.8388665794718353,-37.04905834371684,-6.3520558160065725,-40.92638029065294
0.5427174024098004,27.795089929157353,13.41583305153172,1.7829484715709227,7.11444925876398,-33.390526657822896,-4.939141481739174,-39.319867172947255
3.3657283992924083,26.89295997783089,18.221607389280436,5.211122212383191,10.473068219873905,-27.639058724322872,-2.1052280485150616,-37.232669343418706
6.432827319779934,28.528391468121924,24.18817408966305,8.43713329421909,13.810553978740149,-20.631147787839858,1.644146521294646,-34.86381922612761
9.649705575994089,35.763664507960605,32.08457856892921,10.882869667569572,17.55616273596091,-13.225326951370274,5.841620902593552,-32.30201619524574
12.864136682554397,49.88620412999473,42.01118773951777,12.139594260954048,22.006202580420105,-6.28723287849566,9.950944009289879,-29.726870019884544
15.624554556435475,68.00516250368848,51.94949931865999,12.00318596416997,26.468741091232864,-0.8383675241087843,13.174996839768358,-27.510326238539953
17.164232902816632,82.0773279129548,57.292269880433864,10.600238754982323,28.851447124776442,1.8546691101598944,14.40306188803891,-26.11088990346366
16.72280802096293,80.97592238588105,52.2473558110709,8.52398420305155,26.237492623454017,0.5271902548434477,12.496896369003615,-25.81969412251266
14.038629434720509,55.55192147391603,32.81448972932582,6.782854471834468,16.386691177071448,-5.458970666868358,6.876988715532537,-26.536648998066713
9.662759385404206,4.2313391698965575,-0.32021188015249963,6.450336715063588,-0.6605906173022011,-15.452574037890416,-1.928680936737287,-27.745886994460566
4.827967017085379,-64.442129745517,-40.98066092558472,8.14555482338611,-21.977263849657444,-27.340054179818306,-12.204173898316576,-28.730880513360436
0.904606695381701,-134.4949700261972,-79.67207601432092,11.660334354209562,-42.717449753894634,-38.16338282991931,-21.61775927253807,-28.9098426263921
-1.2340386048522856,-189.39669373821235,-107.7064354339378,16.006781326113174,-58.22363866445678,-45.30215688095319,-28.192717927686193,-28.09182696098912
-1.5490751535423872,-219.29562488939425,-120.93123186169764,19.90011108822811,-66.06216210320737,-47.55980968258483,-31.121990409841047,-26.508688931591312
-0.6976372944813255,-224.502640840687,-120.94432577241308,22.39558240996455,-66.81283921998264,-45.51250992185102,-30.955353258016242,-24.627795069181072
0.43379245856772797,-213.57954351971418,-113.34212455635577,23.2877686227671,-63.27596890467623,-40.962975836084354,-29.1066253044078,-22.886347273754346
1.1874005829934284,-197.84526571626006,-104.42215918136601,23.053663173720157,-58.775546116441674,-35.92039518428385,-27.059895680844953,-21.512949064013615
1.328259106506817,-185.99874334929802,-98.45485468526424,22.450489371886473,-55.67251695462585,-31.753345730606352,-25.76875100809659,-20.509010000821036
0.9658319253060851,-181.63980261622143,-96.7739009952976,22.091145770635546,-54.80131893014305,-28.904315793523256,-25.4964747672119,-19.74203197679294
0.366633549355758,-183.91008051206,-98.45798557266096,22.24819646919384,-55.768115495182414,-27.101874709151943,-26.002497310200027,-19.05467879811905
-0.1991724414854092,-189.61907501935826,-101.58056618275198,22.89307996504364,-57.591646785398865,-25.75768402348759,-26.832425592325063,-18.332231469936563
-0.5503176480235414,-195.25212052122228,-104.25557188582201,23.821175063385816,-59.264607596409945,-24.30423008891841,-27.553315205939764,-17.52806614226072
-0.648350246744688,-198.3107742861062,-105.30245475851457,24.759372842746,-60.12266459669896,-22.405301277686355,-27.904465210091587,-16.66229591553182
-0.5971998743896002,-198.03030647776308,-104.55679807818744,25.467114946158276,-60.0289074691344,-20.03703308031928,-27.861218848814804,-15.795058139120089
-0.5594859044257542,-195.37374003042677,-102.73488828095039,25.850007418879468,-59.324411423695494,-17.416519144632453,-27.586296573596787,-14.979691716760666
-0.630833180651248,-192.18798761724028,-100.85172908586962,26.02202495788613,-58.535595059291865,-14.799525353596584,-27.28639646808152,-14.226675187310699
-0.7785248027996057,-189.98407480064216,-99.56778718945546,26.235589118666304,-58.02581236339141,-12.28737781040855,-27.08146356936826,-13.512883792928374
-0.9027304596252633,-189.25513860422294,-98.97675587986082,26.70875048457326,-57.866009286566246,-9.80951731217466,-26.99572363734394,-12.82957830751627
-0.9538235290710044,-189.76166363501682,-98.91819740297467,27.48546238855982,-57.987508554817225,-7.290602398984675,-27.051249290742824,-12.217411299738103
-0.9844768935997008,-191.19911573828995,-99.34252076710781,28.428419338183673,-58.37860909568186,-4.818407825967767,-27.32594079485007,-11.74437087870333
-1.0954192327483925,-193.34868746556285,-100.25854299447954,29.310564824389882,-59.06536548228655,-2.624218272822268,-27.880091842331346,-11.440054741228975
-1.346130065685637,-195.6172593790845,-101.36988192437491,29.91072307824776,-59.912387621953094,-0.8821062074225768,-28.61872626997662,-11.244464330663144
-1.713236285339748,-196.77955569610404,-101.93904752842865,30.088399559275157,-60.52690828520713,0.4919804126407179,-29.249288126682018,-11.016365850300788
-2.099766328523258,-195.57931966504097,-101.17643060603565,29.881099486614314,-60.44660603327229,1.8804199462576912,-29.41170488703911,-10.598489755553386
-2.3535506857446835,-191.82242907459408,-98.85943042401334,29.606733213785443,-59.479384867535174,3.826361691489607,-28.90374484592422,-9.907025205003512
-2.300058756526429,-186.96920048853372,-95.66264234870297,29.83581263816203,-57.919399539290076,6.785662131922167,-27.862485540139296,-9.012636993810592
-1.840769626562482,-183.68305456412614,-92.99739175350965,31.114645734907448,-56.507629093883956,10.825650724959088,-26.812048351287157,-8.177791519187528
-1.1079618110210672,-184.62848720494344,-92.50777336455589,33.521647174052724,-56.18822955499866,15.354714686145213,-26.53912806974581,-7.799701206362222
-0.550087140587257,-191.05908094724822,-95.35203768504604,36.33968215702117,-57.714593652346224,19.08037019502912,-27.765932396285695,-8.221938950648822
-0.808264958555011,-201.48288842886342,-101.29154754569011,38.11439345941606,-61.1114199978637,20.42355508772809,-30.649864235204195,-9.459185011545845
-2.3956226286372475,-210.782422519059,-107.8848640832845,37.141298616576094,-65.15295008438756,18.374177009997116,-34.31899651792984,-10.988265900953024
-5.373251093680171,-210.72205361965774,-110.55799214410108,32.17613093491505,-67.29305139096682,13.355342411209886,-36.81715770072275,-11.790009695922812
-9.244834360752678,-192.74831271088945,-104.21459927329127,23.05527703236425,-64.46347390381513,7.448004369213358,-35.736919773822976,-10.714820141113607
-13.13617535422459,-152.56733165708786,-86.00723757367292,10.953601347008656,-54.61522265305944,3.607213118983555,-29.401549427360397,-7.041650160187129
-16.12863138820865,-94.0310545911635,-57.65387246680305,-1.8612774348203949,-38.1702117455748,4.162063180968107,-17.984543692244973,-0.9416482988041759
-17.534462102679633,-29.32413033334326,-25.47005059167281,-12.722688660792775,-18.33468938940763,9.468333509695585,-3.8227744562706327,6.438110335985612
-16.97937817678596,25.716766146477575,2.4576314896241334,-19.442499962863398,0.19232952427638095,17.616943414017644,9.435511701253036,13.370587935997724
-14.320350673131884,59.19706122966223,20.608759200051225,-21.012781190101272,13.55485371258,25.49038580725838,18.505586568932117,18.254782781033935
-9.551753856588697,69.5092640145147,29.313376474939055,-17.86747989324099,20.79675401842739,30.56984486549589,22.05760959230303,20.27127800104984
-2.8401541798171404,66.55222393922482,34.82037287865907,-11.649814732322184,24.364624924766122,32.35471471222091,21.294159277292852,19.64676220768157
5.31974376849384,66.71873311091487,45.85456634591029,-4.612327187656658,28.668082901595934,32.49348524190372,19.165575953720975,17.41575415267358
13.99219348979812,84.21801416205324,68.55950745965964,1.1298830133346764,37.50177097018517,33.59305225421799,18.700766872106637,14.855566214071343
21.913176315602517,123.57378237132515,102.79488375715358,4.246411009675014,51.84997030502179,37.534424033229094,21.444732079458813,12.928075150254218
27.86185715700846,177.47821099926128,141.95653190114237,4.5243991069607565,69.3445158689631,44.3717055106043,26.86178972235865,12.001380513349412
31.12002095790652,230.9757212344681,176.33324553970485,2.773283673194284,85.6043495555132,52.4198397029162,32.91686941143742,11.913326979929003
31.75121494740694,269.2749151861968,197.93313491121447,0.350520467749024,96.55749968474531,59.34190861428448,37.348463747271836,12.236219760478107
30.52618264864564,284.65151270937474,204.02840524586816,-1.4700941071069633,100.36127426035638,63.47976053353187,38.83651388281216,12.537837794183133
28.550939784850964,278.9480638653451,197.72667510317524,-1.9780929072344604,97.95667108284698,64.65551861121524,37.48157835156277,12.518692147853466
26.839624421322906,261.2128629461179,185.82915723225656,-1.1351286478091174,92.25074694178745,64.11753443671736,34.52186921070683,12.037232545858444
26.056619104096875,242.80736946425122,175.6420055737916,0.65489908769385,86.68310850645796,63.82060550860065,31.6268586630767,11.098443980242674
26.45813847361785,232.927196876815,172.3766654064167,2.8581607147307015,83.98624480873704,65.46560112960161,30.17522687590981,9.851187329821455
27.901050526971666,235.9831623879827,177.72845094911094,4.96176251268052,85.44722686663667,69.65889300286888,30.739996267932707,8.581437854765394
29.825414915150255,250.589702165845,189.40387562406218,6.455105401583852,90.55206732041705,75.43103063408248,32.842183187647436,7.670189465941007
31.28845014028667,269.6861355681891,201.47815002790685,6.835675378387322,96.95272294544785,80.33053155400897,35.03401039352245,7.507674171802008
31.201100411887094,282.1934981024556,205.93678006295164,5.779369229993605,100.9879732225362,81.24760445255512,35.397738817549545,8.380334083532542
28.77548455357968,276.78952700302,195.5491910808008,3.3782308379028314,98.95148649829515,75.82017080145295,32.400463616978,10.357847032379574
23.966420306485738,246.9982015224157,167.18903952285552,0.2075556617243934,88.78043470687008,63.81740572535002,25.76086238394814,13.218888122176853
17.61556123440921,195.07176772995507,123.86114033728305,-2.8996932455774362,71.30652574692333,47.67941203493069,16.82465729438296,16.463887657612318
11.164492762345452,132.05085310507465,74.05084825496792,-5.24519152087759,50.24423877926607,31.727123134074038,8.126895675261574,19.441032184504973
6.064611993546926,73.42747819120419,28.49711614529483,-6.563553134728135,30.76355626605754,20.311029529531698,2.2750747471608785,21.552034189139054
3.184519577161679,32.55460449624371,-3.990937107711279,-7.051245283988827,17.334311803324038,15.837681485785968,0.7177207852202881,22.450946789632408
2.5006715093108394,15.33784524277207,-19.574856899367457,-7.157506214185914,11.956117631136827,17.735789503863025,3.07110276448035,22.14770877266073
3.1873180172533893,18.87044755128915,-19.978209711548242,-7.319793022514695,13.638805744329353,22.909106846236,7.373328468005666,20.97423522570132
4.015945652153883,34.213860116069185,-10.758397998583527,-7.816404796272942,19.259215479604205,27.385098798613267,11.09901948313246,19.43063962623858
3.856358832886499,51.21075678626617,1.4854526722002561,-8.770289783429963,25.181989521290774,28.219415229359683,12.343464184903734,17.979224883688886
2.086432617740483,62.5622579676449,11.525586335568985,-10.204480824149101,28.756462969796306,24.65675690645718,10.551301139985068,16.88149084480198
-1.1946786568958256,65.55718839031849,16.735914384027694,-12.039748259089208,29.078937360621758,18.088326037136753,6.515786679621787,16.160176634028776
-5.185871285550604,61.56590437017669,17.130804181044372,-14.031739652456656,26.918278132436797,11.074778651561418,1.8209329389538338,15.703968446155319
-8.640122937441719,54.339850279261974,14.598315217881968,-15.744462927367417,24.05409641039111,6.116395180665521,-1.8767675709396645,15.443465572523344
-10.309699418824206,48.056390995904174,11.733577361001156,-16.642470895826257,22.370707469112148,4.762812735406667,-3.4040743999835787,15.47276627482334
-9.434639928162001,45.667287962148556,10.672169538743258,-16.278622904643154,23.03951921516181,7.285515327609738,-2.343743295402235,16.01876829558695
-6.056786347829495,47.9964106775577,12.380126589676568,-14.47323155580767,26.09874189516096,12.824863909825167,0.954828251424384,17.262540894582433
-0.995068502166112,53.92422434485024,16.707643249303977,-11.393423080340588,30.608022132576718,19.812804481583143,5.566138081366085,19.132413521483905
4.507150900838207,61.482656377794974,23.032895210450622,-7.509572012191737,35.25867677773855,26.49232415613841,10.31386809685238,21.23667805646977
9.275346230489752,69.04764512234294,30.874269419092137,-3.457912869226171,39.03692577642888,31.397915378110874,14.145485654880371,23.03313168813487
12.593140989588413,75.7834057130154,39.92118308057903,0.1375473467701704,41.530810427364884,33.6909675841358,16.44598630178881,24.164744873857412
14.323769384321777,81.22581740059034,49.5123031433803,2.8109142294399865,42.767962132752196,33.27194443501071,17.176249492685436,24.734101687053624
14.749977150538339,84.66695293318635,58.12153126231369,4.295656551574554,42.810806296970085,30.63997035447279,16.76342553458855,25.279420549526506
14.259424936334497,85.04540203243448,63.418950373892116,4.454294434601831,41.45389466469934,26.559259733992445,15.777137479626782,26.400087228287678
13.077337836710864,81.43695575548686,63.036103564119465,3.1964087678382107,38.241481455444614,21.699898494559264,14.563540570156643,28.249969493437554
11.213086770342175,73.71240184317212,55.70816435263788,0.517104970886867,32.805317733430385,16.46052193548816,13.074327907270506,30.264234273620797
8.637233467413923,62.92692110322483,42.246153291777574,-3.3319725352442813,25.334661083725045,11.068276758902934,11.022640755002952,31.36779575771545
5.525380752344509,51.270380244186924,25.78484102835635,-7.705584983961831,16.873902734484208,5.831468895967823,8.2596115957525,30.588431420581852
2.342853585568311,41.540191972202365,10.944995482594681,-11.66632851473422,9.160790636154148,1.2792067732564778,5.077968719569167,27.696420940954976
-0.3261026436505601,36.160382043840684,2.0388636052628026,-14.348475733449076,3.949953667343373,-1.9821556736037005,2.1876646054378655,23.442902396319546
-2.081145102940373,36.05160344075806,1.1179232278278792,-15.367182155357686,2.140728824812329,-3.5972467582539203,0.3581289860131681,19.216162868847753
-2.9052890013221777,40.030598414735806,7.004706339709063,-14.990140590573452,3.2624231384542455,-3.6880648001668597,-0.024398033825475042,16.311196321707424
-3.118637738266952,45.339174523541644,16.000798903652463,-13.956819604304444,5.7067479970175,-2.772489361963543,0.8169864031513597,15.260566463346485
-3.1434186551196404,49.15676607958226,23.90455196450192,-13.067790196059665,7.60463503549634,-1.4389003742364768,2.175126397190538,15.638955158630003
-3.259795245660966,50.12404130965532,28.110517220696675,-12.78121903225894,7.805106090206518,-0.04053053092282044,3.239137640668944,16.451249019129527
-3.494564649981301,48.83810792686046,28.586270862864968,-13.008550221022263,6.3733439787824615,1.3709100628879607,3.500652521572966,16.835055458029476
-3.664047300846712,47.09147541333714,27.3440704963233,-13.18823401454145,4.37628497085238,2.870997235918562,2.971759045935546,16.601881316016335
-3.511878207540294,46.53743505464268,26.928090400478368,-12.60836521753042,3.15463327064572,4.4257718912180435,2.11558618023217,16.258353046378787
-2.8759685088355886,47.67597399670315,28.820514095620418,-10.846349056066815,3.503227768213055,5.776879387086863,1.539519279447245,16.521053085708317
-1.8287221457014133,49.59604687456834,32.51958541576596,-8.105103027969351,5.159127128041283,6.512760109451674,1.6257228114877633,17.696655717945703
-0.7243313402127431,50.41999290620664,35.68317355070071,-5.229824428337622,6.842513732256202,6.267719071127293,2.3108680573266733,19.37303038330403
-0.09933882748334319,48.23315542801053,35.32128813091123,-3.3517365037237767,6.871419398023984,4.931141170999572,3.136655285942657,20.614597526054787
-0.4487440883330263,42.206066970061215,29.527233864830382,-3.3465483455576983,4.0866137127844935,2.746279479760139,3.5196590980517,20.494656444216673
-1.9905755330355557,33.38162057072997,18.81125052649307,-5.421896716026602,-1.4106012204059066,0.22600786788311955,3.0566751668978083,18.605153807559482
-4.545035230375559,24.48926168388536,6.152707069580623,-9.046398929534595,-8.174471414417582,-2.0870676613386627,1.6897915367842922,15.263899453432765
-7.574959626654333,18.610719134621576,-4.390731267608873,-13.199412230796938,-14.079338113426626,-3.8797280961840364,-0.3145420632919714,11.372764772388514
-10.34456651349075,17.400609472643517,-9.7181431108077,-16.757298002951117,-17.34420721003015,-5.177087956373311,-2.4875032611381553,8.069122802709025
-12.127507767487035,20.0623494266959,-9.128954536681428,-18.83583979068384,-17.311120174434627,-6.224089147465806,-4.276246808033861,6.350024789747083
-12.415107889545732,23.826960443834498,-4.3758592852649185,-19.00303374880339,-14.578668933077724,-7.225874079579582,-5.137794205368982,6.778615914505422
-11.076703683132862,25.640865540873104,1.5635019722166823,-17.342627741932194,-10.517232601807756,-8.13673382931515,-4.656294582442141,9.315750180098815
-8.401220022518014,24.040495599390315,6.209434963105913,-14.367322506157413,-6.496971074527332,-8.6372422153561,-2.6915208572557154,13.308162380923957
-4.97213295545799,20.225624567828625,8.892385039750945,-10.812884746142991,-3.2128746841396794,-8.287567021910862,0.5280509261390093,17.66544259302011
-1.4328196078140247,17.80036722015117,11.010067675782516,-7.4060431009419005,-0.40948206373530727,-6.7470729360027075,4.4589291652317105,21.209728464440758
1.6984273162755419,21.07118650115915,14.985121309743185,-4.71723668721103,2.805633274846066,-3.9850683285905255,8.406194508922864,23.08777189213077
4.03497111932797,32.24396119327342,22.226762330417387,-3.128736051121792,7.085096738709499,-0.47568515774712194,11.641240409367807,23.06731743697916
5.192555705823708,48.61801881904216,31.089607534079644,-2.8351815784892653,11.800571331352986,2.670151754804355,13.376553067315719,21.570282154742547
4.719151736316351,61.59423139601727,36.24597692464754,-3.778005067189233,14.557080708971219,3.8004433364002628,12.706462546968906,19.424860550207864
2.2448334234752596,59.041121846650555,30.439348130913967,-5.532130654640432,11.868013266103114,1.209406281253017,8.747906477790663,17.469925808055017
-2.19692007179628,30.80386789097592,8.18873844602929,-7.2914302974068,0.9190451663564526,-6.0552433620988255,1.0797918736640824,16.218467115195477
-7.923951504222314,-25.21387055850156,-30.504168590464513,-8.087646479851477,-18.494668958785383,-17.460812721077914,-9.734205771956054,15.733688447853108
-13.688263512985984,-100.0998540131468,-78.83429130139152,-7.207586488037272,-43.12130913167274,-30.84432709036305,-21.96021021660264,15.732537081689374
-18.127260170052626,-176.51583463291558,-125.45951985139058,-4.579762268710625,-67.23863193692232,-43.098897284381174,-33.13904691738391,15.808341132821381
-20.34940847228879,-236.00521681132238,-159.38036936339336,-0.8551834931747829,-85.0988058987957,-51.42619034514358,-41.04477734549674,15.6348043910833
-20.30037388648796,-267.1683067174328,-174.7572540020217,2.9194842930042046,-93.49445537422143,-54.49051161715699,-44.65361501307748,15.068102000601057
-18.70030552370626,-270.14355147518796,-173.00070382066735,5.84560289048515,-93.00154191798865,-52.839233457956425,-44.56780653555027,14.13448648982792
-16.64161907321296,-255.1326154996049,-161.23430731909724,7.566621328742768,-87.3026165336681,-48.419358540706284,-42.66976897234613,12.936150185726088
-15.131472849833417,-236.4141837614358,-148.4385314770538,8.267847681043321,-81.16764697082847,-43.575311009279375,-41.23116947286207,11.538281371784386
-14.796862913961412,-225.6418395509809,-141.59207336851236,8.370108323214165,-78.29985382337838,-40.13083726142354,-41.93268368369909,9.920346632767108
-15.758570821638916,-227.65826121456243,-143.41521850639828,8.232656259786427,-79.99169676808872,-38.918272260516396,-45.165667823327105,8.048896368357472
-17.580093747347235,-239.6667914449764,-151.91887642173344,8.081888008863164,-84.83472492224793,-39.72196830908427,-49.783399341453986,6.036023677849472
-19.29949898173721,-252.84321337922125,-161.2655777011196,8.091579756857236,-89.29129822504433,-41.44166181578621,-53.364916512232696,4.2471630614953275
-19.672170791637754,-255.46470452518912,-163.68269224520932,8.394679830937735,-88.94091888838915,-42.4152334363169,-53.01927215552727,3.220632822948883
-17.671200407145598,-237.19113839534836,-152.34963399388246,8.950436519722441,-80.22478645279723,-40.970880257633354,-46.595450723991185,3.3935068960092423
-13.043232311646763,-193.6813648360087,-124.56627811117295,9.422977780370843,-62.185900377654264,-36.15204751969324,-33.84428123208819,4.79755428810351
-6.564971904411023,-129.5556754978654,-83.669325174848,9.267832270880415,-37.33557934509304,-28.289731786799308,-16.884280252402146,6.948464109360208
0.21668900867289295,-57.61551572030082,-38.29983997142968,8.034773803312897,-10.96702552289461,-19.02713642213733,0.4360716035521478,9.039279112068883
5.640445812441993,5.924984120988656,0.957665594988385,5.684436675758515,10.917901582777894,-10.68553891023357,14.064398667825788,10.340211085469406
8.602239517979495,47.93847608239161,25.89165995624634,2.6786775533541864,24.01916364912137,-5.286156808879546,21.37958029901684,10.553302354301993
8.880377124126836,63.25935627344355,33.692267622805495,-0.24115267301825785,27.234408547935416,-3.7594520803895994,22.085920023533617,9.889411365171014
7.00931917343594,55.67954887143481,27.327646995238506,-2.456206548938988,22.601056038932228,-5.723081767647969,17.98317060497809,8.824286064309744
3.881569385801234,35.15909104691335,13.492762267180435,-3.7983328150352924,13.976281310164424,-9.833970424196684,11.885500083825528,7.718751185052622
0.3650284181540395,13.268299281573245,-0.4522580033592342,-4.60551735546921,5.346446407650259,-14.404902163993263,6.374534137336433,6.586283983194858
-2.8845945143164773,-0.7716375489326865,-9.004489829245246,-5.485010517161526,-0.3962624924456086,-17.925213151349315,3.021954547692082,5.183415080119032
-5.430642862886008,-2.220411211803206,-9.723857041006356,-6.928246808494392,-1.9094849857734078,-19.327603970798652,2.3042274310019373,3.3602485109703455
-7.009173455861692,8.653042315293725,-3.267507426725268,-8.972075949803996,0.67411739313823,-18.09791844868442,3.971017266411127,1.4094200975662625
-7.526866185280779,26.896878964399917,7.221114182538062,-11.054134298648274,5.977640537332929,-14.401805986577708,7.432878578345981,0.13287147931740223
-7.096770948314885,43.89367991076021,17.070112832080383,-12.135477705762755,11.65479120790004,-9.238880579433589,11.896146318566487,0.5212023975428383
-6.039269129597722,49.59300801632945,21.412443359077674,-11.086220322707623,14.894880300590797,-4.405772183139676,16.308749390992507,3.192715986210654
-4.796533380818828,36.184277266917704,16.861128721489386,-7.227940425172498,13.320087806390653,-2.0162321141477415,19.39353038837796,7.908140666214202
-3.7801333813431004,2.159637944722053,3.0700403655854673,-0.8103861320855988,6.082212338831888,-3.5897911586687785,19.97301893818135,13.463109420612144
-3.2246510949359415,-45.39728920880128,-16.60147207158682,6.848833906707792,-5.393568401356456,-9.108601600071662,17.51097388345051,18.072295390239507
-3.1191649832826616,-92.22681693923161,-35.927626332797466,13.727316491726366,-17.585570862879884,-16.639839442136267,12.543685461097926,20.09737602795604
-3.2478752649998506,-122.17402516026861,-48.09254082261609,17.87607867769062,-26.126553966031832,-22.91972581885908,6.6526780857358805,18.77512354091601
-3.324257475809949,-124.17617426040802,-48.528644515861195,18.256638398389047,-27.664992611131094,-24.76407040512531,1.8765728063280618,14.580022827474993
-3.1640169224182886,-97.43937397283625,-36.98324761703317,15.188394842807396,-21.435047030595868,-20.629707210451766,-0.18163947992280877,9.029729051139459
-2.811132083795046,-51.94675303798087,-17.711373938062334,10.150745953889917,-9.682078229682684,-11.467013858481124,0.9313829916548376,4.028712831911919
-2.5304087987091703,-3.8989539676415608,2.4143164234916195,5.061293210600686,3.346002046138815,-0.3379294641165507,4.393821767933086,1.0851443739385216
-2.644684779902891,31.54149836300599,16.987096984261246,1.4430401804695394,13.354405558659575,9.0398054523115,8.633659041981728,0.7785164531259707
-3.307763002932965,46.46878416463354,22.787579069648316,-0.10334301681203273,17.887628379261525,14.034645940471277,12.166855950997398,2.6804528923788418
-4.372445753313689,42.473557665855836,20.77776461533237,0.055109553511610704,17.17877172092504,14.181339979429616,14.241625340599354,5.677394067542688
-5.457164592890651,28.286950815169,14.975702061294058,0.9312117370417764,13.605848365863334,11.075860374372493,14.963621403464673,8.484101641851524
-6.168177885652434,14.60767806728116,9.995376650693288,1.4343801081763239,10.191321440070466,7.285702165131796,14.955147370483754,10.127031853449148
-6.319685159475503,8.987074078066728,8.673397575614826,0.8406011534536476,9.045646350029905,4.999347572791753,14.870151401495432,10.24897403775804
-6.00256911412756,13.028877552565204,10.943956989523448,-0.9244534546508466,10.531103358541912,5.142685631997333,15.069752701038187,9.163881242626662
-5.466164937648251,22.594442339438555,14.283971748325417,-3.250957336689911,13.395721140315313,7.274257959769715,15.554670533573006,7.65955601509983
-4.904111794901563,30.386001022074403,15.288607581236404,-5.0653425338004165,15.627728830547737,10.105044933090886,16.07452105049143,6.621221025198737
-4.293819856416775,29.752975622575335,11.620367720471057,-5.267483900142697,15.57319093717478,12.261369291498731,16.303862191964267,6.619805484399119
-3.4063725555641957,18.461939508375963,3.5752690506294735,-3.2833636183796995,12.882096228694458,12.942576875537291,16.026933913809177,7.635700520979096
-2.003539626241656,1.0179866190560778,-5.402026455487798,0.45966134089939076,8.927880471587063,12.267813071158807,15.292912159845704,9.041398299063909
-0.11849272440846069,-11.866093168904504,-9.695482053124753,4.39519155142499,6.455565766834206,11.231087562463266,14.469271051279136,9.854696317179325
1.7612929966539899,-7.243996423369572,-3.8776241434469423,6.221983657777932,8.456271929409061,11.276045302163888,14.110740614736029,9.152188157846567
2.7704909461792018,23.78649660569989,14.438945656926462,3.8245130069924245,16.65174177702428,13.61061491474013,14.647293534959054,6.467308376592476
2.035473621383752,80.3931936484163,42.691091989423136,-3.6318849060579064,30.306260360196564,18.520333796193572,16.045427257160938,2.0174198602481885
-0.8073188988941307,150.22387277684987,73.63619062449303,-14.977585061273277,46.08655964504148,25.027440377053768,17.68515602303225,-3.3178099823789595
-5.219864681278173,213.23412058170683,98.02604100205046,-27.156054355422828,59.23442046667351,31.151507520184094,18.60363240576239,-8.260266691036469
-9.771739981861879,249.80616939008522,108.5281006809316,-36.2798371014556,65.5786880413671,34.71916813536859,18.00398738359286,-11.566667581169865
-12.652281400431969,249.1596527317888,102.85739658296677,-39.22576224541931,63.34348323475426,34.31353009174807,15.699725179729803,-12.500709353044162
-12.500691511109865,213.62320542323536,84.41534965269774,-35.02063895042427,53.75722173036144,29.833630518366785,12.1756045086025,-11.16529705941029
-9.130162282700901,156.67430006924272,60.203912260860285,-25.30575972479393,40.182034858698636,22.381509899728414,8.222462823891853,-8.521936370741944
-3.7216146790448907,96.24382612425387,37.38593840083158,-13.623797537095015,26.374913259493525,13.624281097187959,4.422931887558155,-6.033319484355063
1.6579233447685795,47.16916959181489,20.45228808562947,-3.892042719953568,14.919294521065865,5.061677894138471,0.8603264774734696,-5.052142673932151
4.977080078810424,16.50465839343622,10.271198335498946,1.1743469994169375,6.599732217866984,-2.399964933246474,-2.762485597707337,-6.232674690559623
5.137467482339582,3.2432500100924035,5.0375857153772206,0.972497675811781,0.8310555089782719,-8.422485915469576,-6.703652699958306,-9.250018871644025
2.420959658551786,1.4898048917935034,2.1750673217125747,-3.0526182031923343,-3.3388001127191766,-12.905919441255467,-10.76862226008597,-12.960428911579596
-1.6949622675245168,4.648989351789322,-0.013131951208701195,-8.26899458564921,-6.35800710856132,-15.664085905094906,-14.198785498904556,-15.915454628507804
-5.235011935566697,8.320082219339021,-1.7369714478680174,-12.032446483933565,-7.934173170420238,-16.365726121142927,-15.96085276775557,-16.977187117911917
-6.600183963627715,10.949673912115358,-2.20122946947013,-12.669118974036776,-7.4614117935975734,-14.774812131405474,-15.273934830825786,-15.751627402355885
-5.231422686718834,12.805683950479882,-0.6152061998138861,-9.947687225666767,-4.7177537135122956,-11.09058246790296,-12.06263130360773,-12.667812514923538
-1.7960990128960395,14.514495005837427,2.964651880228188,-4.9743935189003,-0.3329652811502527,-6.120272428186625,-7.08583565257168,-8.717502733730907
2.156907512890898,16.112341434226682,7.385066011372508,0.36448979256472813,4.259363838761316,-1.1378513731074942,-1.6916959309761797,-5.027209711793342
4.917782215858006,16.91199215355335,10.80758412926563,4.186183269945221,7.3536131152367235,2.530269593483182,2.6717955581691917,-2.4736450361292333
5.4083734132645676,16.029443691989776,11.590113075812093,5.348338895851187,7.727320722828421,4.015900516089371,4.9890892166827285,-1.4745479824328427
3.692801965641084,13.188901412882878,9.245727595757927,3.8663107141520245,5.261278115114731,3.2854533069751035,5.051021611940781,-1.9711776637754455
0.9415053776454018,9.273565118926937,4.94129830737598,0.8274148986018549,1.0863288181665054,1.1733840363206753,3.503397577258458,-3.5460916978885573
-1.1726803021711707,6.122817491917946,1.0985672405285019,-2.1753245819819518,-2.9045303340886823,-1.0127837846732415,1.5073832802221439,-5.603581997441576
-1.3608963285594649,5.514790813508106,0.14049601953610558,-3.8259159895265453,-5.00420435389898,-2.1737799391739694,0.1429267219248754,-7.553057003209608
0.5831926155551369,7.945780744535609,3.0469533649920826,-3.6977397468153477,-4.599901860515246,-2.0248564584249835,-0.13470622004323368,-8.959876228740606
3.6587185842859196,12.1231976215827,8.633786268139433,-2.3973094218491497,-2.495822042038889,-1.2431330384292443,0.32678906782659245,-9.652571750490266
6.170615746238532,15.627315717739243,14.061320604648559,-1.1883639109939113,-0.43803235632277776,-1.0295914074668084,0.6613602987640798,-9.777889043508758
6.587545757557377,16.31248076026601,16.291091819517302,-1.3036478293479685,-0.12623876632406283,-2.3457617834083817,0.044285527804201176,-9.771620297872389
4.283639193483394,13.504308663339101,13.649438405440634,-3.29243167994505,-2.2905564193103345,-5.309852489777424,-1.8147186281000671,-10.20722542914828
-0.19645954252985937,8.310525258864162,6.685219638112149,-6.723102453260995,-6.315547316927208,-9.120315005063693,-4.516962596627684,-11.539268622251585
-5.434201546701718,3.0320805175431413,-2.029339251444252,-10.382640085497606,-10.541424514103452,-12.510348909890913,-7.207476246707209,-13.846366912308921
-9.801217092961322,0.10567286260438008,-9.00337813036573,-12.865344424490923,-13.036941600939425,-14.405090151754484,-9.021953625546836,-16.71617035833163
-12.147098032042278,1.0380549081449597,-11.359061417509725,-13.242362187147217,-12.477077589799087,-14.380227157921835,-9.483624047687167,-19.357604968288488
-12.195094811787904,5.68624173735726,-8.152396193877765,-11.468782811968435,-8.75787652876314,-12.714317614682292,-8.656462539840275,-20.908653516434295
-10.504897088751715,12.19361860749813,-0.8696969975255427,-8.345775795386713,-3.0893020760047905,-10.111759679268557,-7.02795261829136,-20.805371108200585
-8.089077043640426,17.744102766280044,7.202006473378015,-5.108023416389463,2.4857725131817023,-7.349356255667192,-5.246352732325509,-19.044553098716403
-5.9253463996483315,19.878832672514577,12.471298648708725,-2.8843942594172995,5.934049312710154,-5.07574767018753,-3.8866823735825067,-16.220832587314625
-4.608667253677978,17.6797981013537,12.656742614060223,-2.2876274763037245,6.03847264816685,-3.8185660469410108,-3.350440340644506,-13.321422384900185
-4.256854148993109,12.127010946592463,7.715299131735578,-3.2690027205509162,2.8043149808953327,-4.065345668605771,-3.8776051367499913,-11.367047077984791
-4.625702609658984,5.477314184709627,-0.2997885815842296,-5.236112220685888,-2.6628879816934785,-6.220507191246214,-5.564600996399258,-11.047048861873396
-5.305934427181942,0.13815359779518088,-8.262756260163231,-7.343222241783284,-8.666063870977817,-10.360385396982661,-8.306365116112254,-12.487703134701603
-5.88993828879692,-2.304538882560507,-13.328174557763946,-8.8245735505744,-13.542092889362047,-15.932019187704807,-11.692979980557878,-15.226996236073115
-6.064526079591685,-1.5357337179984398,-14.02428892994137,-9.240028125300931,-16.171273652743427,-21.680654660537957,-14.985998626846857,-18.381999700974205
-5.644027838995849,1.5649989450262782,-10.682752851768138,-8.549256439476165,-16.240456481377787,-25.991367678681925,-17.27504039960371,-20.92832468446555
-4.576573479344749,5.393162541362166,-5.078864851473353,-7.02098133156002,-14.212918127381085,-27.533995759045645,-17.779220693755097,-21.99315250722889
-2.9441548569017466,8.344864632956913,0.5258342892203037,-5.066078117985765,-11.031191271085246,-25.84483193912412,-16.133107127859716,-21.08848075916162
-0.9559478165195964,9.55618623547511,4.464246615998437,-3.0951412192452215,-7.676019137882962,-21.487240101360502,-12.49968795640277,-18.24321584370466
1.079137600195253,9.273388380446823,6.3137646965121865,-1.4410510451083016,-4.785219542137471,-15.705109249721097,-7.4748875781151485,-14.006149364507547
2.8102985389030506,8.586906034105674,6.812281535804477,-0.32471090967975325,-2.5109817641399816,-9.80304517296339,-1.8757498731073516,-9.304948705303842
3.919867003746718,8.686203582612356,7.193615361107867,0.16078063081304872,-0.6498893969229822,-4.630485730176526,3.458142476573429,-5.189260742292793
4.182488416079226,10.148370703904213,8.416598767209667,0.036820883497707624,1.0754619720597431,-0.4424092928970639,7.775822869564713,-2.5427265341478664
3.489850435477833,12.686605967089331,10.712123400505268,-0.6149242119284756,2.7570438754721702,2.8550596789708282,10.45467127228232,-1.8631420806745074
1.8666098700189004,15.369041755643734,13.568843082769895,-1.7090179325145722,4.18664824025089,5.319701354596676,11.047696109012087,-3.161043100167066
-0.4802287409647996,17.034721909920485,16.028794117943487,-3.149912597860704,4.928163047591071,6.769900838792749,9.407035115336054,-5.966853699939451
-3.093419987690502,16.703545974439052,17.111066654221283,-4.761096948014644,4.547274322539129,6.91745991861092,5.859323560507369,-9.427251465342817
-5.278566422249322,13.949711922881976,16.215196043174238,-6.245544839210564,2.8920790416816287,5.6998081097625,1.2949280207930522,-12.499219920747677
-6.295518312253102,9.176573928303103,13.360418655106434,-7.2748072190126525,0.2601530523853969,3.497881668295085,-2.9881787669016266,-14.243556330939347
-5.688459077653509,3.5865381184593605,9.150272327888105,-7.673877489528961,-2.673055559639001,1.024837897700306,-5.711936741946708,-14.148818150551625
-3.550096497577309,-1.2813336658684482,4.502881710710321,-7.536816107416967,-5.132284098820386,-1.0347869890391843,-6.1324631611940426,-12.344041114163401
-0.49934727114156835,-4.227163193537691,0.3563833478005714,-7.134540603410777,-6.539018089767869,-2.3364852433086503,-4.345336122759315,-9.572546998280284
2.6579844485441075,-4.829541920160393,-2.463409182046447,-6.661208724628515,-6.642641517104144,-2.901037084810737,-1.1937661769203625,-6.914131884365561
5.367650033396076,-3.3933623189142312,-3.2545307020349292,-6.0313120894901235,-5.468983397220821,-2.891099354189147,2.153357610826364,-5.376943094610346
7.561172171467142,-0.5672640249095215,-1.538286442439151,-4.916773232878447,-3.217744442570428,-2.385347265763639,4.695012080211285,-5.534787762980552
9.537324287908293,3.0416631299180596,2.6716170834444752,-3.0205559532964976,-0.21403448641239897,-1.3461500079743363,5.920561257803484,-7.339522091602159
11.601692896353102,7.119540992084932,8.637973580994347,-0.39648330944132254,3.120279925998496,0.2476607146001231,5.880872049358148,-10.152075596910898
13.73038133489152,11.79465267474583,14.99394039675768,2.4103798678362858,6.359579657360869,2.279421053914545,5.063128369018705,-12.968618110919005
15.480131077637735,17.5650464923673,20.170978600854095,4.517703330859161,9.198558879569838,4.497657366687067,4.1497929042067865,-14.771430795842885
16.193905809333184,24.708052939491495,22.84047889799943,5.113062454025631,11.454637809294931,6.594094974244086,3.7243982781135467,-14.888171768689425
15.384315084883951,32.190483084594554,22.0798525862635,3.9487041761981585,12.881100574832809,8.251657473200625,4.012341990842053,-13.219549798764154
13.099527303183198,36.84490464945525,17.35727358895118,1.6881493173669058,12.972271395015825,9.157172656346336,4.787833298731744,-10.238108064052705
10.08705733238994,33.93364444621425,8.69506057959929,-0.12419010620659317,11.065708894356298,9.074110319522802,5.537634121524827,-6.767436490420505
7.641967811200485,19.476589102918066,-2.8610548650327314,0.42829191394418964,6.8340350862211245,8.020288405499743,5.819115618649477,-3.656241026636789
7.1474188137191685,-6.77751102527602,-14.872290276451183,4.790979322857277,0.8555900592404774,6.436737331191953,5.592018468870869,-1.4982081903023772
9.470755620543228,-39.834768572631624,-23.87625062549413,13.149842980524745,-5.254307042913177,5.1508086300342,5.286091613509055,-0.5045829090369384
14.499620762351716,-70.92631493220107,-26.714450351357545,24.153450958709556,-9.436434799608511,5.044413510782456,5.530281467179646,-0.548365383848618
21.090438106234306,-91.57082084397952,-22.228850324606633,35.37886863612378,-10.253998679112808,6.568920797474152,6.70796493872379,-1.315561194954075
27.512711912241674,-97.87936265000121,-12.207924489121138,44.355199346315864,-7.752739900211232,9.417730209640828,8.64565380006257,-2.461987573420691
32.18948657375826,-92.30100586350872,-0.7413678541665987,49.59984846955373,-3.482746748661409,12.619954390067747,10.669872515643732,-3.704754665159408
34.34048954933218,-81.63890872743103,7.821625027577893,51.09560838867568,0.3940180680962967,15.048522096507247,12.006988298857408,-4.848154391636731
34.18960432866278,-72.80667174735267,11.0615115918675,50.00357836799205,2.3185675752224717,16.031034397088007,12.245866339835615,-5.78647679100437
32.688064357455815,-69.3065275996134,9.433118417002648,47.91315634068086,2.0622307720748054,15.67244154539771,11.55097037500044,-6.505535577241884
31.007274861180715,-70.49479050222483,5.544742801720449,46.170305623920406,0.5869864756800505,14.726150505460435,10.528735459592628,-7.065476121910281
30.119416114243865,-73.32757690465134,2.543615352368695,45.61261537104671,-0.6822781920660147,14.168132477606896,9.896751147321082,-7.554734042451315
30.586315874631058,-74.74794211611668,2.691844483482909,46.61363619980458,-0.6223067110484716,14.74423327951708,10.1597754263756,-8.048611714378085
32.459492277234254,-73.28925868110237,6.579723372361343,49.128408211492605,1.0985745390426547,16.639219221376266,11.380897441650976,-8.61257854813773
35.19528692250501,-69.69385735239703,12.819089021630797,52.60091902478374,3.8120007449094464,19.294693067028856,13.060926065185942,-9.333399282529001
37.66710658193761,-66.73297558407529,18.20538994707668,55.89051398254624,5.946851260303142,21.450795098101477,14.201719087466097,-10.310748943016476
38.44806298657261,-67.976309423587,18.75052496990025,57.45213283089906,5.607862441669933,21.5612475777263,13.673605943964082,-11.576422761927867
36.38114348833196,-75.395472903937,11.698828508380057,55.811058356661405,1.6380986435086187,18.577652488660092,10.845855983372827,-13.002044375374334
31.185680327503217,-86.9271699148084,-2.388694923207548,50.140441604194976,-5.3488922233544764,12.738807558069054,6.148699918701721,-14.299600053029398
23.737491000963093,-96.08174059002869,-19.038980265187515,40.67928206099444,-12.78009201926344,5.790358724960978,1.1230103562162874,-15.15090296293863
15.816970069042307,-94.7440904304003,-31.61523116313577,28.801984194871583,-17.182955954913737,0.3092458046213422,-2.2241848740408923,-15.385482291259375
9.419297506210011,-77.85986796373268,-34.619599083544756,16.669984830569547,-16.00471965345274,-1.5913336999497123,-2.4589268792016137,-15.075816491668013
5.959475057166716,-46.93759412468824,-26.566534214083223,6.545870110087763,-9.070268776049973,0.5908076835206751,0.4688058206376125,-14.477311389886458
5.754793841806866,-9.9042165641951,-10.682251260458385,0.026319589296345706,1.2639681534259728,5.488655322596797,5.167048072647415,-13.852648024782544
8.013728968825472,22.67672333622432,6.889645892757346,-2.4598484694751552,11.352211082358375,10.680954499468637,9.55279577466033,-13.301534441668107
11.289716071868906,42.66076050174313,20.176346397858943,-1.6564422248928163,18.10394432565951,14.06155675727407,11.949027913435959,-12.716068409222379
14.128240442817978,47.682662511562945,25.945688742990594,0.9779680689299245,20.323064563945753,14.8931237042593,11.854968243153182,-11.896974086144333
15.579108477637435,41.1902258488087,24.51025528576716,3.9231511148410854,18.85476015928744,13.920188635180727,9.962221313666738,-10.747602092511398
15.371455072583865,29.694751534736437,18.725291055291265,6.117525249573433,15.65939458356938,12.568536999373643,7.5059448593000155,-9.397505782448603
13.752385582463988,19.26143267431616,12.109914386619375,7.136167232553578,12.541695382152854,11.842866172257397,5.450076397742313,-8.15491384764082
11.151665640670425,13.191036859264388,7.203786606264315,7.0313060613260685,10.305486794771515,11.661212383936167,4.034687447251676,-7.317228485121433
7.889119769826141,11.61608703077912,4.797428405308351,6.0265317604803075,8.671691030255422,11.000965447143724,2.8904427521465927,-6.978346992943491
4.080182003002609,12.512641454952957,4.079962075077904,4.300558916610177,6.791456037738964,8.679715672768497,1.523193130704175,-6.973328411776628
-0.24483903538199125,13.21217289717612,3.4100066960000666,1.974766264134085,3.9372347558574123,4.227897574083677,-0.22643383943316994,-6.9942999893026325
-4.933922018535422,11.737338034375616,1.3123709156713974,-0.7659144994791486,-0.0015285164012534313,-1.6839561442565465,-2.0486210012623776,-6.783314169482693
-9.599398662173487,7.586732061046362,-2.727521283913514,-3.5860467622984284,-4.413948471085934,-7.492709762739926,-3.392103658682832,-6.2612745343093765
-13.703149160346777,1.741853481622221,-8.045664115429608,-6.058679487712575,-8.266294004421649,-11.503195214682748,-3.8597172230099512,-5.519458828055882
-16.794851823032037,-4.086401615346137,-13.267285426883472,-7.845003094077975,-10.646081626422717,-12.736023468958617,-3.503028227037127,-4.716399312976567
-18.73994098909435,-8.514269003298786,-17.15517281394791,-8.87173353082951,-11.260804506091805,-11.406683742492177,-2.8336703945961417,-3.9858123570105515
-19.777486016340216,-11.128972276720496,-19.278285533828235,-9.38397518446061,-10.594192868663725,-8.778259263207703,-2.5425112906371656,-3.4222102476244065
-20.362551414740455,-12.31883130220232,-20.08810170079746,-9.822008608223058,-9.607971815955302,-6.463714374227259,-3.085067279022735,-3.1139726815536535
-20.88437844146306,-12.576216192699588,-20.42875455282942,-10.560970136697032,-9.164095377275656,-5.562053867713936,-4.371998535737813,-3.1353990716989184
-21.42338341785169,-11.95987654470872,-20.87680189673638,-11.637074352235356,-9.526117455962936,-6.114018729504051,-5.751741440217333,-3.452061060602047
-21.687924622628497,-10.140476351250497,-21.35436475560122,-12.633576538543315,-10.240129886884532,-7.170636136099025,-6.3083629372837375,-3.8050606696567373
-21.179909951694597,-6.861298266078219,-21.225255421346752,-12.855328533993262,-10.447831628517378,-7.395599510368499,-5.316990889843053,-3.71291671080873
-19.518599218164322,-2.345832525683774,-19.777017891508304,-11.754469710056336,-9.429171643146129,-5.8267323484264475,-2.618922514667959,-2.677692949886169
-16.753688177859022,2.627458926255943,-16.783897670977115,-9.368962448521732,-7.062320343316749,-2.3898150489994556,1.2563304765002468,-0.523951889253055
-13.478955355206155,6.9356731506234475,-12.805577758049626,-6.47017834999369,-3.955455791921438,2.043737828477944,5.249987098504762,2.3429022831950324
-10.649751921237089,9.455144702647177,-9.018260146838543,-4.275846697862115,-1.185485608287621,6.019120678196719,8.12569420523126,4.973023602906727
-9.173461090784095,9.44933298766495,-6.657044194847995,-3.865872227126911,0.2175906208735148,8.094795039921928,8.887685608621329,6.256537215052284
-9.47765012966906,6.892332792221244,-6.414361075503034,-5.624229068432371,-0.23126564343557293,7.44350225139986,7.146886605542217,5.490677851263988
-11.274416103503407,2.5291308640682026,-8.16706046570413,-8.995126464126196,-2.247878134297619,4.238289817897727,3.324374533026894,2.8317085338097643
-13.630737391690488,-2.4351577122040498,-11.133248143641305,-12.65241589079089,-4.915434467995896,-0.3394881637074157,-1.4042626190628178,-0.6326994938099171
-15.307580430552786,-6.823004058141676,-14.231174415517568,-14.994611239003323,-7.061673911950474,-4.510488753194038,-5.458890116727482,-3.2741012161119385
-15.231466833189838,-9.793659964835477,-16.361615178613448,-14.778069317597069,-7.670936735743825,-6.597349880316923,-7.418048421656185,-3.6241459338133106
-12.931587526084487,-10.860836413335834,-16.593038422958994,-11.66479527529569,-6.2022114606250165,-5.742534498706467,-6.595078519975502,-1.0611135080428802
-8.78357638102616,-9.878673696243672,-14.440529789788611,-6.459210088864512,-2.7904071798750594,-2.3242814780932037,-3.3755490026043895,3.855763973613537
-3.9377906631801634,-7.240302350164225,-10.274793136600783,-0.8783100093493117,1.699443971698311,2.1640426444617535,0.8758846940952374,9.583207125721534
0.09261404950487073,-4.092009448461596,-5.532315712190492,3.1129744597377416,5.870066396572111,5.7813917821555885,4.36023901149214,14.24851326380046
2.0459526658725293,-2.0866714480513706,-2.317206988884356,4.128629607414909,8.301605601376394,7.066489796211074,5.635044763239251,16.467653330312775
1.4505056134905814,-2.556042629499921,-2.41273699635611,1.9525593899033131,8.206839311737795,5.742583187055003,4.28158986571745,15.949905085022468
-1.1854803394202953,-5.647560785805131,-6.276782730537569,-2.3963003470783444,5.859797558508472,2.800519156809869,1.1017247141830893,13.606206907023092
-4.626283031055473,-10.153815247971094,-12.697347463812333,-7.135575394469727,2.495100229548547,-0.07896509811481324,-2.2702482483613418,11.106718167153362
-7.461096984824158,-14.185756349824729,-19.312582256333307,-10.477158379404402,-0.2833515875420515,-1.4032112213751862,-4.141638995157516,10.091782089553439
-8.678425409177137,-16.122792960136703,-23.623556241876123,-11.323023351342252,-1.2246268689094577,-0.5339093643781422,-3.5250622711181285,11.407671498942317
-8.016920593825175,-15.180913148490216,-23.95118193535694,-9.62608168710572,0.10264002152393274,2.179160593811176,-0.5301584471174727,14.729021723287026
-5.988051030962974,-11.466467448232535,-20.013949422322135,-6.309538477979035,3.247418503197106,5.753568210789845,3.7570857715235175,18.742666795831592
-3.6131378540053234,-5.828203219933553,-13.052001932380358,-2.81830026479083,7.122172134841429,9.110407047687504,7.789950135501912,21.79173473686202
-2.011013593097432,0.2757926278100096,-5.481193743272152,-0.5178306151549351,10.392880672142182,11.467496551562972,10.19262474228068,22.650796088352273
-2.001538510228866,5.010955940148343,-0.09381197122038869,-0.2054236868939049,11.894363289539156,12.448265904123312,10.219217777833022,21.043917351885792
-3.8562107331226207,6.641271118405436,0.9810428730041195,-1.9149191723292853,10.979547055618808,11.982192542382844,7.881089553195346,17.670167398266294
-7.24534945061548,4.108697031559279,-2.8708956437341726,-5.019907065813669,7.710964944887493,10.183594573734515,3.7813558711611828,13.782485509330229
-11.351915073944618,-2.5522558113498315,-10.459824176838358,-8.505841247475571,2.8476431734075467,7.3464294644567625,-1.1627833586034104,10.59590132345853
-15.099982669443165,-12.038890183018607,-19.12838645399431,-11.290315005301892,-2.339657517343694,4.029972591129276,-5.946985866238377,8.832841176160663
-17.472345737713912,-21.770891729840436,-25.536722933960657,-12.565168714084093,-6.37124854774566,1.0646210897269806,-9.641045180789364,8.559228182461704
-17.88977885941744,-28.19451393603651,-26.73148181250652,-12.151676857503366,-7.976191425949305,-0.6830311600378036,-11.584848023977331,9.277595941025249
-16.545583197118507,-27.804025712318793,-21.37495233377492,-10.742948972638597,-6.61702601920767,-0.7567834920465266,-11.66483960440871,10.159602937857617
-14.499017803363365,-18.953029545618033,-10.793340981169925,-9.804618431977124,-2.9633436261508557,0.4899535958079373,-10.53761364748464,10.324064050570117
-13.362548939616449,-3.617486384983589,0.8231307513481605,-11.010402057732916,1.0193254168262995,1.8667170296827447,-9.559672103201091,9.108550078846218
-14.62180320639118,12.334812277339998,7.653969967792591,-15.397905385875346,2.649948784342505,1.8234355808696814,-10.298130542960749,6.283932003743081
-18.888914778133334,21.242515301964623,4.748813088705959,-22.703017335541237,-0.30117300408749914,-0.7670329753025283,-13.783890216819495,2.1451599124705276
-25.50730170339009,17.405914103928534,-9.365356762483039,-31.314994290018785,-8.406173047630103,-5.956269621634408,-19.906083208465756,-2.5722531169992013
-32.77726682072662,0.3738171602418355,-31.53462974637596,-38.95356441146443,-20.062430567892513,-12.596789043540355,-27.334347641692048,-6.9399495797553605
-38.722300200910226,-24.418379323950433,-55.18848458541807,-43.71949706114526,-32.08330418733753,-18.855834233394223,-34.07487544015551,-10.1628842583457
-41.984243894113725,-48.30836074886973,-73.4049928526954,-44.9217393880775,-41.16248416513185,-23.10127694247881,-38.388589358113634,-11.852411510082447
-42.35243979702283,-63.839857395522415,-82.10525307876252,-43.22786703316132,-45.40103103591004,-24.658628886615297,-39.570082663147076,-12.1362108426934
-40.67245272614816,-68.20298300870652,-81.52922503775119,-40.13405498465001,-45.013175908244115,-24.001459737896155,-38.16778207162137,-11.581419132340352
-38.27864301348527,-63.68405925014068,-75.30954864809584,-37.16996101011149,-41.86904958057646,-22.296766706882668,-35.578048269682206,-10.996680435400155
-36.35098411220029,-55.3818821559882,-68.06986800611503,-35.32074008197271,-38.31042371157922,-20.653064230285146,-33.31768651103064,-11.194880417398183
-35.53074234742479,-48.24631270801829,-63.239389683603896,-34.859192460617734,-36.06347988927594,-19.584649289342412,-32.39487879294183,-12.742632813707468
-35.85552537380426,-45.31111226978816,-62.154912992431875,-35.45534762620837,-35.7827130832648,-18.979246513676767,-33.01341918481878,-15.69185006254809
-36.87427388617998,-47.365327581109675,-64.29635353620986,-36.36473077573667,-37.15820465102797,-18.456527794031302,-34.589866714023856,-19.361519366335045
-37.8233342938391,-53.18197253430963,-67.91116208589125,-36.65142386344575,-39.22272111265898,-17.784277047129184,-35.98102101774134,-22.35248856879409
-37.86124326002203,-59.82169958015756,-70.64945256321364,-35.49981262724645,-40.679692589791806,-17.09929541716921,-35.89154131015201,-22.96919590236149
-36.368127393067994,-63.44845513074571,-70.34086672379881,-32.563064752788236,-40.329959549699275,-16.875143900632334,-33.436414774864474,-20.002543785718455
-33.199148302539434,-60.99756786198271,-65.91251078855237,-28.14437724499065,-37.595245499692325,-17.677253468888196,-28.666187258206126,-13.517165386214502
-28.718682952159902,-51.930503617776424,-57.93045830033281,-23.044812342140695,-32.845484422586786,-19.765959807521327,-22.7084595035431,-5.136236255797462
-23.563103944069262,-38.68782715648737,-48.21200144257514,-18.14587086670842,-27.20022460087352,-22.69373575200271,-17.300297026130295,2.495931711918317
-18.294342390267545,-25.298592565383867,-38.665214154863904,-14.001116757897888,-21.85833206245571,-25.180594146439358,-13.888968116541953,6.922618276219989
-13.202867392809686,-15.150559268321528,-30.251644240368456,-10.696098020184243,-17.44857579200425,-25.53115619242381,-12.851342966784864,7.12922861347107
-8.393419796520735,-9.61238432165111,-22.915324966639684,-8.021308415521146,-13.916046197427828,-22.5483616978292,-13.376833362133715,4.08965199806889
-4.039162670271705,-8.391659707754744,-16.46968289322235,-5.768309152140234,-11.00648048490288,-16.471097028420765,-14.114588942972075,0.23401990078702212
-0.5268572340119055,-10.964499219900283,-11.53470708371534,-3.882571194169486,-8.867851661873488,-9.265544241463475,-14.110999218712044,-1.8523836417012827
1.7144144808927788,-17.44139579373707,-9.453861930955165,-2.349221624375244,-8.125938920168702,-3.864518016763672,-13.318983054452689,-0.7067533636416495
2.6337984073246616,-27.70910923614162,-10.91311769347682,-0.9449285742343181,-9.196358626812174,-2.5956580363827353,-12.290405250793548,3.470489568554444
2.8910284187386397,-39.37253455823356,-14.20904056224935,0.8577503545939487,-11.307390987652878,-5.67782071161881,-11.341023294064975,9.182634464399104
3.74513659370963,-46.54357116322154,-14.769975776816846,3.6551104493517768,-12.13762580255648,-10.799200872470262,-9.937346184505316,14.527308177539723
6.444458404366925,-41.36529950865156,-6.892390980356116,7.666439447764266,-8.6602241118672,-14.199566987240054,-6.8806451716915324,18.041219633554153
11.466771412295985,-18.125232601195435,12.991576461724286,12.426987265661483,1.1253670129867666,-12.69847107186631,-1.1933060529039188,19.130927679023056
18.131403478518173,22.532536763270762,43.58999443880306,16.912547416990677,16.688087394542215,-5.449132488922077,6.978469458958744,18.0502838341797
24.885916567362024,72.416462731782,78.5828721913328,20.07467707247568,34.797098513417325,5.642787450749369,16.16007078174585,15.595491735446412
30.11184858522541,118.9659867396353,109.42160514054258,21.44197803574493,50.950837259254996,17.033758013669644,24.229716521317084,12.721385844852895
32.93798818397711,151.18756286986977,129.49239739869702,21.369780314125947,61.578336953184,25.43979330904701,29.526754850441428,10.216738212295395
33.5595951376379,164.7423423310207,137.0810580277787,20.768154596102537,65.65614843668952,29.359414011992822,31.646025730069187,8.505145534974323
32.92497940686264,163.07859442773372,135.4053654184863,20.520739160328766,64.79466671742186,29.418147580570725,31.43975026990305,7.598641969500566
32.08190631626708,154.22936940459567,130.0071519291992,21.013713629753727,61.90327189201198,27.546020430342384,30.325920808260477,7.20265102247643
31.645896706985972,145.80692837593236,125.48359007133062,22.05927918266964,59.45186583459945,25.691042280353145,29.44333999264534,6.920901581417051
31.669446599010925,141.5463559266799,123.6325218780719,23.169047510472527,58.43828258114839,24.893208618461706,29.190081819554337,6.454556185755201
31.866738490919392,141.03073849792162,123.7215959857987,23.921156117000027,58.480753021262046,25.119894075832867,29.316216233754098,5.693213073225396
31.9613073406936,141.76101681460688,124.09045363815753,24.21100376271788,58.654430095969445,25.718591790623133,29.366779338871233,4.679265820268165
31.947556323621882,141.63651606813366,123.79979712461628,24.32804523584245,58.39487076669407,26.074334729051863,29.14675508704702,3.5211846900961503
32.155872378370276,140.50569123924785,123.48110303419527,24.856561988030524,57.99730876003107,26.106190156553268,28.966077043207143,2.3420123092382985
33.073297442221104,140.39016349262647,125.09548649707928,26.373374156198004,58.53139366729632,26.38519886647605,29.540526512052896,1.274093111072756
34.9448609666841,144.30478293533403,130.6034555399397,28.985648867654028,61.15331874803934,27.78159573434231,31.526798182751836,0.44531044538799325
37.337762683164975,153.80808915080476,139.94688634932382,31.9505160929982,66.01040910084005,30.733048024474712,34.847847755235655,-0.0769697431370186
38.99766455196426,166.3268089659751,149.45813796728174,33.72511400211187,71.31868144245084,34.51201333682327,38.20496328556185,-0.34386846858858217
38.25549575636774,174.32477451037911,152.18381896460014,32.59546550024691,73.42439773051629,37.053657470672526,39.24704397067001,-0.5124382422601195
33.897834951249706,167.95072478425172,140.7783486338226,27.616339381990603,68.26507854427865,35.69991314058102,35.561798827276675,-0.7375938301594519
26.026612845212355,140.4524579936472,111.77955962470944,19.30899044045253,53.677225865799485,28.629154140209796,26.081035698968243,-1.0158838155687053
16.336706901489563,93.12857649572479,68.65884259083543,9.662296055819537,31.182425660797016,16.17778113038564,12.077122378705477,-1.0626865609440408
7.548613007862679,36.26868607225884,21.40469850836191,1.3892150241673027,5.973986231619757,1.1813685697267065,-2.9608781597955187,-0.3006833808506554
2.242105437593908,-15.032023032112475,-17.52602197818364,-3.191328690327695,-15.133105957194068,-12.021247335413463,-14.665342731608364,1.980098706896343
1.7002798859681651,-47.91380267087015,-38.7540871384201,-3.0988896097667826,-26.754030042756604,-19.488961099803213,-19.70737394799489,6.282761534397612
5.366255822975773,-57.542831776766825,-39.97400888064164,0.961628217247395,-27.323528374218082,-19.490106244729564,-17.28748281881335,12.494265195516402
11.16278377019265,-48.45351632356712,-26.361563993805262,6.957307865070011,-19.560637884829646,-13.24772441229983,-9.416429143537801,19.640341317456002
16.460884407576202,-31.114031944638494,-7.494892214891669,12.3753063513351,-8.877016846408985,-4.23815736696992,0.11977344746992989,26.03509927912507
19.184189862657615,-16.188156006199748,7.260543124749539,15.17946046934965,-0.7185982415540697,3.527280582297115,7.508142190353667,29.864160527124564
18.541931515588672,-9.893110922392474,12.458555788024771,14.508419882956227,1.7249230688164565,7.28955708335454,10.456496701439418,29.96692701192165
15.132078431335637,-12.577826345530108,7.8359929604043455,10.881745451928213,-1.59147226115772,6.511327039531607,8.85000888966677,26.419657674627494
10.469053917413797,-20.41796854925464,-2.9037433041183505,5.8657361515410535,-8.247085045222592,2.6689588027370887,4.36467015307365,20.586733242165387
6.218692158685771,-28.567962020089873,-14.684148723527144,1.3566835741328633,-14.995274243171975,-1.8654581230220328,-0.6125401348812203,14.576511901956618
3.50428787246196,-33.897330170414556,-23.572454495941308,-1.1920598179451845,-19.432085958229464,-5.183006451899954,-4.164139523668455,10.360930108349075
2.5752332276761534,-36.12091901806797,-28.09908513114836,-1.2500731147800515,-20.90427481400016,-6.72288557477906,-5.573557689049186,9.00201647246806
2.9310101261267207,-37.030352340743306,-28.98438916634773,0.7716454902597965,-20.325192197046583,-7.256689034798843,-5.322083418047386,10.35316678718861
3.749514098373803,-38.40782337843771,-27.729833793043923,3.8522045394604985,-19.151840900336616,-8.052757755962961,-4.4576301805889145,13.314375597993685
4.313624863910956,-39.975431320967125,-25.176671224478973,6.762250384764052,-18.2488627924591,-9.800678399958093,-3.7961032956831264,16.412441815299715
4.174877533187826,-38.95742218195236,-21.14401700575235,8.323219708975756,-17.43480201744214,-12.051603293364407,-3.5071581888626113,18.3500608361464
3.023498160993471,-31.960356710430794,-15.444395474048598,7.531077487486081,-16.0289112835919,-13.587952230237246,-3.3430099045124373,18.283763933612363
0.48581690851489645,-18.14400996215996,-9.39609289801678,3.7047603843097403,-13.94405843063414,-13.451762265302287,-3.2575686365596552,15.838099571853155
-3.8592931123200938,-1.3259531886002907,-6.344333035587415,-3.2350313439365883,-12.379235489955557,-11.836412017710517,-3.8261992369233733,11.043649049691615
-10.137326459165156,10.990649132013349,-10.294269643608338,-12.459537075224507,-13.396293716578256,-10.113576602301531,-6.012663533098665,4.363492359746934
-17.71070396884536,11.640466877443469,-23.216196697798107,-22.167354645769514,-18.502990939376875,-9.901522452089308,-10.359573556763683,-3.2133337750439943
-24.982566352794645,-1.4799804994532217,-42.814843545415634,-29.98220936996436,-27.189369270187452,-11.809254053126446,-16.18935668679349,-10.1955454452287
-29.76857755453979,-23.215338562050913,-62.56824212903667,-33.76217215688046,-36.54293820532649,-14.771800589651239,-21.486615841817375,-14.892567250389734
-30.176168980712458,-43.33766067198442,-74.49561202327612,-32.458126798168436,-42.42402109238012,-16.515997923533504,-23.706705641265884,-15.96491463008137
-25.555080863653085,-52.10065008075448,-73.25122349761668,-26.55909862019393,-41.62545822703332,-14.921025470424311,-21.113520504539817,-12.985719223331616
-16.968077846611305,-45.73720300014715,-59.08026070904162,-17.87819065751916,-33.70878314124381,-9.405199451375848,-13.84520353748081,-6.716320538002105
-6.872744842852944,-28.391071700983176,-37.77201678304572,-8.809746117152324,-21.355113275104266,-1.4281345976161488,-4.02881656081092,1.0846867068431556
1.8585086504195902,-9.383194059228517,-17.644019524939825,-1.4457461723001122,-9.010029583960694,6.229157314658914,5.16822208760995,8.280812103656489
7.101579553277679,2.218703607325967,-5.41130583776673,3.065628554277291,-0.656815584352127,10.96360357043691,11.033068841617508,13.15539314195655
8.267982029637817,2.2793895606304537,-3.2944152272454774,4.719549001347576,1.9929745772855523,11.716787287737603,12.531271452848872,15.028660373796544
6.3595736944953645,-7.034221818558837,-8.747204447171326,4.4128205036607495,-0.04108469771649885,9.403453838190266,10.616853817771261,14.394244067123543
3.3007563905866624,-19.46013732849642,-16.57144856556887,3.401043993829764,-3.9909202950572995,6.178363480701294,7.503759617289079,12.5025330267364
0.9123321063551375,-28.609940798043116,-21.952041939121987,2.6778732027824783,-7.063195568916744,4.020703252876336,5.340989468507677,10.613359609266714
0.059250772652727254,-31.1841402239637,-22.696161420199463,2.5320908313785693,-7.879182133862861,3.522820832698672,5.046258854994918,9.332855813386773
0.39672073178240386,-27.821638729229782,-19.675333993904484,2.493913473270089,-6.889389927693571,3.6301213077578507,5.939894836982266,8.40638791259816
0.8082893800841194,-21.687923224922564,-15.605083685329255,1.7303722465535272,-5.690184670183168,2.4733536913745398,6.346686473036502,7.069536671280369
0.24951468091988385,-16.185331102390716,-13.137219079959875,-0.2889303900797092,-5.793263628562398,-1.2541674389089221,4.771741655087908,4.717902138324528
-1.5127550693141725,-13.262201201485924,-13.381510862084006,-3.244246083404886,-7.625698552414017,-7.259056373171328,0.929159546121355,1.4534649143229381
-3.7080960170116795,-12.987447872705822,-15.525224493976301,-5.929450735995246,-10.305869606884686,-13.611876919110093,-3.9984979051337013,-1.8606298134094874
-5.02083799004046,-14.17359612743586,-17.56312213419481,-6.83366830125777,-12.24273653326671,-17.735244507825147,-8.012225726268339,-4.0795597781140955
-4.390895194722305,-15.400337202177896,-17.607629477068397,-5.021695345595978,-12.130563437078159,-17.79484173960959,-9.428310930851778,-4.464032378223484
-1.6429138504738219,-15.78515168485295,-14.996297457409225,-0.7555866895871466,-9.705950104713914,-13.644948101110991,-7.7683411204232025,-3.1050675112467374
2.4217840126375365,-15.095355888215348,-10.563672729828284,4.53953415080208,-5.813637150917817,-6.8082480678258905,-3.8853630071227823,-0.8141756359962993
6.454385933762687,-13.262368090217748,-5.988454389466981,8.924797877526466,-1.7987810754238729,0.3932595898370468,0.6568109294065488,1.4079729590107573
9.178909037803404,-9.90533311667482,-2.7726627631740732,10.808095468033297,1.2933393756916771,5.941393351475755,4.455278924736572,2.9377599467112203
9.847220303836806,-4.626207595473706,-1.6546101558389248,9.574021454169976,3.118007598561127,8.805153157782454,6.811312802058767,3.7700443086734667
8.393015851411823,1.8015655768817365,-2.819578372804381,5.776928014483038,3.797413485304231,8.943752295925028,7.6955495817442685,4.342540457097523
5.381454966746007,6.316976932632149,-6.4797866403167435,0.9489701896872095,3.3758600221309814,6.8665392278463555,7.3418738106083365,5.134432929065044
1.8968990364197686,3.9676860514847316,-13.000083213893992,-2.8292967082880707,1.5641101033679723,3.221456154568459,5.908457047187826,6.336938814471387
-0.6180208767278903,-9.645557175965758,-22.202902052074027,-3.4918606595963655,-1.903950337148372,-1.2836501357099852,3.49866638825432,7.788423814622939
-0.6792397595921748,-35.12019809941757,-32.42993338761396,0.3837508554502533,-6.592801629880106,-5.716108108928235,0.4560567032601873,9.158850855128875
2.7096717717261862,-67.59145193526814,-40.46641614652714,9.007184071052874,-11.060741414084086,-8.877200698921229,-2.441331771276871,10.206437327168784
9.467227897836143,-98.38458780062713,-42.94708590181579,21.085517170040344,-13.426595370730574,-9.673206864882696,-4.211067170575782,10.9069081305848
18.119038916505676,-119.45495618605551,-38.63266984061548,34.02589200928001,-12.605352575155848,-7.801429804503567,-4.2768248522411465,11.370359919953177
26.068518232765708,-127.84009063144282,-29.937960872063584,44.660539714125,-9.347546419425983,-4.271310968270365,-3.0268025485930266,11.624203468010137
30.483102510788218,-126.92199384704476,-22.24413399920975,50.24619018055414,-6.167760661526156,-1.2412881425962523,-1.822002819392539,11.435560364999711
29.44714284775381,-123.37042135381154,-20.974384810611305,49.31652346809876,-5.967222356518642,-1.0561936996069579,-2.3144694960582473,10.313591408524937
22.81680340095536,-121.89621219143793,-28.180134921120622,42.04862537840777,-10.16430906624773,-4.95954644396163,-5.457488914248632,7.713777985160915
12.329241826973927,-121.76350368721394,-41.002288988532186,30.080425446711793,-17.624624620934547,-12.271773993286194,-10.851212954932791,3.3510220488417866
0.9032758515057546,-117.67860584637754,-53.165376577758956,15.95560764664429,-25.17264354530526,-20.58466143711217,-16.85120882010822,-2.53059117798977
-8.523133813213851,-104.21337544880141,-58.5268161866186,2.4245320219249176,-29.349997801083955,-26.882869569782937,-21.356234495869433,-9.077387719470826
-14.070075800778723,-80.28901241011499,-54.35191279237381,-8.231151622471,-28.257295143196785,-28.939721536836295,-22.782599458800203,-15.007457487797444
-15.440577479115564,-50.5130862274165,-42.381592509178496,-14.712099664704374,-22.373825673141525,-26.23000855387707,-20.689341876623,-19.00095527018172
-13.727986585619671,-22.743231057421593,-27.390654943534997,-16.91387027616551,-14.032304081534622,-19.96724539375996,-15.802412028592544,-20.137252616962844
-10.698713806581841,-3.85899282797142,-14.479056132879267,-15.765919651933109,-6.078491990953949,-12.3991292547789,-9.55463368993249,-18.20103846496284
-7.958497013928709,3.4577337457845574,-6.806776528114434,-12.766183409921918,-0.5957837876060729,-5.826987792514408,-3.468897255704712,-13.758919835713101
-6.37495722674028,1.276265513953403,-4.803687247740078,-9.398494669881012,1.6959532645406372,-1.7997569531784998,1.3233095276704692,-8.006553175999903
-5.917107599374817,-5.411158336145966,-6.759494536312649,-6.646262277990569,1.3240588628528502,-0.695284566835411,4.316638817777977,-2.4410944736261957
-5.861119431740328,-11.328501357108955,-9.9909534105139,-4.7639672282094985,-0.42042805079862067,-1.6956475213940907,5.652387234694207,1.5650681926365262
-5.211968698460897,-12.865941739249829,-11.867680680510553,-3.371219033703426,-1.993190228635685,-3.120528038313173,5.972929403715599,3.183361328902372
-3.1815123629528426,-8.816561161682136,-10.506433069117463,-1.8121021140890758,-2.043401079452631,-3.1011481352439367,6.117479047080421,2.394944184164069
0.42451987363794746,-0.2183527805470195,-5.2760039187432035,0.38860115412379537,0.14772634876468685,-0.4744353460067615,6.698218095753952,-0.036596487538089056
5.043409422137119,10.255498132383474,2.8713984219363726,3.183815288686887,4.288344598622846,4.454764395863667,7.7192623656027415,-2.920483151920337
9.496426349883743,19.21010276628229,11.495841529262963,5.933403973298536,8.990269499840856,9.769228202558198,8.485956522653034,-5.178435440101621
12.405261626009414,23.692634358062886,17.415217633833837,7.636108875187052,12.189282678492486,12.692214218054852,7.952475434673434,-6.294816830215677
12.729667005998529,22.299485176253302,17.943721504331233,7.36355493279507,12.00732052430087,10.99485065687097,5.380293326896678,-6.44187023510481
10.199288133889894,15.721870785496375,12.087032837028264,4.70307480625588,7.672477454006761,4.315997697337532,0.9224381747499816,-6.2490612757626245
5.441574339720859,6.432556245561217,1.1082266924510877,-0.0036894412756807698,0.012590888187552253,-5.417639391367463,-4.266753169843052,-6.404833571141177
-0.2613625809191451,-2.314619183202177,-11.827583516092492,-5.757882418398151,-8.761877455556986,-14.797232075676858,-8.517415923479216,-7.3422103289564635
-5.47456847089632,-7.683057069589487,-22.79669509935937,-11.2948979260087,-15.903322556510453,-20.542368907598288,-10.456625850871934,-9.134994646683655
-9.124898332671831,-8.176978393835068,-28.56742377780222,-15.55677472883799,-19.201907670401912,-21.00031448999394,-9.656644235413351,-11.550946292858526
-10.783538032740937,-4.010904368897148,-27.730805246179067,-17.99078186200988,-17.786726755767532,-16.711612129071533,-6.730024240642264,-14.132062779546008
-10.619656955599133,3.1647445350590586,-21.017886507540876,-18.554562032501828,-12.304459952785203,-9.817942267102824,-2.837056769747498,-16.239874472833662
-9.130385423099403,11.066917355447798,-10.717858886155257,-17.51559865915022,-4.461449849300032,-2.776321587035102,1.0567073591873357,-17.119815943065916
-6.864759079940121,17.73717061784201,0.4010287437103087,-15.243998241872418,3.7536954876808983,2.8139606180850616,4.685687453239334,-16.077550118485817
-4.304180321304364,22.139295305470156,10.033747267225777,-12.136694613301202,10.729042798523624,6.645525609115486,8.435813025842421,-12.778968634903022
-1.8965809092655705,24.108477707471348,16.730627393520304,-8.6575469046004,15.501832015373541,9.306664540147457,12.803050170551828,-7.553434536176154
-0.10991717799310476,23.868160679110066,19.814816981682018,-5.37490556540293,17.695326636846236,11.475574114906602,17.748082057726,-1.5091951546473008
0.6234722623252146,21.65941725024221,19.21688572602453,-2.896231881534919,17.372904488540236,13.296870452397439,22.399804110379414,3.6789009530235015
0.07854147093070926,17.826970213506716,15.498407817852613,-1.6945204383080597,14.999024677611175,14.307838370974883,25.33146559912237,6.302120286750511
-1.5910880566905248,13.172179005720043,9.962789197614194,-1.9087841918284518,11.473451394645837,13.87225781942114,25.273022836018352,5.293082128630855
-3.8236567851393843,9.07893467747063,4.54108960933177,-3.2339201366234405,8.060275481716843,11.769876460487657,21.853912306180604,0.7476286165223082
-5.82147152017171,7.141967718096838,1.2919614333013283,-4.99060659572686,6.094434916760744,8.539816203685602,15.940807941491968,-5.995661409463328
-6.865561332041697,8.497082871283832,1.6775326671703208,-6.391072729440274,6.531156021685636,5.35761536590085,9.352705859528978,-12.831388301324619
-6.634932415810835,13.277619843849392,5.956505065971589,-6.907655049752331,9.536720078261785,3.497919883886711,4.0758266499522415,-17.7395568553679
-5.3829175814191075,20.465407402086235,12.972052803734739,-6.557148331592933,14.321367477715096,3.66123069635301,1.3772864813095829,-19.599143877082238
-3.8702300870058375,28.15098853455707,20.440371107871947,-5.911164762068384,19.3269683898061,5.539133944574903,1.2823484389363131,-18.54833476419951
-3.0453982304958784,34.12145279697927,25.693757083600072,-5.773348531855096,22.759885230217307,7.9081790082995065,2.6966041911478484,-15.735519431708934
-3.5863282805388206,36.66953536432275,26.683288577571346,-6.673307508015308,23.313192780871628,9.272529321451758,4.104956154900319,-12.651250182747708
-5.522490262412657,35.370052444033085,22.871699613352398,-8.474277439737616,20.77862436048473,8.72844384427987,4.445971142916921,-10.435684428253818
-8.160159879742961,31.3905133815853,15.568848290941563,-10.354334339766876,16.214697128280232,6.527835846018873,3.650695153330983,-9.503934120241055
-10.389054913435205,27.014431759941825,7.456906794894896,-11.204493344624861,11.517329737685438,3.958753530084153,2.543536518379263,-9.591985835149542
-11.226607397511703,24.539410133618066,1.4851639307998623,-10.231910018814407,8.572994209647865,2.5835494125013234,2.205533384009557,-10.081779478337872
-10.304239677212015,25.18355313564757,-0.31914515310124897,-7.429894589745639,8.431668711442764,3.295675108269391,3.2265537620179234,-10.367679942144076
-8.026617653895812,28.636570299167346,2.4369072652581463,-3.649584637597148,10.92012250140173,5.782890677112385,5.314598398765316,-10.091483585135588
-5.323781328913181,33.424227402857255,8.526440407818924,-0.22577701592515956,14.847439509337025,8.735932488547514,7.484670851334477,-9.199011232983871
-3.147853355126938,37.75626989680034,15.731544618763914,1.6509937400601735,18.6352880545634,10.675350473519194,8.685141711222416,-7.862773867884603
-2.0039597798970297,40.37135414169651,21.77220739911389,1.4850826056744015,21.02502734251536,10.8716656518963,8.452082175368256,-6.351105238249772
-1.7722670674055128,41.04114048994602,25.178824431850792,-0.34119254997172027,21.531427209723155,9.762189079276641,7.168826937424316,-4.920961650323616
-1.8953889403807256,40.59318326513969,25.79004005641794,-2.830571853530273,20.4784986924115,8.592360452054184,5.767430981651485,-3.7758160260373597
-1.7840670146578324,40.45415908422298,24.67962045232165,-4.898471000157866,18.672524636244592,8.532443348173558,5.08293253016022,-3.0733657698168497
-1.1749021664470445,41.88781452797592,23.55482905219339,-5.848893646958386,16.938622251263233,9.879985454011022,5.30612240337625,-2.92708013872958
-0.2325568222602644,45.306911538729416,23.93683582630072,-5.560434384047982,15.785376230579987,11.891879862949995,5.907396685355989,-3.3560696222880964
0.6236049408156613,50.06841067940195,26.533936268660955,-4.359398573965888,15.342525204123799,13.33900128480838,6.071459648099043,-4.197478543803604
1.0101363626871003,54.86431967947706,31.051788365457195,-2.7405334264774206,15.512864203405565,13.361076596228054,5.3211435186540506,-5.0609268947771255
0.7814772617599143,58.39305306345143,36.395066556122764,-1.1314298846340067,16.14058162521732,11.994282748867453,3.8745692117622434,-5.414136622314811
0.03539449816440636,59.840184150880326,41.05238644156198,0.19850265598990105,17.03745756414085,10.010508016788231,2.47792207663916,-4.813679674626715
-1.0344609189975635,58.95915671989358,43.50636345217658,1.1044287406034055,17.885973405863336,8.2484401317004,1.8475931017419742,-3.178472507025509
-2.3033783179781055,55.92127146955103,42.62636189283669,1.4902228818102317,18.183339205685847,7.000988449511354,2.1440129955191467,-0.9355746941120787
-3.7756673396274794,51.20605119631599,38.01767320704872,1.269648403316912,17.3672504949893,5.9397061935379405,2.8646832335549193,1.0917201078866705
-5.50311103154799,45.59397739938068,30.23271416380146,0.4059846948401319,15.10352996411958,4.592451731917777,3.2233680288855413,2.0468004752464783
-7.421640836872286,40.116875911146444,20.7295737862102,-0.9864307031637698,11.566390757642068,2.9461363114024155,2.730998732227753,1.4881229857634979
-9.227309845842624,35.85586420789222,11.544688027098864,-2.5609551451314285,7.518882904941114,1.6707710035368362,1.5666239401023325,-0.3262394503678747
-10.407059644562912,33.652127347459505,4.756634692682727,-3.78540459218566,4.102764682010562,1.7708034469490328,0.48848436319155314,-2.5093325234743387
-10.455713470557876,33.86672124383213,1.8817421461633381,-4.156473443459795,2.396887662407103,3.890823858931185,0.34574492760452763,-3.9749918436784655
-9.18156793562085,36.24443840957781,3.3677477713743116,-3.483029710051124,2.9269598097579683,7.733752014741078,1.5003663710898216,-4.010528035715693
-6.912172396261458,39.87900549291855,8.369848512683925,-2.0457650340916262,5.362135502057894,11.97605035664587,3.518599483304642,-2.6645913256800107
-4.439160543530648,43.3460109154037,14.967811508382967,-0.49460190526152564,8.583517379266093,14.773148898941987,5.331524787930022,-0.7107114201391235
-2.688664841517569,45.115837447302454,20.838180226257432,0.4786428033535874,11.145056551126704,14.61632527058827,5.79020218315474,0.8022388843167674
-2.2784741944162894,44.19238987525911,24.146829338777824,0.49887057310403726,11.926117402009803,11.10017740328897,4.309158933460498,1.1515894649557716
-3.2015767520218215,40.645902632695254,24.24357175885933,-0.30760675712664864,10.637728358283466,5.195926787282346,1.241123177682188,0.353150249634543
-4.80401556890303,35.65724544596619,21.81405101857684,-1.3820121988813283,7.91659941816952,-1.1094483428927968,-2.21399864603666,-0.8282886450153196
-6.060586464535051,31.008366429764614,18.463026639064545,-1.9876827961539125,4.991041824439451,-5.608674832187302,-4.503618846000002,-1.2528663018144472
-6.008183914701208,28.34876881873081,16.0147649636238,-1.5147590501730148,3.1393419938756866,-6.704439971994593,-4.369235287224026,0.035361642340197556
-4.146474718586531,28.64408374535691,15.8762765416061,0.2807680037621305,3.2119478040396383,-3.92354974523937,-1.367443864389318,3.3208888375234262
-0.6527038160011488,31.951701961509222,18.639353971635924,3.1705643969870234,5.369705387009249,2.018437365951688,3.9176166395806744,8.005935202450813
3.663009405999818,37.432092313150186,23.93125886731583,6.508650057730533,9.058855343928427,9.528861266452205,10.032285612463312,12.772664228030626
7.644701845426313,43.54414167543688,30.509797664643653,9.437442080789753,13.200801476750408,16.66357756742731,15.140477980867773,16.078854158499936
10.214334354635392,48.50632064688323,36.63940362421621,11.17951453935773,16.566835083397777,21.701266025962248,17.69049957759767,16.802148251364553
10.765008545179112,51.0011648438888,40.70699023479733,11.30039636803559,18.241218382172594,23.609060457972205,17.003186686566362,14.743361557091685
9.359445757949839,50.78107878273424,41.84737340768064,9.832496574239698,17.97658714252046,22.2579792702132,13.500322916275602,10.72057371815481
6.651323341517081,48.70144570987635,40.24534101370177,7.217778107889768,16.2419890211014,18.323385957032347,8.44179318578089,6.174778202296252
3.5695346274696833,46.03731336528188,36.91613394001774,4.11000981914879,13.917263795150825,12.94016203310115,3.3078270137922403,2.480832792657181
0.9060531911529529,43.499564609320295,33.06979002687756,1.1260109966169398,11.799666467010125,7.283717994665677,-0.838429304120891,0.33561512795237886
-1.0131302738282326,40.65055884747175,29.4256655810331,-1.3578460510891726,10.200754922818383,2.2424970855238904,-3.6890662495317756,-0.45253996782127043
-2.425620675073024,36.18994019777977,25.898588511530665,-3.2879663332198,8.857664610222773,-1.7331113297049998,-5.608761368376566,-0.6926371465686688
-3.9448897744012275,29.04815665848055,21.898543824837503,-4.867510883244896,7.21682607153914,-4.5946642342827015,-7.232873535580136,-1.2543697257011808
-6.168396327321051,19.729370769970824,17.130948259067726,-6.390012777409823,4.952670549760445,-6.5074678399015005,-8.979097794871215,-2.5643697313930667
-9.282292281247598,11.05706355547922,12.380527022177269,-8.077857458012632,2.4175216243146824,-7.601069693559598,-10.725761353043152,-4.428792923880174
-12.890567354453834,7.487860736522986,9.550904122961882,-10.010402282927728,0.6598881535219389,-7.812473482364023,-11.837310006938798,-6.235067169794551
-16.188649625693753,12.674486038024847,10.509723194572038,-12.134303220833122,0.8079386383469229,-6.968863530494205,-11.562500662007201,-7.3545780580129705
-18.401719959725778,26.06830399742393,15.108902187366542,-14.275556043060256,3.016559379117982,-5.117766393821707,-9.627183542565797,-7.4779113015042435
-19.234362727849177,40.56616841554356,19.658342983235364,-16.10104979605614,5.619182823514997,-2.9002665914936054,-6.683337975361324,-6.708312497032319
-19.049223587515716,43.47993261244884,17.351016086045757,-17.081097453497847,5.2464523403886325,-1.6379027755012199,-4.277189751954496,-5.420698778457363
-18.644675406799248,21.674109726353688,1.1990252383874962,-16.57165003883459,-1.766107617405035,-2.905347233515976,-4.220279225586229,-4.023859983543504
-18.754934658199865,-30.960902359663947,-31.665907772355943,-14.083577515711722,-17.200410515468743,-7.6820946917242345,-7.609846567718704,-2.7784509193341496
-19.587350154111093,-107.74961287469822,-76.80372678581436,-9.65678513873981,-39.227000417706854,-15.531143335359452,-14.034367969105329,-1.751734211699455
-20.693481921587612,-189.18220391719498,-122.70745393163645,-4.108759034703089,-62.33393189388204,-24.3706167710393,-21.48632062654011,-0.8935830899803758
-21.235998620627473,-249.77404410075792,-154.97479142090464,1.098514847524901,-79.26454810324564,-31.12860917419679,-27.12978284790834,-0.14888617679206617
-20.438603195419976,-268.9566268071096,-162.49626347281043,4.452139219951339,-84.09762254497585,-33.03249762533862,-28.551490920957455,0.4847040643064952
-17.919520182254356,-240.39235330061086,-142.38855806122825,5.191879312753111,-74.8524788288172,-28.85789189421095,-24.82487395858075,0.9823069245418136
-13.767439456261773,-174.70895292495345,-101.09477009169893,3.8211030395523413,-54.263807066108804,-19.47551328082318,-16.85397208774482,1.348085755180939
-8.4404429630358,-94.34311818089543,-51.319115034426886,1.9122089680790881,-28.452828101008944,-7.46648887657749,-6.911828422247085,1.6285467705089716
-2.635770915510321,-23.540314119883803,-6.684563147030273,1.2421377621409802,-4.352120859843434,3.9126531832060736,2.2972181855592173,1.8708536369544846
2.82233825578589,21.17881390859471,23.148012141852107,2.775353171555237,12.777932388841677,11.879123306292232,8.58240060005054,2.0863869734899905
7.130200373708685,35.702393130576915,34.889392588321684,6.134001509270042,20.711849630599538,14.923463001245262,10.868996147133867,2.2761380793960493
9.720083127627264,26.896950162446817,31.11846153306054,9.864659531081326,20.21694385493804,13.051243929452893,9.331142398232904,2.50150340985607
10.47843960996935,7.039456631199545,17.850675944333858,12.296174279499326,14.019393041923125,7.524263820576949,5.127316835969458,2.928432823643624
9.844657961571432,-12.337703693632449,1.7498392518752666,12.450454435564884,5.495694585572955,0.3237760929127519,-0.07411958261858208,3.7913044834835468
8.704745075596602,-24.30388614957054,-11.837915719616008,10.500587181174389,-2.3519325962228392,-6.426782280094104,-4.587347365551543,5.2854549960419455
8.09318830813228,-27.2375652041245,-19.736342808577675,7.586639369460171,-7.472998041124349,-10.947554424743254,-7.108829194699304,7.44079983871131
8.81262180462801,-23.344224096044087,-21.031483654773943,5.1645093192391265,-9.018077517361434,-12.177004756251026,-6.999091616467239,10.029257529685097
11.12544254031621,-16.49755863458348,-16.796145958849802,4.269605540053429,-7.375140915471603,-10.02803879222487,-4.43743663307507,12.54014099549341
14.648302202414213,-10.407427695297867,-9.532686736498045,5.060893066715772,-3.957426447198826,-5.443303983753561,-0.3984712260351002,14.250996358056653
18.503272622344753,-7.451468962679476,-2.2797255652211343,6.837192546141348,-0.6744734687846042,-0.1352130162196597,3.6163082575622836,14.421229923058307
21.676030176199127,-8.23596898780547,2.4663869233774944,8.486817131918887,0.8100625127969489,3.994412105196036,6.080734016214023,12.600408286587767
23.43469698973693,-11.890025346039485,3.592480824023964,9.12377335205547,-0.27579167528710263,5.560256832441516,6.022767421001149,8.947755254091133
23.617014611836936,-16.88466146823129,1.5668528420678145,8.558664705379531,-3.5874004690037435,4.200739394310808,3.415975664043591,4.3603919864400575
22.64139387584498,-21.89070908090641,-2.072519049062097,7.331240486291301,-7.967568477443775,0.6232255646161977,-0.841761415846295,0.22644471389357515
21.23627147346039,-26.228097105815856,-5.634351368764437,6.2931853824943165,-12.104082927258736,-3.8465208530405977,-5.390485289570523,-2.1811381043361466
20.037507630686513,-29.863928009624672,-8.139623458268275,6.022290662789222,-15.201283870283463,-7.978954557824897,-9.086900403647517,-2.3780060750546044
19.274409647972877,-33.24313577348823,-9.763232229931045,6.455715830880478,-17.34039420304366,-11.233801723673857,-11.526594294817157,-0.9872742043435503
18.704162142877156,-37.1258305378756,-11.667940171148539,6.962135609610547,-19.351293130902036,-13.896941508272016,-13.106417662247697,0.5524529762428317
17.80420807605256,-42.29985719742452,-15.287703942982802,6.763983498307242,-22.247712203503845,-16.684048262452922,-14.599340611946415,0.7643887057550937
16.091517005615547,-49.05415793448401,-21.398324944586506,5.411583125629228,-26.523113689485562,-20.071945309458084,-16.53318010475295,-1.05816210818577
13.392386774991378,-56.688114313154884,-29.49971287672412,3.0349883561382884,-31.727723379071097,-23.811079684045534,-18.796122873018774,-4.492943977147341
9.947899219720506,-63.55799115596189,-37.91139581470509,0.28736793492958423,-36.60787970800151,-26.95264558245708,-20.718794367470295,-8.261263343776475
6.342837282204558,-67.8255998379532,-44.545487744977635,-1.928491442187254,-39.730188731315735,-28.360765243684043,-21.532150279191725,-10.91698895826437
3.31273357672162,-68.49207439250607,-47.897419457754026,-2.7968499721690265,-40.20171800409934,-27.35392054172214,-20.85268230152531,-11.522579444546725
1.4967588466227373,-66.10414576138801,-47.73518217668552,-1.8632897452499684,-38.08488914974809,-24.075975304485194,-18.88213476576668,-9.963870772984441
1.2031509051796683,-62.82635756385682,-45.24206738595977,0.8307076764849366,-34.35919911216318,-19.42784381580749,-16.256998839148643,-6.8249647684917285
