FZ,C3,CZ,C4,PZ,PO7,OZ,PO8
-10.081707274589522,4.621388453788979,-15.7509195072075,-14.197919906402738,-3.7607888510377623,-3.44523196551737,-5.470148897235078,4.052191505979687
-11.88887869795977,-13.432994134277704,-29.174656455520903,-14.687388942327345,-12.622464926064637,-7.6629189126734,-9.041044781096375,1.7875605506566672
-13.448878974308528,-28.479724490123,-40.28459768485867,-15.09165242302288,-20.020886412245677,-11.240565648820052,-11.991992800376238,-0.38810684695217784
-14.62565241668694,-38.80620257657277,-47.77681455671127,-15.369733085671188,-25.126399164540736,-13.811808344188595,-13.973728588262517,-2.412810829700558
-15.434404556163262,-44.492988868927476,-51.73811080976797,-15.536939112332178,-27.984925173938144,-15.392556049651349,-15.009377071027611,-4.2805438919953405
-15.99938702805221,-47.039077097752084,-53.33058343144365,-15.637923020722042,-29.32805802586699,-16.297367085119593,-15.410359282242132,-6.0177450225702405
-16.474204850910855,-48.42421353873291,-54.064627501540684,-15.71711661150507,-30.115167476961858,-16.940592341754275,-15.581653235170974,-7.656366098872054
-16.98122670951418,-50.25458390465892,-55.162977073100066,-15.808831435765473,-31.123639316027933,-17.661621169842405,-15.850906213689932,-9.231942397783538
-17.5912667642683,-53.4229192319448,-57.30994366354305,-15.937132384375941,-32.786790792673656,-18.659482636858403,-16.40091083984475,-10.80331135657846
-18.326936909504397,-58.21564028437087,-60.71003702546856,-16.107705219333283,-35.239945959322476,-20.014682757987725,-17.285726470928797,-12.463939859916753
-19.16853232772713,-64.4930276367256,-65.20121347611614,-16.29765865206989,-38.40137581032268,-21.71805763128652,-18.461788274407134,-14.318825988301587
-20.060666937855945,-71.70293210193209,-70.29114971094408,-16.465579615562522,-41.985674502879974,-23.661903479559886,-19.797806945596257,-16.42843233756197
-20.92809159161283,-78.84157647897324,-75.20044837411524,-16.58433364914444,-45.503835770948875,-25.623514827449203,-21.085705963551142,-18.746978885194252
-21.69955008875345,-84.63340260479728,-79.05050041926549,-16.667081697750206,-48.36314429353858,-27.301295128594134,-22.0902838627376,-21.092952930580626
-22.3297333611443,-88.02886354916248,-81.20841875540006,-16.758087625601203,-50.09826239819157,-28.426807188007615,-22.64166386445807,-23.187002862360284
-22.816829338195657,-88.84193920030874,-81.6684359185696,-16.897017794439062,-50.652028630838814,-28.919186546797796,-22.7379101690723,-24.774820020755246
-23.221162570376354,-88.21538392198848,-81.30771309243458,-17.092305785606023,-50.575807829971055,-29.014622807932238,-22.61353656636031,-25.809082034448657
-23.67667321457488,-88.60896935108438,-81.84304853430054,-17.32242753338834,-51.01727895215346,-29.290625712784294,-22.727339952913425,-26.600275048162118
-24.363302185583137,-93.05699531034212,-85.30119253890481,-17.54912124891015,-53.37294080664363,-30.505106551424856,-23.62036964465701,-27.805326273030563
-25.414857380587186,-103.62565649738745,-92.93985140023429,-17.722366701616814,-58.567072505985706,-33.21911776158004,-25.628033156741257,-30.16401325821831
-26.788809834218725,-119.49557891149757,-103.94598472571408,-17.785687088353882,-66.16256669976116,-37.30651245922303,-28.533554039381873,-34.02895663675374
-28.180099993720408,-135.74148907134168,-114.69810655582462,-17.703187563203606,-73.81504848698793,-41.620075810188084,-31.372839710949123,-38.899274565489165
-29.05986362060028,-144.06493483110435,-119.43026570615147,-17.49725732536937,-77.64843831752623,-44.129515622388,-32.61559163578284,-43.2497709991996
-28.849416421707755,-135.9205259681263,-112.47697469598637,-17.247468997122006,-73.72613176259743,-42.652337290053794,-30.7721836050618,-44.867335137820454
-27.151666492868824,-106.90068861125474,-91.2035029735403,-17.01969468884498,-60.062433048929115,-35.92521707596417,-25.186473322699843,-41.67179658661219
-23.92221122017804,-59.973917288463056,-57.997228247164784,-16.770001383278384,-38.06650318032393,-24.45314532581895,-16.57504560145406,-32.71098253329157
-19.49542577218506,-5.32982891510139,-19.963509693659326,-16.32446085423254,-12.42516445156486,-10.581842001331927,-6.93999204823035,-18.8391600468426
-14.461177753328046,43.594501922595526,13.766214817983647,-15.49919122717706,10.721569635631033,2.3664096043792395,1.1802881855633265,-2.659474262873176
-9.460953072319045,75.87905403849302,35.709687972206034,-14.298944010773717,26.369591206271608,11.483387698254555,5.748806298353271,12.347099302389932
-4.985757581068631,87.33921482533357,42.668033890521905,-13.008135780561501,32.52696216533668,15.431427443582288,5.996978620727069,23.14858704671326
-1.2110804266748008,80.91599841933908,36.139377836715276,-11.995424708352528,30.420523312216368,14.769220391641367,2.5659202370106375,28.333210662467888
2.1278231595291173,63.74515626283425,20.98109557150805,-11.264033567518737,23.300806289677823,11.42555728775845,-2.8930120751336332,28.591750456351686
5.765486548707553,43.60498291186974,3.731367633705524,-10.080442036515736,14.984908975889711,7.808502597243844,-8.285771171479665,26.310118689585213
10.716206827289847,27.097884710706293,-8.583273659779955,-7.106083659687703,9.029380213620826,6.070983096351336,-11.538817557069775,24.46709470013777
17.809076920531606,19.58522891106361,-9.561531061578904,-1.1374128625971829,8.439708965326584,7.691543410819664,-10.986086165474418,25.33220729159578
27.124994983573263,25.12211711366473,4.839787416563621,7.9726922751624905,15.237865047828125,13.223961878882179,-5.8141925318375645,29.551474728553092
37.70025147731689,45.19754904147905,34.30173889979168,18.89452968477432,29.630389414745903,22.11773771289433,3.5141072962694566,36.028389980500414
47.77247908018076,77.08718490528322,73.32096151782724,29.27943863550394,49.36650983259753,32.74811323007833,15.183610619964933,42.60853972221192
55.500520424550174,113.72407567207362,112.76658658699444,36.84756266534795,70.11992873207016,42.85059633236894,26.550153666073413,47.168622917576414
59.763078935345135,146.03329368547728,143.44893315346383,40.430912772316,87.05836603860948,50.312084150431055,35.12889130738707,48.53833061294408
60.58882723906031,166.68862808143314,159.83770932671084,40.3738732518663,96.82863930402269,53.96420989524806,39.55188164123041,46.83828400493808
59.013384529379856,173.0764868301747,161.89237227659115,38.14859669615789,98.82002264088977,53.95380411671177,39.98064264371806,43.17561798524064
56.50313218379952,167.7759334353472,154.17639857227434,35.51402112955952,95.0333460932978,51.50134586504414,37.791362598204735,38.97005315824127
54.302057022728064,156.52407017900697,143.0612063742507,33.73788646099889,88.76907102743583,48.22064319899022,34.778134944020486,35.31026101789218
53.03338037247619,145.13907803270888,133.7634576764435,33.25018601672197,83.00286779652563,45.40401050274206,32.35139016149083,32.63217440223187
52.678812814753144,137.20992154641,128.698505575056,33.7690744560143,79.33340076782974,43.63229587881375,31.120294710656378,30.775239640064317
52.83031839753819,133.48769948085555,127.55174749785198,34.68259239565125,77.85534415032171,42.81132244124787,30.947873652336806,29.27091830147607
53.0080240256886,132.68600850653814,128.45168450231543,35.422455025492866,77.70389930638359,42.47703725332998,31.294799862218298,27.655512960926554
52.88593549894087,132.7707199194849,129.31523276176677,35.68149555202965,77.76784645171,42.12861085251188,31.59207899924537,25.6662852485368
52.37539052282975,132.01473173396215,128.76567198610456,35.4578506427266,77.2166433849108,41.44118059331161,31.482430547469207,23.286695964976044
51.59043409829182,129.58273445348766,126.47842064102261,34.96973285566284,75.74530456435052,40.33793323526732,30.899855748445617,20.677318022322613
50.74166065095076,125.6561228024031,123.03341077961937,34.49854798061761,73.56496642739442,38.955078427704954,30.01775165992919,18.052446712320776
50.01145400082862,121.12177156360968,119.4178819650432,34.23390327118958,71.18391839648939,37.53093357500098,29.109122108351787,15.564223232043624
49.469585558259574,116.95241267399535,116.42494140724618,34.19981509778645,69.07791462679869,36.26338613361283,28.38488529361566,13.245877515848237
49.069859998446894,113.63637339323613,114.28105445721273,34.294974705500344,67.43615142985513,35.21142893055268,27.897571276254844,11.032879319553032
48.71528149382806,111.03947308469573,112.70463812721978,34.39676542512856,66.1418504680093,34.30179298600242,27.562311694961828,8.83223172497859
48.33120923279192,108.7283649897496,111.26512440468393,34.43753962594558,64.95946550206453,33.420841133763965,27.25777322355891,6.5828175347200935
47.89291256140936,106.38057522254076,109.69342545237329,34.40794692673594,63.73053469958571,32.50152859989368,26.91132716022808,4.270532331102278
47.40810196755215,103.90917698970831,107.92731372307202,34.32179561061815,62.41784516701373,31.537139155624853,26.50981159650738,1.9088064981154604
46.89445176701928,101.31937980465632,105.99093916505446,34.19898298649215,61.031246269440096,30.54172567291464,26.064212949399366,-0.481656889036598
46.37662322655515,98.5971652054605,103.930751416347,34.07358148712651,59.5792922840315,29.524818463608053,25.590407687820804,-2.8785734648936687
45.887502699795036,95.77998793352826,101.85423879271082,33.98974397562414,58.10029851519098,28.504512925437428,25.11922309546163,-5.26105466753126
45.45167659348903,93.03533026018621,99.9262608530797,33.969577904808325,56.684030959107176,27.51801458214473,24.69550856907462,-7.620416902404391
45.06178357327529,90.54618646634361,98.24350928579335,33.98853250426967,55.40627457251129,26.59407787787624,24.343687058399475,-9.967421417456954
44.679498544904575,88.30415328723097,96.72181196283184,33.9961092949228,54.241048948891006,25.716066521159753,24.036848512876496,-12.32014294471825
44.26785524960124,86.09523561024484,95.16623933489603,33.96402951500526,53.07599581130144,24.831135320602648,23.7169225759858,-14.681161055682589
43.822048897465024,83.74058476530222,93.47360552177209,33.90628271416824,51.83431693051693,23.90586361935654,23.352526267775616,-17.032279710626355
43.366492430180756,81.31013706568676,91.73421468406497,33.85061062619846,50.56135572799181,22.964253789201944,22.969497921194126,-19.357834464867107
42.92753710082053,79.03957437218924,90.1146958797649,33.80364450510993,49.36903066808273,22.06104176705148,22.619837198227533,-21.6716688963763
42.517994726322314,77.05357445373039,88.67469354005216,33.75660275884632,48.30867548570805,21.22309039114027,22.329720944536238,-24.01461820889155
42.145872022028875,75.23841247529622,87.33767323164027,33.71814958217709,47.32759556556581,20.42866370300201,22.087154935839173,-26.42151281092477
41.820739460676776,73.39550815422409,86.01555507002033,33.719495021458144,46.34559622661282,19.64031993371864,21.870491250984376,-28.889730576708462
41.53460196636865,71.43999363990972,84.68746595837173,33.77405660411232,45.331579249747094,18.838079590445435,21.665361057376263,-31.375810640304834
41.23826609630526,69.38894761589803,83.32986888111188,33.84127634162719,44.2817309389057,18.010627438806363,21.44521015534656,-33.81511700170469
40.85665269198682,67.22427787547166,81.84351040301651,33.8483146785242,43.16281263576301,17.13452912108494,21.15845698103091,-36.14594601375457
40.348966876232645,64.91457747082158,80.15438224537168,33.75457932665402,41.94723956152048,16.196784346653764,20.770577288325484,-38.33568414316174
39.76345137055466,62.62992856040232,78.41044062790215,33.59148443174372,40.72678573301555,15.250260632472008,20.333295524925383,-40.41648840715269
39.23120358986338,60.82221039519573,76.99837719754757,33.44096516428565,39.737892695087496,14.422605321231888,19.994462417189368,-42.513461747301825
38.896566556443396,59.910049595535206,76.26323594526784,33.38576219536843,39.19453551082316,13.831133566730696,19.907709036220126,-44.81873712736112
38.830816072410656,59.78533244514343,76.15973797177583,33.478992601449164,39.052886263365444,13.463323541934388,20.10528576596252,-47.484724883674964
38.974045089655874,59.65534778453741,76.17069116088597,33.729978947623046,38.94397040086483,13.13586533318517,20.43906892374423,-50.48217011505632
39.1226530480491,58.45561702770663,75.57062934404054,34.073949417120765,38.36232933189446,12.579188936537403,20.632681399118038,-53.52772674337954
38.97601508362883,55.536978782527605,73.82142810378552,34.3404733996786,36.97039454628989,11.589469010564612,20.40672937838291,-56.16667971648534
38.26638773619458,51.151645116265854,70.88255303249541,34.29433475780221,34.82565009314145,10.160079269518205,19.624571729976307,-58.00665890035715
36.961123647222124,46.53081166260298,67.38915420875419,33.7884902414347,32.45643432877786,8.547647175307596,18.428345367914563,-59.002788764730475
35.43330248797819,43.591458665743104,64.6593634373195,32.94747865037896,30.7813875370404,7.249823289435509,17.31049189680626,-59.64501021448191
34.432142367168304,44.24092204511202,64.3218194421492,32.219801186579936,30.803704456888383,6.843913057888016,17.007232985290493,-60.90216854737079
34.751204347073866,49.20637167491408,67.39073468188694,32.19980509520687,33.01506149178817,7.653551489482353,18.13047341730196,-63.83791348934557
36.68399835179936,56.742677497983486,73.08690373333664,33.27447070745114,36.69758170106867,9.352035266244135,20.639512690886306,-68.953007201148
39.54146402826279,62.1961092147854,78.23110392430543,35.26372100290823,39.63292512141728,10.778602634253335,23.46843767169205,-75.51463264779139
41.54396404922896,59.361033676346175,77.97075446851652,37.230070911769694,38.69495568725092,10.231255035170253,24.648814368866805,-81.29007792075821
40.257157033898054,43.46122490109272,67.78812263844175,37.57902619909269,31.263113502057973,6.22861412975716,22.018321967099734,-83.03464280690329
33.48665549084337,14.163242147175731,45.780005035994776,34.499027710616986,16.72343304242133,-1.6208556188312826,14.239264465710443,-77.72080072435426
20.28972737501292,-23.42781676440715,13.878183039489043,26.668959759118113,-2.8985946925121033,-12.158630003938232,1.6188934079139488,-64.00183374501641
1.6224205936719376,-60.75777483541695,-22.748123648589587,13.979181771035915,-23.66880012944123,-22.958317079314323,-13.7253104401808,-43.11886401440321
-19.76525512629937,-89.82799257340777,-57.7978850754861,-2.115136788099902,-41.48683836260775,-31.269167416836865,-28.50365063288206,-18.659517931623693
-40.22134688574336,-106.82634479880042,-86.25810134740185,-18.895063768353843,-53.82950514792772,-35.151990933479425,-39.436551793384034,4.784728156813273
-56.476593784345646,-113.16997490002166,-105.82448440681068,-33.29511258258651,-60.48545456609709,-34.227453200809535,-44.443268243276044,23.342097116049057
-66.71720932426716,-113.51542412102468,-116.78168825784677,-43.04449060358416,-62.98099654049163,-29.704814253539215,-43.32199921084484,35.034229193226466
-70.99287674784908,-112.3987820067151,-120.88674533452803,-47.48745069961109,-63.300870499800745,-23.784870494063046,-37.694230175873464,39.8958967440137
-70.87690484433409,-111.91718212438865,-120.27410778345511,-47.676650005905714,-62.86724184347937,-18.808886748438077,-30.310912671886552,39.26253840010724
-68.63396700186038,-111.681932896916,-116.94679406650873,-45.70411809471784,-62.29796568765619,-16.500640441111976,-24.009083931304097,34.89724919310438
-66.31272351964675,-110.38973929152138,-112.69568825950971,-43.65226192695898,-61.74622142009908,-17.479965451794996,-20.691250125091827,28.497682142204514
-65.1373320342782,-107.49883268313381,-109.08019806535364,-42.743401860129865,-61.32765017271489,-21.13743574687429,-20.72831408633573,21.62938312550937
-65.35902800652357,-104.03095220254858,-107.35987119538497,-43.07630659254932,-61.353837080527384,-25.936477047343697,-23.066979474813998,15.765785239664718
-66.46856399115048,-102.35560545200254,-108.38502657899582,-43.91501960295211,-62.33644909344158,-30.07515108392043,-25.97146965138708,12.154606067175303
-67.54275705773313,-105.05125229114026,-112.28496126278613,-44.21000178276907,-64.7169219491123,-32.194568259230415,-27.92951883506942,11.524967855602206
-67.57935964366148,-112.966125820158,-117.84144180361108,-43.08417706336746,-68.27403399941798,-31.725360311180605,-28.16373279712243,13.85502909197876
-65.82664732434456,-123.19485899239577,-121.97581804778798,-40.22442437118249,-71.47218259481609,-28.713987147235553,-26.543849898110377,18.374022705688443
-62.128463308266824,-128.5200195902522,-120.21864329917268,-36.1704163656526,-71.38901307014585,-23.389318521297483,-23.185104268875047,23.798371672790186
-57.15809572943515,-119.65628516835109,-108.57149015816375,-32.34987738317058,-64.7187016224759,-15.913213572707392,-18.190004068395247,28.693642515260535
-52.312719989660856,-89.86049410343001,-85.94723939858785,-30.648906040524206,-49.56304714150699,-6.525589174485659,-11.728691925672669,31.856619069600242
-49.176270295751245,-39.396495354577816,-55.526872019953565,-32.54511597952114,-26.937378668960132,4.112072002448764,-4.273285898390443,32.63581262410528
-48.76576124759015,23.10417554246465,-23.84735940453073,-38.21868092903562,-0.9067713165441496,14.757234405363498,3.3206521116464267,31.099012229058264
-50.985461948209654,83.55440854836704,2.0336816492412373,-46.213824060115236,22.875793082257278,23.817573573665896,9.998688323968398,27.960047727707607
-54.630385216928005,128.04837365048056,17.584365127545308,-53.95220444689338,39.40247057722717,29.841936814540897,14.80442601883661,24.25491015903843
-57.957897183446036,148.04819919659704,22.195587143471144,-58.87578576572357,46.03355411896993,31.94458057710997,17.052721340842673,20.891248306757777
-59.50892668216778,142.49138307697618,18.234646433647118,-59.594045499710155,42.86988854498155,29.926112350673364,16.300421881990776,18.294710351648245
-58.72345533328408,116.35768145480924,8.689624961701432,-56.40069681552322,31.89414246858762,24.12447172986768,12.270583488556243,16.350888296569327
-56.037147704834815,77.35922023877582,-4.765395483090942,-50.90970164140074,15.740745492015133,15.228543187916099,4.958128064337333,14.676302222570646
-52.47193965587281,33.02401303464793,-21.95966102019338,-45.08747864015568,-3.056609971304562,4.237708916734352,-5.050168916481078,13.037275529568223
-49.028415067072864,-10.596405009798726,-42.81553521193939,-40.289124000584735,-22.13409841437222,-7.478182814557939,-16.305688006138617,11.625087692668417
-46.25916128467175,-48.880340067169534,-65.71317649457981,-36.83986609987042,-39.116217601364184,-18.22534791436588,-26.636221168876574,10.986016324923543
-44.21931254672332,-78.30094710015636,-87.07291793442366,-34.30260151524198,-51.72860957321295,-26.283623918298822,-33.80639675001212,11.645814701433702
-42.70324160799107,-96.58980144265936,-102.58962955985828,-32.113839327544,-58.362566719603066,-30.392786936944464,-36.41462546402139,13.693226265000746
-41.50163541494256,-103.38754343244139,-109.30447168884152,-30.068012775262197,-58.75869439493515,-30.196443736362067,-34.50890952368097,16.632112808122702
-40.47635329848861,-100.68537571063273,-107.09924838070896,-28.331597868345227,-54.263541044463885,-26.39128966562869,-29.527060988638045,19.629487812199777
-39.48153968063026,-92.32127503169913,-98.65087351932931,-27.110409918857094,-47.34310232309806,-20.4711095712713,-23.57782507848441,21.9944121135366
-38.33036395387425,-82.53543445934504,-88.02970827112149,-26.381735906619802,-40.57771970717161,-14.191475556303187,-18.50169798521851,23.541496873083773
-36.9332901113385,-74.48414809527718,-79.00992478671972,-25.96461231269779,-35.77084647946742,-9.046860686644786,-15.266489750106246,24.57918153088601
-35.48518903500079,-69.68075835745157,-74.0425171718057,-25.793187919723305,-33.66581467395765,-5.990251522956473,-13.959674914355157,25.55501792492857
-34.43922062704208,-68.41115665991086,-73.99602472592257,-26.027935096068752,-34.19482863792009,-5.3908150409559745,-14.186397306432934,26.643922315754985
-34.167994304200775,-70.2905808763302,-78.20299828918918,-26.832071204926677,-36.79161507252714,-7.0732820806370675,-15.465977013437822,27.57802367471661
-34.53783354690458,-74.31552593299187,-84.60400352996619,-28.023412749003416,-40.49250300930006,-10.369676943769246,-17.3891260045991,27.80792216904829
-34.77152903178366,-78.71409044691585,-90.29863156694984,-28.96212341494147,-44.024682806232306,-14.283919054319536,-19.60916968893468,26.849241065956384
-33.78085028273198,-81.33884380982701,-92.72066522878211,-28.82139362629997,-46.19351643541567,-17.851125247053172,-21.85211992354438,24.5768310605334
-30.79049963365368,-80.69814278076579,-90.95283920061752,-27.066316474695405,-46.479846102668034,-20.549671100165618,-23.98664499061243,21.303025411440597
-25.866380659109222,-76.84747236507955,-86.27982238958107,-23.833229596562216,-45.37394108931195,-22.474998441486097,-26.041967534246307,17.62415815136629
-20.03584396544823,-71.40027106718073,-81.55084956327097,-19.992065660152363,-44.120934252462035,-24.127721036813828,-28.10395680237301,14.145494183300674
-14.925231142661033,-66.77288160212247,-79.79830217727427,-16.83415843059348,-44.064529438210336,-25.9751923569284,-30.170014491077833,11.25183993784537
-12.062675765370592,-65.30819784928232,-82.89753548174653,-15.47049735510846,-46.03820350462232,-28.095204201427855,-32.07720545464937,9.061444104931969
-12.13500409814452,-68.53659629086482,-90.669077047166,-16.17896357108585,-50.018644157012574,-30.077235466574926,-33.49736327740014,7.584285031449917
-14.546719243434666,-76.29359790121944,-100.4308192882296,-18.06887784591822,-54.93573556954478,-31.133645620810395,-33.91131543882106,6.9534430910354885
-17.559572174900325,-85.72566614311802,-107.16243938585733,-19.36993348012785,-58.60069005030768,-30.30527172603686,-32.5727491590039,7.518837693455639
-19.037225317729465,-91.11501185253083,-104.74894029931183,-18.3086906205061,-58.039004490926345,-26.73442597950476,-28.623072802061458,9.674590821857265
-17.465038104640193,-85.60374225097534,-88.42209909145885,-14.105775673668907,-50.52416439664671,-20.023384634208544,-21.479256763313245,13.50116919436317
-12.699707798511572,-64.61516613421247,-57.48114161973959,-7.473586681282811,-35.06244968370682,-10.58741634999881,-11.35440903303525,18.48177532318907
-6.022158344762359,-29.064212764591534,-16.61527399851004,-0.2854792120455818,-13.455674171307558,0.2261348093988575,0.46239653765662153,23.54065591718982
0.5305890647752998,13.975196052389935,25.384254642964,5.383094026378646,9.940470592549183,10.447627304618628,11.87891899948056,27.439098937060116
5.160485251240399,54.01811914035501,59.17810869537202,8.259830847643025,29.889097740877023,18.17863960654056,20.785593310447236,29.31079383842196
7.074159912756429,81.92865162109676,78.83721666052317,8.358601593719612,42.53177571177734,22.34625686521014,25.9421577479754,29.015890998272894
6.644807204893715,93.91325099427365,84.00887026503193,6.737134175652163,46.94853866948759,23.09923336814184,27.449088821867804,27.115521933673605
4.9843909325100935,92.48532345154852,79.20779009538344,4.7814403355022135,45.15836597218817,21.61215356294312,26.539809846615533,24.517831108468272
3.271567701857452,84.16004462258194,70.93507490468433,3.5081393123007407,40.70076565032396,19.42639445011001,24.861878157209443,22.037180898923097
2.244379043450646,75.6830004672556,64.52183811483671,3.2574837389141726,36.78984034536386,17.739945728148633,23.712687690727297,20.112980126766942
2.0620157497581655,71.17521337606514,62.3958537991129,3.8109953448549225,35.12146058892417,17.040978872894094,23.644483343277948,18.78084265316596
2.4669971670350477,71.42912663472553,64.20506750925345,4.704919946469012,35.759462031336774,17.187066538315666,24.530844376134233,17.820696656507053
3.0491905050754817,74.91031363322874,68.04332564691101,5.501725318975361,37.75860354041817,17.729877151915424,25.88828635626835,16.94587890868064
3.4620712481978666,79.24890635710287,71.76718873471856,5.936869730030525,39.91849425691115,18.219109980390936,27.195851845980492,15.942885152764653
3.5436951883505348,82.4134622759453,73.89338456944918,5.9688224023109555,41.322574991738755,18.369565487582847,28.099654128242523,14.736553021286984
3.3392142001217193,83.43399876678585,74.0391627143206,5.751740598497509,41.631644099758006,18.121546218815293,28.512398353134603,13.382642774964745
3.025512928251455,82.67964618265397,72.91584508057446,5.524497064865108,41.14649164103995,17.629643167523795,28.615596104571864,11.99903854821093
2.7722909310247688,81.51909454337097,71.82730207344376,5.458730795806162,40.580917247165395,17.162070216500783,28.741149809258452,10.673396768731386
2.629914629690547,81.37226305798353,71.84762307515999,5.571885446318109,40.59014317675163,16.924129195283573,29.164555112072186,9.410633482522718
2.529747982500231,82.71294617808735,73.17800247998592,5.772644370547343,41.33746715036451,16.916313816364504,29.93677315122784,8.160663481964418
2.3882723134982404,84.78525228220455,75.12433461356618,5.9794270567218275,42.42239760896797,16.949209430774058,30.87519687305248,6.897500040207867
2.2106266426673495,86.23763182463593,76.6389972112239,6.184005584101003,43.20597911855396,16.807169873718454,31.703133488098377,5.672035488332723
2.0973681807345614,86.10471328494499,76.95687589375714,6.408893841889283,43.246330856090864,16.41682903100086,32.21432400229107,4.5863259408211166
2.1581729686292475,84.4147433615453,75.95305807544639,6.634472418349581,42.54597007108463,15.89093940539744,32.36507738274145,3.709767259016165
2.414038345677167,82.21099445356145,74.22559062459884,6.793858544263346,41.560280788744734,15.452443408001201,32.29971478090309,3.002514674055232
2.754292299478176,81.20212042714545,73.01683163703085,6.835302294786659,41.06767635584492,15.32682522029923,32.34260729737849,2.2965355170001853
2.9567465612130754,83.13689145452395,73.85247913620658,6.770917739086718,41.904870091370036,15.64462089018032,32.918031758772486,1.3466674750250462
2.7622949212827077,88.78387392536737,77.7012678931174,6.666173175008196,44.48432778012874,16.33244027295375,34.329875080352004,-0.05571510089889775
2.0121372041292407,96.73553325213739,83.88944597775917,6.608816087998254,48.21029212221935,17.016881120896482,36.45131939342144,-1.9277626480855041
0.8275882232242185,102.929670171674,89.55262536960448,6.700294512484443,51.23302304068758,17.063282215143413,38.536253317743686,-3.9611980753205955
-0.27585347471814325,101.8192223444776,90.3480682704983,7.036356659498146,50.97050299314286,15.841679595835005,39.36331788661092,-5.517941176070635
-0.4917866771698718,89.05648010726794,82.3318605291498,7.616125990210211,45.318802637709545,13.111431526187483,37.70835883520501,-5.840191478672844
0.9114097898420798,64.19177433855495,64.00166143201619,8.211661905172111,33.87170052342026,9.235560115891358,32.89253979558759,-4.4308742870159135
4.127334352196574,31.536894867658035,37.30346592565327,8.337687057927448,18.34610015592451,4.999946365908942,25.09127981314254,-1.4038943354196916
8.547982134903659,-1.540520433178348,7.029266291982203,7.427134231477258,1.9053898503913758,1.1139376259987208,15.253579784546025,2.440110747531189
12.913326495561398,-27.89017003338488,-21.02649623469565,5.140627462283233,-12.202746727202443,-2.2417357327757275,4.728459419293053,5.917151867864336
15.828997766396716,-43.3980227937154,-42.154599700611456,1.5872279907493902,-21.866270461270016,-5.438240407886215,-5.153286868420549,8.001380132282877
16.35985330361007,-47.79127892792691,-54.092941500976664,-2.732784918036641,-26.5474112777652,-8.924812945722744,-13.335213975147097,8.288248335743889
14.356234073957685,-43.478113903498354,-57.30314218111949,-7.243306508652057,-26.941085325302463,-12.622942397554745,-19.118334814577736,7.099327427203326
10.36426185291217,-33.921323106891506,-54.47608292262052,-11.618723162704024,-24.415867199340365,-15.74472249557927,-22.225767305730386,5.187715103339221
5.273130742486702,-23.010549135610013,-49.71549167573619,-15.819123212009636,-20.759734229354894,-17.29758202002542,-22.94448846440432,3.2732758127078005
0.0121510130436423,-15.381061066219923,-47.458377388558496,-19.744077382438128,-18.157786254712516,-16.931766957812748,-22.20149253043295,1.7291147409331888
-4.520267536828289,-16.23652065534987,-50.99088102259895,-22.77369999779374,-18.86683740700677,-15.410895904479673,-21.317996956119323,0.5854973823532356
-7.408320066557743,-29.579871446556822,-60.89277035934462,-23.664277490092076,-24.313900075029864,-14.243721544998591,-21.408491108865935,-0.2446235019917025
-7.815016795697027,-55.590200406047174,-74.38019517328226,-21.062378424611964,-34.0946938027418,-14.712071799555735,-22.767005714273502,-0.7599158102565235
-5.324099841768504,-89.2777593012342,-86.36788507594532,-14.400213235535169,-45.74783823399225,-17.0326733981216,-24.70509357560333,-0.85402751999704
-0.3152516189442551,-121.99238615235501,-91.9794411897508,-4.550889664247554,-55.739932370193,-20.263849374005627,-26.008265519249765,-0.46241697361488926
5.976803756589125,-145.28927899208506,-89.1031009832532,6.289998255052405,-61.18735526355243,-22.971017104503332,-25.715513867600038,0.2910560650657366
11.878790426410067,-154.8606238208041,-79.42963680976905,15.511846656667359,-61.257261761183116,-24.12628927586312,-23.697545642057833,1.092213696566084
15.977461312605845,-152.1388245156907,-67.36878798478449,21.25430921667577,-57.39026978784127,-23.629393020164258,-20.67787929705054,1.5878846363074104
17.689684040162714,-142.76666633579262,-57.598596593660965,23.13581346897951,-52.28580761313047,-22.187591181179883,-17.745270199787658,1.5715185332656945
17.378827203301913,-133.18539160550893,-52.80762385026265,22.16936736227033,-48.3888603751335,-20.76224922033196,-15.734596579114964,1.066858185826093
16.00038900879715,-127.60733935309929,-52.907437475485196,20.028247580244198,-46.84227410473404,-20.025792472262893,-14.879964949285942,0.2676032337003813
14.550031206096213,-126.95380685701292,-55.86653718721163,18.18338917571466,-47.393274922728054,-20.144221587578848,-14.881472080742437,-0.5965604615871221
13.65191043274821,-129.6965131126689,-59.2493268955989,17.38940875237735,-49.00859401715621,-20.883899431075367,-15.216383276532596,-1.3644191708959486
13.452886222201277,-133.41493124313058,-61.36199414490071,17.658951123819055,-50.5894451312791,-21.839927629274307,-15.423996297611517,-1.9720707049144004
13.757529971507301,-136.0263365479064,-61.58256839026833,18.550882347238623,-51.39152005524293,-22.624886030725584,-15.232817367596619,-2.430920032335957
14.237664698926746,-136.45160347378226,-60.17435533770008,19.519510656680282,-51.16481473992795,-22.997513336036967,-14.577422762924494,-2.795454866047607
14.602201420683908,-134.8867375786497,-57.98791832092697,20.17581841126062,-50.1641445054442,-22.952444022102657,-13.584353909310611,-3.1328119395041796
14.698540296634558,-132.645105130475,-56.11881071489648,20.414469797665443,-49.030925401768286,-22.728379612958097,-12.523727308917739,-3.490484969670247
14.541842681581238,-131.40956067470867,-55.435696434191016,20.38850889498262,-48.47044508069985,-22.677375531123875,-11.690356956048522,-3.8751950074435033
14.2625630404152,-132.14832070671065,-56.12870718810786,20.343865717176325,-48.82911001976781,-23.04339679894149,-11.25226531163151,-4.265649909514371
13.99571705879237,-134.42943878411376,-57.61819848953581,20.412490641219094,-49.86577232108246,-23.802524934895814,-11.169146572005536,-4.652881848708921
13.791820782047358,-136.68470549402878,-58.92878454307906,20.522205571949026,-50.903721496858786,-24.67701227144807,-11.230737471030178,-5.0642935229577715
13.62358486105285,-137.20708452233544,-59.22114894096828,20.50301134770071,-51.23167774254163,-25.289960660840652,-11.157597108953247,-5.53632215611747
13.471060939636489,-135.15503539884227,-58.115809075971235,20.295428628495134,-50.465478183663954,-25.346761444285537,-10.688144358732435,-6.05646519632313
13.384851367209613,-131.06495455588092,-55.78630483799195,20.0708673410288,-48.73282249516436,-24.780567954919274,-9.659542088210591,-6.535757385581564
13.451630708473704,-126.85869644724525,-53.02559435262973,20.15611336793287,-46.72976363005773,-23.861560334971443,-8.132513550029625,-6.849066297021436
13.692386178239204,-125.38292109084732,-51.25814315310443,20.816874168892134,-45.63796278399462,-23.22357891328974,-6.517344285273732,-6.919372022948062
13.989288413063942,-129.26368440066676,-52.14743967175598,22.03455908915676,-46.72558822465553,-23.682044182497037,-5.5408884669513165,-6.7891480642495745
14.097823984228432,-139.07846254582583,-56.63785184957564,23.375072041998248,-50.56607755778813,-25.788071799154295,-5.942238359908784,-6.639366441122633
13.723191718349732,-151.73519020665566,-63.938000246221094,24.003054056731916,-56.249631895281304,-29.308226461681386,-8.011265767025892,-6.746575803866598
12.619406012073327,-160.56624768450843,-71.34982880773174,22.896411360420913,-61.2690240183333,-33.01051174645465,-11.277964079191422,-7.3785251830853635
10.701419911365944,-157.93425596112607,-75.38556098278013,19.27982199110628,-62.46798301709279,-35.03314402922034,-14.61479820298166,-8.64065388157791
8.162467704001108,-139.31476358530642,-73.60635963996252,13.141065574203965,-57.66736513999651,-33.73765484915358,-16.750256314670086,-10.332655806230049
5.533933797096098,-106.36776404345817,-65.96765631989621,5.5193107110600454,-46.9766943788351,-28.586749442541027,-16.919256557405404,-11.927267896922158
3.590077787710868,-66.807301151016,-54.74804464063799,-1.7264975076098477,-32.90197481615621,-20.521580107463315,-15.283810468452435,-12.760791907847954
3.0628791385257808,-30.880152796594867,-43.144526633516605,-6.672906110777669,-19.134969740444543,-11.595834251646325,-12.886128444334398,-12.391674202395112
4.269590024619328,-6.540879492882132,-33.56524389878472,-8.24123870108577,-8.790285655028415,-4.066529892224226,-11.15724468788184,-10.922015015681122
6.86290875363125,3.7337817608950945,-26.80803717620343,-6.723043400189357,-3.1921813048059304,0.5483408924186124,-11.242386791928084,-9.034842064745947
9.894442329653451,2.7912827238374276,-22.52476196056257,-3.577313867790836,-1.8440247091648465,1.9598043998497976,-13.480284258997676,-7.656667865916004
12.21587570925032,-3.9971250116763146,-20.288073564306714,-0.611005279398442,-3.317969034807878,0.9774487756330824,-17.264598700480892,-7.42674373928572
13.018342161002874,-11.872016240848943,-20.185222206149287,0.9376355545649464,-6.232866493985029,-1.0591787697955317,-21.328445565249005,-8.33205405088786
12.1957659910043,-18.22635414985005,-22.507935113118876,0.8503310355401263,-9.68710883461855,-2.957557367215335,-24.33573783442552,-9.779289220708534
10.325040840156337,-22.359861615242092,-27.06822924940838,-0.2778118228207516,-13.16808379316951,-4.182749016600537,-25.545401856141194,-11.057930442948338
8.314335813106801,-24.554673404815933,-32.935575725757666,-1.6199567762430944,-16.358929312225616,-5.025474110652457,-25.22719853212107,-11.848790816644982
6.968096759698727,-25.423684860995646,-38.79668844065102,-2.6098525689436607,-19.091136441656694,-6.333264353996694,-24.54113716414608,-12.403116816438539
6.702450328859289,-25.579017577521377,-43.48335553818546,-3.0943257273571327,-21.326801499747106,-8.870856481687039,-24.853979382074243,-13.284201870077538
7.477758151863715,-25.31336541129104,-46.22438292585343,-3.227780283626628,-23.01532340240039,-12.637170241251447,-26.861422079946603,-14.895212921512078
8.88457381569502,-24.401188703866815,-46.659937546064064,-3.3096890023794643,-23.941816476203012,-16.61224752685519,-30.09186208856881,-17.14255837303998
10.31946687356217,-22.388502001485005,-44.87859415766892,-3.6443785541589664,-23.8047782814831,-19.195568522039725,-33.14289771128421,-19.438804239418104
11.228635081655929,-19.259130542574848,-41.46531508802723,-4.387671423605362,-22.504393334769837,-19.1073468663177,-34.48536705310804,-20.99977957696455
11.361453581881417,-15.769725402062312,-37.30331452122033,-5.40376162461475,-20.329557733948903,-16.16316509793057,-33.29394143597225,-21.238937969782153
10.898308108820215,-12.967788749276131,-33.10693084922491,-6.2640823393703835,-17.819624725766523,-11.425271880095622,-29.821340135559772,-20.063382326519744
10.338749419672773,-11.305900305089558,-29.075548024972857,-6.467086662453891,-15.449132104601588,-6.684018794609454,-25.20358440986538,-17.95325245958042
10.192640534459523,-10.25012718227988,-25.033335916726017,-5.76118020583656,-13.46295322490375,-3.6350723740875486,-20.914336918853746,-15.788811638606004
10.664142147828668,-8.761815092785037,-20.92924803203735,-4.34279278774435,-11.973500649693356,-3.2113877479901025,-18.17764460395673,-14.480005727034769
11.508482635018717,-6.180848946907285,-17.23202143458551,-2.8085598251584307,-11.140939175007277,-5.347146855783989,-17.572353749164144,-14.558329518159578
12.108182889871609,-2.8352027913572706,-14.951663564190964,-1.9273954805853564,-11.251707875642692,-9.198956842449174,-18.952720946288625,-15.946467955032725
11.711950675063632,-0.1504857949870736,-15.38343101658877,-2.3576450657189407,-12.697136807542918,-13.6517933934292,-21.682163347007574,-18.042345923250288
9.766892950930862,-0.32652549712188805,-19.667024216003476,-4.365519650851559,-15.884864283527245,-17.81497962944873,-25.00698197163371,-20.057853314011968
6.266104728017685,-5.457777011254806,-28.01677015311051,-7.57923434752491,-20.959264269105415,-21.21050452541375,-28.28529998818331,-21.383918961302946
1.9633653478642377,-15.955090120108515,-38.639382013381116,-10.909419631123095,-27.228989218482287,-23.5449158663831,-30.897256680487583,-21.758122998922087
-1.7374067451582014,-28.86120174258059,-47.03721780157824,-12.819902133563527,-32.598021483814044,-24.28532792740384,-31.978561993440344,-21.18638902250901
-3.292350070101301,-37.529536913310004,-46.796227683064934,-11.968049968080889,-33.680653110804485,-22.481714175219604,-30.362400396911617,-19.76269684514906
-1.7399533763436603,-33.855155866264816,-32.244142077355065,-7.926497483770241,-27.05042026221569,-17.13962265438114,-24.999829100647418,-17.577283674011515
2.7585610353981984,-12.484468334584939,-1.8229286594176968,-1.5332884814226684,-11.195320047757432,-7.989566847930426,-15.696265977918072,-14.777967860822956
8.909025655497143,25.451632268239592,40.004130120030176,5.41085278569101,12.044272538283069,3.9068239448256206,-3.62893878322043,-11.67901700571944
14.851378546063907,71.7467538490864,83.9057861017733,10.970119575351182,37.69401577379001,16.251383159883733,8.840346886362742,-8.759375179707176
18.996307279750226,114.46339313714698,119.57729319489681,13.952068015109655,59.64118003806283,26.375709012916086,19.075846857298846,-6.501087565832011
20.664000300297968,143.4126357730189,140.2289894523525,14.333878034609027,73.33168630476803,32.40191845979268,25.302248927444122,-5.175838879264669
20.202581724687857,154.5648320897061,145.12765570747328,13.042421754900813,77.61278678158628,34.00682848145999,27.294505871602016,-4.738984839043721
18.60524085265579,150.95046663920314,138.945704698773,11.315306787003507,74.73799011421613,32.364338661111944,26.253678819495494,-4.896741462130359
16.933543703203416,139.95325963057397,128.69648931782584,10.091616013148844,68.74414914991196,29.378724768076502,24.030395546803096,-5.2761738331987855
15.892182902951703,129.10192631837882,120.32930639738174,9.754883520122727,63.35623236947948,26.737628924558752,22.225601859689917,-5.576197624188581
15.703838530372522,122.96077970934039,116.79313215432796,10.226908401391855,60.62283962259124,25.322399025291997,21.658102593219578,-5.634073031102694
16.20539213264238,122.37362040439612,118.00837841753825,11.19157763076603,60.73161935819249,25.165270932112684,22.33821350720626,-5.4227040518501255
17.012760361390587,125.5245706969768,121.98050431107009,12.263980734249776,62.63011357639298,25.767765583859017,23.758215706059435,-5.019018784228363
17.676456950370433,129.54419642960173,126.09359694188053,13.08523410650327,64.82640903184358,26.481090715515528,25.241019747093482,-4.558895935658032
17.830106138184618,131.8668700971091,128.150012173191,13.403286994801805,66.02991252226983,26.783880495194524,26.21998332642005,-4.178921808836837
17.3271522373377,131.20047350933956,127.12504853558538,13.148610110271967,65.59686660038685,26.443678792696463,26.434593652281812,-3.9621139402521908
16.315482314863562,128.02021104758708,123.53886678634667,12.45985423006948,63.751413326323366,25.5686572034058,26.018411437182017,-3.9161431127862034
15.203856078596536,124.27826370259105,119.21872541845164,11.647389967987179,61.45482048336527,24.52150351824726,25.426320098126766,-3.9876495808091086
14.526362446201844,122.25981462110438,116.45024093496464,11.131202769421456,59.9050679005167,23.710946588218956,25.208468956184603,-4.083646056506587
14.74144595189217,123.17069892663908,116.90325856462752,11.355820541576895,59.911055611236485,23.374797457975333,25.74061691136147,-4.079219244391747
15.994211223532059,126.32300553450634,120.79097491957373,12.619316431964954,61.46896202617331,23.481229815271806,27.03652948412059,-3.8324897609066007
17.891308316172434,129.28444273892438,126.45025097235812,14.800917001892731,63.663164557126564,23.76259938800083,28.68400879946858,-3.240628982622428
19.417501940112526,128.65231204258114,130.36710737647402,17.145962602789766,64.80175320179893,23.793969966910044,29.884973543811377,-2.3214706592137953
19.16487333047578,120.98740308139334,127.83139381156539,18.373176835379883,62.741022946270014,23.064429954642506,29.615740399517076,-1.245222131613972
15.918090761099094,103.83000238758807,114.47062289051067,17.215912734714173,55.50482065179365,21.098458238577308,26.95999123593238,-0.2515675286335347
9.364769335367594,76.85536104562307,88.40287589898034,13.161026865305002,42.202400144261645,17.68913574861897,21.569793205558664,0.5193947660273205
0.4956631044491132,42.77658513886721,51.92455538054042,6.904193561755081,23.860485934413134,13.156895199246158,14.021816690300428,1.1593838222474926
-8.651054233100083,7.163498318970719,11.403924888042202,0.14767367370186268,3.5298513647977074,8.40731831903748,5.7673805146964225,1.9622163210584294
-15.86151934019382,-23.341417206421408,-25.075755922949323,-5.21048155007686,-14.704101634300782,4.615243949386881,-1.432431567596606,3.2152412357137683
-19.765839934857045,-43.883342376973864,-51.266257448585336,-8.008278826433088,-27.471238825475666,2.618564525742686,-6.341134266056594,4.939755740005984
-20.389659782657947,-53.77059649231351,-65.40659248605685,-8.270912560061658,-33.648926604413184,2.3831251020653004,-8.850821564342578,6.777027529425206
-18.89780768673051,-56.636317089841604,-70.21021190510538,-6.910063184246024,-34.64080110450349,2.964218346315692,-9.919112121300145,8.138545910850256
-16.72526622778273,-57.78969502104751,-70.0886397770687,-4.948509833222208,-33.07890275175809,3.115903893640716,-10.803059426957942,8.550502051120173
-14.700816905314856,-60.14871937324034,-67.49080131849148,-2.87749132211581,-30.740776403808393,2.216743510931277,-12.061732378937334,7.962652611793877
-12.738369160537786,-61.57093265093597,-61.020211010321646,-0.5903676772104498,-27.167543406091795,0.8577263339782167,-13.034018661884662,6.799541132857123
-10.225586481907325,-55.81727413493082,-46.78377998391896,2.1681002811002488,-20.07091077058475,0.5986104613558303,-12.215857722686403,5.714777856188329
-6.736779763806733,-36.85880288938919,-22.01562336153601,5.295708334053781,-7.3062927004198155,2.9832357106673455,-8.319645824536648,5.221565456778621
-2.517688779067112,-3.657994536319182,11.715881946780723,8.206838170426888,11.018767455811272,8.464401768556185,-1.2866128422502632,5.446089648933649
1.5747353985861017,37.94877294282952,48.105713250584685,10.160364269855625,31.85741124762753,15.973630252456019,7.4524423023512165,6.140892822774295
4.571595592098997,77.64586387633828,78.85842924455835,10.747871298472747,50.4787687839042,23.420400369640745,15.639565535078432,6.905343601746557
5.938382207010547,105.75859173787207,97.74623995049495,10.15456254765201,62.82239441170259,28.775250752928923,21.322233964791685,7.436219466731486
5.804706308430852,117.82815229827754,103.38226136971095,9.01653031572394,67.41739183094263,31.038957081227714,23.735241750963404,7.650109295506059
4.788447379588136,115.9666972800232,99.1746088957682,8.020313451266748,65.74092948277669,30.543565360654334,23.449349587674625,7.643667411514013
3.6092191479046756,106.6388544771979,90.8939656635574,7.559660648043824,61.01510423372862,28.522277796050567,21.827753453663107,7.575422823726812
2.7680765599305275,96.78656411495464,83.67444751717638,7.657478682655394,56.4142080881347,26.34278058697122,20.24011827391049,7.573092417909482
2.4364026942789945,90.81828210235632,80.17691620943235,8.109368326754833,53.799220847271826,24.904948999706388,19.511501600890487,7.703172936231332
2.515812880295927,89.75976902819323,80.44595027489285,8.661740419612455,53.460769155515365,24.453752084334194,19.79629994099854,7.973959846333334
2.763890482592247,92.15359455867846,82.86685700560659,9.106783257237053,54.604563304822406,24.730640990503204,20.76432841212243,8.341916493967856
2.925184506508259,95.54549385890705,85.37478004303763,9.319430344397867,56.051875680669326,25.251142588516934,21.89190569813303,8.726960087215561
2.848301974381917,97.77561136875975,86.44738626310662,9.29264140311119,56.832364979647274,25.56479509514415,22.728583455929744,9.049479597858781
2.552193084245562,97.85864160978,85.71188788397623,9.14784174334547,56.57470850593499,25.445742080154165,23.084123121184362,9.270948501736408
2.1918196478433845,96.3055074986378,83.98698709065887,9.062835873202435,55.61003124700712,24.96861838806211,23.081205022938793,9.403729411704935
1.9324761787644336,94.6453496421941,82.6504742159366,9.143796033810425,54.69067929913044,24.419339362771357,23.035548778493805,9.4867628830916
1.826700603428524,94.26645531184485,82.63500837936213,9.355612140004816,54.42919138427944,24.074446114156732,23.224773028597443,9.562777376277616
1.7913891937262962,95.33523780436039,83.7394801514676,9.578521532368402,54.835219134111306,24.000657044694094,23.705904898573294,9.682423264999136
1.6882916845280094,96.65552144280656,84.77103405787047,9.72208100180145,55.31150524582218,24.02734432257828,24.308250002743083,9.911525561765684
1.4240632279591967,96.58767320374726,84.38082262572246,9.774556402545743,55.10264434889491,23.897696109472555,24.778246124163758,10.299407887125705
0.999379153742138,94.28188141313754,81.97779709195466,9.763535709791777,53.83955867956894,23.460494362546484,24.945186493812827,10.813620250285476
0.5109083481907208,90.36903199727213,78.21145068984045,9.716423241782154,51.829650584633626,22.769886685308993,24.812550883228997,11.305571691479718
0.1354000250536038,86.83513388556734,74.89852740155472,9.684417427347068,50.003475294206254,22.073127934750232,24.576465116897825,11.565252573970874
0.07898780439194071,86.2696232179414,74.41413751305608,9.772278761313254,49.584578817068845,21.727938796959766,24.59010387674441,11.449843136289784
0.4529288059771822,90.63795637608095,78.51162030257585,10.078585346420672,51.50703878982562,22.0529105485222,25.234769496205594,11.00626017345748
1.11112411438732,99.7098322776637,86.77197899751216,10.563896276650267,55.64373749899109,23.09697996517071,26.6654208818432,10.509382992620273
1.5826666829330307,109.79984588129878,95.50992320583603,10.980930961091499,60.20386333575818,24.41515729734417,28.53315561881169,10.383978582565902
1.21544332574025,114.0573149495018,98.29045035415479,10.956877515928833,61.90660889205561,25.0570235375316,29.911763849453035,11.017720968403852
-0.5089085285191703,105.09951006818318,88.50616994559348,10.156736548357179,57.26137844650368,23.91589717236165,29.58562364499874,12.503900323878366
-3.6831245468538585,79.12065746081326,62.972105973312814,8.377814936236879,44.48597255259366,20.322521215579354,26.60214861012626,14.411023945017716
-7.90341149081257,39.01432568390238,24.404435212078173,5.523955654903181,24.910689624448754,14.518340475937261,20.773346930246632,15.744538570591352
-12.467482872536523,-5.8779762287304145,-19.001385023865005,1.5558859645006096,2.8228533511908185,7.657177395229046,12.823794471282422,15.245662293885344
-16.714623783474874,-43.771019205282116,-56.987195136868344,-3.467356608570358,-16.364912054808446,1.2755738736913758,4.1055148970984945,11.993147993017885
-20.303485220053506,-66.04257991932946,-81.84782038447592,-9.264990847779899,-28.64256564215426,-3.4804132334597204,-3.950598735780426,6.017360407818476
-23.277243741322568,-71.12634195978687,-91.66094747508583,-15.26282378122532,-33.1708577787844,-6.426108847813052,-10.362047170372964,-1.4854232558848304
-25.905877865567724,-64.4501930295557,-90.415299001921,-20.70467702149591,-32.31472533221363,-8.381135730233003,-14.868018541661884,-8.576977515013299
-28.429103795347938,-54.7463741471916,-85.2599135895794,-24.940501212098415,-30.065240648849024,-10.666824888514416,-17.869163868681323,-13.476903262071753
-30.860117241848986,-49.274116549705596,-82.73370841711521,-27.714890140557415,-29.913268061244434,-14.345013604173884,-20.10785204634653,-15.426646180624177
-32.93804410777447,-50.79196000742632,-86.07113395344398,-29.229978209622224,-33.38094621057828,-19.60683592444031,-22.24328548092022,-14.983701231437456
-34.21937795330688,-57.491278668326004,-94.6036023036013,-29.910326908492085,-39.77931359440844,-25.6078424137295,-24.483984757734653,-13.561178789247009
-34.254702237162675,-65.07792676016409,-104.94831745191114,-30.048784753281517,-46.95826419782517,-30.803888034215433,-26.426225391493038,-12.518760213029154
-32.792830338580316,-69.32843683175123,-113.01443134205552,-29.621384770635785,-52.4422883860707,-33.62197123718356,-27.213094698046156,-12.395897546554998
-29.935929053727516,-67.93172709178062,-115.89877608155493,-28.401015644909712,-54.44987682186966,-33.17409088166788,-26.00672084244944,-12.746710730124514
-26.150857645243455,-61.24593928013159,-113.01237415480153,-26.229838167556686,-52.518079883432044,-29.69274001705617,-22.55215934283722,-12.596415201692936
-22.096933683862435,-51.958533692637026,-106.05677524620819,-23.207587300423175,-47.571649435232146,-24.457052147947977,-17.471122559057243,-11.142651515987305
-18.362976964423297,-43.74816591716859,-97.91297367876385,-19.69718101152514,-41.4062241748077,-19.219334637743884,-12.050455754653347,-8.253498502456464
-15.297527214155444,-39.43306540383852,-91.09549414777447,-16.23863268210976,-35.826511940201684,-15.443079501196324,-7.643935635699196,-4.53993033090137
-13.046984755961157,-39.57951273331198,-86.70296882779434,-13.477094715596746,-31.915560764486717,-13.797453763623132,-5.089530848564132,-1.0596435183051096
-11.72925912131594,-42.43277087345291,-84.39259001676217,-12.081746861848256,-29.819076703800672,-14.163226991027614,-4.499282468605059,1.1447039608845777
-11.546574576077363,-45.160783864777365,-83.12509836011633,-12.569874505200726,-29.03856980524869,-16.019286086953485,-5.461268042349379,1.4624256560752302
-12.70346503679913,-45.53671706219465,-81.99959258381617,-15.049804159221027,-28.91395071029047,-18.82868522628072,-7.403235528793992,-0.06390417661553383
-15.175493718735176,-43.11542953191649,-80.72297324520963,-19.023385460724665,-29.003801476995108,-22.137817191320536,-9.83271355755531,-2.770669780520572
-18.499144190704545,-39.51534145678143,-79.68547393718057,-23.383911948618614,-29.27659803703969,-25.41952375983802,-12.346729887783097,-5.606293032018225
-21.739308825845246,-37.81007715813244,-79.70112855614916,-26.63770964469876,-30.087855198219014,-27.914608750710926,-14.494122440562204,-7.443717868869884
-23.696639001210052,-41.00768843091762,-81.32960051866651,-27.311499334181285,-31.835135874522788,-28.67448608688547,-15.646511081431703,-7.381717684069509
-23.326942665845703,-49.76171553226966,-83.86417807318,-24.50894346964351,-34.272124591718644,-26.795899362496307,-15.011566970315313,-5.028054133132895
-20.261958530892397,-60.274084652822005,-84.63557201060718,-18.517237124125494,-35.851995084066786,-21.709549738810512,-11.86006138499303,-0.763019809526098
-15.217270459229347,-64.14084773641191,-79.56735157669935,-11.179742420932458,-33.783931318828685,-13.421597938940009,-5.931952049855374,4.13369594829612
-10.007410597889724,-51.40784791472731,-65.27607071815804,-5.6310005232615135,-25.221499949734724,-2.681822262284369,2.161962206096429,7.702487080314523
-6.991657528092863,-16.085043554190637,-41.73240969644751,-5.200545678334709,-9.174859368686658,8.960225546690202,10.817286261224087,7.965322749463072
-8.079222610369142,38.81013168954498,-13.687779428108,-11.823585844694588,12.006620797093403,19.30846225032181,17.776362121968823,3.820951938791483
-13.749051579517966,100.09067878863198,10.457551249617985,-24.77270257237641,32.72913952933833,25.968832623238235,20.86701765424944,-4.283742574387597
-22.622770976491754,148.65906610311166,22.153846981034704,-40.51819060529111,46.136429978744815,27.06159017358784,18.84418544915688,-14.320851934676497
-31.873083374374403,167.58648824952462,16.845893367113376,-53.962331978804706,47.14758041151728,21.99493697553538,11.971661804068175,-23.369750764126486
-38.31455684782686,149.96670314500867,-3.5185075204640057,-60.52526107711038,34.98621973049802,11.954497477733632,2.074894576579356,-28.720538071105963
-39.676489222822596,102.31691485022117,-31.107415750978696,-58.0728318853282,13.779107445216408,-0.24574275142062507,-8.019156787074445,-28.888913287447814
-35.47922551250524,41.61135570185213,-55.72782123640782,-47.75418961784554,-9.201723027291635,-11.078773383678818,-15.501583555675797,-24.11678012870991
-27.14343112326947,-12.463675635529803,-69.39431125746944,-33.39480682091012,-26.774446527893,-17.688463032963913,-18.668702073722866,-16.197054245086164
-17.334360474276693,-45.858841400044575,-69.53681914732859,-19.825783032836167,-34.85452805230777,-19.06857580769453,-17.571386182472647,-7.752183116363714
-8.88935882966011,-54.84839159281818,-59.3169601679599,-11.010323463171332,-33.70397926029919,-16.355671045081444,-13.866824501793818,-1.287277781403836
-3.8287884397647938,-45.20458885634684,-45.25574996749107,-8.812136773293881,-26.976212006970695,-12.027265407804363,-9.916405367069526,1.6206900273618152
-2.8418222810371687,-27.34133988373678,-33.853825272821865,-12.793562588936279,-19.405950087380397,-8.485617244766797,-7.618622028702051,0.7339774643816164
-5.342654479551776,-10.939422819758873,-29.153592757264004,-20.841675174012135,-14.639487965033247,-6.906794645000847,-7.630093368824023,-2.9160026621337503
-9.899141399746044,-2.0096540641563285,-32.148762375518075,-30.074701646049125,-14.28527415325659,-7.006714111119595,-9.351250615496149,-7.478185802961665
-14.734143616554729,-2.9085862428742377,-41.51137178160794,-37.57080651458966,-18.201071406301867,-7.6891927963286,-11.530953352514066,-10.906424812991743
-18.124263763011047,-13.651801576112968,-54.48982697559958,-40.83466278190378,-25.23881810383316,-7.956197533331295,-12.989611611470023,-11.558473251254508
-18.713166317322095,-32.667004654869636,-67.40424211604419,-38.19776219649107,-33.7313555133605,-7.424559236250841,-13.02812622165021,-8.63269005206715
-15.817951982236885,-56.62446410657496,-76.11478481837881,-29.281782941065206,-41.66155279697407,-6.246475744549578,-11.447606397627725,-2.3643208391586317
-9.693238051552703,-80.41884455283075,-77.06865834014202,-15.349495555365964,-46.932898685020774,-4.717257791502183,-8.395659058012464,6.062677411016753
-1.5770378729300143,-98.37011876189504,-68.82766215586996,0.82177512965467,-48.00903845468163,-2.985626504347506,-4.261249036441932,14.886942758088212
6.640987617906714,-106.46289582669307,-53.14834043646064,15.738330131540986,-44.663274668211926,-1.0561918054363881,0.34986286257649973,22.334205143838048
13.081834595447802,-104.25298617448098,-34.63359758089146,26.419402661166323,-38.26418103276995,1.0286533998879337,4.677143048400534,27.18345049581866
16.5798726007259,-95.03052160000853,-18.8297991829428,31.46605276625731,-31.240754112461968,3.0607784383870658,7.996316469865278,29.10858829432459
17.061907552760697,-84.00003669068886,-9.743916852371528,31.411529496016538,-25.950374457488017,4.7158282524406205,9.880061678850808,28.656989621138965
15.416047653079568,-75.6773894680252,-8.229657026405237,28.21803497748337,-23.639269408958757,5.709470177794814,10.356281545081265,26.90567864830175
12.973775760172874,-72.18789159448538,-12.119685294373898,24.28928622751935,-24.126051035666595,5.908353372269774,9.843322411454759,24.99715805062503
10.934818985285382,-73.24425927006905,-17.777751808560765,21.571062358791075,-26.27257682749147,5.341847097955326,8.921438891423504,23.784297866620335
10.013865345221918,-77.17333363102202,-21.90522270929187,21.088492518218473,-28.736656908101637,4.1995408660074744,8.124528779245372,23.68746455625204
10.358652100331607,-81.82903958432419,-22.629535373772587,22.876120180918253,-30.454170028631918,2.8896839552854456,7.8663245085568,24.700092957871334
11.614054926740273,-84.94617079452784,-19.76106651025621,26.076163185750882,-30.74727138452882,2.075314757776553,8.432500333333376,26.423199576007196
13.03016666949335,-84.41967811567974,-14.644275533480705,29.119662607113074,-29.34521546561947,2.5093005445204657,9.898031426268801,28.101710259619576
13.64154750641202,-78.98962706482409,-9.798996598848689,30.105330935824217,-26.512458068136315,4.624533778328744,11.963243561734803,28.753354708584155
12.579386635141159,-68.99934184398114,-8.116288880565714,27.45021544383604,-23.108414106646688,8.10227262742082,13.883920740345518,27.472866874337104
9.45563738315844,-56.41450117422178,-11.521105559991376,20.61517529009773,-20.288141218962675,11.768662784900368,14.673655056823288,23.845175935418364
4.619736376031939,-43.809305001562386,-19.68939269050786,10.502744164893164,-18.872626521940987,14.007826317376436,13.552257851187559,18.24869871350036
-0.8972998504266302,-32.96705442378279,-29.77943354639748,-0.7736526091415575,-18.801932489900278,13.545022289888115,10.3961312986047,11.824460250034756
-5.7623590428660645,-24.102912278703272,-37.631017129185054,-10.695368429793172,-19.1020565405088,10.18687259027632,5.907837590141774,6.056057388951957
-8.86185310326672,-16.20976714968233,-39.85749737994139,-17.321984370215656,-18.43349106165136,5.0741480207616005,1.3785530545439908,2.1411139243302197
-9.712000285340448,-8.177796590663958,-35.575397768514264,-19.961466721093167,-15.877933087119919,0.23445583971714573,-1.8534812757702472,0.47846454595141097
-8.583403578470698,0.1948884320481955,-26.72280614924941,-19.24367445074011,-11.464997879312273,-2.381423819925099,-2.9785031456986926,0.5432325683057013
-6.32675803925705,8.046195397611836,-16.85002258260702,-16.66816077198389,-6.129990441992826,-1.8587131870984832,-2.0379975990194903,1.2003724181377455
-4.021187670100062,14.168076217018696,-9.253160473533214,-13.942240191500279,-1.1926025021503732,1.2752495022561954,0.14870229034159044,1.266998500607124
-2.5997058716413557,17.88007674167582,-5.637941090312814,-12.412155921667482,2.2470049441885234,5.410398418423603,2.3874390339538176,0.035391311223061966
-2.5553924936264534,19.30073112224533,-5.923920585454081,-12.71437775259944,3.641875524634877,8.727505138907821,3.6355350202790855,-2.4555976088493807
-3.783668538079275,18.96639060887727,-8.882940386818102,-14.65372993657692,3.0248192235734326,10.070822426825478,3.4295367769830114,-5.4673596486767915
-5.61338233684377,17.39642146115068,-12.890028834475517,-17.325049716504743,0.9134919705415174,9.379016227453892,2.0512838127392348,-7.885681264418919
-7.061938546750209,15.076410624938994,-16.38891029574454,-19.49930986863585,-1.8013413151087272,7.531646671287815,0.3578558433431967,-8.715979266844746
-7.2514333926060255,12.69725793928039,-18.1680117173946,-20.17298297893031,-4.058711394475688,5.779052256082236,-0.665462883682381,-7.572041839456377
-5.799778583023162,11.206590797440759,-17.60576693195788,-19.027913375221125,-4.963269051066451,5.0957830858756905,-0.4098809796286203,-4.927029595831103
-2.9882371182207774,11.578569165057177,-14.781206356612321,-16.564921199307797,-4.088214912315561,5.780042045201286,1.0809806838359644,-1.9563227629056865
0.3582845495604322,14.570650510869477,-10.299441021317413,-13.875751187642388,-1.5276209978390998,7.442416114275479,3.2156440635774466,-0.007496591892273134
3.1849153463414264,20.550174628341505,-4.989220295535974,-12.20365389083085,2.2776606545618856,9.291003108568084,5.224235985734515,0.03855173441197733
4.578466519422601,29.093516638476505,0.18878067580015684,-12.45658673204765,6.672088101247717,10.479079859234364,6.503413455798071,-1.8260142017622356
4.112473447375017,38.26295205383411,4.011377038710095,-14.765083806037724,10.715711525888896,10.330026052216402,6.725614091020444,-4.768661605186978
2.0983631628174555,44.23897943692132,5.1107550369764985,-18.19810321556768,13.129333850274765,8.426962162854924,5.749309069433162,-7.544978787792811
-0.38053351519395906,42.311763366581005,2.7339280562717168,-20.84944754283828,12.632644295702333,4.673391160240108,3.538398313311272,-9.075068820666814
-1.7837814038819333,29.33563261855141,-2.2123590120712042,-20.464675705520055,8.706523266684131,-0.6138701374173422,0.23405439303646886,-8.872313001105885
-0.7516505802429919,6.2459870515207685,-6.827990757566778,-15.471711015104052,2.2636959091252034,-6.654668567374313,-3.696113853495938,-7.147046078900537
3.211084070078606,-21.346272225632152,-7.300997672424944,-5.905339376425417,-4.430350509880499,-12.334851383785889,-7.446203837762656,-4.601993385186763
9.402987555600232,-45.354126625200884,-0.9972357675897073,6.366974018004995,-8.754906377684566,-16.5561702503341,-10.125930127816355,-2.0794061862516595
16.185799647560227,-59.09350246497171,11.792011422069463,18.35462332692295,-9.098641749643637,-18.67061381503566,-11.17235155991096,-0.2393129479225536
21.726934149766706,-60.47286729743161,27.712854397166993,27.2526932357275,-5.704998102976076,-18.753027670706388,-10.641790452105251,0.624219438215033
24.817469486851554,-52.55414507834867,42.0221854005759,31.630331101614775,-0.43807173460338,-17.526762769952573,-9.161052540317668,0.6032759662360954
25.31785040292243,-41.31576580742349,51.027525634143544,31.856451370553202,4.350489212684597,-15.969646775120667,-7.563413414249766,0.056101810389678944
24.026165492876068,-32.26370374600091,53.7458987950305,29.60778700040042,7.0709891081126575,-14.843924289998277,-6.464987440115228,-0.5944623484333358
22.123243391281143,-28.07289884472166,51.848348481949415,26.86106428711433,7.474247530047866,-14.434777489976444,-6.053848513260195,-1.051436193730517
20.574725125353964,-28.36737184803134,48.21087996462367,25.007504326605886,6.351822574288086,-14.604143734733915,-6.1649786081565745,-1.2309845515406899
19.814530301450414,-31.075170792731765,45.26624384792674,24.5098519351707,4.797457610115442,-15.03023314829715,-6.4970383349245875,-1.2185606217449774
19.777606163093786,-33.97688913803662,44.17173029498171,25.084340714643673,3.6299222828886584,-15.421253679752736,-6.785639329145743,-1.1543451450209692
20.126112866141224,-35.56562960846185,44.91222569782731,26.107282277274884,3.2182029892401856,-15.603605461661605,-6.871085553954181,-1.1415145165373006
20.480426735556,-35.27295596652346,46.79851788713714,26.97497065518067,3.5477633860132713,-15.52844936115872,-6.711472939479577,-1.2217524499130834
20.571779933497687,-33.43408827650783,48.905065140726194,27.324651188698418,4.321919748568169,-15.26177553924149,-6.381499855621671,-1.3921688149208413
20.318076363199484,-31.046137419954633,50.41551598641327,27.122822088721406,5.093899889087252,-14.952239076497259,-6.033094818324141,-1.6211234460920656
19.823803336268163,-29.20134021326361,50.956344909449804,26.614877088656502,5.492806012284234,-14.748264142438318,-5.80180171663779,-1.8569201760100396
19.293302906106764,-28.421171276723822,50.762871847464034,26.142216411615152,5.44272131160656,-14.703052381923728,-5.719015786623859,-2.0489709684862
18.89416646219377,-28.42904952811292,50.45262375616968,25.925317801769463,5.168326707535274,-14.754363821795646,-5.713219420617226,-2.1799474933838585
18.665149870943242,-28.575505867835066,50.5228160796466,25.965765967539667,4.957359437009609,-14.802642680617852,-5.6975040974576805,-2.2773395358491544
18.53546193673428,-28.457714048987043,51.02388442939595,26.125225361817435,4.918195780714151,-14.803211888499073,-5.646284614670497,-2.3857990184062983
18.41757927697657,-28.102469524457806,51.694696082140396,26.275419664831443,4.972050423626579,-14.777041101052102,-5.585015183583035,-2.5266697272052157
18.272145037954576,-27.65139163217392,52.33245851097713,26.36842139014901,5.033176105376794,-14.748950836214298,-5.527755648347936,-2.6876541239839544
18.096200663278218,-27.070682839348418,52.9485632996315,26.398674318311365,5.121017901643694,-14.706900199692798,-5.454224304412821,-2.8486079711634424
17.883907968002468,-26.26822584243854,53.59846888387688,26.356394405308215,5.278574561510087,-14.633048890350299,-5.350962128792518,-3.0063898724815297
17.6272790519156,-25.377513882689094,54.20387925231874,26.248567639213572,5.449515628122332,-14.551331861700767,-5.24799748456724,-3.168715371342033
17.349775608936678,-24.732000728071945,54.64204894192639,26.140004991986704,5.5121403447111526,-14.514374991663392,-5.191501698759001,-3.3323690663523298
17.10895644632942,-24.510744853613875,54.95571043552407,26.124556693011375,5.431464296523475,-14.54176539681405,-5.187559253038807,-3.48179622280988
16.94588918949964,-24.524755342125648,55.34608816933272,26.235189340919238,5.312658733071064,-14.594192445771606,-5.196538915122842,-3.61251202030689
16.838780708252813,-24.439384254287784,55.920965567851184,26.399645872322793,5.272336716487982,-14.620816885037199,-5.1878032938145235,-3.745386081740133
16.72175883514084,-24.13416458331556,56.53899296339913,26.503494102612215,5.301162626492021,-14.616175806893292,-5.178399965699175,-3.907441207002181
16.548684305553582,-23.723763613207655,56.98737746144483,26.490929763501576,5.307502264491818,-14.610410451715321,-5.199741463030131,-4.100139561352465
16.32636474789856,-23.257103138991994,57.278040086972574,26.39293979453731,5.277964206421626,-14.611610550596051,-5.23793120229401,-4.2948348776246394
16.086938155309205,-22.582824090268005,57.66777982132017,26.274248147616145,5.319320609962559,-14.588564406127144,-5.23537549169761,-4.461018991576268
15.850895751547371,-21.63853249546803,58.359828504829565,26.19014715439867,5.503814159283083,-14.52597782034194,-5.1618167774112855,-4.592427245704136
15.635599712819667,-20.78429051725907,59.25931886267108,26.204000097785805,5.718308586194154,-14.477134126385767,-5.067213488742646,-4.703354304273107
15.485614056355598,-20.644378129984993,60.076335914235074,26.39981033520893,5.734122286227049,-14.53066207850435,-5.046785401578834,-4.809968431143878
15.455405467716934,-21.505118858494797,60.61498786019625,26.80970568584288,5.437333544928274,-14.716087586087603,-5.156660501073926,-4.927872542217654
15.535302893096661,-22.89751100777068,60.880779649267936,27.302670174148094,4.956034225122116,-14.955314838109128,-5.3729521671510545,-5.084736268930813
15.603188503970653,-23.82004168023451,60.945845421151915,27.58220331137465,4.556283376052689,-15.115165810813998,-5.621228831363205,-5.314207170228717
15.480788093940445,-23.37296826037544,60.87128726960922,27.363934516812435,4.456637838568279,-15.101013331794906,-5.816842802988649,-5.616815440769765
15.067614927287519,-21.25820770946523,60.86463591888235,26.619878401725057,4.755221448702177,-14.904134660024177,-5.871487426002606,-5.925184367050408
14.442206394552903,-17.950712980266943,61.40831139136944,25.692660584828822,5.442376787190295,-14.59735216214126,-5.707194480689275,-6.124896722679024
13.852251601506635,-14.726614404613056,62.98544461033745,25.1831570708902,6.337559823688295,-14.33284195449874,-5.334601499123154,-6.132549056521186
13.608466163739008,-13.539179700596517,65.48691147103412,25.667436631414375,6.964410599203212,-14.341433414260315,-4.9508876643491755,-5.973044941262648
13.937561016909639,-16.335196086018136,67.85573810536746,27.355151660635553,6.615071829607221,-14.852498215317954,-4.923603485592752,-5.794417562128052
14.824618828211827,-23.653218297667152,68.38318128055758,29.788480491259715,4.7601343023601785,-15.895502737011107,-5.590098453248281,-5.805910409522162
15.877558618758634,-33.28059436508853,65.45010267131401,31.716212383057318,1.56087913820362,-17.096049157269928,-6.97513247413967,-6.165215599549419
16.31497396625104,-40.3063393160624,58.1403501911353,31.339298526066177,-1.993168790609536,-17.65729611247369,-8.625844122511353,-6.84669802525022
15.207938916895996,-39.16735458063244,46.42424814910638,27.029935356846757,-4.5336470494402805,-16.598068304915945,-9.682509575369137,-7.529347740340272
11.974528805738132,-26.68749543314071,31.105950836800655,18.29769148937636,-5.038237834146709,-13.109471737683842,-9.143796592310952,-7.579760571214361
6.885149093090025,-4.106617484852646,13.831618965224358,6.439698497576266,-3.2761093741758383,-6.815201388589995,-6.206774821989004,-6.226330556437448
1.206875735754728,23.341562285084727,-2.8890016843671362,-5.674161817361684,0.3102365341564729,2.146131053425267,-0.5948830399638768,-2.9477190929399644
-3.234272508566111,49.04483651715457,-16.016969355929632,-14.758681241200655,5.065633548702148,13.11181621290021,7.172304451068645,2.069257589001986
-4.9234433254360335,68.07248413428589,-22.94020004632713,-18.65881834823222,10.433106411541175,24.83160206800866,15.649593000609471,7.691033017485902
-3.4746986442737793,78.77600367697525,-22.796873443415567,-17.399566007273428,15.825072631219987,35.41213713283571,22.63277023240957,12.077088415244406
0.12664040983872468,82.28076374645416,-17.352401148449587,-13.095244354105688,20.272042948595,42.54317916864793,25.762500588667912,13.414314142899359
4.048874665533594,80.82650736198782,-10.561412004734066,-8.754580206732511,22.40467981274711,44.23443231069424,23.50659929933293,10.836178555402316
6.597984633005267,76.5058478901052,-6.693599598119126,-6.698414065134679,21.098776207378187,39.89708225051366,16.130179770615428,5.029644184174174
7.047621554582521,71.0950396912431,-8.029557075479387,-7.516918668426996,16.43909946879307,31.12905980282209,6.042770942119182,-1.8648095713915607
5.831051479404013,66.36745175042871,-13.653346440466176,-10.092832696952401,10.174397836813705,21.480870921540856,-2.919704370953538,-7.098878422852084
4.067185664704445,63.92275695957637,-20.179213866377257,-12.523910301674125,5.094204775584882,15.019411254183739,-7.135582978628646,-8.541521777481497
2.809765577970977,64.41168278047279,-23.86881842698374,-13.296878980080386,3.599244195420599,14.350173451935722,-4.9733101913667666,-5.69624384077493
2.4959875665610674,66.97178821217334,-22.710684606631613,-12.060705457523069,6.3994101590581245,19.245445756495155,2.295290275290684,-0.0010824570633780166
2.8457161752905025,69.60254406799604,-17.295356169371722,-9.686743486290961,12.172837359360985,26.736969942606123,11.013948607016447,5.77425169213239
3.1615053821024404,70.28237690341257,-10.272110117217366,-7.690558601431611,18.320643153185795,32.65480424396685,16.86750165241588,8.80239222161797
2.799136399940955,67.98562538523653,-4.92562992359245,-7.35305302735913,22.296971287666093,33.74592644652432,16.935236747921984,7.571324246851723
1.5476238573091772,63.01045457143322,-3.6115846121408754,-8.995497680384418,22.79963584790126,29.22096083469241,11.041258652579792,2.6755873678809765
-0.2733160553149966,56.673591375713784,-6.708059985215347,-11.808330244794842,20.28903158423723,20.96159318347614,1.7502712555855853,-3.4289548509768157
-2.0443329706539175,50.69592295274372,-12.582984574950302,-14.354058562885537,16.618743991319455,12.384697337308435,-6.956677296897651,-7.645271289750643
-3.2582975504364837,46.47181737272811,-18.675272890276933,-15.445569935136232,13.940510769921486,6.662098866263386,-11.629990523146349,-7.8152381630611885
-3.833387430682225,44.40347184163327,-23.08728024631794,-14.829703236353938,13.458841696169896,5.280304179311277,-10.911376660144233,-3.8018607650228256
-4.1067066662753025,43.70108256764569,-25.60161107420233,-13.237921123143696,14.805591848308234,7.663158940384729,-5.914252477527544,2.5220873357287665
-4.526828111508021,42.99017117591992,-27.387450207357322,-11.828181493175867,16.474051354626578,11.928396836080914,0.6954867116505143,8.343808931489347
-5.293757481762456,41.44164161081677,-29.711065835350382,-11.45533177649588,16.99860306099867,16.18800429675555,6.2932883941266775,11.398203209079234
-6.217055175023679,39.516383798605496,-32.76267456315993,-12.248462101219898,15.992172668611458,19.53901719838777,9.590746230836288,11.030778723513318
-6.870566254377883,38.61731946604176,-35.49508431533426,-13.676971184173109,14.300291992193097,22.19001001195835,10.934132315248174,8.295416298730732
-6.902660307555339,39.924922138732796,-36.4212729624271,-14.956633034756477,13.27167931979367,24.803788541632333,11.59977199398917,5.135617619172973
-6.294023975827996,43.44461525382549,-34.61686125686804,-15.519124708687755,13.790196588568513,27.641273765465893,12.686399120674073,3.204268919694608
-5.442771212182886,48.00396260985791,-30.27836364330074,-15.326984056573972,15.73346182066984,30.128561890710184,14.340726132125688,3.0173767592874907
-5.068467902847094,51.98216395154572,-24.725497525342856,-14.920021495686067,18.059127880963857,31.092153608667676,15.71743640373578,3.866992561935811
-5.977574644695456,54.01856589703683,-20.029513219932337,-15.17223693275053,19.303827763016912,29.451006818270848,15.575748566369649,4.432044599339573
-8.755940487108406,53.2863544399637,-18.37683631483385,-16.856187520637253,18.195998334508133,24.909636884179882,13.071862667402673,3.6273207340578084
-13.49514942899959,49.50926696633874,-21.24507964428052,-20.231392918856606,14.171966434370688,18.235818131148307,8.262669714572793,1.1556124856749366
-19.6771816137028,42.991233121588536,-28.67821059653601,-24.876363103491816,7.6281360108111596,10.95565120840477,2.064471416291873,-2.4991300978854794
-26.274309202938674,34.61656135709164,-39.074165269526496,-29.82301997884905,-0.20697998436673304,4.641237796289378,-4.227727769585562,-6.4897652365776555
-32.01020943284355,25.693881303716644,-49.62667137916663,-33.869897447370555,-7.705786219457792,0.23431675365582155,-9.481857717777785,-10.048402049849246
-35.68704907081656,17.79284472339552,-57.14195743531197,-35.92952246034434,-13.296084309634493,-2.1580059048371862,-12.97558970771236,-12.667402741123484
-36.535198079645866,12.788693915592448,-58.89438762547189,-35.38548155165707,-15.712761173994151,-2.9074387631675154,-14.313911826162002,-14.053169733058866
-34.572029715865746,12.852858978016583,-53.51344541942568,-32.480486612791736,-14.157028044523884,-2.321802899741826,-13.324834776802732,-14.112992281572556
-30.86642536085614,19.702261118534164,-42.02269094633139,-28.60311622402181,-8.677192469519358,-0.45826317560013496,-10.25269083449432,-13.143046337612315
-27.47588008063154,32.898694231814055,-28.67703717141317,-26.15367737954546,-0.7960558199867566,2.495782558630184,-6.186220601076474,-12.064571576095066
-26.85193261243766,48.23058033879019,-20.627606220699384,-27.745181914149562,6.162848462945665,5.642626720065679,-3.2338532774978526,-12.344368085168282
-30.788644839191065,57.939889078543175,-25.609594235834578,-34.90968880696571,7.791506194607313,7.255505900803556,-3.959722681444122,-15.397536508294259
-39.363353665394904,53.70786308392555,-48.092483022618744,-46.95160722631363,0.5088519288454617,5.469333511979547,-10.126510719732423,-21.71069942296513
-50.49139827184649,31.289728920668573,-85.80730045747148,-60.71012511372026,-16.183628272267903,-0.5517652216917273,-21.43916697750925,-30.256662062064894
-60.496480108119584,-5.910751379708748,-128.98752906613475,-71.58732735831992,-38.52899443410641,-9.771297955074253,-35.17257509341682,-38.677167528392545
-65.56919857707668,-46.87374880165494,-163.46250411241218,-75.47872345837322,-59.4496892122974,-19.42563284278441,-47.09088451094291,-44.231690697247274
-63.458270682202816,-77.2091143259303,-176.5565199108413,-70.66151660563293,-71.42958066607898,-26.188858974755252,-53.258900954507354,-45.0067917594272
-54.543903180624476,-85.6981844918094,-162.93248309278692,-58.640333217945454,-69.9659627297322,-27.727287192830413,-51.77554754562722,-40.71702227581761
-41.72152496754415,-69.6843510773695,-127.26701777035936,-43.48362523692063,-55.752294605340744,-23.766820077831955,-43.49748600101884,-32.69662568629024
-29.133532092460506,-36.33856220032397,-82.22299978255973,-29.996010106640945,-34.3748648465308,-16.09869668146344,-31.42001370207616,-23.17073797817815
-20.382280180352215,0.9132383341003353,-42.7175377920286,-21.677666267905998,-13.66603430095079,-7.579727525509129,-19.147065777653594,-14.277045983728804
-17.102199593713806,28.8237541018161,-19.462053594598423,-19.474892992646637,-0.13315706489542356,-0.7364052352725268,-9.3378381568859,-7.362345715892846
-18.53610268915243,40.140148281007406,-15.013280968803809,-21.826142977673673,3.6823716546398124,3.2638060901208514,-2.912125932364598,-2.814529350819771
-22.206132539799864,35.87299265858311,-24.023070426820595,-25.78800619457263,-0.31042348142099074,4.807411405566596,0.7499496065844985,-0.3283574893171152
-25.228380771838403,23.30651366866486,-37.00609615480935,-28.53083804152254,-7.381349523444653,5.2555228575106225,2.9734730706622003,0.6953810698834075
-25.588473167681215,11.478227601185372,-45.22248522664375,-28.476399006388874,-12.57196197659154,6.06011589548529,4.936840824857453,0.8542820318027154
-22.842531013194286,6.905092544717993,-44.175419737769786,-25.70155500766622,-12.828095589465198,8.091251219153111,7.228621415022028,0.5968960127041195
-18.062202216934836,11.454429054032673,-34.53778548830796,-21.62317328610788,-7.853953000031254,11.400238676763935,9.83251236579552,0.15950684802646914
-13.165225574576787,22.490552045959774,-20.86279640388749,-18.186361980894947,0.254643658453137,15.31009421420568,12.30327430479987,-0.4329090759578571
-9.950938032628839,34.362358180861584,-9.152728187238464,-16.84771431152298,8.081188681338523,18.634983487537458,13.956144649863903,-1.2496083074924915
-9.224778190760903,40.46261299202911,-4.239159036994065,-17.721240482997874,12.220938708908362,19.980290308314974,14.095749050831637,-2.2145718996038726
-10.382164556613734,35.60284547123893,-7.6805264543042275,-19.311515731047027,10.6027428887453,18.19397218943063,12.361064818825445,-2.8845945444673853
-11.679940655575704,18.308448168526738,-16.89490812266937,-19.10336158792168,3.4472588160279036,12.923892509684803,9.082289058416722,-2.464083468273569
-11.115873723844864,-7.980054443331732,-26.127180463525463,-14.835887152225723,-6.635538701171919,4.998924548562664,5.3637815786511105,-0.15386317649205167
-7.485696091600335,-35.8606661044046,-29.116963372837724,-5.806486010362267,-15.685921587992043,-3.703772104853855,2.692687683263044,4.331460911846996
-1.0385196450270737,-57.0788746873616,-22.25485274559825,6.575534270891583,-20.212014224532165,-10.97491090134251,2.2123508924475437,10.426994289553013
6.643469161417567,-66.31629375499011,-6.478893057618342,19.364705714401044,-18.84523566923955,-15.234594864813522,4.098036913381061,16.837023995923623
13.461224426731643,-63.519956840062164,13.236552816088865,29.475643620426613,-12.884629169512019,-16.189230553363444,7.4530785391664525,22.08672377831396
17.823946657996547,-53.407826999015384,30.519401884582454,35.08845179676552,-5.421632862109399,-14.804113557670796,10.805737940317563,25.184722808176556
19.3025123567206,-42.54373646819095,40.78393628492467,36.28059019072737,0.3887914177222275,-12.651306906253977,12.886774855690751,26.005428057837523
18.603175971601836,-35.90409116181025,43.098048374398374,34.632197194963105,2.837004587306436,-11.078877322463372,13.200122524382955,25.201469297583582
16.99418471869225,-35.01634119023849,39.831472295757514,32.196221747549785,2.1058788076512522,-10.697611541029318,12.08004906085725,23.76502209499829
15.615012690734435,-38.407174727717596,34.695908833521806,30.525522180276262,-0.3835232424541301,-11.382807614087312,10.305988695513886,22.542198785540656
15.062188631820243,-43.41081570470118,30.694952517633624,30.240212535087284,-3.0441845207991665,-12.61651298253769,8.615098256747402,21.9573467558629
15.363646801342817,-47.787509322599206,29.157813685263633,31.15318985616763,-4.855532806499609,-13.854363751459026,7.41782458131816,22.00849274247777
16.193162381829158,-50.36749830396549,29.932325090516358,32.66024705230703,-5.508860839104772,-14.735569162443852,6.777379380864803,22.430578821937825
17.122399622370583,-50.99302652181809,32.058534601305425,34.11564716494896,-5.217227221165616,-15.147418156967317,6.524246419077144,22.891441069148648
17.809111538432653,-50.28808072021422,34.35681728049054,35.0864332606351,-4.487217989750104,-15.208606921341445,6.383448215555275,23.143344514291506
18.106593048225168,-49.34370408187279,35.85611967081863,35.472962062159134,-3.902759136567558,-15.180505972594355,6.092644157139211,23.10337055219197
18.083076325223505,-49.17234945158269,36.140393792907425,35.474962095939375,-3.8695091995559387,-15.309339141312837,5.515141379841954,22.84973881237659
17.937465757818888,-50.127825948601576,35.47465810118384,35.410236012121835,-4.417722590068866,-15.680687279322125,4.695856060392638,22.54030276668637
17.856667632932474,-51.792677176588874,34.52648883375591,35.49967784579792,-5.249686723224811,-16.200944263276064,3.8010819784780643,22.30426829685569
17.919764852336574,-53.483217544536345,33.85059816227578,35.78175489339358,-6.02153737698684,-16.718174943612386,2.979886327924418,22.182189945156754
18.115635805215366,-54.85691086816754,33.60101926373167,36.20242832919,-6.588957634424532,-17.15811207578729,2.271555473548034,22.146799923434035
18.423383397749276,-56.003713592149076,33.7011367647273,36.7480580674408,-6.98687239738201,-17.54822097714831,1.6341382812316314,22.161721102630544
18.844620469278727,-57.04597351900405,34.16476838530267,37.45831797565885,-7.2362739290335,-17.93983408562566,1.0323222622673378,22.209331735931958
19.350005275180674,-57.849923563700855,35.10300114528942,38.31362151992881,-7.268925962248527,-18.343674212588287,0.46808391307423813,22.270136819419726
19.81989978081468,-58.23049675832964,36.3924254684287,39.146374598995536,-7.076855246334323,-18.74437823206728,-0.06967941262434546,22.29822882980488
20.075588383486743,-58.334725184036046,37.46063513079648,39.69688295974707,-6.873423582601937,-19.13974171686218,-0.64707434999402,22.23607394027187
19.997003308583665,-58.65323205382376,37.55019949002452,39.775886838475444,-7.01765334915099,-19.529648395645225,-1.3444193360351064,22.05729527525046
19.631341768567854,-59.616865343194924,36.28273636759899,39.40538898354247,-7.741199478785644,-19.877376550358914,-2.1747083746932194,21.793314376014
19.2130305030454,-61.26389898684303,34.03420841744682,38.86480829933781,-8.946442281512525,-20.129803324060752,-3.060002181808703,21.52497190579274
19.092194927749667,-63.30642173666793,31.868557032879743,38.64743232772419,-10.237961650018393,-20.3076704651999,-3.88914273055079,21.357820741002918
19.60075720770034,-65.35877040458237,31.15631783768413,39.315853535854565,-11.093719757991387,-20.558333525540103,-4.582871549045918,21.39452954952499
20.86703460634764,-66.95198467168508,33.0415723867231,41.208932932288484,-11.033135727340339,-21.071275961057303,-5.106114488239608,21.687628839241405
22.61357609207273,-67.4365379616146,37.74738706263995,44.049954369436605,-9.808993493028069,-21.900117326379053,-5.46070934158363,22.164582702416638
24.067124794558357,-66.22653921929547,43.83454443668191,46.706992053044274,-7.7007486440327115,-22.842299856318242,-5.717206079793277,22.57461434413813
24.153255809710284,-63.43739491428625,47.9830142449674,47.41939039185481,-5.748780301386086,-23.47170225430378,-6.05326897455392,22.538432020225738
22.00850898459725,-60.25486170320757,45.99048330299752,44.553648617479716,-5.549442912689693,-23.280245454427668,-6.691033889682616,21.721057844788955
17.572728493573592,-58.34554566247784,34.9533467993077,37.532145326885754,-8.442029069053005,-21.83312619218061,-7.703513492998558,20.031831752100405
11.859062371832518,-58.514432122804315,15.453649653903929,27.34893867201325,-14.493501611236281,-18.91101784411189,-8.833511434827102,17.698429443804105
6.630407090194337,-59.72352632332544,-7.874388952827152,16.276662144620378,-22.06187925747468,-14.668076352852209,-9.536062775261929,15.131511984697402
3.587036538973573,-59.494360645779125,-28.161500509730075,6.866647123092156,-28.441807824134955,-9.775753660002774,-9.30943429120299,12.64515619920432
3.5244763307597693,-55.62788878965047,-39.63726917542215,0.8060260352429774,-31.32054816787384,-5.41703914866395,-8.129809181958294,10.212823946617442
5.981670275369078,-48.02566265070241,-40.462007915818155,-1.7018371611853826,-30.114075779671236,-2.98754484268488,-6.660947806295463,7.438385053602848
9.595016137677508,-39.14823543384336,-33.27804681327532,-1.7117834803450436,-26.2493289937759,-3.507695411923583,-6.001239931646146,3.802447268754075
12.902404413403826,-32.575452746639954,-23.228839678843368,-0.7060874863660218,-22.16753839303712,-6.984457821820385,-7.027529721817346,-0.9293246546095084
15.052475730844375,-30.624382838520155,-14.917052370630906,0.2402126176771861,-19.75638191847018,-12.12178583074681,-9.719282556906924,-6.373667080244036
15.995117116749066,-32.82873770426436,-10.365729212704244,0.8015210182128965,-19.338609963750894,-16.691230050527654,-12.948017396665362,-11.500813790466818
16.148588049687906,-36.43828175526585,-9.053286370370472,1.1882777208009982,-19.868013877838525,-18.504594368710805,-14.962402708131137,-14.98840456346193
15.895588961374754,-38.44767684450223,-9.4319845729368,1.683131555012099,-20.01383109900068,-16.508705606281126,-14.339918825900334,-15.829121436352874
15.287767923340919,-37.546709949303725,-10.471068212632513,2.289299859169278,-19.218034172319463,-11.390647875047216,-10.853920850558307,-13.899633620051794
14.09457496394025,-34.764307408845966,-12.23702661955968,2.681392871120294,-18.038789674735188,-5.357209936159957,-5.746989093474974,-10.163646884752186
12.079395744816095,-32.79832634754913,-15.535642359910325,2.451089674825676,-17.755799342657177,-1.203894131446471,-1.2365175096168939,-6.322123778700784
9.293132906070758,-34.700082779549355,-21.12984187661021,1.4947705223794143,-19.612150103979317,-1.0939125255411193,0.5355994714681946,-4.014414688141211
6.211386474069914,-42.33590373891508,-28.890874887771595,0.2794094856092564,-24.014543212375212,-5.523566270771159,-1.361619273415649,-3.978294967241898
3.616070215514973,-54.790296125691455,-37.11162859677521,-0.2901664122265969,-29.90032014611135,-12.872131957846127,-5.9777097066713925,-5.680571964138425
2.2277205046697084,-67.34067152422706,-42.43805788581258,0.5320266410140236,-34.59264159034379,-19.80086649292527,-10.692078342489406,-7.691534904919059
2.2511450560878155,-72.19094849164196,-40.93659784610624,2.5981734549502824,-34.533881672324895,-22.50281505107632,-12.343532822514693,-8.59739007210189
3.1234669499802807,-61.57536021298992,-30.156640916477162,4.572070841614621,-26.891077271852808,-18.378591602470287,-8.791960060154809,-7.863747208844354
3.6986079767135953,-32.06892626092459,-11.042260523892292,4.452989175412567,-11.292485103689666,-7.3448881303796485,-0.08007840385691999,-6.093754063128597
2.8336847085396943,12.522599504819068,11.76098178417643,0.7098474666747125,9.436824138732428,7.974238689711733,11.493019018043336,-4.5564761029714775
0.0436743303959074,61.91307751211804,31.751361073800897,-6.691320211146196,30.21443340143487,23.362794206595066,22.459344117200224,-4.354748451666557
-4.191243809379277,103.71623290075858,43.62888661114686,-16.075924640020723,45.93109016915687,34.8739257265104,29.81557376658385,-5.792804753046624
-8.667397513973892,129.03369380627453,45.73777388137579,-24.839099779940046,53.71908181144444,40.44820371695994,32.294570274416316,-8.299117085576656
-12.095315120883871,136.02350158725642,40.450161965445375,-30.730898363099428,53.96793461434593,40.47995389644487,30.6411091375077,-10.859188297822636
-13.735597302164289,129.58515199403294,32.41083492702797,-32.86154117110194,49.61295948045654,37.16972147417584,26.885223253093276,-12.610887244024177
-13.663483586504993,117.82383138646271,25.920848191967305,-31.87863523703095,44.31060351482702,33.184708424742574,23.16638766085622,-13.227420281560859
-12.56387900137278,107.81287197430586,23.116519874995,-29.345862046536205,40.70371842052226,30.44173070194671,20.811543766751733,-12.926749911529079
-11.267619983646744,103.08384584046468,23.777470771220308,-26.833327887092913,39.68427765041225,29.58634901288904,20.0662724922594,-12.211055666804928
-10.356245863481407,103.58048569914732,26.34060777391589,-25.283060799163405,40.7144889767022,30.206744025218146,20.400204597734792,-11.563680219418378
-10.025930497279743,107.125328601453,29.083121947680837,-24.879265380808786,42.62173329229754,31.41343163880924,21.022155652127662,-11.267764334724202
-10.172207934516655,111.04951117580808,30.804005450626494,-25.277838224629836,44.281031764484744,32.3775326116956,21.288128257968044,-11.371762679338188
-10.54598905021408,113.3242369648101,31.028449327105015,-25.92948731716697,44.99624031337776,32.63701381067215,20.899085924683504,-11.746582338235033
-10.884030907280277,113.17748568558659,30.001260725582274,-26.34512699915543,44.65308044999924,32.17430015558562,19.92328237937733,-12.183464119004196
-11.005047473290043,111.1990181507341,28.506113217426467,-26.27287501214565,43.67114947586372,31.315565648685812,18.68488094274975,-12.502528321589942
-10.871773957632628,108.80920387152393,27.42573581529638,-25.76103880695148,42.71467462007129,30.499838421204398,17.55669494528434,-12.632978070482821
-10.584237440845433,107.27975221476675,27.21686126276813,-25.067394445456042,42.27051287350807,30.020378501762025,16.752417620112226,-12.620856415533105
-10.290793453617884,106.97644343196684,27.708165906012756,-24.45657483115458,42.387931724622966,29.892101618430416,16.24766111369711,-12.563330029847611
-10.08209301434303,107.39980185784296,28.391240402789936,-24.036843958980565,42.777545411381425,29.925668543493227,15.871361489610562,-12.530586151583668
-9.961366367057266,107.85335074168603,28.875919333461244,-23.763210969718145,43.12613784475907,29.91921887554101,15.462712789698235,-12.542814631013124
-9.903994876330184,108.00117498736493,29.051058548994362,-23.566310932823413,43.297104890005734,29.79055312121542,14.949361371309775,-12.604319686988799
-9.918808104179725,107.85963292872687,28.90897315135959,-23.44335533540301,43.28177858684235,29.566741877791433,14.317496458298807,-12.734508717522928
-10.029795044939535,107.5027555517568,28.409179528250935,-23.416936521598963,43.083452389808784,29.306441960902088,13.568522898533674,-12.950316632691363
-10.20430557071388,106.9957748989856,27.627045489825562,-23.43892249460161,42.74330576296463,29.06365529534948,12.7382913616063,-13.223762939686633
-10.326354748386317,106.57285380706846,26.951813071255465,-23.375572672689614,42.44672716744993,28.895309361651552,11.93417864586028,-13.472622732056617
-10.26198228168552,106.61458066273582,26.943300761936236,-23.096786685795717,42.47761700382231,28.837183068380916,11.297177004729658,-13.602637737002134
-9.958911081215849,107.24483575941693,27.863331729649857,-22.569604862141542,42.9715793813575,28.83675327109579,10.890316112790094,-13.563696202732142
-9.495549818578723,107.99452739004322,29.338803594073266,-21.878241820225252,43.715104802022,28.738318217919257,10.62304299343212,-13.380160102309178
-9.060703667238888,108.05915637528203,30.51235158387289,-21.20052169444955,44.23897005602114,28.394188119999704,10.295358503778102,-13.155089390974627
-8.898514566605586,107.01857106572872,30.538585578523488,-20.79080470137108,44.14352866562834,27.827862880397557,9.719450172276197,-13.060734168011908
-9.226335079086107,105.31374545465731,29.027642689836195,-20.926210618778804,43.36563865051626,27.285162565953446,8.814870473809645,-13.294789205647026
-10.098169063994671,104.01880440415218,26.26733771417725,-21.733000164997417,42.21620919613955,27.099894252404756,7.641095272460711,-13.968818204026308
-11.242868279261554,104.16656602397919,23.318489605800732,-22.940341032490252,41.270489060989675,27.468483331143084,6.408998872600686,-14.956864134696753
-12.015449576022759,106.16220497459878,21.932148563382842,-23.780113097119344,41.21562638491488,28.28261197364902,5.476511807595216,-15.818726601513891
-11.604110163970253,109.42404804743875,23.951074244981573,-23.226393158114508,42.57211374261861,29.081600544277453,5.245862752134907,-15.912380255667037
-9.460836146440764,112.05964462682395,30.072530773864397,-20.509336746067703,45.190532007712605,29.106647960323876,5.911506366710862,-14.687502641352468
-5.703655911580046,110.70951312875178,38.60963853511592,-15.5825452543902,47.75431314949766,27.464629426461872,7.186367604247941,-12.003437570308284
-1.1902885396140905,101.19110836297641,45.38504896099381,-9.221748370861057,47.82739944905248,23.442175030719177,8.263905202261709,-8.27242629997121
2.8426022370897592,80.3121225420919,45.36498540265319,-2.6843310369693727,42.78519288608289,16.913446206740495,8.1600687466814,-4.329430270332461
5.386170442302701,48.14170631380279,35.349844581941696,2.8547872289818406,31.291804004473136,8.613159400485754,6.278472495132872,-1.0945599013034375
6.148306863310851,9.188726204159035,16.07268107376182,6.757280311405021,14.422879506543081,0.0149516539700374,2.8213737029089296,0.7889937859668953
5.627132785773149,-28.695855437911046,-7.729310611739696,9.030958129888152,-4.389457395505645,-7.231725887731864,-1.2652675895790857,1.158020348403411
4.738762944210461,-57.46375570676321,-29.44284931167396,10.096061990899248,-20.716809491437733,-12.041175854299718,-4.812541248599181,0.300529522688669
4.259452543367751,-72.41558845654994,-43.6720592234274,10.426145303529811,-31.09721189495646,-14.376800133172102,-7.087194357229286,-1.2359473576703122
4.446102476214847,-74.09027885838759,-48.48304442600305,10.320900197011596,-34.491224694315804,-15.165425380555595,-8.155680055684154,-2.864064755445944
5.0387862636871565,-67.3942982625722,-45.628701392079336,9.908101788538488,-32.43352433104133,-15.66821758916706,-8.727205097743113,-4.113447302326338
5.565509450722195,-58.640428653167206,-38.96491626422654,9.274676933317245,-27.925807148784962,-16.700980210173135,-9.621177527858045,-4.714005406781618
5.697042246234007,-52.47491870655091,-32.32134287659853,8.573144138607299,-23.874791948101894,-18.208342041108352,-11.250337758183028,-4.625371704529999
5.438696156984951,-50.46117851889338,-28.064150379644754,8.036845042144439,-21.98295451496936,-19.435659236743266,-13.44062370411904,-4.013897908616563
5.097303392274654,-51.61625971943478,-26.751088151141396,7.921067291886821,-22.477017692197045,-19.51239975319506,-15.619009337577012,-3.1731166264863386
5.081125919676865,-53.870221535819745,-27.54569135200063,8.394245772129112,-24.477416828169666,-18.02680509594054,-17.165784003599157,-2.4122251245855564
5.640270917335878,-55.31057507305553,-28.948784497026057,9.404330236373148,-26.631481290135138,-15.288215840298085,-17.71041498528108,-1.9607249012761307
6.675669886904797,-54.84695934831196,-29.609048599711546,10.600756528333477,-27.76361605206504,-12.242905525966757,-17.2680367169724,-1.9202330207523768
7.737972688849504,-52.47148791826221,-28.98139662580256,11.427822468784886,-27.374734228894695,-10.149228565854976,-16.198472856377848,-2.253639248808106
8.256094278342045,-49.159404446681435,-27.469407912380852,11.412764851752275,-25.772619858691353,-10.093297439374965,-14.98889439927998,-2.7836217473754172
7.884486358058318,-46.26355078437027,-25.87575247300856,10.493229352110173,-23.701232573238546,-12.433503928889523,-13.91674203492467,-3.1950839901449823
6.749380064867659,-44.592626363645344,-24.552260486000044,9.145589723447769,-21.68756877927993,-16.40670136003356,-12.77534681364432,-3.0686923985837398
5.42185474496474,-43.860274703685285,-23.001724147149723,8.195826776327918,-19.62587059516037,-20.23228432786704,-10.901774356583351,-1.9760891611220455
4.6277605535071595,-43.0459472955071,-20.326161309758895,8.413468608212101,-16.970426408814934,-21.859675636446585,-7.589552299679204,0.3618200023471709
4.869620055853978,-41.38404952539621,-16.13609914632904,10.109550829114946,-13.378401233827194,-20.056827571689883,-2.673780450076365,3.890225276681056
6.161392979187625,-39.092503378373884,-11.14023618698468,12.917105002050803,-9.253353891178493,-15.201626499524357,3.098052763251298,8.081032094387135
7.986696440936703,-37.25807657785737,-6.981176214323269,15.832296741753572,-5.758470391910966,-9.246402217203388,8.185696132463674,11.940199326715387
9.488605644662563,-37.11395913051987,-5.502995857794726,17.531397265129847,-4.309520382827324,-4.82107622017739,10.846723607520104,14.255228333361888
9.82987240491911,-39.3371441141675,-7.901105867397164,16.911187256238247,-5.868841328201523,-3.946662189131924,9.923884410145346,14.07259810391009
8.595604170655593,-43.68698315721204,-14.074868225554793,13.659193193667667,-10.372719765399651,-7.021677144398545,5.4643956650241154,11.206354059960685
6.047142392672725,-48.91993460245851,-22.384452805439913,8.530400943773412,-16.52407218629424,-12.575344936680038,-1.1375253377276384,6.449001870838584
3.0567479758633014,-52.98128786857007,-30.04186681602791,3.082960749203851,-22.11824980617261,-17.906743372497978,-7.614423378175576,1.2589764215889168
0.7122455608684205,-53.69053736058431,-34.21970012696832,-1.049323226904493,-24.92184772831965,-20.321594288274593,-11.779266955364236,-2.9625340268739784
-0.2085416867694745,-49.89058559980039,-33.459019050255506,-2.9332256920290822,-23.78202356795433,-18.38753324008018,-12.524977143484332,-5.561570004153473
0.3951198626231268,-42.409205912881845,-28.521014151536694,-2.703823399448266,-19.334849649906214,-12.600220854962124,-10.327323580465954,-6.822665074046813
1.9181807924402126,-33.984327443040144,-22.041932210185962,-1.360257735111596,-13.794462286968502,-5.147761117326391,-6.950190178395709,-7.549854697335238
3.3352371311822364,-27.981328584582908,-17.171879361458203,-0.19112726964905707,-9.880140313367049,1.0656415691008443,-4.527713933119397,-8.382485961895686
3.6355111603369,-26.687880295082586,-16.07090580729745,-0.18492877920059828,-9.516387289806293,3.6239196771862257,-4.555950940997146,-9.366463516784744
2.2219129883037194,-30.241867878940766,-19.093593294571924,-1.6891310186221207,-13.026853715427855,1.4967966881234083,-7.306154400693116,-10.059479692102817
-0.8677801865968408,-36.655952481675826,-24.895037397369318,-4.404524980923234,-19.13431111426262,-4.658417179190057,-11.849194820510814,-10.018108081715043
-4.9991008702196895,-42.70053569214612,-31.189139165631968,-7.659622279408164,-25.61223921418609,-12.804067564201253,-16.553803480539678,-9.252691902390781
-9.225555957276553,-45.235654173144376,-35.793244294045216,-10.798921513356364,-30.24678436893969,-20.291253484741965,-19.785421816381657,-8.306829366736677
-12.675164700738245,-42.701229771508395,-37.62664226939733,-13.441218594487593,-31.78002162716872,-24.850296808562586,-20.5420874519772,-7.9097208256421965
-14.812218403050428,-36.2963002597148,-37.21861771350915,-15.4156366634203,-30.48537172531489,-25.453849354341845,-18.799675635798227,-8.435949492246877
-15.425619270856744,-30.00265459326747,-36.26054611086602,-16.42210939296692,-28.015220468690384,-22.654792702767917,-15.406214463425313,-9.527128062244602
-14.415088246867874,-28.836976510144233,-36.21855164185746,-15.742128790366616,-26.42523961057813,-18.178835235719465,-11.549393108600505,-10.139657730304782
-11.62656978247946,-35.90111855621162,-36.851461419221216,-12.367110906062583,-26.840810422550593,-13.960904723097435,-8.085762722308138,-9.037112653038402
-6.943956730668174,-50.06742533890532,-35.853702029389,-5.6004441147750725,-28.645723014087054,-11.18405625986434,-5.153113089804146,-5.473917552970354
-0.5893953025380883,-66.13385663475474,-30.172957976728437,4.252123932570556,-29.84821661726731,-9.885123933099552,-2.313928998990107,0.3224975949497491
6.654443613503531,-77.68210207844083,-18.234407366408757,15.66816295305878,-28.458878734572863,-9.28979326581582,0.9113042269612561,7.171844595296782
13.576179190809617,-80.84381445414807,-1.4480441479632853,26.44935587810607,-23.926210969610942,-8.537900881043859,4.554273255270983,13.477807367437665
19.022217951613516,-76.36215852339208,16.23402139698424,34.735007225573774,-17.56902403518836,-7.241727128131773,8.133917869607117,17.98236437683955
22.423291231503587,-68.44911400335407,30.543446807988076,39.80800966918558,-11.642126129483419,-5.52929448400806,11.04128473069218,20.296354131659772
23.96610781737873,-61.26180464679203,39.36554878469849,42.12139514907103,-7.689449543821393,-3.674801351585032,13.021798117348752,20.897102221810197
24.262502821277852,-55.66622835912886,43.637822773102414,42.54710927088392,-5.4247497188617855,-1.7456405965856479,14.311553844708884,20.621093117461953
23.762758553740174,-48.8175575796267,45.99896183329661,41.455534975966046,-3.033127454581211,0.3693461236900594,15.276034908911539,20.007552675673935
22.375832922138198,-36.90451648331581,48.262513919267846,38.37260710881515,1.2982131633311358,2.586261487880998,15.854176176631977,18.939072055413707
19.600287263902185,-18.880547831286837,49.73197176297985,32.49244194525183,7.783802039700385,4.3119294358539655,15.331593339815747,16.80614431702733
15.057198614301738,1.7588384518176763,47.67404981223485,23.62552868876917,14.58842712745955,4.576696177941735,12.727729349567602,13.051736798700071
8.995219933354065,18.51114425344791,39.518982616166284,12.812400333988545,18.831467518223107,2.607078024671383,7.566147739861728,7.702434944775957
2.367954324146615,25.56408030066516,25.052000262711925,2.0991730690456847,18.29199207339977,-1.5758950000153562,0.4494059536868895,1.532384117033457
-3.5804279990671786,21.076709588556845,6.999289014171766,-6.391815008864468,12.655065553862249,-7.001499429039163,-7.022100734999911,-4.22387692507394
-7.926484041825984,8.018081131855238,-10.281774560796975,-11.46702710704361,3.597045383093437,-12.17147577843026,-12.96573953978919,-8.406386790130254
-10.467200572851365,-7.607190851487002,-22.94881644867406,-13.309129518667655,-6.134489684168563,-15.759355091134177,-16.088590501874044,-10.394090668532606
-11.687708181565888,-19.660877289812035,-29.200202112991388,-13.171409820833471,-13.90784498908918,-17.10875187813958,-16.16031781352604,-10.278408901596356
-12.393202485660938,-24.13024542647381,-29.449870899218013,-12.629966240706292,-17.997487517808892,-16.26724070031548,-13.876511042361768,-8.729574769516228
-13.289897186383664,-20.012362869852172,-25.545054105548722,-12.891612267865213,-17.85166242616555,-13.69818134099243,-10.362460171130706,-6.687874708943686
-14.7341076646407,-9.250999368723052,-19.924060048582838,-14.44289020721859,-14.119030509510893,-10.029356125048302,-6.741322843925026,-5.022761455709754
-16.66283474872811,3.7080554938723616,-15.135891589963935,-16.99290749873861,-8.599224547291476,-6.028000701073771,-3.9605536487531467,-4.235023890198692
-18.604986479451824,12.893151692923645,-13.379277793618147,-19.550915578392242,-3.8943394345155125,-2.6425662321667778,-2.7269140869713837,-4.251051127381935
-19.743821089025975,12.79291669282436,-15.6441892101932,-20.628324057509776,-2.4890937495654804,-0.8221072155950506,-3.328717286869426,-4.399084353426001
-19.117628355404197,1.0279586855997414,-20.7717195934281,-18.686340921326202,-5.487956254125741,-1.0682953593942615,-5.379037024924682,-3.6598711738316827
-16.012725509620605,-19.79019182607507,-25.38060175050285,-12.822640552160692,-11.793206302287398,-3.030682661430796,-7.772145787899876,-1.1579631714571632
-10.412810522677956,-42.61866786846242,-25.26326982071734,-3.395469696974194,-18.454274678834924,-5.536388331155137,-9.081967896743876,3.329941464098312
-3.2158464832443,-59.153099208129305,-17.704240999216697,7.853025205649258,-22.16830380430717,-7.147011996822457,-8.274875503823278,9.153398258386579
4.00089327041776,-63.92931220936008,-3.2632073499369056,18.387450479202773,-21.0616386050699,-6.9214406187801085,-5.297696041887355,15.022353182138538
9.610928251669169,-56.88592381446397,14.253729616169009,25.939905001643567,-15.632029375173435,-4.888250417981758,-1.1304281359895985,19.58925826634434
12.629102257105842,-42.85747492091625,29.728755361605355,29.455655805640326,-8.284665348860385,-1.9316246855305863,2.7508491492625415,22.049162342119967
13.066884021869326,-28.486235263575633,39.36193706226777,29.3893301424024,-1.8444203621688127,0.793241059226988,5.151341468722628,22.422842093487336
11.770651199217143,-18.68961532914179,42.32989365798861,27.2408724019051,1.9223242523111574,2.4918329695896095,5.680302474515549,21.403137161302965
9.89539929644961,-14.873707104415859,40.56328875798261,24.702020681498958,2.8720728885922693,3.0126074556336793,4.741894243570034,19.919838563256647
8.368027210607611,-15.538880486204548,37.11119816012096,22.956726436946006,2.009312597830157,2.7006774325591434,3.1155526463846,18.714930745593414
7.622073862557583,-18.14179134226801,34.428489436432606,22.443802432068125,0.5913491133980355,2.0600961338454113,1.497353350719387,18.139287877077397
7.636507822331247,-20.5787023657072,33.61806158135799,23.00465567557379,-0.4755676409688228,1.5100174412681875,0.2896301881596523,18.18501357793658
8.120398730826393,-21.604300784048927,34.647834127123964,24.150543060311765,-0.7390030857834838,1.3200619938429863,-0.35891138772785025,18.63018217655635
8.688137591553893,-20.64681912542573,36.89978892735728,25.28093541679475,-0.07081921720379253,1.6205717390262608,-0.4474806077549927,19.17753500041601
8.985996190185675,-17.673479022677384,39.57314807788273,25.858178603406547,1.415284767450725,2.389025832287685,-0.08638970769270836,19.550600981720482
8.796283727157354,-13.187266209600141,41.9486195143304,25.578559370065935,3.3972297907082223,3.435150653349211,0.48998074637377115,19.561395049371203
8.113407681747082,-8.096890990049998,43.63208905268499,24.497347361751412,5.439933527421443,4.450944551559301,0.9389536719359823,19.15590810026746
7.148573680077219,-3.470001754238524,44.65084066973137,23.03132686787749,7.117700333600564,5.117428483354004,0.8789803170977347,18.428511746202506
6.250787286180737,-0.4249856913777823,45.231380951303244,21.831011673752514,8.044169465868423,5.203286279374421,-0.002072914572236035,17.606830046615894
5.7850800106994615,-0.0993942344708459,45.43962535881454,21.57366744783485,7.861638599847539,4.6390825562111555,-1.7902223241342474,17.014457958250055
6.004214495536179,-3.2173869350944218,45.116144150352916,22.69862858052717,6.407930058369977,3.6072938410334063,-4.143237275947341,16.992732243032993
6.907935417265225,-9.100922221750226,44.22408400191575,25.08305998897053,4.095436915428856,2.623668809244887,-6.165560369494505,17.745487265081216
8.101296127505021,-14.915963353752018,43.14856260520122,27.76332779419142,2.131166548266951,2.459599455000051,-6.583029625245172,19.125590706783203
8.757540237616345,-16.345002740513454,42.40585268116181,28.966397559661278,2.1107816863261415,3.776688217472469,-4.319165426977108,20.489498647756605
7.835967573645092,-9.915414718330783,41.86294009503021,26.680662472376486,5.005142065656992,6.5914513188036485,0.7632806979103286,20.79068189435223
4.577436139699316,4.415649115566832,40.26215983908008,19.65661093408867,10.224521538578731,9.954303243585906,7.462349100799594,18.973049167563165
-0.9450099161635792,22.513408694478947,35.78128813600236,8.311129567330305,15.606951565519905,12.21310257796967,13.585494130131725,14.511371782157322
-7.592879519428792,38.15215070389778,27.487750037204687,-5.10224790802629,18.577503235245615,11.86444342810894,16.97966234841746,7.792210716465954
-13.508076447693869,46.786034291179796,16.602047590860227,-17.333068583891432,17.792978820158666,8.524660906964446,16.658153051555153,0.07157560227641206
-16.964837900289915,48.344237553998845,6.308863099479684,-25.635327049279244,14.065051307481648,3.3498287062848253,13.284591636042647,-7.024044490669337
-17.303874542411993,46.834111075303454,-0.24298857174579871,-29.11540886937755,9.736741659995062,-1.490696193095511,8.648408471621028,-12.212421106092739
-15.394603840697657,46.828572686289384,-2.6248731350492407,-29.131154204086965,6.813361785433502,-4.058088369264543,4.44989112720786,-15.103168104917117
-13.285405547610571,49.40069763443659,-4.4503671016956385,-28.477334661331632,5.200921163881297,-3.83008398123606,1.2187258705786908,-16.279551559173175
-13.171363582747034,50.68450170749649,-11.919044771284604,-29.820380505733443,2.4677804410372106,-2.0263695523966607,-1.887481254358077,-16.881499459072035
-16.244187061462586,44.32459166749734,-30.12303459119632,-34.295563462209266,-4.549616789586041,-0.835072201184985,-6.290756983705746,-17.944114065173295
-22.082823011035103,26.124602690250818,-59.44296254603791,-41.04916539017704,-17.382735705232047,-2.05251522872495,-12.801140246805968,-19.875599524384185
-28.916233161169398,-2.420669319311936,-94.48809315759556,-47.897499742528105,-34.47805968623855,-6.021968973000811,-20.869126827169904,-22.34825864111792
-34.56515252147736,-34.159853400954795,-126.3829764768419,-52.61018353096354,-51.66801532768232,-11.50540272067344,-28.76514363662355,-24.605733173949098
-37.50025284627765,-59.815335227525736,-147.0380744174617,-54.03486797263814,-64.25231555603094,-16.477002637126724,-34.51740081254447,-25.948499921516557
-37.460802345943854,-72.66563012866735,-152.8926652419817,-52.50235393293518,-69.36299129088259,-19.265093244508616,-36.97590296173056,-26.103813046366458
-35.40612588411124,-71.52625836302394,-146.15420337592298,-49.465328708083895,-67.23086673621965,-19.346259951240544,-36.3730450782077,-25.32016914570544
-32.95642062006743,-60.60241898676953,-133.24024408795546,-46.73652860522712,-60.80026722109274,-17.426178612779836,-34.14100464453905,-24.214014617584468
-31.66296901859981,-46.920764078318,-121.67849428790547,-45.74854627154196,-54.169712966196364,-14.925209967831332,-32.192311665897584,-23.493432639287363
-32.386062637136305,-37.20784182210733,-117.1155755584362,-47.045197771532024,-50.8167792496205,-13.260514288834333,-32.068501968769944,-23.665396097853794
-34.918565523342735,-35.60681406398911,-121.39181009888638,-50.034913804981024,-52.307251121148994,-13.258175183291778,-34.27728737516712,-24.7904239075118
-37.93912736015929,-42.455426618693856,-131.83899435555264,-53.055169675377655,-57.68705015653436,-14.826759842308146,-37.97948606525268,-26.357874493595553
-39.38586079056432,-53.90320657087381,-141.8162725183215,-53.86531070888489,-63.580227272000165,-16.92496036319808,-41.12780935521174,-27.380718952338473
-37.249832931389854,-62.644418689087445,-142.7163412792151,-50.55677840689177,-65.14196925915313,-17.878146916708992,-41.13373976340259,-26.754080071728144
-30.541869962584332,-60.332505089805075,-127.36472002090376,-42.54517330733587,-57.91538416305882,-16.05184085932823,-35.96132126870711,-23.7675508700086
-19.956565764899477,-41.36189021220891,-93.682247023101,-31.083189260949595,-40.04991299140408,-10.671719540961494,-25.21995614398673,-18.515378367198885
-7.793803008540097,-6.236112282990631,-46.611362882252664,-18.889470754643423,-13.720413187947674,-2.357998563409419,-10.631487439727623,-11.949066787703654
2.9318119224406693,37.73696304012537,3.2468026260229874,-8.990503122550153,15.315346974366538,7.011849979246979,4.534077616305146,-5.498751660903565
9.774205688069404,79.34609139839074,44.01526233821279,-3.380673824955708,40.08216801540893,15.124853921002648,16.867679764969186,-0.44889086972753695
11.848483674561992,108.58378131452713,67.70485804167798,-2.248512519973165,55.48723676190758,20.29997625656072,24.32119241625679,2.581025992657418
10.017091486614914,121.03211026866286,73.30345830525998,-4.170075960997483,60.41259841735609,22.180222075770388,26.941009913442507,3.757273436281306
6.250391500223192,119.04460588668618,66.20963132682228,-7.058704590381733,57.66127605484984,21.67203613067079,26.457366596866866,3.726351898489024
2.6183037494058485,109.3898437598279,54.71498798655895,-9.221867079235691,51.98039061822762,20.25632131077187,25.090684836691608,3.145075243494613
0.4942998946031655,99.27152780977354,45.88429555545543,-9.925841026235434,47.52939988114204,19.179131568421226,24.39274313793056,2.389086762347351
0.2882828809848212,93.29532361477179,43.07504617935404,-9.317406439176658,46.277471900269944,19.01281069590553,24.78553690851506,1.589383445314216
1.6403794552730777,92.69650752728741,45.828623849111715,-7.985246149304984,47.93185052437257,19.71988267603423,25.869273072736327,0.8623737771163438
3.8084047080103294,96.30980920509826,51.35995642508048,-6.536422516815448,50.93980086355361,20.989135951739936,27.055706748924525,0.4725070088857224
6.030511952195154,101.95684752172274,56.42812980643921,-5.368913264780821,53.67642638052518,22.52286727104391,28.010989193677567,0.7680521846811109
7.774575217243159,107.43412643412024,58.80761608386781,-4.6242931745642135,55.2063029703494,24.11649765474423,28.693749106152403,1.9299802121761755
8.848015994529959,111.08994455325609,58.05678663246949,-4.257599936089251,55.47640014121549,25.57517612743862,29.116581202778985,3.71453690460516
9.357255391363834,112.18995337722531,55.44737569713897,-4.174445916724703,55.06205328682678,26.60984312919612,29.10721404900479,5.391695723738977
9.558149986741306,111.05681274987413,53.12300878416401,-4.351150960702258,54.69200655822926,26.850638629537933,28.29415681005508,5.991666386661295
9.703534310986065,108.94770872792864,52.99385063951706,-4.833564001411122,54.8671513475428,26.0461298557068,26.380231710347093,4.79581533194355
9.970232049092283,107.82114705052689,56.08399024121715,-5.61208378946564,55.842484906237424,24.377402530822952,23.557831601969344,1.8182201380601055
10.435728253429481,110.03639319437349,62.5624588484801,-6.52452079242739,57.89920820365928,22.643008998687087,20.741775708624786,-2.0449462953044586
11.017452241893814,117.60278204211413,71.91021459026632,-7.338893637305477,61.426948262759744,22.023211210706116,19.303855171316574,-5.364796792505991
11.384564141543192,130.60960247831918,82.57395817249386,-7.95839326690196,66.3914593437366,23.367105871866897,20.292808567204343,-6.876294842134815
10.992472915264857,145.40706930369856,91.31924864070321,-8.496358450982472,71.42839158660905,26.37635648558044,23.568567042987535,-6.117695903207759
9.362173255495625,154.18774641954437,93.36863669103934,-9.05455710919782,73.47603167438615,29.31844441447129,27.49737838683534,-3.627281481069279
6.493188277538299,147.39304051951737,84.12536796037405,-9.364052148346026,68.73473880246796,29.66780643336937,29.57552633406387,-0.5972392758842193
3.0884389475028047,118.46729753832743,61.878992562080846,-8.670937539268092,54.73510369834001,25.43593683131986,27.717569215547144,1.7756175252786572
0.33519687604949494,68.32679600042587,29.687887698838992,-6.095311150864318,32.247237912513356,16.399246018122533,21.43988844457059,2.845474169462063
-0.6872061383597105,6.462371343872574,-5.144429717028082,-1.272583048475601,5.6290808702945965,4.424323668780417,12.194333863934824,2.6915109564887785
0.4018510841566555,-52.53550358470157,-34.033133345294935,5.2075527435480895,-18.83431777615621,-7.349719323331016,2.6467690570398608,1.8915020735690578
3.0870052962011325,-95.33143061844125,-50.89163028029885,11.94023273370229,-35.72234964850742,-15.99065866675482,-4.64298127163558,1.1101564225990035
6.269523056318541,-115.50100468622236,-54.54991453053982,17.37390830514763,-42.78402364074229,-20.049172041818704,-8.352675800322974,0.7713283820533939
8.863313505448565,-115.36823327557013,-48.532270879495925,20.568792447909136,-41.482903902150625,-19.95318085274127,-8.746834507984426,0.9569787798658481
10.289870789285002,-103.38812087795021,-38.60841522632544,21.557433344731947,-35.66904408614366,-17.436473672899734,-7.192898695137212,1.498233502459701
10.608379494447934,-89.19026644587225,-29.829676236354963,21.137497241665507,-29.410503994593938,-14.491599846260403,-5.287544183311892,2.1345390513128715
10.297340044674069,-79.44617088142601,-24.76402279201025,20.33504609832228,-25.334837444666743,-12.506947563772053,-4.152894363732808,2.645753445045622
9.913810389848493,-76.46400455431274,-23.48465009100404,19.937026408121614,-24.183759238012488,-11.961129733761073,-4.192755297894537,2.9291765010389748
9.852197690302614,-79.17192354758618,-24.621431632244192,20.314628430987298,-25.32889286026191,-12.605989720952005,-5.231537433923517,3.0209798964122325
10.26856805931971,-84.88682382314448,-26.444137499954415,21.474540932169873,-27.54471398152315,-13.835084580206864,-6.7907699851903995,3.0566333220495703
11.107919114343613,-90.67184576491158,-27.490367838674672,23.166897410236338,-29.575880375804495,-15.00215493563769,-8.332194010923665,3.180342044214778
12.167429402091763,-94.1465902555281,-26.855835296800784,24.981183432495023,-30.475979226309253,-15.629769485984628,-9.430726764571755,3.4542205688473757
13.18402671366211,-94.04360426212476,-24.342443967578134,26.473352783727496,-29.8296203546973,-15.52487732074533,-9.882969464389474,3.8299595160870226
13.944053141513727,-90.50714096478352,-20.431645965313304,27.338837406483872,-27.834344878298356,-14.795347665260755,-9.735971788667879,4.197869337237168
14.373065042146642,-84.94009149315083,-16.03314041831626,27.55263735483354,-25.174481034059202,-13.765644583486484,-9.237589846055275,4.465585139592154
14.555398965521627,-79.50934680232838,-12.179362003825691,27.394499587694312,-22.77142375871849,-12.850866355803552,-8.760570430634655,4.608618011897498
14.68635188786853,-76.65462883726956,-9.864518025611506,27.366124988519836,-21.571515257486027,-12.462437219459712,-8.74232462105675,4.6784227351921
15.005616978223324,-78.59519731451134,-9.909792549997618,28.04993756488248,-22.353872973891576,-12.930954038735894,-9.594786376223322,4.78725210692148
15.735029130990135,-86.38074950552465,-12.524770057924405,29.902967436690943,-25.361110853272198,-14.356884189897452,-11.499591874555673,5.0746534539966435
16.990420561439837,-98.39534486897313,-16.579692019298765,32.954960296705764,-29.74020055139583,-16.381530974997368,-14.12065874189878,5.637500367991132
18.653187582624263,-109.31634706744673,-19.228969569667978,36.50675447956688,-33.229170114672215,-18.0580777259221,-16.451083163609436,6.431032507564402
20.27825401454434,-111.05927295291563,-16.63819459325708,39.09521057736422,-32.67696297208643,-18.064712269454166,-17.0423077393454,7.2076132095063965
21.16675332295486,-96.17212659547528,-5.813364479188923,38.9534975561017,-25.47860263726906,-15.296774237839438,-14.637798132701082,7.573936525500957
20.64627162642726,-62.111102687952666,13.481626768124125,34.871426101611306,-11.19515720475763,-9.545138189799365,-8.907349213897973,7.174404097637027
18.431688733793234,-13.65679190460489,38.042853587265625,26.99211457513743,7.73716165611079,-1.8142426636366347,-0.8257920278154116,5.905246805956619
14.844839878328001,38.40253054991515,62.383639858483136,17.01219331358538,26.83050166820648,5.988001203492681,7.601494382895853,4.027061105748902
10.748870248863032,81.86564879147149,81.15922504914353,7.586256336397784,41.54775527954801,11.87135300590058,14.193800553906334,2.1049067268163615
7.243390518231321,108.47206980987164,91.5297610031353,1.2392677275881838,49.37700234705445,14.665118890034476,17.612776580203352,0.8099131202061779
5.3154951975191675,117.11921705586958,94.26707691784989,-0.6013830965160248,50.85474822820802,14.53208127639401,18.01511909877269,0.688279614645241
5.6313647720084825,113.49181136458037,93.22865033427284,2.0510095725544093,49.09282265956902,12.860916858865814,17.0038363717031,2.0044640419630566
