FZ,C3,CZ,C4,PZ,PO7,OZ,PO8
46.5233283470547,136.3867691472091,159.96639075367463,64.5177585683759,100.51371301915766,37.39307358681424,55.314305568744906,34.276611870827494
69.82955855431285,102.21785389954832,34.68871715744627,98.40391481199791,48.71225631987824,44.58096027409179,73.41290408281075,62.345658070346936
88.42158496570802,78.14273204588342,-58.1560653550627,124.92588269992734,10.950242783373698,51.14572354391295,88.03767848144237,84.84345565897894
99.3964704323582,68.92195314875292,-101.62784939311803,139.59718752757055,-5.649799434018153,56.5249644685839,96.78802723993768,98.22443145561594
102.6457561724563,72.63973029024422,-99.58837702246097,142.402719784142,-3.0763256126420044,60.34390845492692,99.14799560633904,102.08135402125865
100.50193349451943,83.55574656288502,-70.07309921639084,137.29977636250698,10.735663305029991,62.469170365089354,96.58495301734445,98.83746621410613
96.17983426934606,95.7820492007962,-33.82498844846872,129.78520951647164,26.91575942018283,62.80325336086639,91.60526607840944,92.19884199262067
92.00351433830683,105.05654681280507,-6.000252168078795,124.00510441501906,38.966172843891535,61.04051846434247,86.31047221868897,85.32567529545722
88.6045336594984,108.91629129353537,6.500999445582783,121.25030212886938,43.713390335541156,56.84115109898296,81.57425659755965,79.81249349695655
85.4492799892011,106.92136464666238,4.37585232991947,120.51879651261547,41.23764778968396,50.4622088747468,77.38835921845912,75.84032478095045
81.94090865413474,101.07269693968856,-6.004764281316436,120.16136040685578,34.44679862154083,43.21666353075241,73.73527897683506,72.94711681041085
78.064331846094,95.06758126920379,-15.960103044577894,119.10038149002357,27.691343692010335,37.0999680204869,70.93282324519205,70.63900845563317
74.27339254504773,92.06917259443328,-19.113747494579574,117.0537094090143,24.36813357329329,33.71948280286718,69.22646753390305,68.6007592956582
71.10327818781595,92.8192289778504,-14.613106826978624,114.29416341541247,25.101365792620577,33.4202356216246,68.38169919282078,66.77600288136522
68.97398125744786,95.94798885411177,-6.2202198052978135,111.4996074331772,28.133612448731636,35.326222846759656,67.91660125013861,65.47965139492095
68.10373887334258,99.86619587098245,1.7729672445665214,109.54311437333517,31.406453809538927,38.1080451958373,67.65243743847691,65.30273227302835
68.27157941343036,103.85515817495082,7.622076880436629,108.89125063798825,34.050096913677834,40.69385162858177,67.79227418726636,66.60056891848944
68.59364895511753,107.29777178245794,11.530574739815085,108.9533852995858,35.958488820946215,42.457874955168194,68.39360710270924,68.89281600346824
67.79282654455487,108.66183524338496,13.25253550181374,108.21302551722371,36.61696003545862,43.11506513109295,68.97177764012929,70.83137508703894
65.03605183603251,106.26348900826108,11.665192860911734,105.36507034423416,35.17054537824314,42.73379320833103,68.86463414778783,70.9645830033723
60.69967696496481,100.41338967862794,7.074300604963655,100.55802405240121,31.886817873911173,41.85356493803815,68.02783403919364,68.73784126248626
56.319857634981105,94.47221474387166,3.1987610682770513,95.57100688191228,29.155189093884584,41.36467953821072,67.35440263666297,64.9006130743765
53.68752860187119,93.29513553727047,6.0020149420959354,92.7126363167564,30.55160948859118,42.04291883966984,68.11760033341594,61.02064848756666
53.759567681311545,100.21843232543894,20.12214345954567,93.31060542039008,38.614906523612206,44.06046070447102,71.01949909407826,58.521862291657946
56.043434323078536,114.81819519163932,45.79070100196551,96.75386826469789,53.06552916629829,46.80346401703948,75.53111967251228,57.862949744247715
58.61204759528131,132.34655031696457,77.67151388666113,100.39946003552167,70.25131500228788,48.971163012066405,79.74037271957643,58.19413056518242
58.67441027455717,144.48497659578567,105.09286947712901,100.30674071946113,83.52219774051076,48.812563603938536,80.67043798565962,57.60295026587583
53.79161208535709,141.65410494366307,113.95548931340629,92.94216522579224,84.7253924906739,44.66388695902479,75.31568968408764,54.055761679229214
43.71348338871518,117.879315256347,92.34002933842586,77.80884068515576,67.84532732841824,36.08006484222058,62.65972883530815,46.947419664621044
32.03693652563814,77.3979132620566,39.98141259624148,59.86029750202458,34.5220870074828,25.25673036993192,45.989861112128324,38.548892182159896
26.18646756072359,38.58602291546449,-23.792430044426993,49.562620258458566,-1.9601892974677546,17.568724900524863,33.63557523469832,34.13879182095804
34.72677214794105,29.76897777564838,-62.22321267765424,59.16684847386093,-19.000696792617862,20.036772709250503,36.43598570931868,40.041771960074215
62.809085590155185,75.94155830050606,-37.14497240824522,96.27132665753604,5.134767675317992,37.838874049976255,62.3073607916433,60.1894775979909
108.26547817184708,182.68405832741504,67.92573223619358,158.20013708212304,77.85853734675916,70.68215958409729,110.76712134189337,93.12454121242857
160.96200897751646,327.4886795263788,232.0174316466119,230.9250155475696,184.00538623841697,111.44755622051025,171.0124798151254,131.43802330394448
206.25628363357436,465.55462841179104,400.3448712784737,293.8208292913471,289.27343749826144,148.37739395704446,225.34103205299436,164.29829514942796
230.98366730894304,548.6775272702522,508.1567699025136,328.11851341602585,355.01920092935757,169.94928805639552,256.528615908161,181.90447257542544
228.91802676369184,547.7026205753878,512.7270958979057,324.75203224101944,356.8848209390078,169.91053156355537,255.3599986624495,179.5756577259139
202.98172528335775,466.3698320749554,415.4959290384294,287.66171404951075,296.9136797725622,149.79964271498338,224.35558944995645,159.42103322159605
163.31095422672078,338.9799194611813,261.45800673723477,231.1644782458091,202.26728801140354,117.71321808583936,175.89236195586412,128.90760799954842
122.45015047241947,213.36753369439685,116.05174422789933,173.12107029541812,111.32724992756239,84.17055757038278,126.00744448122501,97.27896978009153
90.22095694053567,128.64175232627363,32.741833087823814,127.5381157536938,55.06869900551686,57.415140547222734,87.33845702830875,71.74395021547338
70.63997835935112,99.41763884788287,29.226537328019447,100.07905887332991,43.83581695476508,40.56822508650839,64.75456637275676,55.224621189779896
61.94050096506663,113.86860627872912,84.25075419236849,88.08022662891938,65.95874666817362,31.797704287808845,55.41921943115485,46.44498667091641
59.081151585202285,144.77635967723563,154.46181045773923,84.2118225860281,97.52100434970451,26.884212039746572,52.46172683632521,41.86270988434938
57.010697143948256,165.82160099085098,199.540146710426,81.24845693223573,116.47221250128223,22.325238224781536,49.63795165211841,38.10415590019944
52.99949344757629,163.86255498978744,200.97793859049224,75.44086411459396,112.95906752315275,17.167953185132355,44.37805193472244,33.619231410025535
47.32312150285922,142.24723307182816,166.4538661688679,67.42256622299573,91.59340728029917,12.93807755725339,38.198601711857826,29.04480262813276
42.54423036803722,116.1918109215335,121.62459136650604,61.05040338671675,66.8066991432079,12.281171798304275,35.12415148781591,26.513610521145953
41.892904620357875,104.18297365229175,96.38283054714313,60.99597954541989,55.136452059615294,17.292990262571475,39.25400886092843,28.34063924200198
47.12193842414945,118.60423556062852,111.22826537265101,69.68986717554363,67.44635339233479,28.09185414375969,52.17823113835904,35.41420775869047
56.46910752717921,157.72353682389178,166.43095467652026,84.48924728937547,102.6538153075574,41.86598791014614,70.81466846306328,45.783450938391375
63.94664704330039,202.11793717665998,236.98902177210195,96.72253473003346,144.97192735331396,52.848311814160866,86.79599533134824,54.326636023374334
61.108744869501066,219.38822949572258,278.09915192586425,94.20450435830348,167.5440007581402,53.836022560802405,88.6938051923564,54.28097673093971
41.083614372448224,177.95949531085034,243.1309671225889,66.95469162450307,143.3885793017424,39.21028239818628,67.02297488275217,40.37848795568018
2.8041137638037585,64.29942368365258,107.76475065606012,13.244704578459737,59.53733549172675,8.143983583118919,19.72213992706145,11.991429157458219
-47.31028082577377,-106.5964953770414,-113.27796549470762,-57.92134422035413,-73.72625009179637,-34.01272074710298,-45.33204070830011,-25.741680466661464
-97.63297559023307,-295.1122664583529,-368.7008635382775,-129.96310409221957,-225.1376512271453,-77.41475930958804,-112.86853903993249,-63.787243649313304
-136.4878647654911,-454.31470326575084,-592.8477792814404,-186.05163996997373,-356.03948473755105,-111.85681714321841,-166.80492108607768,-93.19548548101655
-157.25412610997967,-551.0268270881032,-735.4887421408168,-216.46090179297244,-437.809079898808,-131.1274849869029,-197.2260302872293,-108.95448133740149
-160.5861556755839,-578.7369779711618,-782.1926292721498,-221.86265382514,-463.2364801991011,-135.17117917656702,-203.87620331617146,-111.60820351373424
-152.83475992356492,-555.9629481770054,-754.787880091598,-211.1806324134969,-446.0985116334837,-129.05098243344057,-194.5757415302153,-105.99626633738109
-142.09897616187294,-512.9868651190008,-694.3275720115516,-195.9835715817033,-410.7752071657057,-119.69655562587,-180.1371067424076,-98.23418962731627
-134.47200497518702,-476.2662589342521,-638.9853480345158,-185.07558653738843,-379.35312902617824,-112.58048507123303,-169.15397545872656,-92.88198688729459
-132.3363264199956,-459.17622368773465,-609.694326878485,-181.98164995148855,-363.55285700659755,-110.05241928986126,-165.36295594571354,-91.68558603057204
-134.851895764203,-461.66976096386884,-608.3296601157523,-185.5868474060134,-363.99503515899653,-111.6178819355916,-168.03258858137042,-93.97267601079194
-139.5427433486614,-475.57908997587714,-624.5046806020467,-192.38512480078217,-374.33459216876963,-115.26462433112468,-174.00918284620698,-97.86037995234207
-143.84452674908508,-490.7994983943245,-644.2050578049402,-198.69922824067433,-386.32363582201054,-118.80050039630024,-179.8245196582704,-101.41844890815962
-146.11841056312406,-499.7502450861171,-656.2502146192631,-202.14696609881202,-393.54658443967566,-120.7354987302811,-183.11644461261997,-103.42536296235323
-146.08096607893359,-499.69080606725703,-655.870522193859,-202.27622920005302,-393.4384459471623,-120.68745201652516,-183.28584006157433,-103.68520951013608
-144.6351644936566,-492.8580832179359,-645.3766849559543,-200.34596432471048,-387.5601700348017,-119.31717729655526,-181.38033378827788,-102.89325409079471
-143.15563143381823,-484.3328850882701,-631.614107825273,-198.31920851579812,-379.9934950656588,-117.78795430174465,-179.22365159515925,-102.09046476748603
-142.61312269911892,-478.61446660154706,-621.2295655556609,-197.60653826241693,-374.5474649280838,-117.00728394836244,-178.22800155762042,-102.00198291539027
-143.12916666282652,-477.1594449120181,-616.8315089481226,-198.40799158170717,-372.60684743290346,-117.16264986322777,-178.68664468095963,-102.70807469436141
-144.21720235994874,-478.5551237250518,-616.760354578195,-200.0395563963869,-373.1189103428537,-117.85967001173105,-179.99725178076696,-103.8355812249375
-145.34901825475455,-480.6145801074673,-617.9134027437894,-201.74307666165487,-374.2773378707203,-118.61987190821203,-181.4231013927287,-104.9882741128214
-146.27154940505838,-482.07933133575403,-618.3850490008048,-203.15140740701196,-375.00269798597026,-119.21037200781129,-182.59109106288093,-105.98008297772607
-146.91385773243232,-482.61656307426495,-617.6846892531846,-204.16168172351905,-375.0118884756953,-119.58388075361084,-183.40702572549898,-106.75783163483462
-147.21838384305414,-482.01413182318873,-615.5326987615126,-204.68805994248459,-374.1332106536494,-119.6952578215112,-183.79479361438825,-107.2737054248316
-147.19887472855723,-480.10534257956164,-611.568124649361,-204.73864412679413,-372.1860536667008,-119.51952427542206,-183.7328036356149,-107.53484441914185
-147.09223299156693,-477.44747383270465,-606.336925897159,-204.6391475455645,-369.55207761500134,-119.2127078580153,-183.48366691450207,-107.72219554143362
-147.27797477373463,-475.4283657997783,-601.6983033353539,-204.93125889517842,-367.34587811877236,-119.1009759399597,-183.55299087425902,-108.128038496396
-147.9569805508231,-475.1961895929613,-599.4598727698717,-205.91741558297386,-366.57774554426805,-119.41305977075892,-184.27542597976273,-108.90948582370659
-148.95017244190913,-476.536080700308,-599.6177374602252,-207.36217053605412,-367.16888411970376,-120.05157494200449,-185.48342446971316,-109.93510282148857
-149.86567992714134,-478.0742302553273,-600.3622983997747,-208.7175754311928,-368.0277088552576,-120.68586535793628,-186.66647665564798,-110.91113631561504
-150.43244207161388,-478.5623263542396,-599.8445169746178,-209.59620715575662,-368.09443716990495,-121.05064656801567,-187.42507900627055,-111.6302892320478
-150.62393427116774,-477.7046876564387,-597.536513049095,-209.9509831110546,-367.08636787291374,-121.09717045387544,-187.68979787480586,-112.05999455362631
-150.52409415510567,-475.7850604140809,-593.813583590682,-209.88289338262786,-365.2261310429226,-120.8858280881226,-187.55719579689193,-112.24229896742324
-150.24030521793813,-473.06087479107293,-588.9519595874674,-209.5140893235188,-362.6961955195433,-120.47653480221503,-187.13366951134674,-112.24112163175107
-150.03613608338907,-470.0686014870102,-583.4094825685733,-209.1878823763753,-359.8444004364584,-120.03549858053661,-186.69767967649238,-112.2605266889136
-150.42587112278324,-468.34784108375385,-579.0306415104835,-209.63229416555438,-357.8412542821795,-119.98005982240029,-186.89635169155483,-112.72377308375678
-151.88517180318019,-470.0023419740003,-578.8558670543298,-211.5728826628659,-358.4540076023154,-120.80475011878623,-188.45401861702874,-114.04198572205947
-154.2904453507815,-475.7279049595232,-584.5320822428221,-214.92495585542954,-362.4771044454225,-122.58382424379616,-191.41922330616714,-116.1618136546287
-156.65047550679455,-483.08804627997773,-593.5290225024027,-218.36145935776224,-368.19111685785276,-124.61785836542157,-194.66803091297336,-118.33261626563569
-157.53821660274556,-487.12935616723286,-599.3562937735537,-219.8649195417099,-371.6581005405364,-125.67208731523503,-196.31415547800597,-119.41712292103153
-156.0076138288021,-483.35356445276193,-595.3232783044348,-217.99673136474527,-369.0372841534751,-124.72923983822467,-194.87273445547464,-118.59486799652119
-152.37487974387994,-470.96679714622377,-579.1639217356667,-213.02549742426967,-359.28814352868,-121.74089892356864,-190.38355314270174,-115.99561955856333
-148.40306924017244,-454.34992466712447,-555.5099098553209,-207.26163182302255,-345.52390991516035,-117.92691960410225,-184.82075309090345,-112.90769559648652
-146.8020890059185,-442.15807214161197,-535.2342524103587,-204.45893580846402,-334.4748003213253,-115.50404323131306,-181.61906883237918,-111.46544530618579
-150.1073096057997,-444.27779725948517,-531.9875534202054,-208.3352332638959,-334.2423690311756,-116.87476596657602,-184.3736433804506,-113.81522385696553
-159.06392836887906,-466.77682187063454,-555.9316912217757,-220.32523076100688,-350.39230682302195,-123.31074771973596,-194.79797785611277,-120.81663421970407
-171.04141286975775,-505.7795625860481,-605.3173091601029,-237.23942970247137,-380.9426144103282,-133.44467712841092,-210.4724811870537,-130.68378931323414
-179.59417416653775,-543.5485310393781,-659.7886032352509,-250.40349799694735,-412.725572600601,-142.46887111153097,-223.7777899544145,-138.48321690623527
-176.2453562567842,-551.3996715291275,-682.041799837419,-247.90565310893672,-422.99094687398804,-143.1372253514527,-223.6259040501392,-137.41234400906387
-154.35571896428712,-501.25820635203814,-631.7172873683879,-219.9331470887651,-388.1844910580747,-128.81590026904988,-200.2342450336546,-121.83761710840267
-113.20600064422592,-381.30830606402293,-486.89074506722716,-164.68226478778476,-296.72456735023275,-97.2642479106137,-150.82309221058344,-90.66900847618126
-59.65788054434614,-206.33204335641776,-260.7101522162596,-91.08596972159631,-158.26099379331828,-52.82407642720981,-82.69951733224067,-48.953021600656264
-5.892371075223023,-14.859605912581475,-1.1042590364138938,-16.029981361422905,-2.5730970009973495,-5.301177553164091,-11.238789472680333,-6.350611438094369
35.845297079849765,146.9365326327769,228.7504702564022,42.89139113398759,132.69535301529848,34.17897218557832,46.639581492195425,26.95437832245137
58.560414627211564,245.9287437319216,378.9424446214667,75.06400488862087,218.95299141573085,58.05386075253063,79.92037807511164,44.68744901098158
62.87015671554524,275.3684879120448,433.80482726127076,80.62241333412653,248.4602436011078,65.12937967372919,87.6062832371493,46.7664620917786
55.353718330749196,253.7450820107538,413.7446988879741,68.52943096444753,234.5740404550786,59.888863821184806,77.4404790045416,38.341569405267165
44.39147967830878,211.5547943414005,359.0405229718129,50.845354336952205,201.63324818790772,49.20455758071365,60.686606492040156,26.55415255656375
36.25470821833615,175.48257243449174,307.8138236414916,37.04355666401417,171.93221818173055,38.83340283938448,46.59815674678585,17.17667922883455
33.38750026087758,159.0942826642762,281.5549754921123,31.264620807490175,157.51056756009123,31.669762436297958,39.56763746110727,12.858086102640907
34.924159378504456,162.60435490306418,283.2156140538963,32.770226694899534,159.39187395213867,28.030188486639485,39.43044898035548,13.255502512993505
38.24258553671742,178.03211725649712,303.51472713815565,38.012355576877866,171.54321894517415,26.89153836812837,43.404146223327224,16.231859641585178
40.49143528935034,194.92879094744544,328.565524254142,42.80610944420726,185.53593693424943,26.976161203032458,48.05770270600904,19.226927449277518
39.76576168151208,204.65522829768463,345.6740197852514,44.079021047979076,194.08757887244633,27.361489046320038,50.74806505988609,20.384561106601097
35.88091831066547,203.3431949780773,347.6482549263159,41.071625050437106,193.5801610584839,27.773432131172207,50.555079934764585,19.258392489357405
30.46696523912413,193.20833783530037,335.444839817971,35.57538012802062,185.34681696274387,28.588044928025482,48.51848866720567,16.85261162871461
26.133649101043073,181.105777688503,317.33744879487523,30.851365608981865,174.7583841457699,30.423087995608103,46.871500342720225,14.89198896250225
25.042403488162027,174.5490383862257,304.15092639483,29.704849537623666,168.11490058964608,33.49342798819767,47.57981795661501,14.709250076939366
27.734816279083976,177.62730264189244,303.4800948807979,32.908933737945794,169.2511430127981,37.24151619276641,51.15133649958171,16.46786616279208
32.84816793951224,189.32649622116568,316.6178385383576,38.84158464802082,177.9993517919653,40.552744651665925,56.43688091681208,19.145519544637363
37.66310989987328,204.39463436349962,338.83683077066377,44.21003521884518,190.72048976092543,42.28341717894544,61.22728323373465,21.08747782020507
39.092929126686265,215.14105730169464,360.83449658579696,45.274731531552824,201.52360547118408,41.61518127952169,63.015433965517225,20.6946483182553
34.9470551469779,213.51587109143912,370.3355508256969,39.3714944155134,203.55234915857096,38.192233949306356,59.786807817019,17.096202903028175
25.409307953989945,194.5090166308504,355.8467053770459,26.77537108969092,191.37179819526028,32.450970057521474,51.20232041578091,10.88970440416914
14.155744173742741,160.98782107174299,313.9595037983493,12.246381274676331,165.0112187882714,26.2692545695959,40.02331216307194,4.727187460575451
7.971824707837241,126.83392848063261,256.5546834111363,4.703044328976504,133.39943889190891,23.272873607756818,32.54260640061512,3.049363377431803
14.179751466863932,113.90214765370688,210.65327247823177,13.942435054307493,113.22970459822099,27.88982116380295,36.68012477729625,10.448527021665779
36.75939569560387,141.92220891334654,207.18284097106917,45.44186088384591,121.69401946147536,43.12086826938787,57.98149929068454,29.16015043243422
73.45506430189869,216.5561063351089,263.7341659693745,96.31158200421133,166.58209101024684,68.29436396486435,95.78830125367628,57.18741444612198
115.9735909270333,323.69637482237533,372.5078249979128,155.36697608881767,240.2927205825117,98.50025456806468,142.3427481662523,88.50415713175647
153.51149484462272,434.68344389219925,502.2417493475951,207.80693522116118,322.3213866833007,126.42633305118547,185.87053106862066,115.52736537834717
177.66729695557413,519.8848475800623,613.6395200961279,241.94271833452962,389.16936716390575,145.67638081236578,216.01846327061568,132.52552177468465
185.904471782272,562.477237303434,678.7494869765063,254.0727027032968,425.63242556299843,153.6002713676705,228.4238086475105,137.9824553714684
181.7355060262718,564.3322125381479,692.4511594297776,248.88059485732927,430.6819220417571,151.9882319881429,225.8144706161698,134.63562871800983
171.9406179184293,541.4791116056239,670.1963985964973,235.68051355988968,415.1057552827347,145.43392921411052,215.39917761429982,127.4343873550992
162.8696584312191,513.5065985651362,635.7656703948262,223.30039671922654,393.7014101117355,138.6672508198021,204.6452334677576,120.89974116367071
158.01410789912464,494.2707813285427,608.5036607969759,216.66632389264677,377.76570353570327,134.57555275253702,198.14253582180694,117.44292285499246
157.70351503873295,488.54785012638735,597.2787196411156,216.32829134934576,371.91769062220584,133.77013810208985,196.88177733426,117.21598471399156
160.26411898360644,493.99747230069664,601.5373490438794,220.03488030024744,375.1450046127993,135.31766053465722,199.36725897880046,118.97844927757187
163.46135564848288,504.8962634321589,615.2472547839883,224.71624120773083,383.4251154509863,137.72888163363942,203.18023036066688,121.1270170040222
165.53629762651664,515.1397678473319,630.4002847336513,227.9138101014557,391.9415635731424,139.66158204531953,206.14490136461762,122.41982087420953
165.74692124587477,520.2955770480679,639.8451785796057,228.54422527685625,396.75102373153663,140.32883801241846,207.0312562680748,122.3568725946488
164.44516151409374,519.0194650441698,639.9803996790629,227.04361380584794,396.1859747102507,139.69023072471592,205.85950427141628,121.23554288652291
162.6411447123659,513.2355696227448,632.2075393342272,224.80005447156645,391.4061065096467,138.3216108128216,203.64136986923214,119.82616233570265
161.22368639061415,506.52946581214985,621.6169704230232,223.07607320116506,385.38905910576517,136.9394495262093,201.568765536999,118.78535213118379
160.38348196610872,501.795317476518,613.6541818122275,222.1767665463723,380.9797836011565,135.91672454516197,200.2166954128863,118.22062296866982
159.72504356681338,500.1316989837255,611.5803740120548,221.57053280591595,379.645931198361,135.22948189292308,199.44851136041666,117.77649824740078
158.92129806607196,501.59117162728194,616.3119320208004,220.79013638819973,381.6849625754273,134.83514938289392,199.01950670237906,117.13531796106852
158.2142854879405,506.16876287708845,627.135072427402,220.14383993780666,386.81501913894897,134.97494933257306,199.1068548900712,116.41488197283365
158.24592406770384,513.2832427610239,641.0953576698118,220.4957932502405,393.80417338849514,135.96537710241049,200.1063957838987,116.08062162010346
159.40409602450032,520.2800843252325,651.6902009056932,222.36350276431844,399.534572840974,137.64958392452039,201.91882665760613,116.50057497712528
161.27759932246568,522.2329465813926,649.9536035293311,225.16997763777695,399.3230561007506,139.09096386790864,203.520883288071,117.55319144237907
162.54891014412237,514.1368040622054,629.2472213170677,227.11352630236476,389.2990968921517,138.82715269870707,203.22395327042497,118.49605553897571
161.1962766789298,493.80092536838646,590.5880705249948,225.45407954261248,369.1682577373677,135.42825056917619,199.24774387345894,117.99827480895155
154.8372463177516,462.76043947457435,543.4893928970105,216.95548944685257,342.74629271188996,127.91606836875243,190.0747751737636,114.26764457414961
141.32437861338357,424.4940067361504,500.63900320409,198.64932112554732,315.487595441227,115.92731903315207,174.58977135515596,105.4413493409626
119.70226248675142,381.82408981411197,470.03200550033694,169.1268497406639,290.9191055545307,99.81863231365587,152.40586251196692,90.37574741535023
91.17778254838143,335.85767701431604,450.3172351536362,129.92464979438054,268.7564907623121,80.81471448980494,124.47823258579295,69.55294133308689
59.38253784515571,287.1135675650725,432.5617264056048,85.99085760957138,245.98717188284093,61.0080703847805,93.52839171991329,45.47676828795618
29.456250173147872,237.52122228954127,406.94767962967506,44.50520120156425,219.91602367964984,42.9651123160874,63.68857799718333,22.10679893991553
6.230438526191364,191.36678409545758,369.66645323472767,12.362395120142299,190.86048218426203,28.966030899432628,39.27789949278098,3.4838405147338642
-7.5460975656931595,154.29327563037478,325.61462453420364,-6.3930287354260384,162.6783819865377,20.249312385897902,23.301250650588457,-7.74645731033277
-11.927756838540757,131.27513719887654,286.0374268068335,-11.71431126014177,141.17132003145807,16.75253524792022,16.58068928370484,-11.112866829863714
-9.083070297275377,125.34482672369322,263.8220174912672,-6.68948674030372,131.93364153861722,17.554122725379592,18.04184034517365,-8.062255984011431
-1.859802469924515,137.5303207259161,269.2224748786573,4.473656596601909,138.79648205880983,21.611559090382688,25.71676013424957,-1.05246119062991
7.177695099192831,166.29524285710468,305.8890439146522,17.901523420365123,162.2714150106391,27.98767303756284,37.318232514308306,7.222320131147577
15.581402251704407,204.88831199998137,365.83150800315843,29.949752553423487,196.99195397844738,35.1608450713272,49.70938899242516,14.036746904485666
20.349148067687594,238.30646220910032,425.22240292315223,36.334704498504216,229.36673517093368,40.08305666822929,58.03665925094271,16.622151313787057
18.076211047548338,244.5298364139661,446.98440410785184,32.334770056261064,239.01636304121118,38.31694416157396,56.19991768871131,12.650263962445012
6.495321227081299,202.88571631048652,394.2718355777578,14.896694481505072,206.31186876939913,25.914828059596093,39.42527601699065,1.365485537682162
-13.597438906660521,106.15961060954182,250.31580368519656,-14.702188834140198,123.27140643155239,2.0796249116123224,7.573214688812093,-15.429513170585967
-37.816247323234485,-31.943535949448684,32.080735518180845,-50.12498484062035,0.6665196662423757,-29.42501244610505,-33.4696945362342,-33.61814439040813
-59.960712307571576,-180.77855270536165,-213.61222981992708,-82.47906109819478,-134.8021322133983,-61.530948598034406,-73.96147601915395,-48.53050832523294
-75.16061054560873,-307.1879507660122,-431.6233897080356,-104.77923826044619,-252.89108660552395,-87.27796776936646,-105.05831996319543,-57.26857433638031
-82.24197324741537,-391.4366464140699,-584.857470353032,-115.33691616532457,-334.2694441914646,-103.17906656810787,-123.06159389466508,-60.030965785363236
-83.59364941443046,-433.97513024011334,-668.1770448025428,-117.59093354157714,-377.49136280203066,-110.23850080548607,-130.2100953101857,-59.43656120886913
-82.61630292474699,-448.5790133605066,-700.7841302534413,-116.44159494520365,-393.91500311320226,-111.96296030364428,-131.4779279268835,-58.24058541325711
-80.68562783669529,-447.34123997881,-703.4442771737466,-113.83125442123495,-394.6980289996129,-110.91220929119099,-129.80479286354065,-57.06912218618288
-75.99749607161883,-429.1610650887769,-678.2171409696095,-107.01308555015248,-379.9437810052751,-106.43187715778038,-123.43255823017155,-53.88870533097944
-65.23537450785408,-380.70145758163096,-606.407215695086,-90.94550284905878,-338.43380948920174,-95.29036161159328,-107.44443236839392,-45.68323513216093
-46.78486542918776,-289.0829853547399,-466.3122413475225,-63.03041916312461,-258.17789299427443,-74.69060244127755,-78.34547705635626,-31.128599877760724
-23.006018462972293,-156.50079074444287,-257.05645524297984,-26.568106519150874,-139.66347060058763,-45.33455511480084,-38.174869391682094,-12.27238392028822
0.19294402890229634,-5.565211996502047,-10.253181906444304,9.725200649559701,-1.6853572372494454,-12.253708951267942,4.973859529510049,6.038991085040431
16.231769202991597,128.8812877406813,219.62763908171019,35.890489108912085,124.8172986004525,17.179965310742357,40.473664427578385,18.609958578422184
21.25008351911259,216.15786594508631,380.1587290951965,45.80624434027673,211.0016054015913,36.6870957770622,60.361938008592205,22.579505324063188
15.88871423957017,243.90987359320434,445.23498394732286,39.991733630408135,243.38956990668174,43.7820137346914,62.921767648823064,18.670679610487603
4.607632455804622,222.05422895460885,424.6780435056319,24.749376316927954,228.5933890452054,40.33724361152539,52.764334268434766,10.453989530466735
-6.65204901879303,175.93249434141867,356.0075999844527,8.743263904037178,188.2048795805754,31.171006917200337,38.00073488329146,2.4069427267417804
-12.884351369633992,134.41367629889012,286.09076188747173,-0.6378445381702853,148.43569492120017,21.881877555944918,26.646993085037572,-1.9192332600447373
-11.47813529387065,119.43991572505364,253.29133776446804,0.503533792637761,130.34829687076822,17.015254503422284,24.031638331527656,-0.8605551538320594
-2.7372497639343623,139.7218590188894,275.77048352306844,11.835787421564245,143.54777929191843,18.809240267290335,31.51392015619783,5.1415592200378155
10.125171603671387,187.99896384217004,345.9412877164925,28.89016717849357,183.19286364166356,26.346896506661878,46.016732703506804,13.644031094615505
21.57689788568807,241.70716940746968,430.6636495320944,43.9442017412969,230.21366466659128,35.352076819250314,60.397909717291995,20.645363132350624
25.403509681697837,268.88265830949285,479.59408635787867,48.29923845447484,256.2375832805862,39.32777080399859,65.39938573654025,21.757269910591553
17.322868313175334,240.1961430579536,443.42515938244145,35.911810642196,234.09371181365117,32.26625831850558,53.384413620389644,14.09609727446641
-2.6002405905110915,143.33289698696504,297.10069259559236,6.803184862326669,150.8264418331051,11.876134630562369,22.42952217806453,-1.981808396175365
-29.370206626995,-8.145507174417551,56.14002311862404,-32.03555955530346,16.377025769265536,-18.60520280135635,-21.73958076449703,-22.529240588546333
-55.03490881075475,-177.98634174197758,-225.20027488501876,-69.33446439652344,-138.18150483326917,-51.39451189395903,-67.62806939960998,-41.56575939477104
-72.29034954580031,-322.20309094092005,-475.5177249122251,-94.60739551091187,-273.25501981876477,-77.61221751093491,-102.98123993695665,-53.80102390488623
-77.68145364709807,-408.1114602557474,-636.9893180862921,-102.74643315005909,-357.83878606501634,-91.28563510505819,-120.18061250232363,-56.96893016966093
-72.64518442636361,-427.1729425829522,-688.7779212143965,-95.62492474577512,-381.9353094583361,-91.69185058409028,-119.05838997131559,-52.48083201934864
-62.083286408802536,-395.45835969403134,-651.411874319197,-80.18094366821575,-358.1656260834832,-82.9708573948214,-105.89555805222803,-44.230187434017175
-51.685334053093364,-343.2576114367418,-572.2563569435376,-64.64431494869727,-313.1827706983987,-71.65188665472466,-89.76175903878557,-36.52678521516186
-45.712348984301634,-301.04699041732516,-502.4784182537156,-55.32647211778797,-274.9537515669335,-63.75941775585323,-78.63345299039403,-32.45733389047094
-46.1171485333019,-288.8631100670102,-477.6433566634748,-55.26085976096875,-262.48294426282564,-62.8585662966544,-77.0687640929832,-33.29297792210996
-52.62226098826052,-311.5306211393114,-507.8870638552322,-64.20714228222894,-280.8333505943413,-69.308781642025,-85.53676575867267,-38.61387661479453
-62.94603424615935,-358.30041151924155,-576.7824115398349,-78.90045334827968,-320.6374835701706,-80.30029441307995,-100.56123119953797,-46.53155953720091
-73.03083313687598,-405.6035885155985,-646.5929364456291,-93.35806196870644,-360.86545889438423,-90.4875634129555,-115.3668027897545,-53.917170052970064
-77.88559658510891,-423.7783938546631,-669.9801830251428,-100.13932040333671,-375.1659126107739,-93.53547155774115,-121.61908989131838,-57.09861606052706
-73.42762168213599,-388.24826499861,-608.0082146133723,-93.11907936510369,-341.8750558833386,-84.65309022126074,-112.59729858463974,-53.274812339194675
-58.61407008274746,-291.6152215935224,-449.0014442687253,-70.72238838822845,-254.59830400645924,-63.17050695478634,-86.66694339019527,-42.05511904199385
-36.38213695961267,-149.57763559675075,-217.73472747870937,-37.40382189348498,-127.3288270259424,-33.493163983976906,-48.79960037531848,-25.996367650310276
-12.417663790941742,4.707202410692208,33.20854456833582,-1.8610913153810786,10.512176457648016,-3.361932022939908,-8.589004503575586,-9.46947453202193
7.713906694684017,136.11404650212037,247.5575938420235,27.28245600836807,127.68538897102107,19.916777195648415,24.475821101474107,3.615263887703691
21.22164957822367,223.88039413438105,391.3216926132647,45.57800140350038,205.6068037200059,33.01965572848541,45.566172412327354,11.725239966952369
28.689374021937788,268.26397066994167,464.1811279374544,53.82572469387904,244.4617407335364,37.58603277084135,55.82099648082584,15.885510297771285
32.27740358530671,283.2975115098287,488.9822844618548,55.49340652074864,257.0435774828309,37.96243945496081,59.554694707475726,18.002039355481408
33.074336501942604,281.42019597996955,487.38861226059623,52.69976542663882,255.10581571745388,37.387037193594374,59.60258102616992,18.69315853234853
29.855843801937613,261.9158375566445,460.0842470048889,44.143675721724705,238.63684417162125,35.47745430066166,54.532872498318895,16.450821831282237
20.32299398074342,212.13879938139792,386.6654652798104,26.70840656401319,196.29116491596665,28.87831298780956,39.98038715101258,8.892130339432722
3.7690016303420073,120.42109315895239,245.27229990013177,-0.664757480358114,116.56635154414833,14.461879962914818,13.020441259879474,-4.878557603516993
-17.10805715356564,-9.640512200814875,36.75439212628651,-34.16723314418757,0.962494376717234,-7.459632856996359,-23.950013879642764,-22.720380478865795
-36.85017117324818,-154.84456061786784,-205.31876866458072,-65.85171079373225,-131.13884659380108,-32.35849832336812,-62.959204626115636,-40.02073894796459
-50.00751636122074,-281.7352611712228,-426.90620344442266,-87.57264494257474,-249.8908917160017,-53.69220202510582,-94.18165617738607,-52.05598435473023
-54.09327581109185,-363.3762148944344,-580.0096055638613,-95.38246427908116,-329.7814112421893,-66.46361635556879,-111.06898421040934,-56.51700550882456
-50.69606844811916,-392.2750122602673,-645.8023349991105,-91.35476934963492,-361.92026761951115,-69.68900665326365,-113.42772887053239,-54.50790846121187
-44.10835185446503,-381.43428531864635,-639.9572585460255,-81.75160969717588,-356.1687787733594,-66.28049222822519,-106.60051794237852,-49.477512277180374
-38.60020261616705,-354.1426036245231,-598.754897918917,-73.06695837295783,-332.8727719495671,-60.76324832037343,-97.70926374342932,-44.997356174908454
-36.26979859508993,-330.4512936334904,-557.2230782089872,-68.75769476332421,-310.7809960434531,-56.63085519437976,-91.753462504113,-42.95690053159751
-36.686685479907744,-319.0055934384218,-533.6793289992165,-68.53309459326198,-299.0129439317593,-55.021041398042634,-89.9358008210697,-43.1807902355239
-38.06685623901871,-317.47428841872005,-527.7575996413797,-69.94259285209239,-296.57675285371187,-55.1113564705731,-90.57409385304142,-44.30075928055717
-38.81033296768935,-318.6636967752932,-528.9030847436566,-70.61420627373377,-297.38879229700234,-55.44467063356688,-91.25481668632167,-44.98464472666443
-38.457091823404845,-317.26097416414376,-527.5214019919891,-69.7383002182943,-296.3929365122699,-55.168475007043114,-90.68960821657977,-44.76942333888799
-37.84043905161005,-313.8344689496858,-522.599964785278,-68.4044920127596,-293.5179675556955,-54.64672974831005,-89.53819664259571,-44.27369103879758
-38.571327641337724,-314.8468488399209,-523.0162664698566,-68.93018313719188,-294.0957323406254,-55.3012319761466,-90.0632307404934,-44.83033192723895
-41.95192493279298,-328.3897260155841,-541.7202280370401,-73.29811686177806,-305.3638392916528,-58.64988696712219,-94.61792757946273,-47.586269929834906
-47.60620721262129,-356.69161661418093,-584.1712238930436,-81.11352699150328,-329.9014107890223,-64.78134631613831,-103.35311487045001,-52.321720083991224
-52.661122729238244,-389.2993303971194,-636.7496036106688,-88.30376850415549,-359.31827508503756,-71.12148003139335,-112.42880179172002,-56.704034125177486
-52.47237412242858,-402.75012484866147,-664.299669492245,-88.05425255794108,-373.33955441102296,-72.67110115756167,-114.45520562373653,-56.80992450135356
-43.01426141722909,-369.9173339483795,-622.8530709614781,-74.23653442636414,-347.43162431224613,-64.1874923077906,-101.79280106910899,-49.0352473703828
-23.638117353798858,-275.3652857325681,-483.3989929382806,-45.50939713139268,-266.2630963494214,-43.30333777425888,-71.15270002116686,-32.37774348681064
1.7355415101047669,-127.33479835220922,-252.7600191072161,-7.263229466018602,-134.98605922875566,-12.572470377254339,-26.523055239058532,-9.556892396790172
26.044584433485337,42.210644735199025,22.883979678357328,30.232334577174345,19.549558851927678,21.090563771712134,21.76854511104817,13.90344861106486
42.41525118367271,190.69474239450687,275.9512049663198,56.5737560077758,159.45636176216482,49.4210584474054,61.54555816208294,32.150486139723554
47.401350638085454,283.93097404418137,447.27382204420974,66.04489816336518,252.5411482455927,66.49889703292702,84.21137339580453,41.566962026089065
42.27269520241804,310.2768117418028,510.9552005743776,59.778298797457374,285.670145275011,71.00580559262946,88.05186917033505,42.014991057478575
31.84803535345452,282.8755406387033,481.50762176536136,44.389081959743635,268.00213229080583,65.9972951013053,77.92686309363468,36.30958065502082
21.903229957948845,230.66580101114843,402.1991802429695,28.41282081279398,223.97724515908624,56.773345220707036,62.18701483296436,28.563766771044893
16.789983884632644,184.82173232641918,323.95549402884063,18.813065955275956,181.5362925720328,48.39284345881484,48.98167335373185,22.486076936765077
18.26149678437318,167.58173526631037,286.2417554775531,19.01191100847707,161.8274121522318,44.06293620806937,43.66790254200213,20.310432028337026
25.390638567327418,186.29355880550673,305.73243845503913,28.395719402029858,173.31276682298278,44.58324816746226,47.61970783764303,22.355894983348854
34.985474461858395,231.85087012618706,372.39272555108954,42.60002302069046,209.84365320296962,48.35971002309911,57.94028809373797,26.971580798187127
42.3223395788667,280.71240996247747,451.6358368119314,54.452296961718766,251.98360074256303,51.746193077998996,67.99939205795054,30.92040141608158
42.51357262124457,301.53279009231767,493.8205353839718,56.08885158395817,272.40233300889395,50.02793709101878,69.36365281253042,30.486688057284848
32.543190478133994,266.89267897707964,452.1637064761881,42.245572117122244,245.91791701786872,39.28993424021103,55.26236150550244,23.218548310999253
13.112535115744421,166.62876271130645,304.4718290454444,13.336040936960405,161.4476661723357,18.586598969864788,24.29467300635837,9.48438203419769
-11.02856364661582,15.569774155316663,67.78797680288415,-23.788431560765545,29.687317544412714,-8.901938250057727,-17.90194560396437,-7.2554618450648425
-32.91834093687242,-150.3743984832182,-204.53338896842484,-58.4832821225291,-119.14911486256925,-36.78545282112306,-60.56636173559169,-21.918435086076823
-46.614776028765675,-289.39820533356504,-444.6888566185108,-81.25099912851819,-247.89384993485487,-58.266973437794796,-92.67226137571632,-30.305928686849317
-49.97606321138102,-372.49456730143703,-600.5247845501043,-88.16997464250998,-329.01238345956966,-69.3159455101537,-108.048095850768,-31.159332804736202
-45.30163055590905,-395.0767179779538,-657.0575516866027,-82.16312889406629,-355.8770731272768,-70.31152899879947,-107.74628794971076,-26.505839573223778
-37.521179268245426,-375.20370485091985,-637.5513023345261,-70.49201816242666,-342.52926199804597,-65.21324488108128,-98.39995985457904,-20.159406556147026
-31.257588375851544,-340.7250512795243,-585.3966397383018,-60.36127708357552,-313.14764340756835,-58.97853193985205,-87.95052151789477,-15.476696796721638
-28.72349890191774,-314.3550694105482,-539.8164528706668,-55.573895274388576,-288.73212016741206,-55.03743774323616,-81.68081981973876,-13.865250437601821
-29.532323241756487,-305.4374902849658,-520.1169010130918,-55.97488759976654,-278.9860296981643,-54.29052323219385,-80.76902134711118,-14.789033900678586
-31.94851140200046,-310.90142900265005,-524.5778953188043,-59.13230003131418,-282.2948927716364,-55.73324034511033,-83.39160868037705,-16.815304521355994
-34.28881766682212,-321.6405340141746,-539.6198222176637,-62.41934718690772,-291.0100764073837,-57.73743774315818,-86.79545025915289,-18.679918555612332
-35.6423315073932,-329.1465861996399,-551.0301022874933,-64.22353136037104,-297.48349493967174,-59.057342879971465,-88.8961924523696,-19.763993023745325
-35.97075830489425,-329.80137991436146,-552.0147589784168,-64.27274727715776,-298.213656327806,-59.31643701326257,-89.0503508794638,-20.08732314412867
-35.93273526169209,-326.41507819073985,-546.5084059832491,-63.50403160878613,-295.45802298112073,-59.09767023416959,-88.19501002120238,-20.127207092512123
-36.453202428469154,-326.5350417266617,-546.8145732411599,-63.46631183090683,-295.85085909664,-59.58601873049908,-88.27572885960542,-20.499028249662615
-37.96617916702128,-337.1341465336904,-565.0159012015095,-65.13273523995987,-305.71135437249336,-61.66278528155699,-90.82385381765191,-21.44317881256087
-39.734900316895924,-357.7561304700927,-601.3120954058925,-67.71741566015982,-324.82555485362593,-64.85147457483147,-95.31270507702686,-22.402326805194633
-39.99201543458126,-377.007607414566,-637.1399369930263,-68.64468321375108,-343.0192408010306,-67.0086382716815,-98.64492337843161,-22.20107154470976
-37.103153676855456,-376.3191978487247,-640.2031804056584,-65.09580671737773,-343.2267579477893,-65.30579225180715,-96.57173801976391,-19.91600803977008
-30.921750320915507,-339.65969345526173,-580.5597539904114,-56.045402662275514,-310.2460932555482,-57.96276984384397,-86.23140584142405,-15.772552572387411
-23.140290443217648,-262.9613565602498,-448.0703449890073,-43.06987687466387,-239.7237817256866,-45.44528727700067,-67.9353318707101,-11.209963726805418
-16.26066451737459,-157.07708809480516,-259.9041175773119,-29.25860516819345,-141.47272066668353,-30.232135293863944,-44.946597487395906,-7.9464048317076825
-11.997553113947854,-42.83480503313879,-53.64840830964782,-17.208843830994955,-35.24537872021073,-15.394201971448453,-21.619589020549018,-6.7742882031423886
-10.334046590202068,58.188392259449294,129.2131674929503,-7.707829948564953,58.05751207437519,-3.040819100700508,-1.3424523015587313,-7.032702810791066
-9.816200919887821,131.76432852141215,259.77239751966636,0.08580874705059677,124.56619109561558,6.3975244609117325,14.480550881005126,-7.1087698843236575
-8.708019992467099,174.30225409473948,329.9532208909758,7.402825204694386,161.05511024290897,13.789835241972513,26.13756651612024,-5.531716784036823
-6.105218309231283,191.0004922941169,350.2269888185396,14.678808446954495,173.24447379339287,20.296297119000265,34.6091860148519,-1.8661335253595355
-2.2829247188502455,191.30204886634553,340.55098300959156,21.296016704398543,171.05025372980572,26.506416608601533,40.732578462879545,3.156798844795066
1.7951623379563044,184.6813008918372,320.8006807006738,26.27938592256769,164.00017805219173,32.242543073561386,45.012596377311425,8.247857865740148
5.257689875389928,178.23870355518278,304.8948584642453,29.196031646554953,158.67512721807367,36.95562046720027,47.87885539734429,12.377611046271829
7.753731788914882,175.7695418872259,299.01738454938715,30.446802008500008,158.0484454834885,40.23130386430822,49.851615910623224,15.217483890969437
9.355025740286797,177.64605076595655,302.46074383594544,30.828773404334378,161.86042726452675,42.031465728004875,51.39034866560527,17.02816720293943
10.268047360632696,181.593640069383,310.10882146828874,30.946503029667962,167.67712193546646,42.67985746359195,52.70224862528064,18.27509111993841
10.716103626707348,184.5228571919357,316.0480907298949,31.028143290378434,172.57272381667642,42.76460742281796,53.819026921192496,19.327276040247764
10.98044950406201,184.57226067593453,316.93666524325346,31.10959961070772,174.79284725231625,42.97018138877494,54.81548136218575,20.337498023819332
11.361799286445887,181.919819106436,313.1500617543013,31.181565688193075,174.33453095169853,43.744067273402635,55.799412972664136,21.209224217559054
12.006843006449662,177.9182936748636,307.1512183053721,31.14414037081111,172.1507091393405,44.91564716918921,56.63032294654004,21.632184566728416
12.819567747193663,173.72384411667315,300.9460650320898,30.815326573605624,168.98660391727051,45.64846169072733,56.78189968048485,21.281283522138757
13.622987834109573,169.8618198782966,295.0721800228916,30.178286355878097,165.08592113362837,44.96731738740655,55.684209840818056,20.14584865947814
14.415564288424601,166.79846179692586,289.5403556351809,29.62576181420798,160.8211419571084,42.570331748177864,53.3010757924633,18.712465512985776
15.419992761109661,165.3409046313782,284.95483402450355,29.81380686413981,157.16497068604676,39.261813038372296,50.339179636862376,17.743336421222363
16.85691478410844,166.10066628180374,282.2523756619079,31.141916558870186,155.2181789450979,36.57667296030551,47.81972420622392,17.75729051558861
18.69187625714093,168.64969651885374,281.5625611307484,33.339618072042576,155.27609978475206,35.82100821953588,46.385229431015546,18.645795286956588
20.60866996405301,171.4870553845188,281.8087573696965,35.563551827118054,156.50303444728894,37.207873860504314,45.92921064838793,19.753159571286066
22.185820485047415,172.94473324560215,281.5482733136362,36.885308866515196,157.52714474383768,39.654686698675185,45.75606638328919,20.323682336927895
23.071087064970712,172.07979335319388,279.9256521307834,36.71978130554814,157.2503432955039,41.32963839399853,45.023286158093335,19.933670094241158
23.057377581971263,168.80387097235402,276.68879136493746,34.948091504725326,155.16303618017832,40.615088404396914,43.15783684310944,18.638351302803933
22.13862853488175,163.54497685058942,271.6828763235607,31.867298965427583,151.2619378045011,36.989249274666726,40.14027738195894,16.85831685945469
20.582266399529765,157.11771034424274,264.8942638626334,28.13883591144046,146.05593824436323,31.362907473677005,36.61161809550962,15.159689214588438
18.881034818713427,150.78493974465636,257.0642324694717,24.652421917043544,140.64478077536185,25.624492579647875,33.655772425311646,14.004469305608495
17.469553432791002,145.90669382748516,249.75403050049812,22.156521692861677,136.37193129928664,21.57518608122421,32.19809049740215,13.497866221150545
16.373209066598964,143.08140202525456,244.2895289456616,20.812640131010287,133.9692531832055,19.895989480251,32.34293317155659,13.255110327682042
15.14565329677238,141.6125411356042,240.5963643987227,20.08921697637662,132.93874358181935,19.866800656289602,33.217544294077506,12.56672605531715
13.236495908981366,140.06685838846207,237.34116647616014,19.182168723396114,131.9321490208051,20.043342098371898,33.56401482600079,10.858663420778331
10.500701190256645,137.51558575244493,233.32740775121246,17.626918632819233,129.87970028472412,19.35712041690793,32.65035342164842,8.148965845691809
7.404988334126081,134.21875225123142,228.599479084282,15.571164105410116,126.77982267663675,17.801929962317452,30.761724576773886,5.1379417019241584
4.782111174640134,131.12301439493632,224.10972535691738,13.547144542623796,123.4489378760275,16.276054585054474,28.92952357952168,2.8504282539325896
3.381967447096874,128.85827485755016,220.54552758980157,12.063846430732271,120.66619289707222,15.842755628486252,28.221606692697353,2.0987165151499743
3.5503861110707016,127.33211336622077,217.75847315509023,11.39015062120111,118.65743604620656,17.019695179093187,29.17132356130521,3.1159524578112934
5.144021614602834,126.14080910526171,215.24597110456946,11.564085238196382,117.25007354018128,19.518342741505894,31.627183249173967,5.50879707387544
7.6030378570286725,125.07043186999213,212.78357391621122,12.434749365324269,116.21465784423333,22.45385493536012,34.91180587457674,8.455811468386662
10.127716733934106,124.0964037663842,210.36173851238502,13.667843816817454,115.30893337889697,24.805898915229818,38.090953006338765,11.019548982317701
11.969617087302709,123.12018885186545,207.75625131675696,14.841015432626344,114.1657073217185,25.884892351255544,40.28229025633823,12.480468128638947
12.758360980185511,121.97832097061145,204.5845958176701,15.67547682617471,112.42696720538649,25.602639208437996,40.96252010345946,12.595267117325008
12.643458922773638,120.68855973752574,200.8571375669715,16.198023623387094,110.06997807132275,24.412706158674336,40.11869835903327,11.641931680417839
12.09412481440208,119.4054318836639,197.12062514003358,16.60403548738636,107.43425355615868,22.94130335139711,38.09725352482281,10.180968664260917
11.489293012304746,117.94649955507855,193.72961843686605,16.910209719380497,104.76650121707647,21.543652887666944,35.25431030949527,8.667625371240401
10.841274451599526,115.49862267403347,190.05171222088097,16.767885298104535,101.78982115441399,20.100002758908868,31.734641313336944,7.200022297324073
9.86747119088539,111.08882171725818,184.7279699889617,15.66983082113031,97.89291199637391,18.179750475632677,27.584281921724294,5.586217788107869
8.284787366686182,104.49422627448185,176.90073755988246,13.362051000137491,92.80893408393653,15.402003572073935,23.034170781272127,3.637067781707608
6.03048984452572,96.62495521879221,167.09898823155746,10.068642908805185,87.02236266312745,11.70436089002616,18.61359095040585,1.4229378787280844
3.272663286494207,88.93286414256858,156.83776999845784,6.3734735979732156,81.44227608489531,7.391365256089612,14.96884225116121,-0.6861667449743867
0.32137396993999495,82.47138634254723,147.48081845809224,2.952355597739413,76.74012170693022,3.048261579296457,12.58666551768535,-2.1832832478931588
-2.4186653725037472,77.52979046654141,139.63004689477992,0.39659933758033605,73.07764167184145,-0.5681475529047216,11.666001982023149,-2.6664525860471184
-4.477684561633255,73.98266117399696,133.43238136194424,-0.8588045782627753,70.38127782951453,-2.6735861160418932,12.154853989549142,-2.037163654801943
-5.4359435067878055,71.69862972131193,129.0173666227107,-0.6202439218813199,68.65480261274746,-2.6924795892931694,13.809070466893605,-0.5575995667423798
-5.101325769218151,70.51344568500932,126.34922055312636,0.976588716310619,67.90970287685325,-0.5243552329777332,16.215001103130923,1.2928352346243073
-3.593190348031189,70.01844333124525,124.83041937637088,3.5195198906432728,67.91066860371294,3.3338352696886226,18.853880345974666,3.1054419851475203
-1.2505476776826103,69.65195839828213,123.44250456889014,6.534246417615937,68.17686699084959,7.912837810005065,21.23487961347998,4.762510609094999
1.524801290195122,69.04159104137601,121.42462956274228,9.652037512193257,68.25171533163554,12.066542242232886,22.97662002874604,6.371982109605637
4.3385952771647505,68.10059762271447,118.65451140830605,12.551359186535306,67.84261709781757,14.794681526613605,23.755542247571825,7.951911637831009
6.806227699891904,66.73450413287478,115.27196015435116,14.807393719191074,66.67505130594911,15.54815284682207,23.27613070393487,9.205160159998915
8.634583723068008,64.65694461150893,111.17477621964642,15.966638197625091,64.43692283044848,14.527851448034863,21.498930570418338,9.708041721999527
9.808456855640879,61.74384392596867,106.23530540876571,15.906599631038302,61.150801189441914,12.844457074182758,19.048777600067694,9.415117462019648
10.676337968189765,58.55003446352129,101.02064703589329,15.110670388979077,57.628829215447574,12.24508366815785,17.319795751617185,8.961350325044334
11.72904161127601,56.168045095699625,96.88433164748803,14.446731571774011,55.26515840121664,14.27255438062641,17.86042147695505,9.32341588765123
13.16407188355247,55.266382802121875,94.89447480868476,14.518048794188669,55.00247011203683,19.22148482105795,21.265701911665875,10.993160745051252
14.603761419986228,55.19508142357061,94.54425810242734,15.142291782177576,56.306269698581424,25.63088233204353,26.417665274422347,13.35429230072288
15.248466928137344,54.16094869227628,93.66967471691672,15.446049558317513,57.18071845961324,30.825314554939613,30.800778680681354,14.873998186808896
14.36646127975788,50.42388625753758,89.79592834851499,14.500382099442806,55.33361183299545,32.2696065562565,31.798662972120027,14.060914496894926
11.74618405736234,43.451704490287554,81.67882442356999,11.966454946249268,49.54793444394014,28.873330274745783,28.1050185191058,10.500197632037994
7.820930908849185,34.12559938534225,69.79453626798703,8.295596803097041,40.255752902096056,21.42881428879938,20.342983212119172,5.210385239691552
3.4715014588948327,24.101914913616163,55.78826262597316,4.454971474206775,29.153537137647422,12.018216742341803,10.624114927099502,0.08182560507692611
-0.3038477914301465,15.065155386559088,41.759100217178194,1.454027661469912,18.408497357080215,2.900306414496589,1.4630075310457056,-3.207458123165367
-2.6975574260448605,8.293827760361982,29.83908463402153,-0.06645177311104163,9.947152209703107,-4.41106216767968,-5.29469498157054,-4.1030693902665805
-3.3169198647610343,4.396045662100575,21.735843677886628,-0.05599550304966584,4.910749887369672,-9.451356192769536,-9.050784468802554,-3.377654339320976
-2.2715724793126513,3.0822477245142283,18.013590166000792,0.9824533961856867,3.295637549687594,-12.510457345412249,-10.372983818736744,-2.539370889280001
-0.06739421151226226,3.2375721470545673,17.666687763543145,2.3081793561815007,4.018847090561969,-14.062872544335539,-10.381683010031242,-2.828707825719372
2.6492301898697046,3.5239342732369843,18.6652862177658,3.385705640214635,5.556882128113396,-14.32968077686584,-9.988311738496655,-4.436816572870741
5.318816602257271,3.144630795680099,19.188462651347233,4.135035801305296,6.77666290592064,-13.248955931926577,-9.469279425046707,-6.443610303519269
7.518694805063361,2.0683888762369054,18.416064070804524,4.776022625029418,7.281630432229341,-10.828959715417103,-8.627741623030321,-7.49061887123474
8.89478109231598,0.5424121322149396,16.24181708066931,5.429891302970138,7.062237659199021,-7.539377255640811,-7.314642291263373,-6.689937060360089
9.175691857374632,-1.4571834169932905,12.552396452281656,5.894015008696791,5.996887589230013,-4.333278232532646,-5.779109301735762,-4.136620192157018
8.341199087296136,-4.157744420493727,7.124709011000016,5.815735177325342,3.8470889310068053,-2.2105410697580195,-4.534232364059755,-0.7538078486769244
6.7607955398190285,-7.468669331771484,0.1976204895188195,5.051814916883422,0.6810906875841194,-1.6730207316303014,-3.948028971981119,2.278072989190874
5.069042492298806,-10.795039029645578,-7.256456632352347,3.8182693416954594,-2.939706245547375,-2.539434195909367,-4.02715073213672,4.041324015421252
3.7972740985324815,-13.54525602435473,-14.177152335391419,2.5040665643021174,-6.375808313778782,-4.246290503980838,-4.585945342960178,4.095105795528543
3.0512126436517204,-15.76308878020545,-20.324433535276185,1.390034231726256,-9.484186557315988,-6.3137658543196755,-5.543189604837148,2.456941770961178
2.4961560717885405,-18.11324182679799,-26.35100593788306,0.5482109657545507,-12.667561336964564,-8.56013193063437,-6.9910573472286845,-0.4752441679112527
1.6275296521606517,-21.237671312352184,-32.95662558321539,-0.07787029421897562,-16.35338786709981,-10.957350415815148,-8.994015212532192,-4.017751671770571
0.09184404077567859,-25.23517225814288,-40.16927873206425,-0.5956103043059198,-20.534029674478273,-13.360203571769947,-11.372337736875938,-7.369592680495591
-2.125764717791017,-29.763461504379034,-47.539688190579355,-1.1546232890323944,-24.846859024846683,-15.381970241123579,-13.676916988971294,-9.839465677638879
-4.666666966689672,-34.43454085366726,-54.78915687367999,-1.8943562623976948,-28.954698094964364,-16.49462702101342,-15.32408900461997,-11.010636012486199
-6.891830914208451,-38.92141817006826,-61.94361300821951,-2.8036273942479886,-32.69549042704443,-16.276671084851518,-15.77775713146277,-10.769157516614571
-8.131729285421713,-42.798089267025496,-68.87347585093107,-3.6651496354708972,-35.94398212331098,-14.711046074611328,-14.771761916256324,-9.266963560918912
-8.062295591489507,-45.63873081038708,-75.11412827946758,-4.251578684885974,-38.608232661883434,-12.413620104985776,-12.577374601703182,-6.924270585167371
-6.97836555829088,-47.50284172503575,-80.4377866127372,-4.626050317410052,-40.92345525856556,-10.589431952111536,-10.128175280832131,-4.433579376645689
-5.671472079765994,-49.175239236522046,-85.41640348319416,-5.1739539105935695,-43.57435588275919,-10.543003805853196,-8.709894799668827,-2.608683503618166
-4.893474221701957,-51.58610578768896,-90.96836329072012,-6.218653373175364,-47.173848687603396,-12.866244965801235,-9.209493611020077,-2.028460217919792
-4.791359490348248,-54.82112007011489,-97.15401718885349,-7.554086298819639,-51.43473877655528,-16.814997640535584,-11.410261374002905,-2.6771333540937445
-4.788971962848326,-57.81024839990899,-102.65392729256685,-8.392752939287774,-54.97947750785878,-20.442795859035435,-13.959156750890907,-3.8867991483068924
-4.024129014000182,-59.174240242979366,-105.7704146140083,-7.846414211771343,-56.23265711680508,-21.5910099937101,-15.152074930541495,-4.6884728011471415
-1.9806200056850767,-58.44955653021266,-106.0408663691129,-5.541394276231991,-54.69772662578679,-19.16722179701002,-13.995326878992651,-4.354549114669908
1.1596660639075171,-56.5112718469063,-104.81048243619408,-1.8780816163077254,-51.466731805056305,-13.864606769479757,-10.778670993969117,-2.7790845460522475
4.627575196690285,-54.91742204024896,-104.29303212298547,2.1860098971580157,-48.5756161971487,-7.841672925033305,-6.822137469087758,-0.48853098251743493
7.4776185651152165,-54.953899597821476,-106.22701963458027,5.582905808792015,-47.87236800590148,-3.575252635353246,-3.6732137677948455,1.6747656305003085
9.034173412554658,-57.155676408204236,-111.30489422234108,7.543370707991399,-50.251904947347015,-2.5776364867904515,-2.2962009518337725,3.0027464690924908
9.19625748049087,-61.28150537652182,-119.30818300448749,7.874055782734798,-55.467993416973364,-4.6701746684002465,-2.6491418146586008,3.286237783790254
8.494363407142874,-66.34223980525529,-129.1812900435668,7.051863617318796,-62.25922906406686,-8.157673893412984,-3.7852843145300956,2.9092743193957724
7.825395391374839,-70.73133295754953,-138.97758642793855,6.015475274969401,-68.71865837461321,-10.795206465378484,-4.4250881394351556,2.589618738989341
7.9324631825500065,-72.86419781699297,-146.4177066776654,5.639914920661874,-73.07718470916355,-11.043703950275647,-3.7462886812962295,2.8883388261212963
8.931329007196426,-72.20916418160789,-150.23676023813528,6.198586657493342,-74.69311599457477,-8.91547479777583,-1.9317332442627921,3.819614360080701
10.246763315385726,-69.80906386006892,-151.18343950614513,7.261533021725734,-74.4668004689536,-5.888209108749581,-0.05174538698780104,4.873967326640026
11.031812188972008,-67.59405705298684,-151.44194247365817,8.144372704911984,-74.12392867100112,-3.92634396529898,0.6933917626969065,5.450441635048818
10.731025050300005,-67.00252851411308,-152.8654096499699,8.491665188218006,-74.88293501228927,-4.252444922214166,-0.20104687861520792,5.337098193088127
9.346787421133852,-68.21689788432386,-155.80815725889852,8.455597971833148,-76.73031888841942,-6.671178232658154,-2.2982096013707234,4.846856149117648
7.28647649863918,-70.6232949320843,-159.64779888341354,8.381278766454155,-78.90951936431834,-9.811187056160156,-4.6664950864875046,4.549905258501521
5.042363780885094,-73.72967533522034,-164.08276194273859,8.412167054614802,-80.93030868925315,-11.996668040767437,-6.527810641739764,4.890845542901981
2.991630004896829,-77.42968480272629,-169.51272411850528,8.414459047950304,-82.96504553585385,-12.132639705416722,-7.5631042010621545,5.992088232038249
1.3508275681895054,-81.540653238319,-176.20201625820752,8.179063656930364,-85.3880517536267,-10.150385922432955,-7.802968864380527,7.683665016643708
0.1568880296146488,-85.5198373489444,-183.56823994589993,7.587547277895018,-88.23878941770292,-6.919853427041273,-7.421165886488286,9.612905345507329
-0.7471121674679655,-88.88081699360217,-190.64363888599496,6.61743403206608,-91.27748945963378,-3.7674941433084204,-6.656002420452808,11.349555385502894
-1.6070215720351615,-91.70966160066504,-197.03356218587413,5.352038708721577,-94.36317906683854,-1.8229161087252983,-5.775696775085845,12.524220056751366
-2.5231471399799044,-94.45671644636775,-203.00191257309734,4.096167207187208,-97.4922111766924,-1.4911155837303325,-4.965012199301947,12.992995992399436
-3.2994727036641702,-97.20207013194991,-208.61362226128878,3.400483624062057,-100.48466918770319,-2.362548536509118,-4.246628772832519,12.889313120172275
-3.57716769974264,-99.4069458237263,-213.27732843735765,3.7770378241511553,-102.9552191947206,-3.6471138609512086,-3.6203184132394064,12.461792456874608
-3.144961135315796,-100.5570943538663,-216.48560262676577,5.274775468545376,-104.8179159756746,-4.807300052782108,-3.3140071137943035,11.826817232022785
-2.095054641429858,-100.86641203522234,-218.7651886275733,7.367558273863171,-106.66860433577958,-5.866066953014246,-3.789122782954686,10.895035012614871
-0.6740455600837574,-101.08575939970571,-221.4015701371806,9.32927911939688,-109.34867444684826,-7.163192330071368,-5.366082398971506,9.551433836453912
0.9455140384274494,-101.69072123188894,-225.16477580022894,10.716827287757244,-113.0505499942094,-8.868901006859836,-7.830668532817518,7.874330070583273
2.671194531495083,-102.60659384074083,-229.76220903269854,11.465745105919721,-117.07601099078975,-10.75751239366659,-10.493831471986637,6.143168542648989
4.306514929293204,-103.86592882887345,-234.8452304400928,11.604613321176783,-120.64868765748196,-12.39491768158968,-12.686221906147097,4.6587103578517
5.500307324557253,-106.17283749715706,-241.15166960799124,11.067819280106725,-123.81007630149806,-13.441220674898787,-14.157843535942568,3.623183425526234
5.988429565672953,-110.2922464188316,-249.8850234160189,9.90093568482452,-127.21544399132144,-13.745526730251306,-14.983996649193678,3.2065469569655196
5.866701876390123,-115.73943324899801,-260.63189093146383,8.552269786099897,-130.99047914049552,-13.272790912253868,-15.201199065893237,3.6285604134010163
5.528046241244169,-120.40784050241697,-270.27224654639747,7.74469180548441,-134.04612296678056,-12.127469448669585,-14.713352565826497,5.031559853533558
5.275449508285425,-121.91872718232689,-274.57802304686885,7.918233647074408,-134.7906999544069,-10.729399303074281,-13.614980227593572,7.204409601254446
5.0119825582899855,-119.59010811892384,-271.3616639881917,8.789762283908686,-132.60993584896676,-9.872924723584868,-12.501513708565763,9.47401339296968
4.317730964311331,-115.31918861812078,-262.56840008497636,9.474612664474286,-128.75787642918198,-10.443156773244649,-12.329839002614163,10.954464384478875
2.795954505726086,-112.91237828134147,-254.06617824753965,9.01976842919869,-126.11778324122528,-12.944202055882123,-13.927360097660644,10.981178935961719
0.3723468453321655,-116.64462029329577,-253.802665395184,6.899959417086837,-128.28513876786192,-17.20274297765609,-17.578151472448866,9.41379687776658
-2.5455665331370216,-129.5552709156166,-268.9534636783142,3.3280752979221533,-138.25793783212552,-22.36930134451331,-22.836670983819307,6.711954486277451
-4.932822681904109,-151.18862324917177,-301.6714133972076,-0.46753885102441545,-156.39824878104542,-27.01466553209522,-28.35014517375555,3.910056494578458
-5.122084616359803,-175.15981014721856,-344.04350246486547,-2.1278025219349326,-177.94353008317933,-29.21061867852529,-31.68567894323433,2.4991972859892195
-1.2952156281281768,-188.79816313070833,-375.92226554654195,1.1895959245045769,-192.08579330859592,-26.873917924733153,-29.721419542782943,3.973714990403609
7.318605663577542,-177.37943648631594,-370.3119085400288,11.078442679478753,-185.1079597842018,-18.691030263371577,-20.1128675840344,8.924683812196772
19.148349501136316,-132.35580417652343,-306.626303248863,25.899539958116364,-147.5329084705842,-5.339093857195309,-3.3281270706314583,16.126821639982793
30.063733715094248,-58.745608314965466,-184.94063197993222,40.249051314969456,-81.3420118683834,9.943711330830999,16.295144664322173,22.463345887633363
34.92939185820467,24.206336400598556,-31.100659067916986,46.976944575785524,-1.8525310100231354,22.266866357619225,31.803173542461106,24.161967443434644
30.30641657751037,91.04946842102018,112.72482518228635,40.97967225294213,68.21696027291435,27.302859957488796,36.938756552789535,18.832582928647017
16.621333138098336,122.66130418587365,207.7613833671447,22.410360201056644,109.6098006925053,23.5607454416425,29.58491519190454,7.034423343746849
-1.7269585279417474,115.6287651063874,236.99233533976664,-2.940585330909952,115.80005394944077,13.241936633486805,13.066302019144642,-7.746081432241409
-18.53823322052123,82.66615977239596,211.11620347586216,-26.53112837040904,95.00491363695993,1.05385009722207,-5.639123702578858,-20.811928821122827
-28.940073311957224,44.2202181301681,159.26963153286627,-41.44601910721275,64.1016662702311,-8.298809598853833,-19.660113193534666,-28.62409299452793
-31.521074386304218,17.202474282297327,111.70081057433082,-45.50301782972505,38.94242707192379,-12.3520056001958,-25.537325254819322,-30.3424160647993
-28.28210906315282,8.063438132945842,85.92126570251163,-41.325966159846644,27.409641420663306,-11.52903606919469,-24.10709438591194,-27.685839005133847
-22.80663592941814,13.321103641906985,83.45580771515228,-33.85733074172817,28.620062269706832,-8.099769596923107,-18.876702106095575,-23.475439745603317
-18.1618843340368,24.93653449027641,95.57195531551739,-27.410880979912648,36.7734001867928,-4.50953502814116,-13.518261965337551,-20.037348684876715
-15.822142568027854,35.5698018445821,111.17292806832819,-24.117005083246166,45.6182978365083,-2.2674817272141508,-10.250091408113192,-18.429178908235734
-15.778879731390989,40.96229072780044,121.78279924333374,-24.036863201682046,50.9035919321484,-1.7712786385167059,-9.620522514942486,-18.574699557150556
-17.167317169808104,40.083117807191094,123.31516190792732,-26.016160259287435,50.972297161823526,-2.645666862015777,-11.031709052737135,-19.769895193770623
-18.82861058314827,34.61303881434786,116.37693985769529,-28.455209470465554,46.65555149655995,-4.107449472308224,-13.28597309908511,-21.118162598709247
-19.746983780288204,28.013765771235903,105.45050579447289,-29.912770997360035,40.66804011729681,-5.284432426101604,-15.06909250947334,-21.859337488226256
-19.454282709963113,23.717817414486245,96.24892273630265,-29.68681440789,36.09845026228063,-5.593682403703839,-15.525486633248393,-21.667478922540695
-18.226632550229773,23.09967992051222,92.14901070992448,-28.123825093975732,34.5229409288253,-5.041809388738408,-14.699451970786228,-20.783700575914075
-16.815502976216724,24.9201303940056,92.45753876885667,-26.268318555303814,35.24964366275767,-4.147133142403803,-13.39159987728098,-19.794171690289122
-15.84891161925954,26.860853421024633,94.05164542301648,-25.019395039726735,36.41656302336733,-3.4782089737245405,-12.448796208861285,-19.169035767160818
-15.427604371864783,27.59775483178534,94.54348515668131,-24.538799299625115,36.77370455425631,-3.22803103696601,-12.137027802428701,-18.96625510153361
-15.25689233347021,27.36797359188135,93.71184171768265,-24.41844783613203,36.34716942450588,-3.215829876893423,-12.17095995509104,-18.948503557798983
-15.070292899694994,26.87208218651063,92.31779428921425,-24.280648080277704,35.64653163209929,-3.2202252303202203,-12.224101319105186,-18.911959505661223
-14.835278261294496,26.222784161258822,90.5050784577791,-24.080772404693136,34.75978479324926,-3.2052890430491243,-12.252957226845556,-18.836391381983887
-14.59234390660361,25.196074870009998,87.92429715298269,-23.881867519195616,33.48851135684617,-3.219327656997131,-12.328391444227124,-18.75471595035716
-14.260196610115322,24.077359915509067,84.95396192065199,-23.56932678173191,32.056799202842065,-3.2009791639436944,-12.348886455063138,-18.605071082969566
-13.715885905144933,23.645925111178407,82.8538044259574,-22.95891865947184,31.156156125751274,-3.0100136085989595,-12.103654033479666,-18.29686395241473
-13.014903017279947,24.21317159352138,82.37073723690965,-22.117655206807147,31.141029105669258,-2.6374059396492844,-11.591600271303221,-17.87819806915997
-12.395830927801416,25.0893448398697,82.6937309735964,-21.38342461413436,31.49518830308068,-2.272008762144234,-11.105520586209545,-17.53282764373993
-12.018443429024932,25.329038982601563,82.32171582894091,-20.993516477897696,31.387149143015442,-2.096370291094412,-10.912180540815765,-17.376834413014596
-11.773540564363739,24.841201923608963,80.81975932366264,-20.80134702342343,30.64557186344354,-2.0698563471386695,-10.93512137183967,-17.318965029408083
-11.424996677883652,24.412602140774872,79.19585490528723,-20.468391052799433,29.887681885245314,-1.9895970496975415,-10.865783752720619,-17.17726289959995
-10.90217496732013,24.638313403141886,78.46339597177025,-19.885418931596778,29.65965976242529,-1.7503824476270888,-10.55839785913563,-16.903174649025143
-10.362048867699466,25.19827820806647,78.35394229419363,-19.273657183772784,29.75505356494145,-1.4608601120802134,-10.1882256656594,-16.62206721292346
-9.955312088109851,25.402708806055237,77.85370355720693,-18.854955599115524,29.5907456059853,-1.274023202204599,-9.982008363068948,-16.44930914838294
-9.624978467975819,25.19104391065339,76.71217369152214,-18.55487997734775,29.063073094672724,-1.1753846126312868,-9.905710294361983,-16.338947224284496
-9.204720738421575,25.19573134585897,75.79500886922654,-18.133481304766406,28.684720484051688,-1.0164868806091358,-9.732147831960209,-16.164037897003706
-8.664056043582619,25.81895096135474,75.82498139479438,-17.538386063190107,28.8374127131564,-0.7343634856231553,-9.374791073891602,-15.903323522348597
-8.151658361888627,26.639207151445824,76.30925521666369,-16.977582422859058,29.20749028007647,-0.44355919016919776,-9.01182701655274,-15.668336457995508
-7.778988846164922,26.985236399224203,76.17571120546647,-16.614257054723804,29.203640643025565,-0.2721849445913204,-8.82861148537784,-15.535985020186223
-7.452629925729548,26.880051721595585,75.25426795148155,-16.31971973599,28.78215957011816,-0.17380295145896899,-8.744260988960754,-15.427444862981092
-6.9968273063920305,27.039293466620432,74.55791497458983,-15.841311540258616,28.534511618064027,0.017835473078926398,-8.512149989581067,-15.211214937501564
-6.403304524871469,27.91139190605725,74.96087384481291,-15.163548710213782,28.905040076514727,0.3604149652697539,-8.064755261207084,-14.895024514526163
-5.8640878055196675,29.06425016033131,76.05833235146677,-14.564758338947687,29.597951960431438,0.7122008663764116,-7.630435035318813,-14.641636751212305
-5.534614869911843,29.746071749920866,76.72390234941444,-14.27869081650073,29.96753805282855,0.9052430159497196,-7.455105239827102,-14.576813339000342
-5.337782422867761,29.849502446194858,76.5604248120644,-14.201664704729415,29.845311935606524,0.9534888307353154,-7.494210523302279,-14.635003060978685
-5.060117716142553,29.987592784266138,76.27282631801803,-14.018535073669366,29.689762146921268,1.025774913718577,-7.473415422970676,-14.634615152454545
-4.598672577405865,30.63623385458341,76.54825254515707,-13.559856160330757,29.90783474595331,1.235745860048463,-7.2163044343706995,-14.471205262820813
-4.032785367233606,31.56556833915238,77.10744729094496,-12.921280895768724,30.335955651892398,1.537812366305286,-6.797151734950482,-14.180688189827434
-3.4607633837248746,32.326290533347,77.29894204562203,-12.243406243950789,30.605337108335725,1.849626007294412,-6.352860173539278,-13.830287621521581
-2.8730848929073245,33.0369678810266,77.3653770917547,-11.530870248204522,30.833796522431616,2.193569276302241,-5.876400951531067,-13.439586211434811
-2.26162338493129,34.27135628692793,78.46219189142676,-10.800898138811181,31.58625982416166,2.627824123264549,-5.32192512086944,-13.067132199971605
-1.791209213753809,36.11426223359732,81.16446352616883,-10.32011414875385,33.04989836080597,3.0563740943459914,-4.866355276072964,-12.91499750160323
-1.720414951751611,37.693669258555204,84.3347205407833,-10.479343667374096,34.51212950329781,3.218845953173673,-4.883401880496264,-13.217710074745122
-2.0763664531770263,37.96966693562833,85.92131153380458,-11.308763147099803,34.929116771387164,2.952903018978441,-5.5303676948251415,-13.948197466132264
-2.4544581597632398,36.93376007025982,84.88274655730004,-12.174218449336452,34.00023137490523,2.4538446084132928,-6.393287351494579,-14.658903299032108
-2.2321966732066976,35.80988948354744,82.12270110168194,-12.092607015342228,32.5350755778962,2.215007738211186,-6.653367949835634,-14.696928783984498
-1.0421810703371441,36.069882356156086,79.69346697394226,-10.457640124188186,31.802162995856087,2.677963694008546,-5.682608882180342,-13.663505853320915
0.9103144861882236,38.41667758851338,79.56073517229262,-7.562289725495316,32.71198785742787,3.9145498123464986,-3.5394417430349625,-11.761114785858586
2.8964715519508237,42.6249098732719,83.16407852214802,-4.568755442381952,35.58226394003394,5.564625625060076,-1.0112534124640955,-9.807058037223502
3.95325517526607,47.82160632549997,91.21915586845202,-3.066946974414205,40.178728422789725,6.962304341785833,0.6873774901352755,-8.950994524547275
3.24676863973474,52.40945190781857,102.58688169121413,-4.4546858829280245,45.37618618093735,7.316910290875804,0.33250777022927736,-10.201522195741562
0.524158875284404,53.90884444271011,112.78802768852279,-9.154351389340643,48.7217161649383,5.999482339944662,-2.7584578945722535,-13.805922905577386
-3.370276147087286,49.796372575323865,114.43997959785345,-15.763315981258758,46.99145589311767,3.024239175833536,-8.001117503956351,-18.640910779523942
-6.290614135577496,39.401999448818195,100.66956322658856,-20.746691846107154,38.03962045174759,-0.5057132078104974,-13.062393851965972,-22.068631050792188
-5.432548736471118,25.093439522925184,69.2206063899486,-19.490377210214632,22.495709389359067,-2.5303360318466868,-14.4026651498493,-20.75602580204774
1.140897971584457,10.821295590354428,23.411736147411034,-8.752931994215507,3.3555166566637804,-1.0509469623574044,-9.12891582150849,-12.399935053022862
12.939578964399853,-1.5834852381999693,-31.417555852430546,10.80346852386155,-16.76048028737771,4.412963292158494,2.749959533780424,2.553253332258663
26.70085439089809,-15.295643188957655,-92.9419924728398,33.96497847921212,-38.45546264286714,11.98458653515474,17.37832426354257,20.471411245684696
37.87346401449804,-37.256285789998614,-163.25003852681604,53.22575623212672,-65.53704453480212,18.077064638499756,28.604028652808903,36.039450680595586
43.23463876601165,-72.33246500922175,-243.88226372054197,62.954872839587274,-101.05809750899081,19.428545342427014,31.52936681703723,45.05484136026083
42.93303570571507,-116.39832183586216,-327.2466946858515,62.83404719763556,-141.6934803757517,15.335941105054573,25.911935185566907,46.808318999242985
40.384889639589815,-154.00362141922463,-391.76063360377856,58.028081990714426,-175.06849202578692,8.499064302771398,16.925326238007155,44.380842109754546
39.835849561459554,-164.27656455590918,-407.4775249521866,55.61287118345207,-183.6861150276371,3.6283468497940277,12.29761099613876,42.48576341007375
43.17143756032439,-132.93125184698613,-351.8359940935511,59.539942221485965,-154.56586988842193,4.5189557436357815,17.40259126286423,44.237326360627996
48.31258059066927,-62.766996630600886,-226.16742131847712,67.72334253198876,-88.6755970456319,11.534448749206543,31.59482142782414,49.09166480354203
50.47614714287389,25.137090217526538,-60.74998359609381,73.41539223676095,-3.211127586007178,21.280427804818046,48.39901956379789,53.3905374170593
45.44492088980201,101.25720224258261,96.8874602977105,69.87424229149251,75.71258880359422,28.699406356091256,59.44741676549363,53.02596932896597
32.51347810589886,142.53647025246693,204.14002399735173,54.96807675585455,125.75280707494613,30.113017260119186,59.447360942893475,46.26630203066279
15.103783191015948,143.1352689102502,242.6028107758619,32.60682069708462,138.63637286040276,25.193540532639027,48.94393637676139,34.84148314198966
-1.2181254038211728,114.98543926964848,223.39919849461117,10.314011210310003,122.19786916267438,16.74639770595748,33.391654805085665,22.765773422125427
-11.842027756675513,78.96944529957766,176.89142707859216,-5.126328076304464,93.87047768603074,8.727959886476832,19.5783147751451,13.92940283542558
-15.284332154171834,53.13272221473479,134.6642947494945,-11.002083244846126,70.52799093018844,3.985972945931564,11.96027900135578,10.135435760600105
-13.252012650427206,45.11548026828736,115.08691837150938,-9.121057585542776,60.996555944957805,3.13321533978164,11.091100703706367,10.691147673009993
-8.967849018826346,51.98466464591604,119.39475492737398,-3.693181211680699,64.67958606633727,4.945926585607203,14.558559313108221,13.44829303618503
-5.16984268568521,65.35675261140439,137.27436165001848,1.4475646922122118,75.21273814646787,7.5975178153047205,19.15359552062673,16.28599696248933
-3.0492966776026145,77.22641534218299,155.82064283193543,4.455515469184331,85.48990618323316,9.722657874121639,22.61425792882395,18.041374642616194
-2.4067167564662366,83.3443419945073,166.3777087697761,5.418241734086596,91.1233341003951,10.804947592078284,24.178006605589072,18.58370381315302
-2.461753664981566,83.81567177516722,167.4394065709493,5.333333022982809,91.61939645982021,11.021862272711429,24.2258212805773,18.359698231720305
-2.6373954191098328,81.91961737709818,164.0962562555094,5.030342080125499,89.78560841036736,10.87792397536673,23.611044773616182,17.85687040826968
-2.9780838961412748,81.8112273392361,164.54784353324752,4.522081456915202,89.77309285528115,10.797222272675311,22.997955726619082,17.22896555609234
-4.098478567127544,85.64800405802016,174.44639035990704,2.973830058624694,94.20038068401428,10.777359645034258,22.386894627056755,16.20241078785904
-6.6167831810750295,91.56443763916025,191.6823426460407,-0.5751612505092368,101.72717612803723,10.332383287914547,21.131892835376668,14.37088785044454
-10.250138170160023,94.2706870509925,205.45616319359314,-5.921394103594403,106.97273389518246,8.916591361225478,18.6476922895442,11.812723120274642
-13.192464480472715,88.41784196989896,201.3334480517758,-10.696201506350569,103.37533128115187,6.614352863642952,15.39061498780849,9.598896000108846
-12.534096630917036,72.3682476675427,169.43569364956286,-10.788676637247338,87.20226371636468,4.474931507781217,13.17034676997067,9.608960720286927
-5.859261159527524,49.34025038309081,110.2277154183338,-2.5020521804593097,59.81348536510446,4.019819278053466,14.193466052296197,13.49737639444024
6.880995915758419,25.04219613106902,34.20996336151827,14.734689249567337,26.67614831002734,6.150257771621716,19.34894712962847,21.40385099847469
22.62148094474322,3.843247711978281,-43.62632072565278,37.0786204410556,-5.827497674588597,10.284532824204314,27.07902575621712,31.378156438721053
36.33768176274992,-13.47981892820406,-110.48766710596992,57.617050782657536,-33.362429763333616,14.458619975152377,33.87144342178617,40.074510298427846
43.5447629745637,-28.981719230990908,-159.73544355520764,69.72166011906124,-54.612569666740754,16.397098220013206,36.1788034431449,44.36754835152118
42.57666164433161,-44.935491477341444,-191.03732224919912,70.32142204427615,-70.36181448424034,14.81468491258746,32.44500773347234,42.87442100811379
35.197947880092,-61.96056398471595,-208.53916796044223,61.03970860782988,-82.22702276312623,10.035861566514026,23.80815675725035,36.45026239412705
25.295558305225807,-79.48167297172004,-219.3849607407336,46.70077614435668,-92.35558194727565,3.57598651751457,13.088481865050207,27.491690628710106
16.768679511649733,-97.34625816588427,-232.47071679237075,32.61087393356699,-103.59633124371273,-2.80828062109995,3.0737360608681215,18.731096509181
12.140135347146929,-115.68563124850667,-254.90998890750183,22.664081745418297,-118.26302064448723,-7.698393878283358,-4.373523756493043,12.412980069485311
12.487013773221097,-131.89124632333946,-285.37380475291275,19.125855124649252,-134.8420368127883,-9.852730624796973,-7.85606532256498,10.129102457099986
17.95937898858613,-137.65385174924677,-308.74552093213026,23.132974248877836,-145.20008610792212,-7.885434292776815,-5.681536317126582,12.805775788937702
27.807634390020716,-120.70997805346997,-299.1755797286329,34.45913231945066,-136.28932164543005,-0.6544407557845234,3.714488009583767,20.2725020221949
39.79849488473284,-72.35955149306655,-233.60449762706122,50.44130792600806,-97.36762163124983,11.581624081548341,20.02168916143597,30.59910350485535
50.01951071900758,4.1197284701507195,-108.37751683712786,65.55171205362683,-28.504767397727914,26.25452313375022,39.58982546936491,40.08248226242473
54.02256900260304,91.27080104351283,53.19350157955567,73.0262357616131,56.18997504212977,38.96877670833248,56.06881336619115,44.50291716402873
49.021855141962995,164.46866540609975,209.22869283293133,68.16295414144139,133.93714903864802,45.46059401550916,63.320308104104846,41.194026844920366
35.69740015005165,204.19064857580662,319.33071813937113,51.17116442040994,184.36201407788798,43.853815532649854,58.78934531268704,30.610190070938636
18.200555427431013,205.65537531078706,363.8747805917355,27.451885436715195,199.32000662920154,35.689431875897576,44.998950516054386,16.2562566999469
2.1747351923110356,179.87914871840496,351.0117390364193,4.921771080601972,185.5427943683757,25.02821747273638,28.124476089311294,2.929155400569956
-8.008476200208815,146.15459854794588,308.4341171799524,-9.9643211305754,159.16711215218072,16.23436768483119,14.623155668546499,-5.648678574996346
-11.09020206846513,121.4379454299031,266.7203558648707,-15.015580388385004,136.39710337368155,11.877735827099945,8.127500638098327,-8.372160734360088
-8.854012400027395,113.31796338867133,245.19113119722718,-12.413491167521713,126.31455236054846,11.972728492482144,8.412248723111178,-6.686262232792309
-4.522186701925703,119.66807246588262,247.36403453772104,-6.5579207366722905,129.27702166332105,14.71951447066546,12.60919183620823,-3.2503435828783425
-0.9170313026136228,133.06412580145096,265.2991320468775,-1.4620269705782551,139.96239603098482,17.904558273834294,17.343157708099632,-0.40898796382459324
0.5161554493479604,145.77668617150758,287.1357493973066,0.7063554858112774,151.66218326428296,19.94991866279004,20.273550233625564,0.6326007128397597
-0.3215199040123812,152.7160999255532,302.9887286879104,-0.33485140678484493,159.28695000696206,20.234201307591597,20.5219050090836,-0.20109237303446953
-2.6678018455267387,152.4171508980311,308.0767115742924,-3.612793204051416,160.74680811655645,18.96280073726377,18.439761048967366,-2.2627165916849044
-5.3682317977620535,146.99158915793683,303.78690757546633,-7.53651227218438,157.2757749456084,16.932233250051116,15.238160132996766,-4.596196807694761
-7.298902852243915,141.05137797389565,296.5739425499773,-10.490103536734619,152.6705934722945,15.210851772431038,12.504673291297358,-6.303746585046675
-7.82393244180506,139.27505030267707,294.2184472555211,-11.4965412473376,151.17574095656957,14.650803088106462,11.485519935463781,-6.905810431927824
-7.100706991196374,143.54804716555827,300.86555693116117,-10.685569315429776,154.82273337556816,15.411773980369528,12.408468533210193,-6.549936503029646
-5.943639014823424,151.70014485370842,314.1910698486757,-9.141334079081041,162.05334105543614,16.86446668006387,14.374705250664451,-5.869188469477098
-5.300335967877773,158.9070674274741,326.93309534938334,-8.18725967187486,168.73946573945238,17.985888575133636,15.943912070179632,-5.561969616228351
-5.7668985849602175,160.62687208786804,331.538848798817,-8.706742189164308,170.7726504348475,17.929491479064776,15.92123088982824,-6.036681095519382
-7.4544993698494855,155.01368883729234,324.58903705819716,-10.94826488686187,166.38180290215016,16.385701821130695,13.812598080208437,-7.350935706040169
-10.063833627885394,143.89283728844052,308.88401191787887,-14.611764869439806,157.15824571337967,13.683739909169605,9.947181157280433,-9.3076968006245
-12.865744059264195,132.6710427301426,293.25863453146417,-18.775671924260678,147.95196297535855,10.810247010858992,5.569473520133219,-11.44907568956392
-14.654241239775745,129.20433683913615,290.32318184598824,-21.755090701961404,145.7171358551271,9.309828135762478,2.8251372897448053,-12.984108548969898
-14.081723260577295,140.69394374740855,311.2083381747722,-21.505619423703774,156.67212279676565,10.756923413891661,4.111834183358782,-12.970186664651944
-10.502288482898424,168.57566584927343,357.49172718535505,-16.813157791540846,181.82230041462108,15.723847869842155,10.616681662218959,-10.873585381850141
-4.753686499849294,204.1829500670821,414.4463549858712,-8.503635500293552,213.20681596306335,22.839973291290043,20.878330603256206,-7.122839980290536
0.94756688779321,229.51312631803637,452.23963245523885,0.5226672337355615,234.59644720745973,28.86859198013451,30.72968748967497,-3.074719724459212
4.2016089770612925,224.89996614799782,438.17959351139945,6.809500662162262,228.28940228638638,30.158166140444486,35.17991312883347,-0.2532816132037071
3.9559021069068847,180.08533893353092,354.8553677336475,8.445899180593411,185.029758067245,24.7306762370375,31.248452995910714,0.6124449038407479
1.2379441342338913,101.62952519420809,212.89418512413488,6.197830718756308,110.79827922766482,13.621174909654211,19.853945536499165,0.0009692601011783084
-1.4975641924155942,11.185833466321364,48.93433393859551,2.814636160884419,25.43920503190305,0.4785274254883007,5.3976239249182765,-0.8689152146202959
-1.981919067726552,-64.95159652734964,-91.31559302539182,1.0238972540880091,-46.72912155607074,-10.392691644919301,-6.741603999933154,-1.0228621071095836
0.4305268698636811,-108.67998617992131,-174.9890702365258,1.7099026975881018,-88.725080689711,-16.279812797843853,-13.129209395755794,-0.4610006611516843
4.507939425017361,-117.37829017746596,-195.6129431161935,3.6097262490367563,-97.8867736783438,-17.139487795119344,-13.69378257767315,-0.060326432274426994
8.151235877762062,-101.8607670878985,-171.02459585450887,4.612803384135393,-84.2988627004517,-14.949803129349924,-10.921463809204734,-0.766695797785197
9.76352736373713,-77.88360603526847,-129.3655328450904,3.425567412714953,-62.9881837182301,-12.081363831363305,-7.804558223775114,-2.806551400356199
8.920348350639946,-57.87616790337637,-94.01879085271642,0.20539576306630478,-45.931062297411266,-10.007280439112408,-6.234870767674997,-5.58762387006398
6.0901514164283075,-47.597983060636246,-76.3189688112674,-4.0660277933430455,-38.501970059037845,-9.068367792813964,-6.698539027844875,-8.255139464311135
2.0358453509309755,-47.348016923067156,-76.8082043402727,-8.482396505669143,-40.46649825923657,-8.957039574566489,-8.784478002999673,-10.263662163617173
-2.4358515216622516,-54.38377311468344,-89.93100854783137,-12.427787049027712,-48.57848214023297,-9.176734066906148,-11.60772002231089,-11.455191852589449
-6.3934655339125,-64.40396444036477,-107.7449218867838,-15.214150894146512,-58.48274101084794,-9.189489261252437,-13.942199619269923,-11.779600249225304
-8.845943331256779,-72.54070972473221,-122.2102956298606,-15.955865540025131,-65.88292454025128,-8.504632403950238,-14.508709323520987,-11.153460204257605
-9.15210976021223,-74.82558046577954,-127.30269607400837,-14.063229869331353,-67.70834265026305,-6.9129971079048405,-12.612364878576953,-9.652463835561477
-7.449123448338274,-69.66770327926758,-120.70304582538542,-9.888620439499094,-63.05732927103886,-4.6822213960390995,-8.670228306197581,-7.748535700227125
-4.73585013953689,-58.261584329206066,-103.87428894395809,-4.91598862608785,-53.20069929347666,-2.474442149665867,-4.137155276912055,-6.275401368183012
-2.640574664175954,-44.05468343124304,-80.9667626688764,-1.4500127896920931,-40.913887693994205,-1.1089329245356734,-0.978113429150112,-6.182281414842642
-3.0654757515551943,-32.35175823318945,-58.49401345126924,-2.0790802678568485,-30.210132340626,-1.4667848191051789,-1.1874331196905066,-8.310229733304409
-7.610552313580264,-29.980499734514932,-45.97934323683841,-8.844968174314488,-26.50307950372076,-4.473695915039414,-6.388790788610855,-13.155775247864542
-16.535827841100637,-43.25485672829624,-54.59208772967299,-21.830823722849157,-35.52775829147127,-10.702972729564154,-17.014086224586194,-20.363751603291224
-27.55956403964977,-73.34200662008662,-91.14625604173226,-37.567185492959794,-59.773285891819434,-19.430242250932967,-30.97778963360518,-28.029479022959194
-35.55589234467975,-111.63199837817952,-149.9558023933704,-48.68977900786768,-94.15712446806977,-27.819123977485393,-42.893267823119714,-32.506205266244116
-34.13941718307907,-139.94736669269489,-209.71799605057356,-46.19392917025862,-125.05855055535561,-31.332836319895105,-45.28101685431644,-29.46306758494085
-18.85223607429161,-137.9946121949944,-240.8306513352099,-23.88926096624794,-135.39018304623772,-25.74060832817038,-31.99171528856136,-16.06963255984937
9.8257355844167,-94.7260486725212,-220.74467805775262,17.41307385082398,-113.73944532361762,-9.713733286321354,-2.0823376097132718,6.924090391317071
45.73954298422607,-16.313995732015343,-147.85918312130468,68.89996810203394,-61.821309502897286,13.75766937049447,38.507555187527736,34.7251793932375
79.3966749058148,75.08594324962363,-44.358183922692135,117.06667180364529,5.033724447259064,38.29307576534539,78.97442550105217,60.2498156897141
102.1973179314069,151.67148042142927,54.50433392186214,149.69057061338015,65.14555777415366,57.01736439945811,108.46322352484272,77.23086301727517
110.15775142982709,193.33160220396263,118.16854541847623,161.1029488502351,101.15751952124302,65.72730412756343,120.92388074995635,82.91576053056552
105.1287193685165,196.13100760099894,134.6938913490898,153.93537443817303,107.6865531645712,64.49835984396834,117.29275718720953,78.88882448783009
93.18590814591515,171.7250085687995,113.2827038271733,136.86026502155406,91.93601644319241,57.018336009898064,104.12089577156281,69.80559593081396
81.53078480077936,139.61211837841523,76.09216958047517,120.19498228219828,68.19426735087634,48.411841207952214,89.98566084368355,61.06138041338289
75.67822506628829,117.86649848786956,46.36643500929825,111.8815215485927,50.58257084373988,43.003765716264695,81.92256845328126,56.72087712416442
77.86188287329959,116.8432557321494,39.58779489268306,115.17554544668742,47.8869173286007,42.975687758689496,83.26646847424438,58.37857786218198
86.55789180886768,136.62587315031652,59.39728519547523,127.92020841280949,61.325081915134966,47.93618685827728,92.91032710339344,64.84364450271991
96.83659014779482,167.0487519054713,96.71604335639583,143.00802139118386,84.29716890617448,55.06746846487997,105.55367375322707,72.41770422813421
101.71107595726018,190.26123457074797,131.72037848932428,150.2955654494738,103.97049146374908,59.85634702934596,113.07322918835338,75.89765090392964
94.69912653692901,186.96765652963325,140.47913121412208,140.31083003702727,105.68280028290631,57.65662461249617,107.39787410193486,70.47552998365279
72.9445470213224,145.60623445714583,106.25179890690538,108.8295491244049,79.89587250937205,45.829825738034344,84.31895028961611,54.050164165829884
39.24442535654395,70.03168933096325,30.326097663754844,59.91368738532367,28.444092180243807,25.392611454420614,46.303207788271706,28.71961877050255
1.4301480134271158,-19.91393623394659,-65.3190792208207,5.098959345935121,-34.431854563366954,0.9663266641891007,2.2315339140106114,0.31272600549435725
-30.976327237034656,-96.87527200879977,-147.2611340773095,-41.466472127544854,-88.14578687026416,-21.23169744929076,-36.3468412907385,-24.07825692190446
-51.0998986985245,-139.3434053509378,-187.48745329158257,-69.46029387950365,-116.00472364153984,-36.286003538021156,-60.53999546158118,-39.2794847506998
-57.568047355797674,-142.0781735688527,-177.88834593563178,-76.75885976660209,-113.58656607422945,-42.66469226815565,-67.96618877940352,-44.13836639584824
-54.328568345503776,-117.41258594529683,-133.54509970006936,-69.36114589579458,-90.21316643257038,-42.332722391086605,-62.99756314646366,-41.45153978399418
-47.816453640238784,-87.0787974441053,-83.11897864100868,-57.29737940702198,-62.89665441689768,-39.06179781059709,-53.578171927745935,-36.00886882495669
-43.42552179333676,-70.08110716515277,-52.82017188068718,-49.31108246346805,-46.86441827847429,-36.20544938031684,-46.84728685837467,-32.109575167266726
-43.33426006187616,-73.91782395405433,-53.79451376046425,-49.358671806990095,-48.42910113146348,-35.30256379862734,-46.13821579500209,-31.930342663134702
-46.4686940640795,-93.14988730320368,-79.10919667045613,-56.21739300152309,-63.55378424042083,-36.00310701901235,-50.52197008328765,-35.26409774655309
-49.96555214731687,-114.17544015687486,-109.56320757688036,-65.42793801540154,-81.38514694193881,-36.849594479178016,-56.31684953398286,-40.256389231101686
-51.022750668394956,-122.46515716942856,-123.488186611227,-72.0253868145246,-89.86195383585493,-36.230495922891706,-59.31619423811668,-44.5249113397663
-48.43353210579126,-109.45025983268853,-106.66132708770898,-73.01264270332672,-81.2396949519012,-33.26086000708895,-56.93438023053525,-46.31433901699838
-43.509570184745314,-77.82131418849019,-60.63748851970432,-69.06853548065905,-56.657278694157114,-28.625259200916958,-49.90855406532132,-45.481515160056226
-40.03803003689065,-43.6036111993748,-7.137303514402228,-64.87088902122726,-28.434725686887926,-25.086218619012563,-42.93514142257175,-43.896622487566546
-42.88603478355893,-32.361064814150595,15.888944264801168,-67.35134744005089,-17.65796676522413,-26.954766254816192,-43.34444164817659,-44.760448274934944
-55.50470843984849,-68.63554093651184,-31.01462431977037,-82.1289708487239,-45.7955083603502,-38.18862362486884,-57.693034698436485,-50.873420183139515
-77.6164914755742,-162.67245630071267,-168.20299843477446,-109.93081847668188,-123.2903690202659,-59.92478565543134,-87.82498336672344,-62.785452012194874
-104.72810831096929,-302.4508886565089,-382.4028690335187,-145.45210735695537,-241.88103643634864,-89.12122796076439,-128.98712922903786,-78.13475378934365
-130.1397058100221,-457.3860338782857,-629.2833923983818,-179.81411329884818,-376.5921537408985,-119.55817369197014,-171.66792029654846,-92.8106413336959
-148.38511698379577,-592.797311196542,-853.8405599398441,-205.28585356373628,-497.40028243944613,-144.84894634893914,-206.3491863277201,-103.27126580294126
-157.87994143747528,-686.4862138721517,-1016.7041646612876,-219.16471885223913,-583.6627916399656,-161.55057418894387,-228.16888524274842,-108.43523415776345
-160.952734846262,-736.6414743191723,-1109.3644163753365,-224.13039193433102,-631.9116036322845,-170.2283505782116,-238.35826589311716,-109.79773098671762
-161.23784484163502,-755.9932202254915,-1148.4310053008858,-224.86484752301715,-651.9366588482249,-173.73278052666447,-241.5271294193697,-109.69918170999145
-160.37371550002652,-757.0268116756469,-1154.0373495528715,-223.54592710498878,-654.5155456898626,-174.03747618004041,-240.92728812137548,-109.09084073177883
-156.5497398849313,-739.8016504165945,-1129.377803012217,-217.7763608861054,-640.4508913733586,-170.14932507839404,-235.3948722180029,-106.57984533996618
-146.07105616769988,-691.9250378344158,-1057.4876991911844,-202.66643965952363,-599.5862119632595,-158.812546137492,-220.38605722769418,-99.55736186179793
-126.76131014068307,-600.68721240063,-917.8248438637304,-175.49601230488935,-520.6210551523459,-137.52266580312084,-192.29221567139135,-86.5530366396177
-100.58504081746118,-467.80079738660186,-709.592721606179,-139.3120746860103,-404.0146274990614,-107.51395350379089,-152.64742406807403,-68.98318526224529
-73.47905572077366,-315.1837244297641,-463.4636548337084,-102.6292566363574,-267.83908676541665,-74.37264296706351,-108.96403366350327,-50.950212301750206
-52.466552809642074,-177.0219455487116,-232.15409940705018,-75.32811794664826,-141.78139627029105,-45.70346477531304,-71.50995171072695,-37.235781116467265
-42.03169722416829,-83.32061700876855,-65.78082634573352,-63.54343059542715,-53.138924300260754,-27.400854818761115,-48.254059347978824,-30.89848266599003
-42.11006186333243,-45.819907760849624,11.69551764175112,-66.87063476812675,-14.060388741208712,-20.97582289116834,-41.311410915721254,-32.03115427902232
-48.77615229313393,-54.80708662622102,10.421618677428675,-79.40283716280781,-17.822059099234497,-23.510553066979707,-46.90091610358503,-38.266816110981814
-56.828721698228954,-87.34416586441493,-35.856198547938966,-93.43676066981101,-45.219875103974665,-29.922592874598145,-58.26639111696435,-46.364051431753225
-62.402509356401,-120.10277159215467,-89.4735406542483,-103.17915839226039,-75.57649675552645,-35.787238399638774,-69.22352020288584,-53.63948405196454
-64.16164179685899,-138.66815054239495,-124.77033733600074,-106.4263178934114,-95.23544655837998,-38.997948903995635,-76.22386347679029,-58.508333170572115
-62.95082652289336,-139.74393631451093,-133.3478542011076,-104.0942264667846,-100.05398168368531,-39.75469973685574,-78.4957132621422,-60.34126858584264
-60.72516094145345,-128.17279396783562,-120.5003263567307,-98.80413055594288,-93.21531853308232,-39.53636985860105,-77.18572612109438,-59.2740924127723
-59.51244144459029,-112.48892714717392,-98.49121429649901,-93.56554134374403,-81.5255264760934,-39.94709071630955,-74.41862014455299,-56.209327827255514
-60.607360510180314,-100.98897868129997,-80.3176649767527,-90.73557464074783,-72.04006984165717,-41.864686142558966,-72.41521579070768,-52.67662975885051
-64.0003913018577,-98.57628909529024,-74.67938596115404,-91.14298677960697,-69.30492314849593,-44.97293933316469,-72.52367335152002,-50.23961497596972
-68.28589889071723,-104.89483996121024,-82.7419094183256,-93.69316294859583,-73.60550989790038,-47.820500291666605,-74.49335401400421,-49.69908279420023
-71.3341774442233,-114.93079469040346,-98.30568299827793,-95.96003698323106,-81.2217204148746,-48.56215905289864,-76.63723361842948,-50.706380476361105
-71.50874705511185,-122.16795022858206,-111.79564370218581,-95.64364299675387,-86.87798527660549,-46.12293438282154,-76.97960933720887,-52.1050645331181
-68.67257096538255,-122.30394789067638,-115.54504361630563,-91.9840569737449,-86.8116845522598,-41.043821404083076,-74.60614227577356,-52.720760065752536
-64.3403490185148,-115.14620141650617,-106.95826522279938,-86.25414412252292,-80.43132756627222,-35.3821716142714,-70.28349256093587,-52.06649875578957
-61.00261259025311,-104.26143974240897,-88.7474861513074,-81.2430820102838,-70.13838735360916,-31.761910357652837,-66.13785504686629,-50.64680818162062
-61.10332793793329,-95.73539251142245,-68.15515038900382,-80.19374280595034,-60.49125081098751,-32.247498941138964,-64.83248140216435,-49.80069178057787
-66.00059898993436,-96.78055224287017,-56.232112966937144,-85.46211819170387,-57.423307243275,-37.57597257977844,-68.56591362117153,-51.0513168916505
-74.9700813561783,-113.21722760965527,-65.28590858560186,-96.90851511981737,-66.59833400232166,-46.76070894211559,-77.82627254199875,-54.99805481388148
-84.53505311045531,-145.20599850025792,-102.52368167905007,-110.5123880942409,-89.99472892742222,-56.9405800289244,-90.0981215265779,-60.19900578052846
-88.87550105952943,-183.47879272861465,-162.3149210749786,-118.49031177521239,-122.21711447147486,-63.71850140001997,-99.5105666163394,-62.94006421898809
-81.88803879557365,-210.2412208801716,-223.68081294869748,-111.96022808436074,-150.09628850740623,-62.4251409255717,-98.54295877980185,-58.5683979442739
-60.32710754921489,-206.6320078963301,-257.8320680933543,-85.4754328452601,-157.79133356106271,-50.193608377308294,-81.63981552831717,-44.01348849517711
-26.24869811435866,-163.34296782184728,-243.12698968311,-40.86204176421413,-135.3453064136154,-27.822542366576887,-48.81147546315486,-20.015006351333888
13.048639738921901,-87.50061029897574,-178.1779848388533,12.396739552675635,-85.26149950739475,-0.09966831040265742,-6.72061269990859,8.533541916181786
47.95544079151746,-0.620230001087485,-84.02229607629575,60.99202639548774,-22.345993647960647,25.967813346126654,33.86849455259712,34.58979406412517
70.83653298083749,71.7275627629637,6.620015628742086,93.82735068800582,33.553308538164174,44.21821646452525,63.0178501752273,52.22329965514243
79.21342208185939,112.29919239099549,66.27265131190144,106.75989992726883,67.47100485087212,51.9763414608386,76.04183440417238,59.20181503436781
76.09861009379263,119.08814854280355,85.12649930697104,103.413673165162,75.75462398445504,50.765800092573095,74.88638206143442,57.45390322649245
67.59746220657405,103.22781433996592,71.96655212313382,92.04169203346358,65.50013316152764,44.83871973615032,65.97552197787677,51.39313553516151
59.55228714698365,80.59846256967691,45.08037440852744,80.84689807493727,48.497354569905305,38.66451334564561,56.30992653276715,45.41243687832909
55.26387375717429,63.45838736709004,21.00381731932253,74.66449853586613,34.54392765792112,35.001579427176765,50.38339480582692,42.11118698638691
55.15654189767289,56.80395971946762,8.310861793472814,74.33135348158648,28.158481036850663,34.436055775939884,49.33525894789783,41.956043113984656
57.80878099883856,59.536373459540584,7.777724825219007,78.01863001831781,29.11649669460346,36.07802304937684,51.91453733082687,43.981565750667954
61.239846533475884,67.47045078076366,15.507150176683533,82.99607109192284,34.59182625142231,38.52805073955786,55.9379193572481,46.72143852675723
63.80955139360459,75.82054707306433,25.79469380628113,86.9100894044029,40.991672031979455,40.544765840291134,59.37460485146914,48.89501052369135
64.69804626363207,80.89802108212459,33.325061314599886,88.50618930083156,45.26896450202126,41.4022887275895,60.99061729618443,49.81133974903882
64.04458137956902,81.3757433098299,35.27109931018152,87.88524734773657,46.04629621495108,41.05914781947547,60.66779242685332,49.52064618317495
62.67650736112555,78.58102565802254,32.43204361270533,86.17003006769522,44.084044146423594,40.06337523392236,59.253907620438575,48.633954932077536
61.49022310308672,75.14636047920273,27.970851592067035,84.64308881757653,41.37896119643746,39.12826550653588,57.87738760666318,47.8508218609196
60.90703502227038,72.84917165876698,24.422975842759733,83.94903342720737,39.40882479337588,38.64309312314672,57.17807177492146,47.527670953206595
60.851865500363644,71.64631139114096,21.881167707722295,84.02066557203774,38.19307091825578,38.5494458606369,57.1180669483801,47.64082902072875
61.18639233861204,70.79000985068492,19.22097725978265,84.66814205646524,37.09555547371729,38.66699694394958,57.47012280268596,48.09837079584763
62.03110057061079,70.54550056276203,16.719777831734472,86.04387813796163,36.294424207428385,39.04823379020775,58.32702469465253,48.97386516669878
63.565509385053105,72.33555189752053,16.740587081923813,88.3838382416833,37.04935693368257,39.91721623015362,59.981404741251225,50.35696601106435
65.54581687800271,77.0522847987992,21.474206768333666,91.33957045178231,40.354326668831305,41.26282179814732,62.32050362843611,52.00975867278711
67.14242374676297,83.44993526028743,30.178962503161323,93.74846472409541,45.47411406134459,42.584098608796076,64.49241385049129,53.28086481026415
67.36158442603637,88.37311045823157,38.77182156954722,94.22591457435952,49.92724780683489,43.114920043556815,65.30258510460733,53.455398743345114
65.7257972903164,88.54740982048192,41.926054989374634,92.12175624939427,50.846460623142555,42.33783796353009,64.01828184037238,52.2680934503869
62.72341272393973,82.41923992494593,35.73635257789257,88.1399183654328,46.50998633121874,40.36991519077233,60.94549623585688,50.19982929327475
59.83334282554345,71.24533452745331,19.75208599123196,84.3475257992683,37.35042405439992,38.03995699712729,57.512524581161834,48.42759400038503
59.155142770862064,59.61588968475579,-1.3532202143920107,83.64011316689655,26.6087476052177,36.729318899927726,55.96119685928476,48.48456200704906
62.58746113718575,55.07631083503343,-16.956437278130313,88.609458988798,20.39280202355229,37.963297629896545,58.6201470712705,51.62179999530453
70.51716526394365,65.4891242243467,-12.955820083269842,99.75686955909609,25.8945091762539,42.599492721519326,66.5706743675637,57.866210088961196
80.50175409808807,93.74852451823057,20.781601259003114,113.69306356997201,47.1104508211362,49.75263136659477,78.00958987618527,65.13962004019633
87.04121372768915,132.581587107897,81.00752078413845,122.82851623220238,80.03465477499394,56.19730733177112,87.49977947297181,69.23048121300896
83.33744108009004,164.1869670886405,146.97696613632758,117.81027855168674,111.35868383335875,57.13657917257625,87.41156080227636,65.2204710764606
64.6627523698663,167.26996584756242,187.2816829245122,92.19307467289124,123.35671353894912,48.42968356356799,71.5456016745436,49.996265753149494
31.518513166634513,128.59782447039734,175.76917823090426,46.8080137773815,103.22340327099944,29.149031373206086,39.06498231640489,24.443764305726848
-9.534821671456891,52.010454299394915,107.2276386957773,-9.141956389193975,51.25502749323805,2.7807249826965963,-3.876536492914572,-6.201932099696174
-48.223507214007626,-41.391255585052775,2.439091073137241,-61.444840648306155,-17.702121297231226,-23.91253726011698,-46.21636457350967,-34.33658403228075
-74.94121203162092,-122.6993522597989,-101.31772828317926,-97.07256840385539,-80.96333542721274,-43.85086234027477,-76.82648356692727,-53.293902563339046
-84.7448330460999,-168.8793674070346,-168.7888250742004,-109.75506156748357,-119.00010986132,-52.72298787865747,-89.3824217602254,-60.124619967103904
-78.88291013068103,-172.74481525737554,-183.176328346006,-101.96314125196608,-124.21985533950894,-50.50447328079457,-84.59665362675199,-56.39189093418338
-63.437562862202036,-144.27813771772122,-151.68043368900297,-82.72358422714483,-102.98639223013195,-40.864043864998294,-69.00124441679046,-46.86160031598277
-46.34389970077784,-104.26689435410267,-99.32230182509852,-63.152179350710725,-71.11975443577688,-29.25653020682154,-51.602944557508934,-37.19288173589434
-34.494063310829105,-75.08845812928959,-56.84313491744394,-52.27155562981207,-46.611125498817785,-20.937345333464243,-40.474304317458206,-31.92873413612335
-31.789606761372454,-72.66703534553018,-48.7604921470316,-54.43447992099694,-42.9675716640388,-19.486800314987057,-40.381769020971404,-33.30910392826845
-38.054035373350814,-100.59018656603459,-83.82291274941936,-68.17457545516662,-64.15504560788996,-25.66303266449505,-51.29870204450572,-40.668122990452005
-48.70837992308892,-146.50673279675652,-148.41706566202575,-86.15624637092981,-101.24134491983578,-36.51118666940379,-67.62513561635676,-50.252263280529846
-55.739918668870004,-182.94895514800834,-206.01200072669042,-96.77546827546445,-132.47965059900912,-45.44022677274573,-78.91717238223117,-55.90147418030874
-50.50785177522583,-175.6291756567798,-207.4107327333593,-88.10556307442963,-129.54878747681633,-44.20098378841871,-73.1908704765079,-51.114516234250026
-27.75470371972232,-98.55969122523994,-111.86738953644004,-53.36578857292202,-69.82735182751044,-26.599194856886847,-42.34507669123623,-32.08743245441513
11.217203064177067,50.897913978015865,90.03147232413974,4.83893883298392,50.70808778904222,7.869167335034007,12.949137122981286,-0.14821555570627565
58.361861901827965,246.63264631814764,365.84487376668216,74.45715017698068,212.05017998443893,52.84961456305544,82.1660423652782,38.1296196715355
102.22444247089248,443.0402009100733,651.8688138396648,138.82182427854414,376.9159536406572,97.53799236622277,148.95158900647613,73.57341415461511
133.06899325948862,594.8279416064776,880.6499192160187,183.94735075541863,506.8775858984031,131.49496866030492,198.3039603171894,98.46129648409871
146.90135900955585,676.3586538175676,1010.2095779882512,204.21291775511722,578.9218764348861,149.12664226045803,222.8703738965968,109.68218247611028
146.26529373649294,689.9212810518874,1038.7718585677235,203.4342514128444,593.2814784507037,151.37854438590955,224.9544702490652,109.33161471006905
137.81688751894904,659.6330666913141,998.4131926132196,191.33289290047554,569.1699314503171,144.06694904104862,213.66614004274814,102.76045494095298
128.58778300154262,616.5431209836742,934.2497990530591,178.1304279852151,532.5892338499825,134.3336042023638,199.5850146218894,95.59727558441827
123.20257473086424,584.6292965912712,883.1315311190872,170.52153127593044,504.28912429454624,127.50241732294349,190.2808827946929,91.5351247981687
123.10504757204637,574.4370639016539,862.7748012641091,170.55936415841504,493.90375177159666,125.77016154063811,188.63566038742522,91.71256202628051
127.31005631167942,584.5364216053446,872.8136847616946,176.7683222540483,500.8170259912882,128.6331114540056,193.64961721701152,95.31027243098796
133.59078789411387,606.5584746039542,901.9306943158001,185.89845285706784,518.312835727555,134.0545982764473,202.20462165103538,100.50902936978719
139.45281616385452,629.9462242787916,934.9536529239241,194.357744158684,537.6114540280598,139.55743974043284,210.63320315153734,105.29425712874152
142.86922233103544,645.3730647325706,957.9288069069759,199.27107716000958,550.7643286699489,143.03902823083868,215.87177147047385,108.06908058451907
142.86421020267358,647.3172661136209,961.9323727493409,199.30115794516038,552.83476097488,143.37281079671303,216.32474315604273,108.12333380458911
139.81637860038953,635.7170490998852,945.7544976057345,195.0583460375736,543.3805085543776,140.72543858703403,212.32982759923533,105.84848970864499
135.34110203295052,616.0001832394424,916.3598356528297,188.89719781393404,526.6232982264854,136.4589361511474,206.02162974648945,102.59730242910503
131.8433664905312,597.4198283718594,886.7295463866495,184.23370254502916,510.1509762649041,132.68758169322962,200.68213825990975,100.2797809197871
131.88462352791223,590.4037421603946,872.0712424956488,184.6164106961711,502.7289423604466,131.68565399061902,199.83174637745978,100.83049972053534
137.27358586848248,603.1808649339839,885.0574104765598,192.4612588435258,511.52548370151374,135.16005617669825,206.04806683188528,105.499184050994
147.7736702874263,637.2837975027533,929.5647644370093,207.30437412013677,538.4235231953553,143.2545137432807,219.3483380220908,113.89871416344916
159.89879098627796,682.7408998235837,993.5846893809686,224.20105807765484,575.9295263341729,153.505525066825,235.57850443200323,123.17742088576071
166.94055291708503,716.4838283388353,1045.8671646364583,233.83038447741225,605.4596956813845,160.60582685579837,246.19220486961308,128.16803200079576
161.13520709041086,708.1809592227149,1042.7014341110637,225.5516242003383,601.6453538091151,157.88494102960533,240.75788406860443,123.14569727008026
137.47079030055295,633.6951103070201,946.3672961027103,192.69915366430638,543.2523777216353,140.39567425314388,211.86168322489993,104.73112054336914
97.07729566805509,489.8261755690072,747.232567945408,137.2237914251662,425.7991088183523,108.05284671059054,159.88527058563133,74.31983805362837
47.873412273571695,300.7086485578984,475.45130651965655,70.42904291622533,267.7729366690239,66.7141672254998,94.42767039000098,38.301576077469605
1.6290977722587028,110.03841569653078,192.36621696095412,8.67785511740294,105.06358862923841,26.116954251298452,30.86078487723233,5.559249925946723
-31.125716438004957,-37.817139708015624,-35.71212650481474,-33.82974312488585,-24.441211799872377,-4.42771083179584,-16.402223442337608,-16.50332353501319
-45.48563701873951,-117.23909194606303,-166.75974899239765,-51.1127558621167,-97.50367720258375,-20.158295424751866,-40.12191611519305,-25.13608420980187
-43.44857374173851,-130.22102036064786,-198.49433795664362,-46.92713200928011,-113.88355945348225,-22.44663557801526,-42.428667142211246,-22.838341778152014
-31.735176119892,-100.63410116356225,-162.4765105758126,-31.345113841235396,-92.40295884342447,-17.136814265475586,-32.15109063140025,-15.271359886005339
-17.923084556658807,-59.21294439425918,-103.18566817179625,-15.045389463758381,-58.68649646796983,-10.98655974274499,-19.48691324517525,-8.036116443907389
-7.3251307483193004,-29.277351739850257,-56.461478053629826,-4.861684469779976,-32.91109275701337,-8.50799508732579,-11.43946982956636,-4.296153035219666
-1.9364942105270426,-20.309088875526,-38.64431925072347,-2.487005050294983,-23.88636573607907,-10.761016084644368,-10.141155735250091,-4.264546335394517
-1.1124309782816768,-29.624180021829932,-47.89675695619804,-5.777936495587401,-30.07528057780379,-16.062149519779332,-13.834086294456004,-6.193749230017491
-2.8535637711429356,-47.83495814349686,-71.81507927802224,-10.940522350608344,-44.07567358348717,-21.545659228662576,-18.948887311241105,-7.839102077974599
-4.9419084342898225,-64.25711188704736,-95.36791683578862,-14.409547265086708,-57.193202781764484,-24.6185379517656,-22.038583035437103,-7.629038176509216
-5.797255926991881,-71.09435492985968,-107.06114297937592,-14.165773114677911,-62.962356317452986,-23.950428528699316,-21.18613249172341,-5.295028416017102
-5.0287687605722065,-66.27185913470124,-103.16251049768861,-10.428943865390915,-59.504970991002665,-19.911719225210454,-16.751593998994505,-1.9080575787329772
-3.443383474831773,-53.99535864362786,-88.83609325970768,-5.40356007848664,-50.04214953004475,-14.312120604310028,-11.119104758739248,0.724184638353963
-2.3893781642492,-42.17969593010497,-74.86240546924556,-1.9755647390155229,-40.863849606068214,-9.445190208775495,-7.341164306855089,1.1095960537397076
-2.8065858672415804,-37.8906329732423,-71.29582970846516,-2.017503327807382,-37.648510312906154,-6.919792815585728,-7.368845852135381,-1.000974567675017
-4.604950282792575,-43.626724210045985,-82.03856004949243,-5.331929236472974,-42.450916772448416,-6.988972223506507,-10.978617505328948,-4.40354930158149
-6.654704895765083,-56.37860324083243,-103.3211199631648,-9.717682484820868,-52.980579970133476,-8.671952106100877,-15.93669195731054,-7.023517403111148
-7.20316043531238,-69.05279959766006,-125.60117619412978,-11.85439166582136,-63.78394892925205,-10.343853769916567,-19.016517613407466,-6.834843707267888
-4.528248911285476,-72.9977703391191,-136.83326970322386,-8.5892814321262,-68.15827647515916,-10.370387232623598,-17.26365011041521,-2.6713485433349464
2.0760306726280118,-61.54682040605292,-126.80461623212385,1.3998890503165464,-60.68941953570877,-7.785748036091068,-9.38740588026327,5.123809611774427
11.03162549682662,-34.94632660797006,-93.49874165377179,15.725675096005924,-40.94424719637724,-3.1845866398239124,2.702831914840012,14.161376926214256
17.694071845376687,-4.830187475928732,-49.76206476643897,27.282131061102245,-17.182513822806005,0.5141430327823611,12.946520169448554,19.941040023294814
15.239866352295124,6.1665969946207255,-24.426721001032025,25.722822167914163,-6.632507621973033,-1.6421519889168548,12.176879566543828,16.91778099194382
-2.3880838458447475,-27.226035249489172,-52.69488042756702,1.891462500365038,-29.481713574849667,-14.68646641032492,-8.176407003988981,0.8434388849979856
-36.771758214379105,-119.19756962977306,-157.95234154755676,-46.71857042170151,-98.16049825239567,-40.788234662066586,-51.15191593944839,-28.61273148883656
-82.94168021283585,-261.94461765183627,-335.4338178817245,-112.94495115560984,-208.17948384122073,-77.13284721851173,-111.14064984784845,-66.67082065789677
-130.670122829189,-425.5755684009695,-549.3602458942054,-181.86864438432707,-337.1627419626293,-116.28528575205547,-175.08370150969947,-104.81557019915918
-168.76838101422786,-570.3836791637171,-747.3166152110618,-237.103544964443,-453.88338781383595,-149.19836290464158,-227.86634335202032,-134.30093701802235
-190.02757865793882,-664.9519641038993,-884.4022198186126,-268.027790687349,-532.5627477834443,-169.2735170626684,-259.02854517584876,-149.9127665809825
-194.0284523792724,-699.7093326316159,-943.1839353945118,-273.91972716675383,-564.1873258563487,-175.16443494704447,-267.02459263972287,-151.91149310939304
-186.46858952094814,-688.5577107620445,-938.1908323263823,-263.01195091788344,-558.5365869921053,-170.82884369085505,-258.84944440400596,-145.23833016419678
-175.8122743965116,-658.793543932292,-903.6883756621299,-247.60519380928505,-536.5886413172183,-163.06396315776118,-245.7151484954406,-136.7253872538298
-169.38558025962328,-636.340251694941,-873.7140003416871,-238.33017520998186,-518.7415985685587,-158.14538159113107,-237.55571196901806,-132.00741147326343
-170.75312742924245,-634.6715085355614,-866.5571076685532,-240.27851598385482,-515.8132377215536,-159.31320642418495,-239.14468996669234,-133.54508938647908
-178.95152754619946,-651.6325744700761,-880.4631151809705,-251.90150563336093,-526.51369405852,-165.89918606148098,-248.98087398308382,-140.16044230494632
-189.19447956241146,-672.9618806919711,-898.9371324237329,-266.12736387359223,-540.4119424759684,-173.8857786918405,-260.48634918124424,-147.74236173768503
-194.58384924364017,-679.0000155311692,-899.7814440719036,-272.9565699865559,-543.2319981985268,-177.3923136999794,-264.5955781785727,-150.723803364918
-188.59429444821197,-652.095759966266,-863.6222564609378,-263.109453912917,-522.2438469246906,-170.77414307457133,-253.10570122830325,-144.1048055710226
-167.86519140393307,-583.5478492675936,-780.9044117366486,-232.0094883024337,-471.04759800826724,-150.98634552075217,-222.14429750780306,-125.61015446106695
-134.21922036354627,-478.53360516921254,-656.9415888677041,-182.57158340763854,-393.0727756901458,-119.42172933526649,-174.56687121100583,-97.12741270881651
-94.66549643992798,-356.55144658888844,-513.0342804453333,-125.07632979560908,-302.2137456009102,-82.16564000843385,-119.8739150920923,-64.51526445772868
-58.952206536285736,-245.69720298899642,-381.2225370500719,-73.57144677048639,-219.12759671918792,-48.100817883752406,-71.08049556530169,-35.551435898165174
-35.59596604589029,-172.0125358472967,-292.7615349457121,-40.16742047441295,-163.60813586176607,-25.42672263106598,-39.580636407685134,-16.827807842776597
-28.31302385091625,-148.4568896702607,-264.66904742635603,-29.98600490308802,-146.09553124909468,-18.215270203089116,-30.388824733567855,-11.088863991867655
-34.71545414984394,-169.35318414058455,-291.55046670010694,-39.39906173938857,-162.85456565579145,-24.84597542068705,-40.259674435960385,-16.373966191971704
-47.93959270510633,-213.8408206501231,-348.2855039907007,-58.46634535450429,-198.01936797718844,-39.223331153589676,-59.772780593285916,-27.370525980298194
-60.20461506575473,-256.6753812875578,-402.8653456453013,-76.09244068532128,-231.73071190520142,-54.03708709449335,-78.2019053006654,-38.138028526647545
-66.28219438578365,-280.20082688320304,-432.0465355200222,-84.98478249814893,-249.71455782628962,-64.1278211921587,-88.39873902451056,-44.65900501743511
-65.22462676896667,-281.1813191884496,-431.17672923181084,-84.04866214594203,-249.10872593897216,-68.20668277942875,-89.2402787029385,-46.02697054645379
-60.007117095115426,-270.24034806635,-414.34295639957156,-77.75959975587473,-238.3811601190008,-68.49245060633109,-85.02255286486036,-44.11195331664937
-55.77100124437767,-265.7910063590703,-406.6992052913751,-73.54677909909154,-232.6009287889648,-69.015117738536,-82.81250031067081,-42.29935253586845
-57.44885771919828,-285.28662478484546,-432.57850211058394,-78.34534429134108,-246.3010299677796,-73.51315059316805,-89.03919657701358,-43.8892018515749
-67.26302915065563,-335.686051608405,-502.03603536496723,-95.02886560464867,-285.5473456103856,-83.42253203329436,-106.12085945246984,-50.436863166814476
