FZ,C3,CZ,C4,PZ,PO7,OZ,PO8
0.7119352229325737,6.419865486007199,5.220563842943043,-0.3507605069041676,4.191437293960549,0.7816135943675165,-1.4335283022799374,0.29910841924438075
-5.04414491854075,20.31580799103956,8.21237564797749,-11.165810593724148,7.933893029107209,-4.454531678274935,-5.3675615548006546,-7.70317323239459
-9.69799334691195,30.141656963231135,9.98373220591256,-19.4602814643345,10.013501784067874,-9.151890832055978,-9.198139202182594,-14.32213994425339
-12.69582701143463,33.881590514428204,9.879427779362118,-23.890062309659672,9.593137967255077,-12.764698288343343,-12.717414965358781,-18.736587234439533
-14.233036090700523,32.183777258571254,7.945891567512618,-24.7414804403674,6.944999915424632,-14.855338129707189,-15.607166690950336,-20.907407840321806
-14.978308835520638,27.450206887142283,4.743284243828112,-23.446718042637738,3.1596524392270817,-15.282239496409295,-17.516351802403314,-21.360009802503807
-15.548534627862523,22.38395314898802,1.1414252042910256,-21.605484901570858,-0.4023999628389138,-14.331673055025144,-18.189882054127203,-20.759235425828944
-16.1197612001416,18.988641704529122,-1.8008177947913004,-20.207949768669163,-2.596254224829461,-12.67934887265752,-17.605527698280145,-19.60290839930026
-16.424952579669693,18.192809567792082,-3.0997757592903143,-19.465242279863407,-2.8395371481659293,-11.176708960761928,-16.07141181449277,-18.187882163226835
-16.07123543345917,19.773856179327897,-2.3500785534724,-19.130960856303698,-1.325387035385256,-10.540254955266123,-14.201015893578866,-16.740700096204183
-14.885222167655588,22.501745990227867,-0.09634785128020917,-18.904004499246344,1.0260865866027438,-11.049287902758666,-12.6927785881917,-15.498713468992365
-13.042810769623541,24.721978215398256,2.4089300461474465,-18.618775035217954,3.0119234829685153,-12.37443375253324,-11.974381099936943,-14.647883666307642
-10.968249186775086,25.285484261178656,4.008560182077053,-18.22879602725437,3.816423976140972,-13.667038578326988,-11.94462465749234,-14.213884055084176
-9.152176987133073,24.176329964958562,4.344180065733304,-17.745244680240294,3.4339719794054266,-13.957333653608776,-12.052507297150173,-14.057505904623714
-8.013128788573296,22.263887148193334,3.865271008531746,-17.220858866030465,2.499404578576744,-12.707601380334083,-11.711271382423782,-14.004694111602447
-7.811240941246471,20.413236874397526,3.239029009583314,-16.749808359655596,1.690783654630731,-10.187330696547294,-10.750288251699612,-13.995551582646337
-8.580119785720411,18.81263048164892,2.7796223755780765,-16.444017237932368,1.2295275025321213,-7.389523755649528,-9.556430355395781,-14.12074145437264
-10.093776371198148,17.06828490134041,2.3338973171067168,-16.403840368486758,0.8372517274673682,-5.512603548439808,-8.813973469797881,-14.52401265648562
-11.917321777219309,14.77156617809005,1.5136158072368355,-16.703426750356567,0.047206511294671225,-5.3425137905049,-9.066590668969498,-15.258043331756314
-13.536794077385029,11.876919597102624,-0.05813748414627633,-17.358814275968218,-1.4679491595665524,-6.907534858715367,-10.408298866771618,-16.195309219493247
-14.496572623372266,8.66298549903951,-2.581181735972422,-18.25006603552218,-3.7335124365830845,-9.538798780504004,-12.44339810379241,-17.03994033948422
-14.488103214459743,5.581148281202279,-5.882768993491796,-19.058965346332936,-6.4276655928560205,-12.20840973371568,-14.459589626974102,-17.43188165970327
-13.406712810582235,3.228658253459221,-9.248729726693874,-19.339347549932295,-8.912708747872593,-13.944404783414916,-15.701359949552186,-17.104725008748495
-11.411964188511725,2.2577230783506126,-11.566836250339012,-18.744149396395386,-10.425581911011525,-14.190395446909816,-15.661248555096744,-16.03149983041647
-8.956654238052657,2.993046111136853,-11.887596374058186,-17.263222728967232,-10.44595150706241,-13.018342260569788,-14.299877218898457,-14.471944480514315
-6.6950467874137525,5.003995882621159,-10.031634226371027,-15.273541322484268,-9.016469747642597,-11.086914753026198,-12.07313954973123,-12.864753891494464
-5.247304159675138,7.166760179290558,-6.712955501711979,-13.346821812595174,-6.717022163000673,-9.297424403639518,-9.706193365323262,-11.603312517941857
-4.9356889776512,8.336194032348248,-3.07883084532617,-11.95579410788692,-4.278247202237874,-8.291963869592502,-7.826973202157286,-10.827168855178883
-5.663178795364233,8.067658687619922,-0.11196733566123286,-11.275127351058151,-2.1712450943565966,-8.104529502275152,-6.698223178227475,-10.364105561905465
-7.005161951932103,6.743027075975767,1.6334099515771991,-11.162684054047396,-0.51121052805182,-8.208523861029898,-6.213732374823423,-9.856936217155088
-8.430704119084139,5.0919832397735005,1.9572092195783208,-11.275510678047654,0.7413051583667364,-7.919356543282539,-6.108531812895839,-8.988999382708563
-9.511093319563171,3.678268612349964,0.9324076663982648,-11.23957239179206,1.5810479402986874,-6.861011580441666,-6.188857298871006,-7.675639574342609
-10.036682879637866,2.772818657489317,-1.0351293240537636,-10.821658110491342,1.9588133012137268,-5.204430426331978,-6.436689075675795,-6.130363008811458
-10.045597263817761,2.456258739367499,-3.2296096521656295,-10.056277690037913,1.876388348106221,-3.5873372127607657,-6.985834538102434,-4.788204034380301
-9.784750024016237,2.58714015879156,-4.9508724458086455,-9.257313912119011,1.372737714804185,-2.815551687999813,-8.033673177251522,-4.1253522917104934
-9.604196606364548,2.6545538451830866,-5.9657409641927,-8.872985409379416,0.4034190408931868,-3.501145543454279,-9.72107138859586,-4.448969944065777
-9.802401448637344,1.8829647398836253,-6.65860922934952,-9.245899235035415,-1.1919653077764394,-5.768463852907693,-11.993471592046838,-5.7498327594601815
-10.488993930809562,-0.27862425904505184,-7.708787490487504,-10.422400826580205,-3.531204219817482,-9.139310749214495,-14.504936157033248,-7.6919744844836115
-11.540185532817343,-3.6766165038255214,-9.57976818369042,-12.11997296045349,-6.481612786831255,-12.67201583351876,-16.66068939094695,-9.743139375324235
-12.661554243110022,-7.465468193911505,-12.225863568889796,-13.843374264567135,-9.61308201999487,-15.318680605486863,-17.82229754166489,-11.369362732238566
-13.507101365479437,-10.602018059495482,-15.130918338514931,-15.065414742188887,-12.343135143742664,-16.32852934672875,-17.573099153939797,-12.196868126729171
-13.799780594457573,-12.353677152052514,-17.518484870451495,-15.40858868928891,-14.134043919651878,-15.492932641207588,-15.895498876473088,-12.097244197622093
-13.434503302703853,-12.47231247260062,-18.608517794685177,-14.800989214433367,-14.638606377201723,-13.144058599992057,-13.187919801913166,-11.209366976856348
-12.548242698373677,-11.136256363216235,-17.936375050688387,-13.556088505082442,-13.814619566766506,-9.972068367778718,-10.146494684496966,-9.910345509401012
-11.507727343327348,-8.912409725627224,-15.673621206177637,-12.289384518163885,-12.015299906221523,-6.780038805550921,-7.559494622288406,-8.712788765956502
-10.770005647652361,-6.711860439413584,-12.690118805075176,-11.644086320689478,-9.942691333604136,-4.2512374759071685,-6.046945145651194,-8.075340686833115
-10.658665045318969,-5.515658783585461,-10.1622366533169,-11.949918227261643,-8.366363629031882,-2.765658853218317,-5.812656379275507,-8.188647020484133
-11.194571974985687,-5.901092922454624,-8.939314649483048,-13.035377468951701,-7.737388026506836,-2.320296470836798,-6.5429382504273415,-8.863138126623245
-12.107487288272655,-7.76769320340277,-9.183519082084143,-14.328616236387605,-8.009110104916743,-2.6089492116259816,-7.563030804854249,-9.610598553224914
-13.021687954151584,-10.567160332848593,-10.571285421692263,-15.174208724946386,-8.834033776689518,-3.2335090732370846,-8.19775939762666,-9.887088380117932
-13.67687245341311,-13.806390890371832,-12.78036787526737,-15.15222646352273,-9.94173702959579,-3.912430929151152,-8.108471103373722,-9.354844752037254
-14.037955028984648,-17.28014141839825,-15.72023636668663,-14.225779302519456,-11.322004560358383,-4.55578169482318,-7.382554448574452,-8.018502734831687
-14.25371366412013,-20.830772551932558,-19.301076514122833,-12.690527351813753,-13.058566110773317,-5.205339224568155,-6.352560122766315,-6.1864289627254765
-14.52790269665527,-24.020737985228237,-23.071247951690204,-11.004823399851261,-15.031100651547431,-5.9462452156763055,-5.324881546748287,-4.311281153911756
-14.987050683357934,-26.20017799011627,-26.171895448873858,-9.589973132195482,-16.811537359872187,-6.862666028043895,-4.415966160270143,-2.806093079622369
-15.59683751571549,-26.949077001077207,-27.685304381271365,-8.67059092893736,-17.84754328084066,-8.005457828821859,-3.5558680320170883,-1.9182783625967863
-16.15741417308421,-26.424485601727895,-27.08388120914047,-8.222637280115235,-17.76370747351504,-9.326719745443716,-2.6006299736936773,-1.7082768182884027
-16.39427136374096,-25.290008010295924,-24.505902012310877,-8.068416313755518,-16.58891301828441,-10.631012864501509,-1.4834711533945368,-2.1298014087274435
-16.110687936923558,-24.386937473674877,-20.81887481940698,-8.061971621746748,-14.848431976604989,-11.640563356343229,-0.35297577235739747,-3.14468958378874
-15.297856338829746,-24.471515802736814,-17.490909729612397,-8.212924854226458,-13.498423112886774,-12.168529789304527,0.38307353712043546,-4.766574210606404
-14.099301611379317,-26.053924448121283,-16.167305284030657,-8.622796818678324,-13.619947887834456,-12.248369217119084,0.20572833514477656,-6.969858557150522
-12.639651995137042,-29.1547076417242,-17.908053136854637,-9.267154478402185,-15.857172850087752,-12.070431955653707,-1.1808863164151349,-9.516194349541468
-10.862388225413754,-33.030393278296884,-22.417253099936918,-9.807300654051504,-19.856809423111237,-11.756040962215696,-3.5176765809125117,-11.845737547970433
-8.533670912348184,-36.26599926092389,-27.87869695157318,-9.608261239809194,-24.16004152346355,-11.167764140962504,-5.923763071266366,-13.160168538357123
-5.432047453226497,-37.47512384147115,-31.729040500304546,-7.985471433984038,-26.789420683761314,-9.9308670803859,-7.204915489830492,-12.696968124227546
-1.58754381733772,-36.214929359041456,-31.984523458674495,-4.549354261236576,-26.2536349479744,-7.6616876295806495,-6.38489858792657,-10.066770684064005
2.5958649687944315,-33.349833862223015,-28.272394447921595,0.5202802484795324,-22.342726608322906,-4.256777370401794,-3.1687890279176636,-5.492176574136002
6.399500319769127,-30.507144716584463,-21.962939719946274,6.384141000543173,-16.24397508844886,-0.09676409609851291,1.8757029441231015,0.1571753872949056
8.984891733141975,-29.067827918545976,-15.468396531147302,11.691989830416388,-9.996138398649297,3.916688127297737,7.462748555316505,5.5590265059520565
9.645957972229544,-29.48182811655127,-11.225033328427976,14.973803152862855,-5.660352909155898,6.541749525769169,11.990705107471738,9.322395269874244
8.057967556047707,-31.310271119546442,-10.84271727611725,15.188117883686624,-4.601754398325279,6.612284536369954,14.08823287343658,10.456422944497767
4.460848111369747,-33.80625088273263,-14.66955811865319,12.220951257491226,-7.109638929685829,3.581447788670382,13.133455233733489,8.757671016407862
-0.3063543559090462,-36.62094721707838,-21.867670188018835,7.080741762111603,-12.446792438641827,-2.0791066582145343,9.518106093421897,4.939841524581242
-4.978065757351243,-40.298989983061,-30.95194634639405,1.646439024189435,-19.29065649870088,-8.91360672464348,4.4878068876372,0.4183235567155341
-8.207685280685524,-46.22393318357091,-40.45054228061519,-1.9583877571702022,-26.313819549645896,-15.003846303939932,-0.38487298622997573,-3.1816382303000244
-8.962156297659476,-55.640333901530276,-49.12048683611402,-2.127595562620473,-32.47811737296795,-18.694634984892417,-3.793849224116887,-4.596964041868867
-6.833797328126959,-67.80111441264783,-55.427249644711885,1.5913125814481932,-36.775126806980666,-19.097069658687143,-5.025973893243091,-3.3614673946573315
-2.198446323735005,-78.25109306671922,-56.76670440168242,8.183602839759871,-37.66688441903142,-16.139460590038446,-3.9221734965458688,0.03832980517912305
3.8041057718269493,-78.932905860258,-49.48122729388097,15.308198064585982,-32.9310545334734,-10.296497214635394,-0.6693021091600049,4.3226940909662215
9.49423353127245,-61.1669608777453,-30.363718672201234,19.95381801774046,-20.471716729323962,-2.326917609053385,4.301222018918332,7.844188735643899
13.100198918146521,-20.62915092714019,0.8667070203488064,19.515044381433682,0.10695720332276223,6.770569102678808,10.227073528805494,9.162767029486094
13.361489560557358,38.42907404201771,39.7377669807084,12.95014284767606,26.165689982405215,15.669742658327792,15.926694597430776,7.594643153416355
10.082208814829169,102.71144387807286,77.464415029361,1.5008102220538007,52.07010072640905,22.7703959847897,19.97232048359006,3.529400414492658
4.353771722147796,154.26264311062332,103.99571783765442,-11.480135356073102,71.00055575574815,26.57228511864712,21.19146666082215,-1.64760181847875
-1.7529316192765558,177.86480613302587,112.25827974587217,-21.68419359640314,77.75987906869253,26.250200151331832,19.24598728707778,-6.056576017434496
-5.988554980008741,167.54436402643768,101.20931208307455,-25.570937347819537,71.0315121847844,22.06324244650147,14.87290033579784,-8.085778708010526
-6.8928232288078,128.6549960512881,75.92307785557851,-21.878057923565915,53.77940524466073,15.275223020606655,9.544523670708507,-7.090068943721621
-4.43978347987926,74.66694842315817,44.80304178025532,-12.159536510433448,31.63412877385403,7.596020541486796,4.720642441908092,-3.6784116453055877
0.007802398692375958,20.868025377154762,15.753824125189684,-0.057641382801521306,10.32832458247171,0.49397211502933214,1.1766381560277854,0.5793205007814476
4.424012129534273,-21.473615132988108,-6.525181943406269,10.321218376142372,-6.366081887843629,-5.218236877187268,-1.1788072073180895,3.891163412330671
7.116619010351624,-47.90400300455469,-21.07414289816872,16.094328642440082,-17.32791273357303,-9.366501987912859,-2.9588228944081716,5.046173262173134
7.448635756610575,-60.09419794656283,-29.45323268302587,16.54430457277626,-23.476020391353398,-12.106647605600672,-4.738052070815995,3.8762060760477333
5.941488443496621,-63.01652743507237,-33.98417101713985,12.975017424842099,-26.563528252568062,-13.598183102534602,-6.664832358881174,1.181239140370112
3.800923541922609,-61.950575297723304,-36.53447954024541,7.7441270011326715,-28.153785078042066,-13.873736313716273,-8.447279990018542,-1.7728545270082365
2.214689358764595,-60.69492896767046,-38.20845404960336,3.098326721317171,-29.183195455063263,-12.942890798581216,-9.637629410153636,-3.867040099286449
1.8281989789621862,-61.16592869035871,-39.583846083096034,0.38540421756054866,-30.019371616099612,-10.991670867190166,-9.957153754547186,-4.535423934926266
2.6152852464303966,-63.7049561614287,-40.9136651058617,-0.1340100081015852,-30.662603132192302,-8.473285231280345,-9.426058441856023,-3.8252524485936754
4.089071046585789,-67.46176611392937,-42.079716558762335,0.9885299513145592,-30.862972393841453,-5.985808983590447,-8.255897261324268,-2.1847038820558127
5.635224981397842,-70.80815056261893,-42.56215545538746,2.8417953888827996,-30.210722646433673,-4.016905256998866,-6.657918229483711,-0.166906284352639
6.769323892302558,-72.02209809641967,-41.73045421165904,4.558217227869222,-28.34877804049289,-2.7432237108869426,-4.755180432381001,1.7843806234088864
7.241719025955797,-70.179079860619,-39.37698557511168,5.564513856688858,-25.284353703028486,-2.0230341708835677,-2.6571314604396363,3.4021637466008263
7.013622347290368,-65.81794788436451,-36.12000051638273,5.6594309264459675,-21.607711964304677,-1.58509146622426,-0.6086663447064573,4.54770497275511
6.163423496406831,-61.03015271051465,-33.422546914901815,4.949705859757638,-18.474287839000343,-1.3056467056623058,0.9192444722070447,5.129575627545
4.789982902431103,-58.95634504572766,-33.2480493364877,3.7260299721737375,-17.352773504364272,-1.411615653853445,1.2911387126441416,5.07763024542501
2.9821174247634983,-62.76149734983853,-37.40895167832905,2.374486990364824,-19.561794816534285,-2.441219390477424,-0.04096038160283129,4.411671627234464
0.8847503016374721,-74.06005535272983,-46.570168909819664,1.3424165517894675,-25.571114013447687,-4.875115710568338,-3.1374141635834247,3.353465602316091
-1.2050251472667037,-91.0644422230805,-59.10142745107591,1.06211063799482,-34.20720248927536,-8.567407731826322,-7.207886249529711,2.3527493618092725
-2.8551500305309556,-107.53420204699536,-70.5450735715519,1.7284464351668238,-42.28446292056884,-12.35788899225542,-10.593938220182148,1.9204934012887194
-3.7146741753421444,-113.99284724304671,-74.66532420609052,2.9932253635092394,-45.32123722242438,-14.284780287071166,-11.320495981768667,2.3097869050689006
-3.827389382677171,-101.65530586637229,-66.22326071278734,3.8342953851269748,-39.4578662113207,-12.481103410417587,-8.079077602166628,3.251361361313072
-3.788990234642612,-67.39409604372035,-44.15663435339945,2.84539463572579,-23.701053071029687,-6.301873885619201,-1.0985174468994674,3.975407141308749
-4.5446017287952225,-16.59345851640345,-13.008390203636779,-1.0878191815243,-1.0188193242604582,3.0721626023009785,7.724037258515858,3.576696053079376
-6.870179315113554,38.518248441433485,18.784760119231816,-8.092944219368027,22.71632987470656,13.061652885863698,15.659482619194714,1.5294289686429874
-10.835210240073367,84.64337414437848,43.08449442990076,-17.051957487034656,41.566370707434075,20.977366693742265,20.534198985214985,-1.9671432279687686
-15.604636170083404,113.89558615526298,56.17839430187278,-25.977045945880082,52.46102265159608,25.377206521568947,21.825438224772185,-6.030722448431809
-19.748513317822017,126.74025305360051,60.06160782325961,-32.80642278022278,56.29703204467639,26.604861822228308,20.748497707110246,-9.493952169179407
-21.90663327541663,129.40057805861292,59.922952564454164,-36.144035203775594,56.44310956385143,26.17445618746831,19.266566794523513,-11.407126328063237
-21.420280763231695,127.72472014533285,59.637838952329986,-35.55252004337348,55.74606039641777,25.491164582320383,18.70106067810985,-11.35476176761484
-18.570417840634413,122.22278546179297,58.64309118410336,-31.36837334621178,54.278986392723816,24.87198003257874,18.911293764641506,-9.45435150925527
-14.334772699846999,108.0757591524458,52.556733103240475,-24.340901314962654,49.51042581607502,23.560181128968,18.588367186844867,-6.134489445353748
-9.8787608183828,79.95983026748779,37.00021709409457,-15.422773528592012,38.67901130407243,20.62225578845518,16.377910186293665,-1.90821889115699
-6.103145908493323,37.75251163868347,11.633649958856251,-5.773839236963791,21.465874221587534,15.939244587739108,11.961252361506096,2.709464457744989
-3.4525060673144754,-11.362312784196678,-18.636904739809502,3.226142782080669,0.9118549725534489,10.488350070512222,6.319438712379756,7.155336569592016
-1.9826464975315021,-55.97133061280553,-46.09463696902867,10.17249563311294,-18.06101074799128,5.7195322677408855,1.0557053789734323,10.77321180254235
-1.5406067253011824,-86.42144249833734,-64.4591950317777,14.043224726157014,-31.390897729104932,2.5498582215237957,-2.662696127955461,12.89452140886302
-1.894244855397565,-99.56925457236184,-72.003306477588,14.606580055218659,-37.94104519734843,0.7737562475279183,-4.7575644542765225,13.063083282134027
-2.7477572996766,-99.35663451491143,-71.65319139999883,12.561224532495864,-39.59228253483198,-0.6662056481096976,-6.066455744048282,11.290708562038972
-3.710695133528091,-93.39903457311574,-68.44098822539584,9.275057297669287,-39.5591497568738,-2.7894351860602384,-7.566763567078009,8.161506156722606
-4.334042441442978,-88.34809367545225,-66.37069466015444,6.2250815219677085,-40.294384623599406,-5.776510818257932,-9.634347895177635,4.666346620668313
-4.24980883807258,-87.04104842802076,-66.73468285142859,4.4248987660112675,-42.375288206146124,-8.852696845023315,-11.858714860801477,1.8169979489479287
-3.3434918397500657,-88.61738122778398,-68.51124377395305,4.11823826539801,-44.82722665660691,-10.896457407648576,-13.458790735924245,0.23315608389533302
-1.8627654687872197,-90.68320254957084,-70.04174059191008,4.826205928017405,-46.337968795950246,-11.302896943484496,-13.937487724719412,-0.09524356921211702
-0.4131362758922159,-91.77305529150645,-70.7229650581782,5.639248987988083,-46.46680096610699,-10.52863830988432,-13.547009820493845,0.22458084034324702
0.17812438882371984,-92.7772535335806,-71.80966745746137,5.600315407343799,-46.202819418432476,-10.007070242116296,-13.319538430249263,0.2667177983633081
-0.8468215434478955,-96.70332330484405,-75.91750164662209,4.094490206538804,-47.60491685062607,-11.47212552589206,-14.626282352515052,-0.7853396543388346
-3.7554049684356796,-106.67397253310202,-85.23622875425177,1.179593729508081,-52.562357935258504,-15.982143654337623,-18.395627719454755,-3.206457139351021
-7.946210649993235,-122.82079772381573,-99.10873819277059,-2.2859063811650775,-61.121181291600934,-23.08576441998561,-24.311596368995545,-6.484471340394795
-11.90642271039914,-139.8211283470565,-112.44178100502577,-4.889186562404319,-70.3260739956481,-30.60574305960778,-30.474985603319023,-9.435089024146313
-13.703849900610223,-147.2877897081676,-116.56860546302356,-5.287493528055388,-74.64418446589502,-35.32338268559447,-33.9222309050932,-10.701444405662537
-11.880927466085938,-133.9515390714893,-102.96495074924333,-2.928440452282602,-68.2921223438807,-34.38995426434587,-31.94527689989861,-9.427942258690178
-6.280226107137216,-93.93106466069634,-68.1452195253146,1.5671102390568559,-48.45583570064595,-26.795767231411013,-23.57619237535473,-5.743387736538703
1.7203932207198047,-31.355245118156752,-16.75413743514305,6.637034526329232,-17.48615086447449,-14.067153764924916,-10.350519179663612,-0.7581401263264025
9.764207132721443,39.93534628071949,39.40920684745377,10.525473340370763,17.47399817038743,0.2714513369051439,4.191332891493045,3.944314586904612
15.579672251221579,101.9732639650279,86.2618677212462,12.116910697776538,47.45227337883485,12.232046749592836,16.055054529542485,7.038696283020257
17.957125067902375,140.55527210327708,113.57168783127065,11.37991380778636,65.59775354637092,19.07125971854931,22.54037740294494,8.005592347193073
17.12227615731094,151.04091898409504,118.97728254464026,9.211314195996477,69.93205562704051,20.26848384514241,23.234743198211067,7.22425114157522
14.393937166755016,139.1369664899825,107.9660986459877,6.860032529322175,63.5536077357472,17.35051546401213,19.814648876567894,5.632038002108813
11.437284611769206,116.98504528039916,90.43107959361552,5.328327294220897,52.57289934779596,12.848729263115306,14.959766772190147,4.210303191624634
9.565317706063727,97.43578563017641,76.18121970676245,5.049728659534598,43.256507058891046,9.10771083780832,11.116352334142755,3.58397652594558
9.356013139433449,89.5091737423438,71.60254361871175,5.86694621793703,39.83221046065329,7.540402158334736,9.704160786038468,3.8669314752604014
10.579504722488535,96.17545266436852,78.16114686108364,7.163663096054922,43.467608240263914,8.44397661922443,10.887030765903638,4.716971095605135
12.326190852455838,113.911566579441,92.28227044213196,8.0604461929247,52.145380170547604,11.133965562780295,13.704043595003508,5.513939901925488
13.301309422653258,133.49484380579193,106.25468856888784,7.705666962900026,61.181718296012555,14.188782051139448,16.402547009185472,5.611440270643653
12.298133431695126,142.43800033812173,110.44843178890348,5.661232600275552,64.55375059973953,15.827600226295024,16.992346678740404,4.619094801642911
8.745400590133173,129.44894362674577,96.93650607252256,2.21270734751052,57.131489004796215,14.497051044880228,14.008760944636283,2.6112685315837405
3.059059724264474,89.72133068246596,63.37138918695415,-1.6492611875408385,37.146910155455366,9.523562082195351,7.216572263890363,0.12237043441108966
-3.461052280652613,28.263059151102738,14.961473169545636,-4.666383202943472,7.552416150529076,1.474397827390705,-2.1709548769501668,-2.12339866386297
-9.196771052851473,-41.20300868464036,-37.055055922084215,-5.955261229795711,-24.7991025401158,-8.04518413024536,-11.982864826618835,-3.6194956193841525
-12.93260783057196,-101.76903120069159,-80.03132798101683,-5.457463318459957,-51.97924229174129,-17.07577207620169,-20.06323185090618,-4.366035953157338
-14.308812176090372,-140.48473795533667,-105.22594635789673,-3.904369178630665,-68.34592026458105,-24.06501567817325,-25.164055511004786,-4.8357146868323
-13.77252740583891,-153.26466392893553,-110.96174423956155,-2.3341509536224843,-72.62404365653282,-28.290548619637384,-27.265239946151517,-5.628579383757316
-12.14880330426706,-145.2395251953449,-102.22323575528775,-1.5068882120908933,-67.7514367404698,-29.82495741268954,-27.250364818525803,-7.054711155299779
-10.18870045560182,-127.13574405633743,-87.51541044814445,-1.6023652384844937,-58.95309508040438,-29.26040785245797,-26.296954483651074,-8.936590758098989
-8.374321793922883,-110.33640336830385,-75.13668058222842,-2.318496924476464,-51.39799576686722,-27.48548780344855,-25.42203558831122,-10.745661492697417
-6.96192818747817,-103.09038568823746,-70.59271149303294,-3.1602988659420768,-48.56276531023424,-25.566816648113303,-25.318800767283502,-11.925153155431312
-6.030118379199703,-108.55991019594904,-75.44251280025057,-3.627591592610313,-51.507077212541304,-24.51945388163075,-26.271264276101913,-12.132518144179594
-5.383675302392658,-124.08846377673538,-87.00061836639499,-3.2262728870965893,-58.67464893212598,-24.806398003729985,-27.931508563498955,-11.255887216598822
-4.434586242980187,-141.43608534047917,-98.72667255113376,-1.4789198059910549,-66.07980276036238,-25.7954707927763,-29.09210081238611,-9.287989473512733
-2.3205186920381258,-148.78033465997342,-101.90388159242316,1.88963470044464,-68.2721378693248,-25.704884391409635,-27.863619644828155,-6.253749119769852
1.6518873314108007,-135.08978535394562,-88.95211118926005,6.657916537640127,-60.36598299249998,-22.36942582976286,-22.481679999554018,-2.2908855467271545
7.479900940869458,-95.60521483384665,-57.306304212015625,11.976253162760424,-40.524227424529236,-14.527547956840623,-12.41263613199582,2.2079100861241874
14.252571808426692,-35.36771683091519,-11.605763419956745,16.6077768319989,-11.467252721812402,-2.811001696879753,0.9791843008401541,6.574265427914282
20.47333560147559,31.90433216697381,37.592599980182314,19.469862830552085,20.20231589655168,10.291321853222879,14.77191745088822,10.057689311597311
24.760251275650354,89.5958774384937,78.30500274605772,20.15218745088522,46.78215101791366,21.555341195017323,25.746639274939113,12.141593118311462
26.493552594961095,125.57362649747236,102.40814811868283,19.076395790854818,62.87764343191146,28.55736257657137,31.84312959127524,12.773955091963781
26.01951349371839,136.99090559711829,108.73664616196892,17.201910294832444,67.50248986951249,30.699579709678307,32.954379635035096,12.355125382044541
24.333886458063912,130.03200372203602,102.43474122336856,15.490993545701436,63.79430347220915,29.18729010669142,30.6620922843468,11.499113283335365
22.50961090240471,115.36650240869574,91.40606073167767,14.48611789332522,56.80172281822212,26.12696850147166,27.20765926720674,10.737005916073405
21.243597559880527,102.54570731900654,82.32005546271218,14.22018535028424,50.893134801136604,23.415487695038266,24.405676606525788,10.340476557123097
20.72575040960721,96.54808959064101,78.37664719981908,14.4071767500814,48.242565999204864,22.05831499963974,23.07919152975472,10.3214942110904
20.77148133703953,97.54853136789207,79.38140101710749,14.695538186081762,48.81322526878269,22.11418576459462,23.121155910342193,10.537342751405058
21.03676361046659,102.77439064899008,83.17917910825872,14.822674323958436,51.25854673685375,23.04194645935784,23.901673611237676,10.802887113591387
21.19469322347824,108.69153995871855,87.21000048928293,14.66451228858962,53.93134311095276,24.124441594386546,24.697287532558963,10.968027656682041
21.05276451239286,112.56729233389198,89.59068105265602,14.242005268316438,55.59194251968905,24.794524019368833,24.993893849827007,10.965312478098046
20.60942759840328,113.30870264771868,89.67833444550693,13.697245931966714,55.782628478791345,24.825819577046623,24.64277374813678,10.82634234664676
20.02212466590672,111.59287995247918,88.1009208221706,13.212041463003697,54.86752178651508,24.363217010413067,23.851654365646134,10.649974568352354
19.486730128021183,109.1931258529209,86.19283360666952,12.893379175177566,53.69268846231134,23.77095728208144,23.00300178344883,10.53089413970005
19.107496911184295,107.75960289824046,85.08737300169524,12.715884766449292,53.00754330215867,23.374999659205297,22.395587980507706,10.500168309649291
18.859427666775225,107.86190276817749,85.08764197220117,12.575707877742376,53.03877073120076,23.279292993966486,22.090076876598058,10.525671792092432
18.658267762189944,108.9902919778365,85.76283292182367,12.396341181426559,53.52464203765154,23.382707155762024,21.95942848158718,10.56133823945665
18.448778013270235,110.33485635509834,86.54370773110651,12.175720175481832,54.091965216149404,23.535872813609437,21.854945112466204,10.587585997373976
18.223341848138425,111.46887311968509,87.16538814442657,11.943212410489584,54.55816200749078,23.661215772264757,21.710588286044416,10.606997562814945
17.981747170222835,112.36166022670358,87.61777556430208,11.702953733933239,54.9151461693537,23.74439306324416,21.51822286492192,10.618504885977686
17.709008327561943,113.01590178797403,87.88772234898485,11.439559716348654,55.15928040674945,23.771952640989145,21.266178961617747,10.613163695295581
17.402814830761542,113.3595673131628,87.92623231086958,11.163946769791895,55.256611315477855,23.72763954021394,20.944669947137726,10.594565833791561
17.099346198925627,113.48595230682143,87.83312405632206,10.92005670905116,55.26085096963406,23.641820982770266,20.594003329691805,10.587247659008055
16.845054090185428,113.75598660723196,87.8883642160219,10.733638628300506,55.34770845029921,23.59540234649022,20.296618741679225,10.613102244690667
16.642403552737367,114.47468511705061,88.28409305473674,10.573052098467167,55.65095787576198,23.643707486593637,20.096330837326747,10.663961904750987
16.443083353088078,115.51916002592057,88.8842887646622,10.381992627000765,56.09679501231501,23.75135849967654,19.945199584582205,10.708770818922217
16.204491940869183,116.45222427836683,89.36497204603067,10.146884645945663,56.4769322904508,23.831521456992004,19.75721447721852,10.72957435576237
15.940706736000289,117.04003312132023,89.59867610287422,9.911859289910312,56.69563289570746,23.84958524461068,19.509657730217477,10.74170765908227
15.703939626496744,117.53473665474348,89.80599840743673,9.722184133456109,56.884570728045496,23.862595147066447,19.26599717622565,10.773627625621602
15.521988151838446,118.3623648880793,90.28327314040389,9.57104801580611,57.239916010731896,23.945857186866306,19.093500160838165,10.834005008236469
15.371274457343448,119.61543323611099,91.05532472863356,9.416896044227187,57.7904840476248,24.10220818528592,18.983031184215346,10.907589023786697
15.212734956486957,120.9760937678035,91.87603817199921,9.241146001210726,58.38128184681294,24.26551615387576,18.868662621150737,10.979708930523891
15.033823964638866,122.10387312106525,92.52433680538545,9.063976814727372,58.86163490545489,24.380934032472595,18.70865279078763,11.051035067196118
14.840109794060433,122.9359759508301,92.97875275308743,8.899917785571372,59.2115375549695,24.449249149377756,18.515076381291443,11.122319569266825
14.620534511068211,123.55592723378918,93.28628739715472,8.724002506261979,59.4663992331784,24.488205926819184,18.30477391536723,11.17654672539634
14.353706607763515,123.95446535273584,93.41428441599642,8.5065515282038,59.61201321469318,24.490436591859044,18.063035674656156,11.193993034282052
14.062367244761413,124.15738884982645,93.39411297414132,8.274910745479863,59.66219607576393,24.46072668573875,17.791045114359694,11.189354883475445
13.84041747724777,124.58813347941799,93.58343706282767,8.111959621109136,59.83060050446813,24.485671870552363,17.57334212711248,11.22167140493135
13.791360536385781,126.02956956810777,94.57599510041076,8.075824341778425,60.493231932630806,24.71112379739901,17.54471018994463,11.352510568700724
13.921301906976138,128.93259097383276,96.65271653395742,8.12757253926973,61.84809051472261,25.20142762589102,17.75109149243105,11.587860105572695
14.09405424864337,132.67960320713541,99.27987232395829,8.148979623496956,63.57966197688953,25.814679901242876,18.045779995795353,11.859578422136572
14.099236276782428,135.64673002123558,101.23340650719321,8.028671149139965,64.9139201543418,26.242441938609968,18.14815764782682,12.060604136391383
13.778604472689395,136.17725766889905,101.34403569859941,7.7290143869299595,65.08694775311376,26.204804934700793,17.82966922850034,12.10073144713551
13.124615616739657,133.73949495116776,99.30572982464116,7.294909403027869,63.875360330644284,25.649936264574716,17.077413243585394,11.95139835303149
12.318756137127487,129.50353557185176,96.04621864310585,6.844093994324455,61.84868123159611,24.831140485048934,16.137387067741493,11.678084506926327
11.714169068171842,126.14562597423765,93.5706837622349,6.5667777590509395,60.27359415961945,24.250298184341684,15.451974642045293,11.45812608371879
11.73541900642171,127.00831441473126,94.34505673406156,6.6827326392726905,60.72290090115431,24.49710702475341,15.52164221077045,11.54601776799522
12.651455192338448,134.5936823342293,100.15075115616314,7.295750097341082,64.35881693341953,25.97097796100685,16.664151410542125,12.144544146033384
14.273374394999514,148.48308889902057,110.50535887956478,8.203647614938449,70.93803578489553,28.50520360837708,18.683529996797766,13.212885881968566
15.779060535667773,163.6251489475845,121.43634165287483,8.83764345611536,78.01069812539795,31.085042037086733,20.63456078401048,14.336246355556614
15.889032094973837,170.68535411592734,125.8894448531367,8.455588731408687,81.12508094929092,31.97387752881028,20.971424020249074,14.789062472618491
13.418504112963236,159.46962568177605,116.41247686675877,6.5153997805546435,75.48527302805728,29.394119999301896,18.186560614066508,13.811951887810343
7.942928472265076,124.25991562456046,89.10103324027277,2.997298613342871,58.46615995167995,22.49144934312326,11.656572474924358,10.97508132908525
0.18083843606872863,67.94739399745589,46.46899078358159,-1.526720314081411,31.50626443343991,11.993670486154528,2.1614054434526238,6.433491594760034
-8.162138912769837,2.0334934820082555,-2.7856925909262804,-6.104912215472954,0.04254365092773003,0.0832911172207051,-8.305283686455994,0.9348165062683954
-15.029349083605952,-57.92751876802095,-47.24893383594177,-9.76734033966415,-28.651903149131613,-10.49902401054248,-17.35333768151911,-4.429807805153371
-18.796801076584543,-98.864740819883,-77.51555699685156,-11.856692474444085,-48.49139730132651,-17.590187384305484,-23.14644603799542,-8.614157920924491
-18.816478345640764,-114.91586177000937,-89.47462816815214,-12.207743572611678,-56.72121634005776,-20.32051823043501,-24.94818163135164,-10.970635877298497
-15.52103807978396,-108.07579266006714,-84.66953157418743,-11.160376033715563,-54.19026434323403,-19.10537404267152,-23.078419568909858,-11.435459509913471
-10.17151271272376,-85.54029566371877,-68.40929734852605,-9.459352388903303,-44.15931736625159,-15.15632115631259,-18.544589933252688,-10.509454216683634
-4.470222668723634,-56.5468081013828,-47.61077277502988,-8.073147147715737,-30.924859695075124,-10.030543822371246,-12.765925733550791,-9.074255198712029
-0.17868961181000556,-30.85175460858914,-29.726552369251507,-7.909947144528509,-19.16383300252292,-5.505449239057703,-7.5332400145373315,-8.102215886145792
1.2691682948551692,-18.452668719414987,-22.335615033232205,-9.44545247326491,-13.741349695104667,-3.5751579795490502,-4.935215440196798,-8.324430439854218
-0.8243390107455338,-28.43930561626994,-31.9692469230873,-12.418786719444931,-19.020729438332705,-6.1329942997819025,-6.889939331853127,-9.957408838073004
-6.115865709819292,-65.79228276806391,-61.615836795722174,-15.834885095733224,-37.24399806485478,-14.197886343029262,-14.290013803428495,-12.615560560429332
-13.242341516870011,-127.63632119045761,-108.21612869964419,-18.376736882388162,-66.7953102256,-27.098511076901403,-26.2624379916544,-15.481542443022553
-20.279418410291807,-202.15397555777105,-162.38716378251635,-19.04404775417045,-101.84639978106874,-42.301294965344255,-40.17160706880536,-17.67301369031395
-25.48246034787236,-272.22051962392874,-211.52912499796543,-17.640267007978416,-134.24247675878766,-56.251725707284166,-52.584800304500504,-18.62502362551826
-27.945754242809688,-322.5638346590624,-245.12393377960174,-14.805420426309036,-156.94473703551662,-65.90318763299774,-60.76498082103925,-18.293517329682075
-27.836696303534886,-346.45500783417,-259.26809992903816,-11.592098119507487,-167.10715092268745,-70.07005655277577,-63.849264083998406,-17.090668616667525
-26.117168868125578,-347.8500985642739,-257.7198950912639,-8.890815828705017,-166.92504139991436,-69.78833494644135,-63.02697837453145,-15.621439632927341
-23.979369088211996,-337.7416820474096,-248.91099763277435,-7.102213301566239,-161.7782180440048,-67.48686320446335,-60.65460339219591,-14.400479185753891
-22.361348733580655,-327.21522840530787,-240.92136142575498,-6.2428892037173345,-156.91682828829246,-65.51972523686904,-58.89240034075995,-13.709842620898682
-21.76317129290207,-321.580104403735,-237.47060449017795,-6.307102282967451,-154.73702252406946,-64.94607243822037,-58.658971128637646,-13.623386614356956
-22.301570575354486,-318.7006740385943,-236.89554199060825,-7.494614515546239,-154.05185683941826,-65.17065443986789,-59.37730294210602,-14.090407308464725
-23.79170138583966,-311.5843284472629,-233.971803603953,-10.059255194036123,-151.34124136736057,-64.46807692881335,-59.45893061605409,-14.962740019181446
-25.750947609809405,-292.91807475591264,-223.0165545355104,-13.911389456302006,-142.9187057097061,-60.974164790486924,-57.15274875247587,-15.964330746835678
-27.42405995604515,-258.9588665029914,-200.67226127085803,-18.36478829432641,-126.84203838838938,-53.64590434640244,-51.377598986299375,-16.70642938080519
-27.979417945191173,-211.3291553530474,-167.46861504154836,-22.31256450832496,-103.87489397894747,-42.82889098580842,-42.2713939487442,-16.823945532682963
-26.862169449650473,-156.4976961827862,-127.84173949375793,-24.750979303513297,-77.30137444601753,-30.237918247965585,-31.26767325596629,-16.17432939752339
-24.092901279272088,-103.4732750875176,-88.65061151786558,-25.273236428104678,-51.74090345818393,-18.33617328728313,-20.61262182007222,-14.94100391204775
-20.280652656512498,-60.66867762727435,-56.66882874305489,-24.17490488148214,-31.41825988501837,-9.336188008804362,-12.45664501423177,-13.527147842401009
-16.30805332420724,-33.08422190621262,-36.01020113260781,-22.121816562999523,-18.578852571413417,-4.258554053266121,-7.909702994218899,-12.286087913802868
-12.89211904278303,-20.82014090959493,-26.62084019613115,-19.673921904912998,-12.73338409363123,-2.5146864432629226,-6.542281221424208,-11.280435800903353
-10.32920696852379,-19.502315638553895,-24.629344776207613,-17.05308876597413,-11.116257771713169,-2.267660956536899,-6.640272185295691,-10.265951337481791
-8.599857308671895,-22.56065917640463,-24.533590178399205,-14.31033965100997,-10.225420014370073,-1.4492644372583816,-6.141791743491104,-8.936142997229634
-7.725001821455599,-24.430216026683485,-22.18203282816486,-11.693370747619285,-7.726539612787492,1.0632989455840791,-3.7801401428291657,-7.25506862166231
-8.055543248547512,-23.019567909651823,-16.86937767746681,-9.85140329095062,-3.6654046507016655,4.7654880133592785,0.21923309489881326,-5.620870170525701
-10.224668177867557,-19.99516947537946,-11.266556664735203,-9.668127422253855,-0.22125419479238628,7.766352180625493,4.310188050802765,-4.720127260203163
-14.75890456768913,-18.81615586463249,-9.303861419652817,-11.818403730771145,-0.14220600140133904,7.839632287021807,6.549321533737287,-5.158892879635225
-21.60367762644115,-22.024578514801284,-13.49883436563429,-16.3345258751454,-4.899106472495995,3.672600366349871,5.687228621199677,-7.108078179732923
-29.8755072088128,-29.639674274545087,-23.42941061668129,-22.435854183976783,-13.725682803798621,-4.385627132313627,1.79940588616716,-10.174528287791059
-38.00481004528119,-39.37260980001446,-36.02226049426549,-28.714348584310194,-23.99316358389355,-14.411448445459332,-3.8032395298391717,-13.55406461360546
-44.222304954923715,-47.982995596947006,-47.09091183718705,-33.608360974935565,-32.474568952070534,-23.68086626241753,-9.206858242714071,-16.36714639817648
-47.18773687229303,-52.693963430088886,-53.10137523472064,-35.98156890234691,-36.69586755323158,-29.71247649693369,-12.692894852072488,-18.006949440861415
-46.49171548550057,-52.11784082036094,-52.44900411679443,-35.555222708758,-35.80017128920219,-31.153575650193016,-13.371638940605791,-18.345730254853198
-42.78663896740812,-46.64140865979006,-45.930604231727095,-32.96796155850098,-30.715099740701923,-28.190704727203393,-11.444593008149658,-17.716293408643278
-37.45010614467258,-38.19986267192905,-36.27352306823913,-29.411179912048997,-23.625404779892303,-22.32544129153545,-8.012062741118289,-16.688416459572515
-31.932500024724167,-29.33998521884561,-26.830619206387357,-26.04222964518952,-16.939903854514533,-15.614656718905083,-4.512695088365816,-15.764666463838964
-27.144427131135643,-21.92894950233858,-20.043555858214663,-23.520241448047724,-12.223249916697785,-9.769710198924226,-2.079055498574568,-15.16537213527084
-23.220673694381087,-16.364959581036462,-16.56817236406413,-21.902295610820484,-9.689972222311473,-5.604320268928773,-1.150590852880583,-14.809351556721696
-19.739233608124852,-11.875264505108749,-15.525164833982117,-20.865990069777766,-8.521466214534003,-3.063010814562453,-1.4914912162012712,-14.458776092671057
-16.180691836800687,-7.516565311288162,-15.451746438499944,-20.027934689231863,-7.647570717033354,-1.6359147869374546,-2.465294117663112,-13.894393362458144
-12.318568290294053,-2.883621712678063,-15.086242589897816,-19.152778960854924,-6.335605941629974,-0.7568174772469384,-3.3059860859395678,-13.005243202930076
-8.365821618203684,1.9853734823355023,-13.568496463447426,-18.2081675514743,-4.266793669836372,0.041174966281851244,-3.282946080521712,-11.781786005856224
-4.891560625952328,7.03744994509105,-10.389771927886702,-17.328675654865787,-1.3549996864545313,1.1125867098997735,-1.859762965052094,-10.28097327859546
-2.6018078830726563,12.220154945428813,-5.568562445863113,-16.7371104719451,2.2753454991281337,2.6220356872606887,1.065311577497125,-8.619496572459836
-2.059427183637918,17.042439315711835,0.025400126998674277,-16.626646699446532,6.1068814766265085,4.383356143450927,4.951937973265559,-6.986434453694413
-3.411800582638588,20.36682184233011,4.731243469832877,-17.025844960431062,9.181661392293208,5.811698294741906,8.677716027905525,-5.629276276688579
-6.233489451608223,20.934380525120044,6.80662397114274,-17.71943786636097,10.444674355289894,6.154275942273277,10.9571123194153,-4.786582966829665
-9.592598321514581,18.303368397323005,5.394701694987646,-18.289947296113507,9.32261235886022,4.922762882476092,10.932581803310795,-4.58378502494093
-12.351243383176172,13.454183932475097,1.0990708892811765,-18.269410233924507,6.149063927661367,2.259916657313749,8.60945435647685,-4.940260889460141
-13.575290543725647,8.681190565866908,-4.124905357850276,-17.32948136097534,2.1973232421637166,-0.9940207856503549,4.904993446390968,-5.548517173361501
-12.873696265707228,6.916622583628634,-7.622030991464147,-15.442021219863308,-0.67251894753666,-3.5913610294802436,1.288679199262195,-5.974764137783728
-10.540621740082129,10.67022839294149,-7.0352281472351885,-12.961323496259817,-0.6849409305109109,-4.421025250114472,-0.8510091306852735,-5.873759372433497
-7.455193062254981,20.615128594693722,-1.514277322258478,-10.559173366422149,2.9424239802362857,-3.1078226284866277,-0.8792136506236512,-5.213910365767667
-4.746256733695575,34.20471040855427,7.278367490479779,-8.939875541789768,9.172743991465484,-0.38908569281102845,0.6864038440682502,-4.343775690885647
-3.291792551292054,45.41942613135209,15.194002052113445,-8.378419162756728,15.039799983249528,2.023013517967159,2.345301754934293,-3.7927986345384186
-3.238183919584714,46.72392393622089,17.268036950580424,-8.332831583257342,16.75076343363236,2.192404864622984,2.3993098735392944,-3.8882101926771226
-3.816768781179518,32.925846055818326,10.52136063233372,-7.475650361761028,11.709802073118675,-0.9766147442321503,-0.017832215730693428,-4.446972360915715
-3.655399464661722,4.799919033582894,-3.8040725216192124,-4.290462906381695,0.2905929382197031,-6.987415466663016,-4.309148922425152,-4.795617956392632
-1.5007336427182951,-30.155389843592715,-20.29624949654798,2.0285684488444007,-13.925780391552937,-13.853075230830672,-8.650105247074283,-4.151405128976329
3.0370347614536737,-60.855229260137925,-32.018349930999214,10.932628199937364,-25.815955560952894,-19.07572130495415,-11.00029995648146,-2.1262460491715793
9.180286375083773,-78.05790024213373,-34.22961637013171,20.59876907500821,-31.35464829754396,-20.937536121536297,-10.263310861670414,0.990481102879999
15.337706933324919,-78.81678211160852,-26.834645906296675,28.75450972051066,-29.604659651668996,-19.32092834448999,-6.860608652327685,4.365101144026088
19.917576659989457,-67.25317449963728,-14.031528716877558,33.769299840771765,-22.85449581276971,-15.58996813305347,-2.387168383704741,7.074033219700844
22.104569923447908,-51.41590735991767,-1.5409968953254323,35.354607620209855,-14.958756433816506,-11.686714549588444,1.364596329704325,8.572778471104797
22.138379786726905,-38.599930332051045,6.57648659587707,34.48895348642999,-9.124556453081896,-9.084461708882891,3.3328365993004736,8.891041437988306
20.98429595410038,-32.247683712345776,9.428491858902522,32.7121494661904,-6.60603446474357,-8.244752204048268,3.502942926966101,8.484773386466742
19.694251927379764,-31.89628436971673,8.55334275034593,31.309967844695887,-6.872951792720618,-8.767250569701533,2.563821137464425,7.911450450691017
18.906028791919912,-35.13491550030531,6.115663146840329,30.865523329314033,-8.640665819914709,-9.909137846917869,1.3203343241376553,7.564262837871013
18.728869682166255,-39.472910759884854,3.645730045955414,31.291493884334066,-10.739645574434046,-11.014011923375481,0.3162996319193234,7.584724125278765
18.937909821226263,-43.025374143375444,1.9098748909236571,32.13634316387358,-12.36356870395464,-11.65971447221949,-0.2092591887657662,7.9155562174066905
19.24282817513644,-44.472932693851895,1.3301347181033,32.913187198757555,-12.97684697075891,-11.646839850001607,-0.21273411062943587,8.39897647587066
19.472370396308033,-43.12149027799381,2.220978312635865,33.33778062163308,-12.297013589125397,-10.990644518258714,0.23307141608517914,8.868862279885587
19.64648070629955,-39.13224092844075,4.734762787004983,33.448871232335875,-10.3867017597772,-9.918525544187727,0.9751081887358438,9.226437007512155
19.937298572406547,-33.49314030254807,8.760705692926669,33.56236145466038,-7.661054945053923,-8.796821455138922,1.8265638596341474,9.476594649873356
20.50408968108438,-27.7072418181056,13.773802874068988,34.02786781270888,-4.802080600645634,-8.00449625979177,2.5939721266009848,9.691022612047991
21.25727679544434,-23.61360156465851,18.48452898894001,34.900220711949586,-2.7399441076715427,-7.847237050575596,3.029171924765786,9.913671658238034
21.732821031776282,-23.329843010514775,20.60792817201171,35.768899693938664,-2.630195340723585,-8.514920148091216,2.7834065355348723,10.091479654911241
21.25462483843655,-28.587557462662062,17.52793083768332,35.91021996914946,-5.452265852347969,-9.96697775169996,1.5426803842884085,10.103485952016461
19.347107142163726,-39.063715676744,8.105608253225775,34.66961854884408,-11.09488635912121,-11.714430799020679,-0.6277734143858387,9.863735302090546
16.110163027624967,-50.76506093373678,-5.454476294932442,31.79530278639338,-17.529892747412287,-12.709532566989127,-3.003600476897502,9.392978672831342
12.246448997574307,-56.42387091804749,-17.47819838962444,27.51031497392362,-21.061462778153196,-11.630668277159053,-4.348356141207478,8.786645361880606
8.685197922582434,-48.74390211320309,-21.254672952667903,22.33813462029708,-18.01411269186738,-7.567844839991646,-3.543260191107932,8.117229405376206
6.05690701338203,-24.886017096218506,-12.818996296904707,16.859090376181786,-6.998824951629336,-0.702004785045504,-0.3099837837759011,7.375117915021256
4.378881310251377,10.904442247298544,6.409239210091258,11.559709448485432,9.798212191747401,7.541340489002532,4.5115810079529135,6.506338754173038
3.1443005408882883,48.654279672896465,30.010953707235437,6.811718378379308,27.33515313936017,15.044060934374576,9.363524712195854,5.503992610496985
1.7133903893189406,77.42269767074845,49.82095102801828,2.9040166414615904,40.12138007934411,19.927321801970088,12.785191627451358,4.456811734725671
-0.2896353858718405,90.56506943337972,60.00098348176317,0.029835596608887446,44.85865918387661,21.293789388269836,14.102918066193212,3.50225919055768
-2.825450476136854,88.35333983141919,59.481340463110165,-1.786527687293263,41.764380212371634,19.40360080453607,13.594197381405069,2.729944494099372
-5.557654358886275,76.71321167351587,51.59834109623865,-2.733020580701517,33.97094972885579,15.342086740260237,12.139275081920735,2.1385794423160123
-8.066105790639226,63.414336381275554,41.6599316464711,-3.128474927002371,25.64213841538878,10.538620191279746,10.706929848036639,1.7009649139793184
-9.984294524952276,54.36775996305567,34.249297292480996,-3.2460492868606363,20.07523845029751,6.435839788046932,10.01957163698224,1.4735687047686594
-11.041307989122945,51.93695289434914,31.692263876647676,-3.187123451985211,18.717772006938024,4.307030956817919,10.471295141908046,1.620870673211107
-11.092995161263184,55.33717695254911,33.931123088486544,-2.9132268492936566,21.1979834294268,5.0241093851173835,12.138873092745657,2.292177590934429
-10.179947114112961,62.00056912919825,39.22769561531533,-2.3868578306584283,25.92304913386047,8.700768480704367,14.749437916208997,3.433726961488169
-8.54906571254394,68.92920392333953,45.12208959358209,-1.6755777528672666,30.82917209708035,14.422652985944403,17.658969570079044,4.698067396711742
-6.570042490258609,73.76678946281325,49.40410628636849,-0.9354562155130426,34.12035954328834,20.384490308957997,19.989163630328406,5.548090821043382
-4.576206657843752,75.55832710900185,50.91316135616161,-0.3167986635449693,34.88134516507354,24.52576389755155,20.949238292336947,5.508073209340424
-2.735208103130016,74.92806972414162,49.84381934070795,0.11924030574787121,33.333353762646354,25.386355123818472,20.18008416534975,4.414703469942524
-1.0219254485712876,73.44941706029331,47.37365162199617,0.43682053661186887,30.566539448871822,22.72530446632298,17.91499928143272,2.531271530138181
0.7228679508565878,72.56857265642896,44.904594786920015,0.8255529277022888,27.916195403188084,17.596020360644403,14.88706023426673,0.473779528403197
2.702938661955592,72.89103667463587,43.49000713601087,1.5590056312519849,26.405136002441992,11.889580145325207,12.069970584884045,-1.0116039177302245
5.0713945570005885,74.27979819180406,43.72551981836316,2.8862802895551765,26.53776236830613,7.594423679484775,10.377999620900097,-1.3235979108152671
7.833892994613589,76.39441463270306,45.85721486169153,4.88236151106264,28.36521750797162,6.079277026544359,10.401257097355288,-0.21872816808057227
10.7858866476533,78.98576088255638,49.752053765204266,7.359486433448055,31.580603034093375,7.65233307385014,12.226601350253024,2.1277944307524677
13.545964241113829,81.76696731625695,54.7642433598145,9.926805799414709,35.57847258882866,11.547249719452543,15.409452494109571,5.2281212326818975
15.697071459403741,84.27469323183578,59.83145459809502,12.162203137413838,39.602835156526076,16.328271808280135,19.133977413367617,8.476229691795627
16.954764059200564,86.04904150116624,63.90831245173882,13.761914076810886,43.01834797978012,20.516424436266547,22.500191202708063,11.315118434882624
17.25602464174456,86.91085965329705,66.40332917179231,14.580185881523768,45.51775011129365,23.135041763092648,24.80194031529329,13.32046203367942
16.740002771872444,86.93687218446176,67.24837257417823,14.60327695756569,47.08431750358512,23.954360133866302,25.697438176375357,14.239511043803201
15.680668068923012,86.18105531223196,66.65972823310683,13.951320220211997,47.79876627598846,23.4181649471766,25.270739967144063,14.047376565913883
14.42995446320649,84.59354689985376,64.96994649904424,12.91260737204157,47.75813343762713,22.38325260257168,24.012649538393052,13.009454637658207
13.362004850219552,82.32218398314876,62.70257568692946,11.918183817359623,47.2010177991278,21.798746351113877,22.694914664330653,11.662415722136076
12.783613970263657,79.98295623359046,60.638971330268845,11.399531667078532,46.62191557588568,22.37979120089694,22.09469425047737,10.649158901490551
12.832915207326621,78.41152912516574,59.58853857339458,11.600633093222797,46.6219904645732,24.32490721543859,22.635173437265962,10.454711728632029
13.442635959705525,78.03507147489046,59.97806236588358,12.47649496828722,47.547334720093005,27.190271685022697,24.145762793327616,11.18079280090253
14.405357825847556,78.53214277728743,61.657358372716196,13.731683808127803,49.228967862282666,30.035146125004893,25.926969233955344,12.48306394903372
15.481462297127026,79.15808933374896,64.07644838088939,14.93805861422518,51.03832359643758,31.816776834564482,27.100135206033826,13.700967901670104
16.45725416231575,79.35091226045807,66.55305634081472,15.65348357073148,52.15972363578969,31.84659925076051,27.019971866498054,14.119811883982202
17.137442158046493,78.96906487803594,68.32853991590142,15.533359477566327,51.85923939277724,30.084950100381107,25.522272058078094,13.264990381775691
17.346867056311225,78.05015581089442,68.53426222479315,14.46101668397182,49.694802284149745,27.165491244389866,22.94221071517746,11.123487703382079
17.003285929763003,76.56402702672148,66.43664044305386,12.662679807777709,45.74626011587727,24.16976458551576,19.973068406710507,8.198808637928531
16.219965647528998,74.50571612526181,61.98755175177375,10.707265166672006,40.80169372673967,22.224037531188554,17.43409238926233,5.350364419153302
15.334377341784437,72.10391523876966,56.19665273568581,9.334924661911863,36.24096734064931,22.02263063315494,15.979611885136533,3.4643806014406313
14.815694364191293,69.78284844903818,50.88086166375436,9.185679421375575,33.49911989770803,23.470151131259552,15.83648344017548,3.1065968346345105
15.103693160059661,67.99806932276168,47.94919228911351,10.566744499230262,33.41960661927778,25.6942560978251,16.739531770693887,4.328268414374371
16.451661373440746,67.3671076021785,48.7863562703342,13.330248504571724,35.99669871436421,27.530655079386072,18.15917882180969,6.697673140990165
18.785754787949237,69.01711202129309,53.98336533805271,16.831986914842794,40.63454641933726,28.224595444353273,19.661727154288553,9.484236705384548
21.573747084299697,74.36772687511319,63.0905586667022,19.94963779554584,46.49609785905963,27.831020183193875,21.06486733077496,11.858933611470881
23.779898651179188,83.8053945114793,74.10343526343074,21.24189053238007,52.46070625008844,26.96042461322507,22.20798339254744,13.041045579245234
24.0613936611006,94.98907136551756,83.11172703394017,19.35753257356314,56.78508544559562,26.057825288734126,22.561790572740986,12.429753324333108
21.275229461332504,102.51314636913777,85.02146481276499,13.641455555498588,57.1177027626524,24.841506647401822,21.14587083226204,9.777818986715543
15.115005394994194,100.01522423919081,75.67590426486305,4.641956112999095,51.351677413891075,22.422909207161407,17.00503663254401,5.3666924286055
6.492661633615602,83.84827364833954,54.39886509053469,-5.854236541941675,38.98758588774193,18.045566013334284,9.976536501659774,0.04062250407351337
-2.6595561906515486,55.864144202754744,25.194409868150952,-15.41363614835895,22.001566839011797,11.843132782832694,1.140071964031386,-5.016808155244276
-10.157571773837414,23.143989077150998,-4.5722572717009315,-21.936264714573785,4.363878221052545,4.991376826065456,-7.4909027050918615,-8.718566557498796
-14.514110621621386,-5.440441901313375,-27.5304613341675,-24.507565054852265,-9.720963172129347,-0.8839799656153217,-13.924390016026974,-10.507160707458281
-15.534148720289995,-23.659358623386506,-39.71138615232718,-23.662018254824506,-17.792613881442726,-4.600880681684582,-17.18005774670164,-10.538850874468359
-14.238780038885924,-30.421125575674314,-41.871996015966396,-20.96599888836616,-20.03033303846068,-5.966266368254441,-17.657789291636142,-9.521302445771651
-12.223211720702436,-28.888341924429866,-38.048136271379114,-18.232252412784106,-18.538985248308972,-5.640483641901759,-16.681441142202907,-8.324862534727613
-10.871576977135721,-23.37841511300732,-32.62950958297168,-16.815097233307103,-15.708874896482657,-4.541099962836278,-15.60348541146029,-7.605021772206469
-10.838922293010897,-16.715471223542757,-28.12370380343197,-17.243248059155125,-12.939749445325026,-3.308428032980331,-15.099746973965416,-7.609855699020753
-11.940621287906716,-9.800999357623068,-24.841780098991045,-19.165238877767262,-10.498579397377199,-2.171933112067813,-15.020364123183729,-8.185488772080175
-13.340689628621814,-2.892795741698354,-21.99051871152372,-21.4864179749483,-8.194249941273243,-1.130604430480136,-14.696758420754866,-8.891008880403476
-13.888458354786852,3.2776360325301317,-18.770541249859924,-22.677274274875607,-5.973255225639169,-0.1324679071432859,-13.365830310236046,-9.15301106936884
-12.535862909732776,7.736476128829394,-14.653599916403111,-21.296259230911495,-3.911846738827928,0.9257192887143993,-10.47637072575211,-8.447419669425067
-8.779733532613765,10.367103490858371,-9.12083167733822,-16.632815461628997,-1.8398081735235168,2.289218312113384,-5.849613841985015,-6.491083452807335
-2.976232779436812,12.531186819468015,-1.588258818221954,-9.163138893849913,0.8326245632504551,4.337191025996503,0.2607530926431751,-3.368962678395681
3.6756878291724657,16.416926245580473,8.183355751459732,-0.4916391948621371,4.802809373016434,7.403405401731596,7.206805080205377,0.48762624863743126
9.556256291973147,23.51353664811635,19.53794789833984,7.2784460371067885,10.299980484265145,11.522953269946493,14.097360024657302,4.473707001141746
13.284111412691917,33.37162894114711,30.802854828265165,12.432771485622313,16.720785935763367,16.276044118238218,20.02712145872235,8.030434264551847
14.27959664078254,43.60350422070791,39.85193495084688,14.306725557062764,22.794326728901826,20.846090012942614,24.300972323133276,10.78394782385768
12.945226040891672,51.105981965481,45.038167954274726,13.395830086716682,27.176316023412745,24.278633259171897,26.57376959834815,12.559008448721194
10.408991969155506,53.577859234085174,45.861742238012795,10.960909165606708,29.05011229522326,25.819202394056067,26.882772764265123,13.337462818409726
8.030671454847328,50.39805245047049,43.02193674975707,8.45720724671668,28.392646155183673,25.20240643459605,25.625779606624484,13.264822732031188
6.955472710331383,42.74328352236094,38.101307871558994,7.099280323981994,25.934721750284094,22.82419230609719,23.55149570787161,12.715169601652642
7.8572466131081935,33.39763950388063,33.30445215500464,7.618201406104338,23.031436968952416,19.73601149377623,21.717832196145338,12.286580106481573
10.805266079344447,26.326028573567257,31.162141512723046,10.071122055137321,21.42032379947555,17.346797239190657,21.237710109692973,12.575443603361451
15.14774275119783,25.438083011903185,33.649280937018894,13.647489507211992,22.577776642430333,16.775743858505503,22.700242414610553,13.751140620885517
19.476124437024957,32.32619974129128,40.62549022298966,16.668321557971094,26.646681110029967,18.077722424437997,25.500199320229573,15.204716807689266
21.892227677207163,44.14907116949904,48.6310638120328,17.051437639768622,31.594382437563098,19.862610792172983,27.63549348096541,15.623896153795199
20.689901194550856,53.676191938807584,51.52378697054684,13.22934641959991,33.556464635938454,19.76587894698127,26.41119829740514,13.605505278553053
15.209117127898375,52.428257885313286,43.34755839101936,5.069058644424533,28.64533871608391,15.688060957046853,19.860247677839347,8.500422713366271
6.346751577372578,35.446818671106165,21.942776401456232,-5.822395031725461,15.296960385383903,7.096121209845996,8.044557114461035,0.9421887580382108
-3.6837260641326277,4.626902872275591,-9.135855443957258,-16.70446198295157,-4.410351421290246,-4.47284042807993,-6.66421129530908,-7.327334528815898
-12.294553448884777,-31.75692594201223,-41.894257780292264,-24.930091572361253,-25.47166279552275,-16.075653010025505,-20.594538312118935,-14.25911070639412
-17.65513827667334,-63.19511288605179,-67.74282037378822,-29.08985084981411,-42.364168040782886,-24.80322331912109,-30.498375842768148,-18.439841081836153
-19.377739015552685,-82.18473475993574,-81.57207454185784,-29.43979820235844,-51.683838927162626,-29.127058302608408,-34.97060682476112,-19.63185322252085
-18.42336037393476,-87.36423789649506,-83.63959512607656,-27.464954246871546,-53.43989727296179,-29.395470470145515,-34.794644408751104,-18.665527251098908
-16.39013168914752,-82.93037345521874,-78.41300544007387,-24.962287259195353,-50.39875379828707,-27.311893096173637,-32.164040295055614,-16.853918113259997
-14.681414020563173,-75.32067230464308,-71.5446310276871,-23.23045782620124,-46.17544185692506,-24.863737189992268,-29.4023518275189,-15.335401629802124
-14.010953146223308,-69.7214525099769,-67.11428877113187,-22.73922291899197,-43.43598279138728,-23.409730597358536,-27.975635660167235,-14.687229069319317
-14.380341223389173,-68.40671059187731,-66.5610978388895,-23.26407023672697,-43.16247719452693,-23.358523189433267,-28.216601844449183,-14.903466562052794
-15.356847695668138,-71.06269524871959,-69.20418746266033,-24.236319655454796,-44.95851504974649,-24.3830538968484,-29.637090717340495,-15.613353380774816
-16.402255189461517,-75.96468413528301,-73.35279274251229,-25.081118186784636,-47.75935847617243,-25.836594065506763,-31.436434091621656,-16.358275025194573
-17.113440932491,-81.03709101787481,-77.24167773668965,-25.44719541952904,-50.435914293682984,-27.104175762361194,-32.913544067381586,-16.80725567707986
-17.34736013373725,-84.63826012055706,-79.6678830656868,-25.302585401096923,-52.20164928978604,-27.82059105870785,-33.70547043515081,-16.862508809257083
-17.22566081368337,-86.16785883520004,-80.38522232286927,-24.878099120358094,-52.86925739981196,-27.964758491955205,-33.859528615951774,-16.643114269753188
-17.017001530706576,-86.2454428032422,-80.08834039609141,-24.48373686035036,-52.85839368189656,-27.806058879220664,-33.7270850894456,-16.368751826361304
-16.954293453105148,-86.15373046406003,-79.85250025730573,-24.31140227361397,-52.855537209805945,-27.701184797442494,-33.710785186489666,-16.214729500085415
-17.107890670562536,-86.85700215305495,-80.36561282784703,-24.360020403580343,-53.32036697595162,-27.860314914232276,-34.016554885342686,-16.229869901058702
-17.39964216148139,-88.43192981340601,-81.58433330560761,-24.513418159447557,-54.24389330805931,-28.258788659223217,-34.5883981056755,-16.35762898200235
-17.71625365654216,-90.3696685997494,-83.05775926321606,-24.666003508629576,-55.338875690867695,-28.745306711662067,-35.24768496242605,-16.51501259038833
-17.999120679649078,-92.27852604492031,-84.47610918102298,-24.7756239996785,-56.397164567913606,-29.2089848571066,-35.87158076726652,-16.64968237757484
-18.242424717117157,-94.1675938841825,-85.84482122009881,-24.83369433536723,-57.41893653656348,-29.635928895235583,-36.4425125240401,-16.7431214257588
-18.44659924248221,-96.13094495307298,-87.22668908292911,-24.83446453423498,-58.452499616122424,-30.042166385374127,-36.97563043458539,-16.792124036216496
-18.606696945760252,-98.01357172130112,-88.51574751199314,-24.791600903799996,-59.436285274908144,-30.410611315009795,-37.46043712580737,-16.80638882672495
-18.739610936373772,-99.54991583731886,-89.55859314518395,-24.75757501028092,-60.264844379032496,-30.71637679164783,-37.88837718841713,-16.814954070762127
-18.888164979691165,-100.73132136918404,-90.3940182686981,-24.78840855133427,-60.94881277208967,-30.98003961760906,-38.29453886651577,-16.851484829466013
-19.07703048613577,-101.83506985994782,-91.22093695510732,-24.88046518183154,-61.61016841411723,-31.251287866655083,-38.725802155010406,-16.9213466458474
-19.27710066099416,-103.06483562124573,-92.13047270413391,-24.962843549000695,-62.31456757335713,-31.540228101413852,-39.17272523811251,-16.99115209441703
-19.43772771061086,-104.34195772523437,-93.01488350489778,-24.969553192015347,-63.00139220010362,-31.80571349237544,-39.576969987828384,-17.023388807749566
-19.557587639362367,-105.58197587566589,-93.8289210835067,-24.913665906920848,-63.64224046750558,-32.03694955235763,-39.92993771638106,-17.022491590625783
-19.70453042217524,-107.05760043339814,-94.84132463882331,-24.878082186741857,-64.40909985028352,-32.3214952889269,-40.33740478516928,-17.038880793489838
-19.95013262554876,-109.23299427578056,-96.44447810934092,-24.936761876368987,-65.56373404523156,-32.78441373802151,-40.94119481268632,-17.123604962934316
-20.28850993032019,-112.12263598152482,-98.6414924668612,-25.096560004407767,-67.12363524335798,-33.43863624632073,-41.75868293592083,-17.281148045850017
-20.627970783157412,-114.92677618954971,-100.79887366456623,-25.308492738752953,-68.68188803459577,-34.110358092296174,-42.6114175042998,-17.4641809985258
-20.857763514846926,-116.48188507743994,-102.0145918573279,-25.50523157598338,-69.63042437265247,-34.53443457385294,-43.22518777936556,-17.603078054610137
-20.916531615896346,-116.17661430880604,-101.79449981372686,-25.60949946121258,-69.6095355263227,-34.53935712928083,-43.410826454388165,-17.635481730010028
-20.815231828437742,-114.51621138100023,-100.45874178028652,-25.535181236249542,-68.80190452374501,-34.171983855870366,-43.18646898258609,-17.52689436963187
-20.639635411486083,-112.9637108939051,-99.06252656824404,-25.24418481631865,-67.90359547056751,-33.704462881674715,-42.801177671471436,-17.301576890690402
-20.560392329625284,-113.34572006070279,-99.03408032196852,-24.847139281411888,-67.8865578036455,-33.56315670529652,-42.694938485049335,-17.079400565152728
-20.807941006136687,-117.14813020857767,-101.67512692389393,-24.633203084061858,-69.65465820152134,-34.19385127361158,-43.37861087094405,-17.065490961231266
-21.545808209879844,-124.65224838725209,-107.41465561497401,-24.931833456995097,-73.53648184749684,-35.81926511547453,-45.164218846786994,-17.444722650161953
-22.672748230453738,-133.95559647589894,-114.89876925858373,-25.855912663273934,-78.66968673731645,-38.123767135393244,-47.78923273883315,-18.214540290373673
-23.70738575650891,-140.62104606124913,-120.60311946678132,-27.098468111538935,-82.72043140751134,-40.08702349999156,-50.19266028214782,-19.070078419150523
-23.89995890445528,-138.97938040682234,-119.81966196522654,-27.927270305117425,-82.5091286254982,-40.237068540810725,-50.744661300520555,-19.445097137899857
-22.552530491322813,-125.09851016639816,-109.00942752948046,-27.388316688897184,-75.57092773002451,-37.344186959706285,-47.959041464358606,-18.713529642108103
-19.363304614978553,-99.76439952131766,-88.22032054096056,-24.629449566433163,-61.81469604694322,-31.19725478381847,-41.32471170928594,-16.456955708158578
-14.595245879157643,-69.18877198850288,-61.821107625107096,-19.241311927562503,-44.0971732147042,-22.946128730066285,-31.733458330075692,-12.67395107489972
-8.999183903591856,-42.47952362594992,-36.79630123658448,-11.519766417022328,-27.142102850594863,-14.730779004979858,-21.211066113233255,-7.842792862164825
-3.5695345904412115,-27.253220309187626,-19.55111654594258,-2.536923054950257,-15.375995406721511,-8.777346336068646,-12.098137017674128,-2.8083533411392687
0.7305535996768562,-26.21054722955522,-13.225450544693304,6.079935568907803,-11.018561377930526,-6.476720036136733,-6.149586713008146,1.4757944253189372
3.184213675829248,-36.81313597031746,-17.07539719603454,12.662272700545872,-13.549706478743584,-7.935677902148473,-4.010054944596667,4.269361451105074
3.478561332294634,-53.84952645508054,-27.871837291243214,16.15300336091086,-20.62598692435021,-12.134920719648337,-5.205068866725659,5.328186721462829
1.8496112365832376,-72.49368369196573,-41.76975766251559,16.62199439781757,-29.460067141325325,-17.4226065427999,-8.431426653775425,5.0502396738773765
-0.814133205743797,-89.31854473784301,-55.02727138846044,15.353375367258774,-37.50976022445692,-21.950073934431334,-11.84839585349247,4.40577160933679
-3.0578197152406807,-100.88925865345605,-63.425420096368555,14.358415493943511,-42.220358917897975,-23.905502282789485,-13.316386730526052,4.617851744386809
-3.277336820734222,-102.11447973403318,-61.85168217114389,15.463643299465808,-40.670803443890826,-21.73636183930427,-10.793030786424668,6.665019888769517
-0.3945912511528027,-86.98085807642059,-45.572107475322,19.4196598836937,-30.159168987658717,-14.587124498441584,-3.0262077502293256,10.813439972578056
5.548241972768318,-52.05391353597585,-13.030397695489665,25.534662402856778,-9.784575277402656,-2.85579379612093,9.698688889090464,16.436380227685486
13.273378337023356,-0.25213715093811634,31.82679839778233,32.057939899992085,18.1158959812901,11.558640758687055,25.29200840218416,22.257135033632334
20.778806775682202,58.41226914061826,79.88379774894945,37.09196110875374,48.05431341635195,25.70122223228388,40.453759955509106,26.912519952539256
26.22999875351027,110.40898688915028,120.28914805514725,39.50459040970676,73.38521653726545,36.64216839357789,51.96735083739335,29.541136784136615
28.735250288664297,144.6952822665276,145.16663154500375,39.344702737923626,89.17615568829268,42.65480819815339,58.02304628093391,30.088234783351627
28.58543830550343,157.46559876314748,152.7928180009585,37.598979144811196,94.23215735840837,43.82027204547616,58.829698264743456,29.19492156650826
26.89117140158581,152.85111285044493,147.45619333338604,35.5356615041635,91.10550094956606,41.73108386954046,56.213198653805904,27.787258792427995
24.921282735843626,139.60415585016648,136.4514174792079,34.08691284222151,84.2912676109056,38.53955215342738,52.53750875067052,26.636081363799285
23.56595319454245,126.35434836588249,126.3915023499504,33.59559063256984,77.93155806661777,35.972914637577674,49.647787869683064,26.120655910355715
23.156155486968906,118.38163518256083,120.9767644633715,33.92854000639324,74.3877728442156,34.8393355538439,48.37356373405852,26.24565141034477
23.57392621193045,117.04646314934888,120.83061996607589,34.72613567796133,74.10778616589981,35.1051303347529,48.63627030277236,26.79293737391863
24.449216763528785,120.94151740445913,124.52564390278978,35.58403442495091,76.25675661106376,36.24967769639412,49.833415027238395,27.464835164535103
25.319583889143562,127.27388296537417,129.6831304825886,36.14103475592668,79.396448168939,37.58743620999841,51.18517427787861,27.9693435633843
25.762571112366878,132.87978386664926,133.7778568004213,36.14981744397068,81.9692572659272,38.4762226941449,51.972361467143564,28.08203079491116
25.532119694748797,135.12450414378029,134.8597757796885,35.55758379372164,82.73300506531847,38.486423579517606,51.73593223473201,27.714301425094092
24.661778694333844,132.8083776745635,132.24038338214572,34.54481888317108,81.19747286961861,37.55117042891058,50.44098347123444,26.965995542048013
23.471854304227907,126.66826792216017,126.81464597046815,33.48413680326628,77.85437832717314,36.01327262769668,48.514304539023925,26.12309199541263
22.474783645222697,119.12280140474189,120.78347829037222,32.84379304540996,74.03106292887772,34.513277790785914,46.70931166786752,25.588029888779694
22.218816495681903,113.47991815299774,116.9528220511444,33.058128145218866,71.4664610147979,33.774003206443524,45.85938404275984,25.748790228726506
23.081642827300882,112.99545280136854,117.86412991101044,34.33270459462382,71.77978895805163,34.3568930811957,46.58576930635041,26.789657454681816
25.005086829448892,119.70525612882443,124.70329089039645,36.38073923906538,75.80473952414572,36.38682094263974,48.955941807977624,28.47465642088278
27.25449028250631,132.78349188677106,135.94949414901146,38.240805008864776,82.7403065815739,39.24882294736396,52.133162920506976,30.018352435143093
28.42514004616071,147.03330812762292,146.43382221534728,38.43094016939868,89.50405917994051,41.43406768440379,54.25537286758492,30.21272826237122
26.892743972506832,153.1619074048255,148.09643457385877,35.54727068992554,91.10445835279789,40.839287522916585,52.871811453432976,27.882927109234405
21.62194920271515,141.08126885231954,133.10933159907685,29.060764496952924,82.51813012276632,35.62586718536087,45.985918597941115,22.50692334788871
12.901405172338203,105.27246445400178,98.20503236442647,19.810672193231774,61.42077591859474,25.275868834592103,33.22878948634698,14.637151255889929
2.493531957201912,49.041238393593105,47.56115589340047,9.807067804318756,30.121562908279973,11.1644692283621,16.397850505595493,5.807287197140341
-6.997290676589699,-15.508294015099654,-7.99891797452589,1.3906334433682843,-4.776188090657383,-3.831413820276815,-1.10792720621194,-2.0891709982890094
-13.233184974887802,-72.38974701772109,-55.46765450278339,-3.772516227223276,-35.07800586266946,-16.544199728693098,-15.70966965849822,-7.6099121865346495
-15.109029408515848,-108.90073890504412,-85.32187205391517,-5.283689417915316,-54.5811728506629,-24.842423047291977,-25.102885694751887,-10.294052843064987
-13.060047165538919,-120.90165712637598,-95.16719378811376,-3.9116347335822366,-61.48061387951263,-28.31208749781031,-28.928676438278462,-10.635312572636561
-8.628991122284637,-113.37370784888716,-89.53730660416787,-0.9815979132038403,-58.367146103089766,-28.00273036011355,-28.413499118910625,-9.595911455523344
-3.655021733079401,-96.52550389931267,-76.5303426159219,2.283816848578197,-50.172723425466785,-25.56990267448968,-25.40279162751025,-8.03240180860598
0.4130806833827433,-80.3442555840033,-63.72177299391077,5.098234882606164,-41.59145723975904,-22.451568766436125,-21.491968657590554,-6.388191122450729
2.7949858972301618,-70.81550934240839,-55.638842646468696,7.077948829703713,-35.469647231138,-19.519930374580397,-17.68908078984172,-4.75169284260983
3.306369012511887,-69.16598228360772,-53.451515399025396,8.060684634311361,-32.62698969485962,-17.18661072403046,-14.532397487997562,-3.113844762152325
2.1679794349436623,-73.2757476888429,-55.99483949615882,7.993494809967414,-32.53812333622448,-15.634494852528352,-12.299535802058278,-1.5805745977330958
-0.14513970353451117,-79.62440151607211,-60.951431433297415,6.932130131546571,-34.07263074945916,-14.91678182948873,-11.067697773586268,-0.408582529012589
-3.012380433978384,-84.82713036702346,-65.73549801511324,5.06984923591248,-35.96074581620279,-14.929667225817848,-10.682135037619979,0.10889647323693553
-5.790109024982185,-86.67521086874588,-68.22751396661644,2.728906136534309,-37.10895641559521,-15.4092769907365,-10.810610054365133,-0.19885493321208114
-7.952452362472468,-84.70755461785384,-67.42437477512867,0.3110342279702016,-36.89216628124476,-16.01901620987675,-11.12348804924376,-1.2715519219441176
-9.205524631327508,-80.08829348724063,-63.726696992502255,-1.7827705696928753,-35.31995626571086,-16.453042704556978,-11.46289812619081,-2.812403915274254
-9.541929580241435,-74.74955456960235,-58.63676883290682,-3.262674635738162,-32.94426612671453,-16.475950759972488,-11.865273902692358,-4.391689245953226
-9.228939505833539,-70.33608619131975,-54.05984604022532,-4.057823196282626,-30.582542749927285,-15.924184404799547,-12.446548471228136,-5.613795230515777
-8.720859517559859,-67.66647087186814,-51.6271313575342,-4.341511769469333,-29.051374475502556,-14.744411290987179,-13.261012596405834,-6.261242004014124
-8.48885091685529,-66.86046488904915,-52.24481368012821,-4.423320285119105,-28.976254895653746,-13.070207859933927,-14.217702671881632,-6.339279298044596
-8.81620687034619,-67.63666127368255,-55.80371036316161,-4.570666344999033,-30.5915715667499,-11.251878138535515,-15.07074969974451,-6.013006085136726
-9.671187459453106,-69.34890897248837,-61.05955438907362,-4.896641880690702,-33.53043563777717,-9.776180880754401,-15.486712976778152,-5.4996476213473215
-10.747296027519837,-70.9365430504929,-65.92273585597368,-5.385522430268903,-36.80759102427959,-9.10952656883142,-15.195996802429452,-4.987776359273436
-11.64132485934588,-71.22412377432056,-68.28158263342492,-5.986846060270914,-39.17468712065022,-9.54481768554652,-14.178513356785208,-4.6063828223086025
-12.038155885487607,-69.54384807236487,-66.99693232177755,-6.657654142110522,-39.710308398087626,-11.093092139813091,-12.75314663141732,-4.422572910489865
-11.79709939440093,-66.11921352257438,-62.41615409345241,-7.326546590982948,-38.248495448142805,-13.423368630460498,-11.461218364604383,-4.448648568789567
-10.94956707506217,-61.81181860483039,-56.083738816228674,-7.866365971559187,-35.36996285665675,-15.879289349189639,-10.785028197476299,-4.662214639450407
-9.68060306754076,-57.51238200017273,-49.95010984872412,-8.148117484228814,-32.04504169464397,-17.62730024143205,-10.884761275263482,-5.039492450146862
-8.310969117216464,-53.76669920755688,-45.6226251454204,-8.129380140261073,-29.21381277801555,-17.929100653405435,-11.52055882417065,-5.573004272596566
-7.217249226339421,-50.79886309096785,-43.900865607791815,-7.867332590401324,-27.46553135675143,-16.415210153606925,-12.175782851318209,-6.240916544822195
-6.657827569817081,-48.57304787236627,-44.51625073242723,-7.430136073354966,-26.810926735671355,-13.20495928723921,-12.278637748355115,-6.943865460620927
-6.600141305838227,-46.65842176017852,-46.09772439808664,-6.809712938711326,-26.59785621678836,-8.831642784509782,-11.428004205747648,-7.477566985902896
-6.709436917286359,-44.205352741014444,-46.635878084506345,-5.947241436294641,-25.757564154125294,-4.071487573140216,-9.582566334143225,-7.593052048642595
-6.55307637679753,-40.430264166262894,-44.52837685573521,-4.852290389457067,-23.435017712861008,0.21874411458317936,-7.153204510233646,-7.113996211231767
-5.8894996185187285,-35.3808502216953,-39.66940680248334,-3.685120305185269,-19.657869742581283,3.263888605184447,-4.890054243457308,-6.022550202841379
-4.83826568654266,-30.2108447497575,-33.72707848670475,-2.713186137367495,-15.495165092723942,4.5885313113695725,-3.530707341762182,-4.460481948302459
-3.831344619977332,-26.54209331969944,-29.26954919357823,-2.189972230189476,-12.493679532289327,4.228992129103675,-3.3885814475752842,-2.677980022015971
-3.4028737925019596,-25.41487334532135,-28.32685989062787,-2.268409423312658,-11.7833627806376,2.745285365445045,-4.1918658514232225,-0.9931673221937777
-3.941037627298289,-26.73451974858901,-31.37114589056009,-2.9897109806476636,-13.493519559900239,0.9225824551726408,-5.326858780378709,0.23202767256758033
-5.4967983544325465,-29.547259638854023,-37.222954469081806,-4.293499228335011,-16.785524969327767,-0.6715570619304349,-6.294369796469807,0.656586741402334
-7.709663328118008,-32.662373617510134,-43.658957567227716,-6.002259728238381,-20.300883544625965,-1.934539297005907,-6.9985202667258,0.09607561322573059
-9.900865877202634,-35.03561858013848,-48.249015361707336,-7.815495590364179,-22.668752140293574,-3.092874780609415,-7.65742015887009,-1.3380427542610691
-11.337664041625322,-35.88969784032578,-49.17929632587199,-9.376084881688541,-22.92402285646498,-4.333972687817117,-8.474981917279711,-3.216131103945886
-11.56178697568994,-34.892605998695075,-45.95435985871654,-10.396940283597129,-20.84190957485287,-5.537652745434929,-9.38717164549275,-4.940834702963685
-10.592960877359205,-32.39934048912815,-39.69199557600504,-10.760160409881678,-17.087060398208415,-6.308471150295156,-10.063676619839804,-5.999302757582418
-8.877673544749573,-29.35786094290243,-32.66296046717702,-10.52499612733425,-12.971536835183839,-6.242033353527567,-10.104724593661338,-6.176116765237212
-7.028483918469953,-26.699552723472372,-27.164848856046664,-9.867648436892624,-9.822219288481254,-5.211525473934142,-9.267599813068864,-5.6208835281385205
-5.532453961553329,-24.669749093151175,-24.408559376539944,-9.010554159259163,-8.31991589646482,-3.498037913258741,-7.609622641694088,-4.752219269144293
-4.585019113222789,-22.733374857751407,-24.134260900078672,-8.156095232387615,-8.244893700734726,-1.6967036375596434,-5.502479678042759,-4.050614141893156
-4.082318996675378,-20.103030103610095,-25.048905007811932,-7.41072403084764,-8.720629352801913,-0.4268564269646069,-3.494231297487224,-3.829641830866129
-3.7199326489121565,-16.30295554966736,-25.57095371228769,-6.730574148203155,-8.674690618821964,0.023746908707241107,-2.046341263254635,-4.0905166491115565
-3.1492076353409657,-11.295729743618367,-24.399240340178405,-5.965866721109231,-7.22829346808162,-0.10444284630691487,-1.288171220753529,-4.545279886135889
-2.1592656891817295,-5.346247863864244,-20.87660865755944,-5.023072036711216,-3.981343724446051,-0.1977720558606641,-0.9855643442857964,-4.81215335651235
-0.819525977707385,0.9402175792928994,-15.298751052071298,-4.031012281908471,0.7425522312520931,0.2679518371317054,-0.7825262167553563,-4.671283996209639
0.5142031853700056,6.441337258241074,-9.024229317417086,-3.347300026802328,5.815157631588714,1.287307561302675,-0.5296851061141179,-4.213301361727538
1.3689015874013097,9.72969580684005,-4.022223904973283,-3.361550903791953,9.641135630463825,2.282477879829219,-0.41174577690289704,-3.7811017385122234
1.4104784256003164,9.918462420996853,-1.8430481585727267,-4.230597921015969,10.923909743704462,2.5338730049150966,-0.7553737523824556,-3.7483424762764526
0.6283460400946345,7.579323368672366,-2.6134998937072034,-5.735141477738154,9.44294156004306,1.766209751290774,-1.6785242922846573,-4.279405059267211
-0.6509753101853367,4.848862241392668,-4.806724090839712,-7.341031789891408,6.304196110712599,0.4431205560979636,-2.8667183103165277,-5.211093920787357
-1.9049725739715897,4.451404918887924,-5.99530090257505,-8.41574993578126,3.470865635610758,-0.4445277863506983,-3.650310735128639,-6.118803672983174
-2.6369308055081238,8.233416169245718,-4.1303088567636665,-8.504852996780192,2.839122451772364,0.042821922912232316,-3.3531858417315816,-6.540908468794604
-2.610683788983682,16.03922449995841,1.3074877992511014,-7.578401540977906,5.299239725591983,2.1826955760204694,-1.7426136549887263,-6.259884305120144
-2.017419582704707,25.37766971333135,8.742418276761024,-6.132113247049376,10.143220186693524,5.265860809465878,0.6519478322641652,-5.484699808316873
-1.4454518057865133,32.036267714830394,14.843424704820743,-5.009309933952771,15.117115816189116,7.7622969583815,2.5973524647727384,-4.784659658172469
-1.5536974279420208,31.809170810725693,16.019602958190138,-4.921884451391425,17.367610983437686,8.021475197705204,2.738382609728089,-4.740907972467457
-2.5447605556797415,23.19181560438696,10.849395657612748,-5.89662457021736,15.18045391167507,5.288997478934433,0.544962156082778,-5.484353288555879
-3.7763665626721843,9.875229329397559,2.251211348103474,-7.048323268497774,9.697506524265451,0.5127123975368995,-2.9185152489676884,-6.436257204549218
-3.8801874980662965,1.006009320442585,-2.399876265007818,-6.95009942966505,5.320927384750333,-3.6770538744120533,-5.0572909520726235,-6.499291163581051
-1.45328791618672,7.86133497526173,5.8034997856958945,-4.459747349781065,8.002054496101449,-4.05392887459901,-2.878506719788615,-4.655976097627301
4.053737295645283,37.96876925971868,32.432425322837894,0.5143681787983903,22.021047497927043,1.5146440363844056,5.329127361908238,-0.6200581191399257
11.841065143342608,90.03732387243251,75.80134225498944,6.837070508626411,47.155067252244244,12.758479541731688,18.798649049604464,4.891913250664332
20.029257084372137,153.2200516192894,126.75230064435873,12.704818303924585,78.16629120064835,26.937171735741913,34.40389661705304,10.466798409274308
26.56346063488057,211.71929511705156,172.67428546932348,16.586344540128213,107.13964664047943,40.12700822182612,48.10821169987935,14.695804939518533
30.19727375615774,252.259199338622,203.5051575248105,17.947338195759503,127.33465152982875,49.11510073420309,56.89325989342856,16.83623167429164
30.96411572910159,269.9934342712913,216.13328711375925,17.339865352182514,136.22501113231908,52.784515992025426,60.02463905083487,17.052294037943156
29.91447788586621,269.44923132716866,214.71921180938463,15.895666595711804,135.99361094660264,52.24842301025951,58.986098396362536,16.154779114430898
28.38969490474599,260.4511271551586,207.20979481683707,14.642736102331073,131.49419379451345,49.829927431749276,56.301933276947494,15.077525420745982
27.345029414342086,252.16785924902337,200.6832243659541,14.085833422143903,127.28918751125886,47.67447883607333,54.11606211610239,14.437283120876176
27.081114535699882,249.1125497196442,198.43339928239803,14.196741015065752,125.66568695261849,46.847929133367614,53.36903044332278,14.383107786570159
27.388618920904833,250.85738959509334,199.9495498668364,14.656135286402433,126.4755813271308,47.26633018974356,53.84221111219731,14.71298922939627
27.876191799924428,254.4602006514273,202.8781609512895,15.119338181737874,128.300006883161,48.218752825061934,54.760393871578266,15.107434198427498
28.261359975414987,257.3821240837273,205.2660305823508,15.39565316189419,129.86997286049092,49.01921520650326,55.46620175869178,15.344111467655432
28.52366133740892,259.2977683658083,206.91632691296104,15.525761658291753,130.9745866462273,49.455887930009766,55.84325700696369,15.419609733110635
28.88546438861795,262.2748369654455,209.46574927647316,15.732591279709506,132.5799174692447,49.89924565473692,56.360932705715065,15.536205038053431
29.6094137105387,269.3188548418174,215.1707096064042,16.22432476198632,136.12371442114286,51.025520471165514,57.71428680148163,15.940988282045984
30.688276227755793,281.6627620842033,224.7593810669302,16.939313483382655,142.17382852778047,53.22346339767075,60.171186607229316,16.684447471762436
31.63651213229295,296.09815408845196,235.4605525877135,17.43838319954948,149.1222839933111,55.983006853095944,62.98316437784533,17.456055973568407
31.60599852016667,304.47284398315315,240.85536424394726,17.089996337835924,152.9744570817835,57.736694978304094,64.34881470846103,17.646583896538566
29.84187873547145,296.782539748408,233.4783342638147,15.458706486105312,148.89690746165158,56.451640349722865,62.166592924407176,16.643343023670027
26.208899260719942,266.82750741601774,209.14846721224862,12.616965766827436,133.96425623016904,50.75693790018138,55.25188524870895,14.190044813550015
21.415567897470844,217.00826757369762,170.33815205097082,9.148548359669432,109.42218878770662,40.93156417152895,44.26548194620268,10.585407968214684
16.751941106481723,158.75867399998393,126.08429753662753,5.850911017150701,80.81856532887399,29.08192982764936,31.69996569787493,6.59761364973874
13.486108199007104,107.76374897681755,88.09136260088711,3.353781273509619,55.66646231906165,18.330060982427824,20.852750244472553,3.1466411637660885
12.280183298473967,76.57606009182518,65.21131269508035,1.8932673635824853,39.93534029627594,11.444771694248887,14.350837163908071,0.9293923498284363
12.94788649043405,68.97704987730306,59.55521563497283,1.3333120400762355,35.42449921151698,9.658392465450234,13.04325064911637,0.1686512633926685
14.63722421131387,79.23507190335013,66.36977974376508,1.3441700915533128,39.45164368617248,12.256510991289291,15.809284584158116,0.5753110636651054
16.27028929671853,96.22965102703279,77.3688946749691,1.5718018401577571,46.7888964749967,17.06301684486609,20.2719240500262,1.5009136722779968
16.98374198736204,109.5550252753701,85.22802273930917,1.713218695764387,52.49455903956214,21.49292290910115,23.95197850004147,2.1995133176071437
16.409111743600384,114.11047491776839,86.73892796002124,1.5515865348318034,54.064721609786496,23.66195404184248,25.303254648821447,2.1191866547900204
14.764828446654944,111.33213459698962,83.46578635029226,1.0300036085267033,52.08649685380617,23.12633627788311,24.259875394798502,1.1429537865095873
12.760652224146407,107.35707268022269,80.23828449308631,0.31637140861289054,49.48267529692917,20.998900534480942,22.148146138520307,-0.33284391722131557
11.280940075550715,109.40233611339833,82.39387910057394,-0.2886039590490029,49.828178066549924,19.344500003938084,20.955604407685495,-1.588374054218671
10.877529422256373,121.57562988474423,92.60954952298916,-0.637144826654695,55.23676944093937,19.986043156040115,22.138037327648895,-2.014720556446254
11.30001950520566,141.40030611186774,108.33561574940856,-1.003108742456501,64.50326490041387,23.21476305331108,25.46817914678899,-1.5639487093831845
11.420038520503347,158.85566314301983,121.29894814609439,-2.032031983889283,72.54553350230056,27.173754905805463,28.655264109004758,-0.892032095624064
9.741830047388456,159.50873894069028,120.24318744799155,-4.3034745642602035,72.02714951156126,28.49488523969987,28.214882725442987,-1.032325549845227
5.280893992964206,131.30273039313246,96.35117822627208,-7.802985483255816,56.89303113975764,24.039355204990084,21.310656885096012,-2.769126805414848
-1.7347120084221506,71.7296117033043,48.61696464670953,-11.738212073483377,26.042571840512586,12.783764760066791,7.5330780994786615,-6.119406986993915
-9.826873587537532,-9.076549788801673,-14.248666783310071,-14.891994834422379,-15.183779189068503,-3.3337142522357404,-10.527887936287335,-10.271364840288266
-16.953457331753867,-91.8118502627612,-77.00889429922667,-16.29357765920608,-56.909223031090605,-20.189479846610205,-28.35188371419964,-14.014389406978157
-21.501684032987566,-156.48868919958753,-124.6496352609602,-15.752172333910119,-89.10978931278737,-33.43092466184612,-41.59608889084783,-16.37001422154289
-22.99122941764047,-191.1706728344684,-148.87515626913276,-13.907414262487281,-105.99624222167415,-40.452163917906155,-48.00840238194192,-17.030378764641796
-22.113943830034565,-196.1065933511116,-150.78056615122222,-11.802019833872057,-107.96360357890318,-41.291740094904206,-48.105639282034055,-16.37908843375106
-20.185867116303672,-181.4661452430062,-138.66137671343364,-10.30093138841237,-100.30772419448454,-38.10693443586071,-44.41306370496393,-15.161262516486822
-18.429615674514277,-160.85069046048577,-122.89798224311181,-9.736445426295361,-89.90087510463142,-33.759937970596674,-39.92826440832093,-14.066267129057058
-17.513074441155382,-144.8522359260342,-111.20537688657618,-9.93359070415598,-81.99117642060017,-30.456357074508226,-36.78408443860272,-13.467989892586546
-17.496497830238866,-137.9327538275652,-106.54743873261998,-10.478563709055493,-78.71101168052003,-29.106870819266028,-35.720442855434314,-13.396166245643562
-18.05244819513308,-139.05298188808484,-107.82388350627363,-10.983118965908877,-79.44680704752814,-29.468587752680865,-36.33336207687452,-13.656284678798515
-18.73863689342007,-144.27566152279417,-111.90842560368769,-11.212130198451776,-82.16520456286212,-30.688205958511706,-37.67602138527829,-13.982112748590193
-19.200572074343448,-149.3666932864561,-115.60023060601138,-11.103076675436938,-84.72467911344289,-31.85083112723093,-38.819592004449355,-14.158668661126832
-19.28470810973776,-151.48982150113045,-116.86938681359294,-10.745045464304045,-85.7284871949109,-32.35066638908638,-39.20913974830519,-14.09757011545244
-19.058101598261544,-149.92172493160754,-115.34073076719287,-10.323884935146369,-84.86922774097336,-32.04920106548329,-38.7882986837869,-13.849006469424996
-18.72256661469024,-145.8234650072682,-112.03166563380798,-10.018662545820797,-82.77903697333537,-31.212972371288682,-37.891759017781425,-13.542118809766201
-18.46303382622352,-141.17471351165162,-108.47051359883852,-9.896564419713902,-80.46436533445039,-30.267499328690583,-36.96415912209811,-13.289156466654095
-18.338391122765636,-137.4645950072692,-105.71260272034807,-9.894026781262784,-78.65206475336555,-29.519829630733604,-36.28218796022956,-13.124466158017812
-18.29915837296814,-135.0627446456418,-103.94808844550155,-9.902858304717219,-77.50368894417382,-29.046827324993853,-35.87509426945493,-13.01994108541489
-18.294908707643383,-133.6533345850259,-102.90197858112883,-9.870417667358087,-76.85342941326262,-28.801201884596857,-35.66469775812264,-12.943921452540732
-18.34658762033235,-133.0762799555078,-102.45957366122285,-9.813180047611645,-76.61969526314071,-28.773497238228003,-35.63597964123127,-12.893862668204946
-18.5094132446413,-133.55757752971874,-102.78114877821034,-9.751233396978751,-76.90044077822387,-29.00879904710586,-35.84183740989142,-12.875505787387345
-18.77980550430974,-135.09599015767856,-103.82148482663158,-9.6614191178458,-77.66928625083192,-29.464788495908856,-36.253021334833385,-12.867481013914668
-19.05390975998565,-136.7945473490863,-104.87962085499787,-9.507836054339451,-78.46904997979331,-29.893529882126117,-36.64423487201527,-12.820201109236455
-19.176009904356096,-137.00306101462985,-104.76401075294508,-9.300045415769166,-78.50339761397336,-29.910215263526847,-36.662247254717045,-12.68872015467172
-19.02536696599534,-134.27666271438872,-102.50034265739302,-9.097500362824809,-77.10342312166979,-29.221043574993498,-36.033086397522915,-12.46168235643685
-18.58566294965568,-128.42873351099135,-98.04844066472647,-8.95803219909652,-74.21996117179492,-27.848897395425478,-34.7611191626629,-12.166995260852705
-17.992062423020375,-121.05635289446921,-92.63450143727648,-8.901484462470455,-70.66100826165525,-26.231239364009213,-33.225226370645366,-11.87064065689354
-17.552284623628104,-115.37421090311379,-88.61589064180541,-8.925663195767955,-68.00343116556961,-25.152711386545434,-32.14493832586386,-11.678408167039281
-17.6796708910353,-115.27071271437383,-88.78607101334305,-9.02606298482016,-68.12432065088272,-25.484842110469412,-32.365221559611676,-11.71160211278764
-18.67196542462065,-123.38328506885921,-94.94125360279769,-9.163897886576862,-72.24752743255823,-27.70620018027763,-34.40096190911654,-12.026153959621613
-20.394935826027734,-138.49999101772633,-105.97555040950117,-9.216061120108966,-79.6782517740334,-31.32467678707986,-37.85128080844452,-12.507230512347277
-22.086548388517095,-153.75937555644384,-116.654178343541,-8.998585436663504,-86.97072081714285,-34.5714467158773,-41.060009754818985,-12.832467397367568
-22.500989786475454,-157.66680275893222,-118.52696150611128,-8.38442236265133,-88.49922764334427,-34.78918981698283,-41.44911913808793,-12.572491989321582
-20.40825361642354,-138.66007822670534,-103.38163234351265,-7.411227004779805,-78.72905345339528,-29.58064383380279,-36.59336887699161,-11.392915630192306
-15.20681584451474,-91.34830236535898,-67.72330095645307,-6.25468707723306,-55.21600500508099,-18.19671950148057,-25.542049758063712,-9.233281762375292
-7.302245440053107,-20.702199431377974,-15.564936291250707,-5.0686176976713355,-20.525608627713343,-2.301541544950493,-9.58502947174957,-6.346781978958473
1.9724690547409927,58.84698282836983,42.5183727071938,-3.8337226366350374,18.337301848072975,14.499337276548264,8.099461719222312,-3.1780179099863264
10.859935089002464,129.4325204204406,93.8773573813706,-2.3662234531125534,52.91001165691586,28.240724868728485,23.808862253137598,-0.15893750371306636
17.835876879568165,177.61684997082057,129.3249120927546,-0.5074267390952983,77.0111567387101,36.41722245596386,34.929767447399165,2.4507132495182646
22.0843938203364,199.5550981493789,146.51015118440426,1.6414758687382336,89.05409942219885,38.960226430940466,40.8623931972361,4.587163197982378
23.599868102842557,200.73527714415283,149.39429875864175,3.63683771684181,91.71600492998239,37.83014322847176,42.78673681388523,6.276959522046716
22.97561407631883,191.21503715091012,144.73590331739194,4.870042831005428,89.54174178097848,35.611943691797556,42.59170699548031,7.502252450913976
21.090918143197516,179.9683059490315,138.26647795243153,4.918161867760575,86.30859970047027,34.114078971898294,41.78003068583408,8.149829433092215
18.859978853100948,171.72298270591617,132.8325432786201,3.831510811003947,83.74515203148236,33.798610700393695,40.98861216729224,8.078190145453053
17.06992004420118,167.16789884721587,128.86639759907143,2.1605173791574623,81.89121712972212,34.14155054081823,40.176471866724135,7.24636314750896
16.27610452033687,165.10822917816523,125.98609183789013,0.7213719509152287,80.27123847486132,34.410787938584,39.10332350475955,5.820820421983099
16.751474970530232,164.6852968401583,124.36977710308174,0.2614689972093059,78.90868977450174,34.282731845174716,37.727017981534374,4.202660972800392
18.48913353410835,166.5734753918973,125.23301177622199,1.1759259483145743,78.69438191745142,34.032758467239724,36.36652758512945,2.943609397023179
21.20291574782823,172.72101305996017,130.24021088627342,3.326174444009472,81.00861430193945,34.31252861727578,35.59446775894286,2.5441294810100636
24.27042348942819,184.4888142104179,139.91952406328892,5.988304419056963,86.65679031729405,35.62711195377152,35.84704574406754,3.1916075552717325
26.686139265295584,199.80927939665116,151.71785473945633,8.019758870869868,94.50877610567512,37.719412832832724,36.88132037592647,4.586343789429067
27.21129587742575,211.29805893725901,159.152508465024,8.308089095217516,100.76438989070621,39.23800947839022,37.457317112067834,6.015683838134586
24.825678476510024,207.6405075445146,153.51509026427547,6.3622489221368665,99.84045122209626,38.077777595959375,35.65644968245531,6.698927749169918
19.309591954826182,178.76194090703387,128.05271842098554,2.6922162220263792,86.96115224881036,32.41555910688045,29.857661841382804,6.217972359573828
11.567723100918414,122.20237556005667,82.41490588146179,-1.338973391983999,61.13289276734885,21.899872375330755,19.83135003414994,4.754788259587593
3.394013863492257,46.42955395494694,24.33264444339141,-4.17461061060383,26.52786800885339,8.194460892315833,7.1912952217238955,2.976119656672075
-3.266539426255751,-31.668297643972267,-33.02581427872245,-4.852776765268581,-8.881003641560048,-5.580798995388779,-5.187942162339535,1.6466230594278757
-7.1565885655468024,-94.10393333621738,-76.78677297662135,-3.4444066740742763,-36.82531294159026,-16.248036849244315,-14.491611709093938,1.2240387957744445
-8.170319834238697,-129.72628455718802,-99.92526646564265,-0.9010521803992341,-52.37681314497422,-21.99108289147213,-19.237051991717856,1.6768194074546041
-7.211947211572339,-138.25295848016188,-103.54922451169543,1.5429145319430353,-55.665655603035646,-22.987122991856914,-19.767263139281336,2.596969935568055
-5.598348566010396,-128.5443462959891,-94.99145941887765,3.0113255513264914,-50.930141445119745,-20.979490160192228,-17.772704018572675,3.488683883558677
-4.404451844150988,-112.89217064447884,-83.36212430428293,3.2996127079516766,-43.81447635312959,-18.187550366801393,-15.26272476795481,4.027792809903081
-4.107387296645858,-101.12695818549238,-75.40600672492546,2.761463776974486,-38.69713585107712,-16.272691836807475,-13.659958355253634,4.153135003164392
-4.619964970914428,-97.59073372541904,-73.67644929861505,1.9575928590399276,-37.40150534340187,-15.876741599608783,-13.450053190755828,3.9959859029312406
-5.551667035270995,-101.51750640580548,-77.14073778603871,1.3422144474085536,-39.45711122812327,-16.76435097221576,-14.359741407977692,3.7510914946199625
-6.478508186248886,-109.323599332734,-82.98344050533413,1.1298377255485499,-43.178076393727075,-18.258171654400893,-15.757660071337495,3.5802727370488876
-7.112361346106244,-117.02502858918959,-88.34272989115411,1.3088236626137133,-46.75359754072367,-19.655790422149003,-17.015696816206795,3.5686270952475354
-7.370809748506539,-121.89946843104823,-91.42981929404381,1.7131988328249512,-48.98213760799646,-20.50368985230059,-17.745315170038076,3.713556946733096
-7.366365739083196,-123.25482908963376,-91.9791774239161,2.1162806693335954,-49.6024918766537,-20.720010856845153,-17.903915354913185,3.9397385293693765
-7.316034180968863,-122.28235612977907,-91.02851338138389,2.3419201489040544,-49.20537233254812,-20.554589923834335,-17.746909936195074,4.1464422323138805
-7.403067351504221,-121.04823436612259,-90.10818720727211,2.3517884037041394,-48.74993888237943,-20.390912842503226,-17.6298014493403,4.269919493915339
-7.67753559542677,-121.14804385038774,-90.27585511304824,2.2422780974632857,-48.942410542349165,-20.497350817349894,-17.776938249432586,4.315598656430518
-8.067262906448583,-122.91924985362749,-91.64223232707317,2.147049480976336,-49.89753016250283,-20.901436051778045,-18.185562548208853,4.333732575856033
-8.472732481805203,-125.69678830839332,-93.65541566627222,2.1336356375141636,-51.287547249929965,-21.46314236762846,-18.717039885005082,4.366969408959145
-8.844689191031247,-128.66115767360057,-95.73356623435876,2.1857052661181764,-52.74201703158399,-22.039324292934,-19.250916742066995,4.423647149331169
-9.181247334239739,-131.3902886109693,-97.6094637944398,2.2634657801615448,-54.08403185934956,-22.5694755598326,-19.745151930733776,4.494152045728581
-9.482656838003058,-133.76715220530787,-99.21554852043411,2.3538419749635984,-55.26742888352991,-23.039577496143497,-20.187558153533562,4.576255983047466
-9.739074522300463,-135.69472680319637,-100.48649735985485,2.456766389641519,-56.24571563841078,-23.428723222068502,-20.552330674410303,4.673698354792912
-9.961731264048812,-137.13837097090286,-101.42025899163083,2.5493392433281783,-57.00521093176974,-23.72995243735373,-20.834172136083208,4.777137461968963
-10.19830268980773,-138.37853465045737,-102.25317106273572,2.5950686525629854,-57.68461087901548,-24.00203442562371,-21.097147321118793,4.863329771326701
-10.495660340856325,-139.96447907335536,-103.38496719086582,2.591792277546055,-58.5401795522355,-24.350292550548875,-21.442396986288845,4.920573119616608
-10.852064117472644,-142.26252347889877,-105.0378011877796,2.587735008015852,-59.72735978607649,-24.83305059029146,-21.912897342777,4.967035705305423
-11.221907095210835,-145.10239180822117,-107.04191470280784,2.6335079705918236,-61.1480732086423,-25.403298470617948,-22.45055913434648,5.033681349399946
-11.567453547334388,-147.96141518764185,-109.01716667804084,2.726522029537478,-62.55585840798061,-25.959650268116572,-22.960658075074132,5.129975182699833
-11.889162661354348,-150.453907974596,-110.72079888586993,2.8187809817548706,-63.78686996993028,-26.44201555034422,-23.401122982490875,5.23468908379786
-12.198318316323311,-152.53505419996762,-112.14502175341724,2.876535785256065,-64.83877338781933,-26.856439732629198,-23.78905656351599,5.32198279373522
-12.47928886421624,-154.2751963628217,-113.32891649001957,2.912977487661516,-65.75127685688919,-27.219777637771493,-24.13797897816632,5.387872688165779
-12.70592768218183,-155.6746654562809,-114.25638195231707,2.9554305544789736,-66.52249000233103,-27.527726694274328,-24.435872832599493,5.445255762514005
-12.899237781967742,-156.8889668365459,-115.05793148794596,3.0002489187632295,-67.22279434620035,-27.807645196182882,-24.70779443601818,5.501118558273596
-13.145692741073137,-158.5377817181278,-116.21835942218897,3.0238846438433615,-68.13534787552658,-28.176217596241912,-25.067651074800313,5.553008398767275
-13.533616541715553,-161.47010546298884,-118.35073942413749,3.035354587964493,-69.63412195168864,-28.783245189568007,-25.650693547013482,5.610130558015321
-14.06439981410389,-165.95792714319398,-121.5921314083943,3.0898571772186303,-71.81075177788108,-29.65672651276245,-26.464456431172618,5.702819706590928
-14.629254894245914,-171.08013151318067,-125.20769663544604,3.230191054750752,-74.21616819862975,-30.605687300406196,-27.31616308912941,5.854050843055798
-15.070975835461999,-175.0213276623547,-127.87418175968301,3.4221074330869796,-76.03153554036783,-31.301517565828334,-27.91070760773031,6.039144499430962
-15.270122261304229,-176.1622161446132,-128.47974213255952,3.5668884079091687,-76.57577128875879,-31.48591707974786,-28.043378723631264,6.18491133654973
-15.201960062094866,-174.17575216376449,-126.86967239187123,3.583538486915462,-75.77552851467227,-31.149651579038665,-27.740096266956034,6.220444131610387
-14.96960914314384,-170.51100765509176,-124.15221265956745,3.473128240235339,-74.33723928468723,-30.58741455126002,-27.28230034879597,6.135588878575157
-14.823938062755847,-168.1684190349125,-122.52802532662272,3.310226476946426,-73.61039608141536,-30.336549768033283,-27.14493797014419,5.99784437238729
-15.118413955811345,-170.77970214825353,-124.61751965047279,3.1976271976339476,-75.16244025419273,-31.00841234325449,-27.851122461822648,5.923464273177463
-16.129638258957833,-180.8409275334278,-132.14204209067998,3.241737273000601,-79.99427271328926,-32.9771463981738,-29.695757527092933,6.030933957782191
-17.78247937037293,-197.33786191042984,-144.17599890762654,3.5366661387922944,-87.50806503498595,-35.97064432093093,-32.38064860335081,6.39078632804088
-19.46537091662259,-214.06854479859985,-155.9975602280698,4.103220990709368,-94.8254949113848,-38.81124515310358,-34.803008158733746,6.966133094163049
-20.132345986742433,-220.529933921658,-159.8905225875394,4.7992826236287875,-97.27888068384124,-39.63517102111498,-35.294115735678716,7.5637368604169435
-18.711379425583672,-206.0838527860909,-148.29141804699356,5.316414440502616,-90.3305746902263,-36.67350289385497,-32.345566818071234,7.86006998976613
-14.616215073186318,-165.68101819918132,-117.89647901130131,5.349836473944501,-72.07254245610787,-29.231641146803995,-25.45399881102118,7.550246290314956
-8.07774563937932,-103.69406901682987,-72.22337897781433,4.861605049147602,-44.75182470621859,-18.245830021421373,-15.530903983334644,6.566018048440313
-0.12035507588286175,-33.080179215790714,-20.760642653974507,4.218772149551972,-14.174796960690598,-5.991966969673044,-4.560792364924508,5.208683930349691
7.791118707603944,30.078623048942198,25.082053880676618,4.042010441895881,12.83459059019893,4.939245145946351,5.314422228395365,4.05835327224454
14.24886907208911,73.60876522101528,56.94057596260353,4.820298109803515,31.45703356814213,12.797855942168853,12.723687756106125,3.669456111061996
18.321112669372635,93.80073194283393,72.52105976515278,6.550849135306697,40.60392270310099,17.27835305628391,17.456620543345593,4.234903077654375
19.757607737123255,95.19330601593715,75.19130594439775,8.680250691331244,42.49093825736286,19.28320811069425,20.16319960681769,5.453944363876139
18.97912701826287,86.51710054122637,70.96696053082225,10.421871909739828,40.67921094978434,20.132395555663717,21.695904134710663,6.710669802958316
16.910070473127302,75.93576343472004,65.20079000357777,11.23905067716638,38.08747790651132,20.811496577266485,22.60435409254079,7.442784339379089
14.685184268635341,68.32512424172617,60.858469821455685,11.139232515833402,36.12069620772672,21.67323406213102,23.039880799502676,7.4338492286786195
13.254059359525554,65.11172532173701,58.61255190542194,10.566113460840036,34.94229869967736,22.572587682796822,22.933311253409524,6.831135930986202
13.000724389016536,65.41789040885811,57.76720430656835,10.003641551351002,34.14319994345612,23.1523806691605,22.16969961402467,5.92535725176113
13.592257401796138,67.24479537435462,57.099656747013874,9.627657999037556,33.19074682739439,23.075585282130437,20.663705112918567,4.917415968803786
14.199847658339207,68.39043721047848,55.430122223541545,9.263489511096786,31.614552326776803,22.199978237168278,18.438347514410605,3.870702765695705
13.997230864639073,67.25686433708816,52.062888588511505,8.632206593790615,29.14681480201046,20.72614068079996,15.768449576566887,2.84719793781872
12.644111993417521,63.38031219462682,47.039769119215464,7.663945291000227,25.853492732236983,19.234332499995443,13.266483562990386,2.055347791177754
10.488513190212808,57.36498669313145,41.06080873480106,6.663451021871695,22.13808197177307,18.50011072592211,11.751033087350722,1.8469463330248974
8.418367608480043,50.42394238126482,35.233970242402854,6.237419035650061,18.645616941999435,19.140727035263314,11.922251009364052,2.5456682421073724
7.460606436317888,44.172213468169545,30.991322943001624,6.993603275158051,16.240750962205205,21.304709397162355,14.045036253365954,4.215955147710551
8.27544713748543,40.82511657107411,30.10702767507848,9.095609828685436,16.036059795996902,24.570194215726325,17.799024462802684,6.500749825847714
10.709036536938852,43.01379136503815,34.24357965647725,11.87240678835113,19.130245153517336,28.0313609468986,22.284576803500567,8.611001778032957
13.61763827310532,52.4144090425714,43.706497182612694,13.780627116228802,25.833180224160458,30.46583943492642,26.1199370256866,9.50415507907556
15.166085828606448,67.69799261001995,56.10836279781001,12.923382996311867,34.77639017820703,30.56538911476939,27.67315725331806,8.237521743841388
13.599695562704003,83.60622486853917,66.32308791872023,7.986590703280771,42.77769805985829,27.297547178177084,25.52884287760574,4.391948891402479
8.155870821152044,92.62957524543802,68.46948807823647,-0.9136880698285965,45.992748000032044,20.37231028583715,19.124611781176096,-1.6336511826700901
-0.4119952588970698,88.82168973549578,59.064292054553505,-12.040302041711442,41.89979982172102,10.589517780684606,9.232978623185854,-8.65616088057052
-10.064706507629369,71.41236496818853,39.33613560858751,-22.70892664728378,30.883075396194887,-0.22430916432586845,-2.0952224710666068,-15.12111366947218
-18.38158949717438,45.71853417290892,15.036191870126391,-30.487406794905915,16.302068779925772,-9.794885229759965,-12.242439046482078,-19.72100104514953
-23.636564437232984,20.563632918149807,-6.309079791183881,-34.235036430167845,2.892353507010371,-16.275624093422003,-19.086265255162328,-21.90080998911799
-25.443521156888064,3.749014862685132,-19.06214194131489,-34.402374016342705,-5.557272882741768,-18.97120185908194,-21.84267959768993,-21.981865352815827
-24.659746001155767,-1.5955746939055306,-21.843146954221037,-32.49954935150179,-7.845933125915911,-18.50520046025017,-21.222700982721285,-20.860704369435602
-22.71370252818613,2.3151411775836968,-17.364180295748795,-30.162035375378384,-5.43512405435219,-16.354285542741746,-18.859622235773276,-19.49461543542277
-20.84840721310676,10.131473694180086,-10.271547261257998,-28.423911317947752,-1.1842214769408057,-14.07320982114057,-16.421933455900742,-18.490889914634764
-19.721414514795296,16.521565781549278,-4.70002832998979,-27.549240840950656,2.2177917048482483,-12.697253295290066,-14.965329483261302,-18.001181002529464
-19.45751887616015,18.30611586321852,-2.912664173399051,-27.329280184682876,3.210461249516342,-12.588389025809864,-14.794772613853604,-17.88890904385497
-19.923359076841713,15.051472209297053,-5.145771670200584,-27.493818785165878,1.5599349559780236,-13.603506967794019,-15.684731598012247,-17.976278822485362
-20.93343872167127,8.761336021168406,-9.975507814536448,-27.9444228682938,-1.815230748350005,-15.286297669787958,-17.134186580938856,-18.19033684481004
-22.271883409469307,3.153760490691001,-14.793880689383126,-28.730404399555812,-5.141947860530646,-16.949400064301148,-18.504138956861453,-18.551576873694696
-23.600663415064933,2.3184567387637163,-16.59552795377246,-29.839224804380297,-6.347710827874235,-17.76592128976604,-19.122875972294672,-19.054433210324657
-24.377934280006897,8.695220822373006,-13.218346082201206,-30.92806093101652,-3.960434295104769,-17.011774005422843,-18.463161676608436,-19.524132947236467
-23.873987424888487,21.330734919591478,-4.496180201380428,-31.168017881828007,2.0368661916824315,-14.39061919436582,-16.332574771662504,-19.537807826466867
-21.338177044267315,35.865787938672845,7.549217977398284,-29.396433480861575,10.0426089885871,-10.213195824879607,-12.930926718250008,-18.49531151133927
-16.32284523494379,46.7084783878758,19.749936351362045,-24.64752514206456,17.610188206064734,-5.286174576379884,-8.73509786428144,-15.874991764322722
-9.051282789805454,50.13024857038798,29.378575248012105,-16.836014541062063,22.691144235201932,-0.5835235920214671,-4.320819019922423,-11.583398427811138
-0.5882561464738513,46.222328487785504,35.23500687257903,-7.129601576935418,24.54394534292135,3.1032069377634444,-0.24016814308777118,-6.184456748933392
7.401553780433992,38.48384178076749,37.68996297577513,2.356188781832736,23.80603222125132,5.382447869201804,3.0366201993372366,-0.8069329758917619
13.284202596265095,31.506479076677174,37.94122110606269,9.471903991709322,21.839292675185728,6.306532662053956,5.1841286590662525,3.2870840630975975
16.168827655273056,28.43868902590014,37.18294625919731,13.042991555490056,19.89537866498308,6.281525842901523,6.128460811780727,5.261551135832405
16.294369435384983,29.829961830628005,36.236208343029816,13.362606216077499,18.639557316769118,5.9055725665958025,6.1469646345535995,5.082617220527044
14.85301930455898,34.23463708386355,35.64184967631602,11.8844969854173,18.18233920350903,5.775654566965526,5.848314377549776,3.5010733884329452
13.344887312365232,39.63860723274243,35.79013557861975,10.344094682979673,18.3523343801788,6.2806853765119595,5.957924845348972,1.6625015963025394
12.843237492780572,44.48846817612978,36.79207263333063,9.875018069857097,18.88510155926992,7.434663409840097,6.981065770935889,0.5781711609221559
13.593767835444726,47.94297326980164,38.31476289060919,10.627577471503455,19.496168557229964,8.866706031071617,8.95974972308316,0.7434849080125447
15.12861964221517,49.83987607147515,39.810226490241824,12.002975298786762,20.024035957574277,10.048911104697247,11.509310478341714,2.058903199872087
16.720845858299715,50.7932483789894,41.106041100528365,13.209356881985718,20.662044724281483,10.662562162706811,14.098422567035705,4.00467905185495
17.818123506477644,52.133907040738826,42.74209775668394,13.726891901547148,21.995971280313164,10.840024221605182,16.333053230353276,5.907163907954854
18.2066340962434,55.21698026619689,45.54440174989682,13.465016223906867,24.616433146945464,11.080996925005058,18.037944143738923,7.169588113558202
17.923059662181522,60.327236142242064,49.71828480859676,12.666725140598306,28.52107002809751,11.90421660667414,19.15425618381955,7.435322134539185
17.09596790486808,66.1102573021322,54.322138311145714,11.726579645172073,32.840886540259696,13.50009302499913,19.62969005841836,6.687465377085622
15.854072022606957,70.17365715489797,57.663229386178095,11.026968097793494,36.19622162432824,15.603908959693024,19.412922819753128,5.254598195930308
14.310216156970812,70.5010014071583,58.317903676392014,10.811981391217545,37.444158067814335,17.60852517191234,18.50603432665949,3.681170087871832
12.577161468261307,66.73411168154178,56.04911335322809,11.109041908519805,36.31456555659893,18.815412095088664,16.995124180148853,2.492001361839396
10.800994439396352,60.70629338189953,52.17697058644533,11.727801488919857,33.645061344659204,18.747782157996554,15.07802545615724,1.9720663009899055
9.201416322897517,56.15884843577722,49.35906459138336,12.334451486552748,31.219255614711667,17.460311384750987,13.138370318272415,2.085607667196831
8.051867968906803,57.59219942189729,50.72459930705701,12.541778732822648,31.20874765224848,15.670605224355018,11.77774174259788,2.5554414972380624
7.522757889638701,68.04420595745393,58.2149055124756,11.963431405918195,35.11764420553258,14.470126697903353,11.60060724303609,3.0149965143912687
7.434661837329877,86.18250958634216,70.48624527368555,10.266079490398765,42.404069025787514,14.586639328038807,12.701091246547845,3.1332850820475433
7.130220717507264,104.37738218439486,81.67254752192747,7.301960930792103,49.57020178501767,15.602363061903572,14.168280225325256,2.6861990120643604
5.672320150206886,109.9438415693631,82.56700574567974,3.318224946329046,50.76081675352825,15.76997729247883,14.122806751146518,1.6087464182294111
2.3458513862621957,90.27376407453244,64.55292971739982,-0.9179049600181117,40.19748309308436,12.776127129136317,10.52183323713675,0.04553840363967364
-2.839103035456019,39.78238082836615,24.551775257770583,-4.285867761301432,15.437301686587041,5.127713346068268,2.376841434177468,-1.6444920484828274
-9.010195106675594,-35.307933064977064,-31.946618143887754,-5.809760212353106,-20.43913982543357,-6.683427120642457,-9.381861709136475,-2.9906161568082332
-14.793655793240355,-117.59931810783134,-91.90464095276452,-5.243903258152691,-59.21801816341923,-20.016113792261017,-22.015160316205538,-3.614384373670419
-18.945144459880446,-184.78634102903246,-139.58440326976472,-3.338428440610292,-90.55522045348782,-31.082864520847032,-32.06776974164284,-3.429230475353741
-20.829532054947293,-218.47336208110224,-162.7157444365831,-1.5090271083463,-106.07447247979253,-36.56965633893594,-36.82417259061018,-2.6939856416834087
-20.464099494534988,-211.03681413838558,-156.8022419368434,-1.0251089740679653,-102.44561429071847,-34.981688716561706,-35.315084625522495,-1.8617308572624913
-18.195394253865153,-167.34619354093743,-125.68338745513434,-2.2131603093605996,-82.03490680913839,-27.057711222334053,-28.412034913741874,-1.3152072564941812
-14.352463488181183,-101.22075587974393,-78.74327046657307,-4.226402594021532,-51.18473525360328,-15.192291543274994,-18.144640828507157,-1.1684824968444112
-9.1743675838801,-29.196372867435727,-26.794164432761928,-5.565011387332057,-17.378436273424658,-2.3277476683062037,-6.766983922877216,-1.257129047373293
-3.009768020543318,35.10207186047936,21.25836300847936,-5.007220436246694,13.223326803659022,9.08328998538105,3.936036423106153,-1.289275417676883
3.474015711483726,83.89697653937591,59.95472501174659,-2.3400645045430184,37.00999244012767,17.65451370718735,12.919638352056133,-1.0264208847109104
9.329937287761911,115.2928194373359,87.21377781209773,1.5501966022692804,52.89300778427033,23.111225486289754,19.82373458746057,-0.3818628201933595
13.648564466781961,131.54003103096719,103.45890131206933,5.221154692740294,61.55665879454631,25.96946641622289,24.782844295635645,0.5839494029238631
15.952742496212732,136.9623613181752,110.68114219255565,7.4603740807570285,64.61541578839403,27.09759005335777,28.234896041721047,1.7225816801585867
16.407007926802628,136.38364617150742,111.71781441278219,7.841102934182374,64.02072152743264,27.348411310119474,30.750099235791495,2.857954594340436
15.712641884550484,134.06127025157474,109.60083524393742,6.794885683412409,61.68840663554818,27.32946086123433,32.842807174721294,3.8325769208069764
14.777902411386643,132.87973865894327,106.86209801210573,5.2772436901650375,59.2064130251639,27.31767488349957,34.78745380558665,4.557332245848894
14.385940368642819,133.960978738402,105.06812253728715,4.298525488098619,57.660657056633596,27.337966073058098,36.557477919966416,5.071322077290107
15.025324414602403,137.0858267562345,104.95750965345859,4.555225576468629,57.71899141724205,27.394613631598425,37.97685882094422,5.569426126145372
16.869594064203824,141.76914629977105,107.03588034028121,6.237154242705331,59.883974247625375,27.71314712572403,38.985364344938716,6.330652512118694
19.782885712512556,148.05745963635064,111.90824905405773,8.986329862842222,64.54488672008057,28.762708378226996,39.77081447404562,7.537248717246938
23.295313149577105,156.2380734623363,119.82601152210485,12.000025762794076,71.60274548543312,30.96268949040132,40.62098669382495,9.083698556770743
26.632794818496187,165.77293520987857,129.83590870626116,14.295778744291509,79.9741272316629,34.2675057555893,41.62430196788345,10.528114548648706
28.911991443519447,174.68427933514118,139.52554671428464,15.087404960628632,87.59225537501682,37.98031270450357,42.50794958695936,11.261346447909663
29.47617481603183,180.24757493963986,145.9154315671142,14.110139143560977,92.18093221490572,40.99211498260644,42.775622342713866,10.812982925898368
28.202704649002754,180.60793314678835,147.0165040347393,11.723068960616725,92.40027407533158,42.32911408867719,42.04945940239668,9.113706576714412
25.61256350114146,176.1809790220849,143.0466882242517,8.749229596140633,88.6542335450777,41.708101323754356,40.39852105667946,6.5702317945718915
22.734777923251304,170.01928875235922,136.66064000195797,6.16497219910801,83.13663283640145,39.83436835265427,38.49687549860403,3.931170975313935
