FZ,C3,CZ,C4,PZ,PO7,OZ,PO8
1.6591399121739219,10.196384328493162,15.882736452470711,2.6586791114661885,8.925008742367513,2.1215983576244053,3.7016263254589012,2.2918674646629698
-88.71718663147108,-391.77607510721595,-576.1798157351483,-128.3464446668217,-329.1883997654346,-81.13009936336309,-123.20354787213634,-58.94256650954555
-149.60503858944142,-687.0428402023284,-1023.414950853321,-217.0387172388504,-581.1638734032582,-139.56624621561278,-211.04509236304688,-98.97731575440504
-164.43896387945273,-812.3734200350883,-1237.9688890120542,-239.59579523420473,-695.3563676747424,-158.88329946949744,-237.53056145426,-106.06554561628359
-135.71699831652185,-769.8468012884118,-1218.3618573740275,-199.4851932404551,-672.1727059008981,-140.43056488346392,-205.2402655069667,-82.34714608899529
-81.69687388851764,-617.883081819468,-1039.1607762690762,-122.76879258185447,-557.3815545287737,-98.7833279775999,-137.5824907669104,-41.32687665152876
-26.312726174444784,-438.93272252990414,-809.7037224445188,-43.70379399407567,-416.79382844129805,-53.71772017121777,-65.88019166993423,-0.4200071075250339
11.755304262299239,-302.363039251639,-625.2325003699991,10.894191281610876,-306.7432056246148,-21.244746170395707,-15.128912359105687,27.026611496882403
25.46096941122611,-240.58696600767894,-534.009147439365,30.80967376675875,-254.6656032656628,-8.103746894234236,4.570284048573164,36.28538314616945
19.18617921438933,-246.5400792691782,-531.8762915910331,22.180901511766194,-256.4616231614026,-11.545311624660481,-1.8931693867831605,30.942421128739984
3.6307412013908014,-288.5474220059503,-580.1979110243184,0.22860778994856695,-287.836902628307,-23.2433470559353,-21.028435074532243,19.04490830939895
-10.561722990928502,-331.33630093960966,-633.109433898543,-19.849237017978947,-320.8951128552836,-34.477276690063235,-38.998196335718625,8.412521740766712
-17.19669372830377,-352.0595548547397,-659.3397334091292,-29.174442299386918,-337.1020308920126,-39.89248956863653,-47.48712752840304,3.480015904579515
-15.59373683729421,-345.72747490379817,-650.5562166672952,-26.737194871763162,-331.9624765877758,-38.59787127101402,-45.30043744568983,4.60894388750674
-8.944867788767809,-321.0886724301955,-616.9007570363673,-17.070184909139684,-312.0279141424707,-32.98088940544673,-36.378201500618374,9.362375754936105
-1.594069889718674,-292.02374214851193,-576.0763291961897,-6.36948947514826,-288.17236649265294,-26.530470829321903,-26.303771902035244,14.525812216317977
3.243036417045593,-269.7374901450868,-543.0245800673094,0.7648890648560893,-269.3671532723183,-21.94179574375698,-19.31314709552923,17.767448505204143
4.5248059976320105,-258.75683973283054,-524.3572609443094,2.829689442732904,-259.407949718849,-20.197706830280094,-16.880091130841098,18.375535576914896
3.160245640281763,-257.08384327455224,-518.158460521523,1.1083825337688218,-256.91814458289696,-20.680609834766912,-17.942208618167353,17.06498498303589
0.9869252394437122,-259.12097238199317,-517.4792335717095,-1.7813616132764765,-257.56986943527835,-21.950238567428954,-20.172968295459498,15.207804901684607
-0.3784908540848513,-259.343822937746,-515.0238021919193,-3.5276319673502656,-256.9610826758354,-22.66465652761967,-21.454078455239635,13.98491940258854
-0.23975784118382656,-254.88642953504515,-506.69093228741366,-3.127950512234783,-252.71337751260074,-22.18485131714055,-20.814091608134255,13.883234171026016
1.1582359612925957,-246.06694630715128,-492.562685347039,-0.925643842968397,-244.97916290243026,-20.64959961201112,-18.512243446638543,14.698582222740256
3.091421389095506,-235.131591523459,-475.455038533814,2.0467095783584766,-235.50368723984417,-18.632682360807884,-15.473279720261381,15.88828475379581
4.879770508155326,-224.44554274579482,-458.51686845002934,4.81640493455247,-226.1796909911419,-16.704824075890972,-12.59667739429549,16.956163289451613
6.1617807252997405,-215.35004886755385,-443.58924405668455,6.865759396047887,-218.09687801966325,-15.178974113520962,-10.368467141793925,17.645747227399767
6.900035808637213,-208.0433310087085,-430.9821625772498,8.140551471813026,-211.42716063559345,-14.093535691837879,-8.842153107656584,17.93674106030726
7.274174904715599,-202.00763488317972,-420.0755220857154,8.895710305674791,-205.77654069203794,-13.310506851738252,-7.790942277846289,17.965054279076867
7.570188465225755,-196.4187558003463,-409.8790208431916,9.537289038856223,-200.5176652602722,-12.612103397806525,-6.859803012731619,17.943239315683545
8.060409121752599,-190.43735174882704,-399.3416602918562,10.453458144353117,-194.99932023096167,-11.784562860151071,-5.706146725125153,18.072003575898336
8.870708423535577,-183.5386271297395,-387.70898981742084,11.826257714261686,-188.78516496805798,-10.711543327898482,-4.154277310895346,18.44068246159208
9.91812770984077,-175.79810751110688,-374.94737344672416,13.540379918470688,-181.8952229820969,-9.435118965422385,-2.2851875555621577,18.982396448416825
10.99801598708173,-167.8122399420153,-361.7783323314613,15.30411958012958,-174.78467030633604,-8.112045515328152,-0.35277833030004957,19.54291117261091
11.959566761853184,-160.19678574953792,-349.07869187721866,16.899639799430446,-167.9633319990528,-6.880856471484739,1.431269405824173,20.013121538506606
12.802775516345699,-153.10738926559495,-337.15324540090324,18.32469326539028,-161.58533109565622,-5.761820385918275,3.0448098066459974,20.39792341453119
13.613631004656037,-146.26224431990397,-325.6381017344476,19.702734088195434,-155.42870577679466,-4.684716984079724,4.598941759658808,20.76301719699665
14.439186404784536,-139.38047162434725,-314.08654198444447,21.103117997252305,-149.24659616002097,-3.5943108871440193,6.173321943948904,21.141145674778695
15.258258724200372,-132.4760753415159,-302.48012467954106,22.495902442387866,-143.03872260318386,-2.5002788519266663,7.749790269579512,21.514244036549666
16.060179813701115,-125.68674118552903,-291.0648352359392,23.86377688065793,-136.9341029636156,-1.4246190383914668,9.300408686545357,21.875240853834548
16.89746676460101,-118.95373626220778,-279.839609526442,25.28036980825591,-130.90928441590847,-0.33950144241962554,10.875951288646348,22.265519610136366
17.82508005838482,-112.04726013923712,-268.4742395611438,26.825788723912364,-124.77335239042827,0.8060012246085246,12.553220917841884,22.72578925853986
18.810203533031466,-104.91428104108485,-256.79370163151003,28.455754519215432,-118.45233437217011,2.005621276814526,14.312347192932895,23.228560824009254
19.750233804411994,-97.83658736837768,-245.1260205991729,30.023482700665202,-112.15723400974723,3.1823061941761552,16.02891192686382,23.695410633185674
20.59178979928892,-91.12348531828182,-233.95955836216393,31.44936251887351,-106.15855099870795,4.274716133445393,17.614645036469987,24.088363569922077
21.39757106783004,-84.7186187544476,-223.31966025225762,32.820435299475456,-100.4416472590967,5.314878713746423,19.12836049300197,24.45748142761553
22.268274222092945,-78.25880478767859,-212.71487715225845,34.2820318379909,-94.71364975633524,6.390450484360904,20.704725173930132,24.878591134231314
23.219373168253195,-71.5307214381688,-201.76279761168698,35.85995051982265,-88.77395908840107,7.536973627029118,22.388961514196943,25.361173987230245
24.17466480182406,-64.72380018970145,-190.66998976861012,37.446904659845124,-82.7600219836008,8.701434593225004,24.094459517704763,25.847285412388253
25.079718643859827,-58.143825635489726,-179.91717544065682,38.96345857222032,-76.93871664677232,9.82256154493346,25.73419506851761,26.29820791273977
25.97357497579019,-51.79018106672664,-169.58743989405727,40.463587641337675,-71.33536788344053,10.913223556239316,27.338180515657033,26.744857326196566
26.91635207674118,-45.392073478664805,-159.27987073524227,42.033625836795345,-65.72169662140227,12.028140949377295,28.989660664618878,27.229625013629118
27.877116867009896,-38.85569746939379,-148.74106813689295,43.62985809260911,-59.983992040459455,13.163889192480513,30.671802289394005,27.72378762398918
28.75282272359041,-32.47339674993862,-138.3162223223565,45.10206219118084,-54.34247772276535,14.241607498800214,32.2558373430609,28.147711133488592
29.512708825171046,-26.54577785435604,-128.52520696620525,46.401193884147524,-49.073201530748925,15.214337099003018,33.6751262264012,28.482687391928643
30.27835447586921,-20.8937561156592,-119.2840471790479,47.700126059168085,-44.07899762411761,16.16133393320193,35.06145082917529,28.82784847398068
31.216171493017708,-14.950894083481257,-109.85277460029856,49.244042307454094,-38.910547167738,17.230589647920482,36.64297380568251,29.313444719057205
32.358783384297645,-8.389214820598323,-99.66914785184808,51.09098221908893,-33.26736656539137,18.48189081718344,38.50404188792899,29.964079485053038
33.565793594543514,-1.515956749985448,-89.03410568642808,53.04657270585419,-27.363163361400055,19.81452324847405,40.48833363005846,30.670488555109984
34.65631422311934,5.037728873279643,-78.78535715255552,54.84786362899633,-21.703688934131225,21.05835333601697,42.34487640071716,31.289839288940616
35.5383843786555,10.90723024554843,-69.42227843704202,56.35036168853383,-16.5869183584044,22.10706640288009,43.91931206661897,31.742129096806693
36.203637562628664,16.14046009063509,-60.81379311261251,57.52638587835825,-11.955242608411737,22.9476474034375,45.182583445530646,32.00895673876867
36.67426757063357,20.881105264424086,-52.71288789089198,58.394801474722,-7.675497215565994,23.612699685548208,46.16142942287165,32.103648084371834
37.05466847981764,25.248241105221062,-45.11540954129533,59.10093321437422,-3.695179802436084,24.19209166431122,46.97911971468781,32.120809027820606
37.63817586536179,29.70654841471078,-37.77403633375486,60.07749564864235,0.24994285984542097,24.91436776280617,47.99671015559811,32.31542364339342
38.83644214949301,35.29151457156682,-29.599680890718783,61.948104755121776,4.903516973340551,26.122291331784922,49.7675631534912,33.031472807642395
40.840945012418636,42.94641003451861,-19.20436467921221,65.03229730785743,11.058414110461278,28.019401907099336,52.62784308274972,34.42167418865716
43.27459174765511,52.30262701044475,-6.501781271790924,68.81797617500976,18.587186349381618,30.35078300704136,56.19605663586399,36.169643369276066
45.21779219715821,61.19428506643298,6.310157513729296,71.96685479968072,25.95395132975783,32.35770055704756,59.30539131104589,37.51531502263141
45.70595421553905,66.72988720969214,15.76404411485561,73.01781220634732,30.95208615395246,33.16160937652962,60.590860715593124,37.65721392118959
44.392617461056794,67.27996254551084,19.53288400140482,71.3664285957644,32.22961516344279,32.362165526981876,59.39667185466612,36.293937542287125
41.960907397164554,63.92730361655434,18.306453429368254,67.9151622010154,30.43791855112331,30.4586857011737,56.427526511292406,33.97617151977787
40.063585098282694,60.50545551362792,15.93243083936961,65.05098795592352,28.288212218502952,28.843511928945205,53.7785473985238,32.07944046552859
40.769355250068344,62.331625423289665,18.122573211231117,65.88293643676144,29.646154280598616,29.33420636211815,54.27315980614778,32.35220528774987
45.55603525407031,73.97606658020749,30.339253435195698,72.76753330294645,37.98934249099631,33.312446363272294,60.15937590515589,36.05955790831089
54.050550445012334,96.2793700509182,54.84169966884506,85.39634104188644,54.31413639674498,40.645746945934825,71.39845904497216,42.905699360012825
63.12750888236154,123.52132008111087,87.28213299768518,99.3453656968278,74.97981683107197,48.86535484259539,84.29148302398276,50.26994710394575
67.27547449633158,142.97002934441,115.14774728568135,106.45982956598542,91.0769360823129,53.35223871298233,91.65617022969506,53.517229373487865
60.71618870055211,139.0132603942538,121.2101234178378,97.86913850194162,91.14810331294846,49.028385460544364,85.370575032284,47.77223815421864
40.57054956373198,101.33283922043039,92.42398898684928,68.68899033153829,67.16611977195736,33.092198382692565,60.60439019843792,30.564999087648044
9.247544668941252,32.72640262502121,29.69859104085667,21.76848118378399,20.616608859879143,7.284448212978407,19.42937728986371,3.846719291151404
-25.745162457320372,-49.200959553717475,-48.697540033940584,-32.24207019520652,-35.81887420806842,-22.00040548538283,-28.77781399460496,-26.113166701759756
-54.936614110234764,-119.11140241940818,-114.29282939451463,-79.22123727145697,-83.29757380141443,-46.31473312675469,-71.04418958457615,-51.28303114939369
-71.37802537449808,-156.50760938146374,-143.12597515914447,-108.14087602460793,-106.33850776668113,-59.23321331627011,-96.84608697909344,-65.60657962525468
-73.81365125812783,-156.19767221371566,-128.98122333382494,-116.01066393156329,-101.03740852366323,-59.491755144766394,-102.95665458430923,-67.73993272074114
-66.60362288777719,-129.82416155411525,-86.1420875219094,-108.2444979473896,-76.50131526224703,-51.20387304013241,-94.1523750481251,-61.1515289202095
-56.60754621195332,-97.50670566736211,-39.50983406127316,-94.51478205722793,-48.46934086501887,-41.0535576002884,-79.5525359195701,-51.66980226221636
-49.23464890110418,-75.52954193049877,-9.004072128059196,-83.11053278797966,-29.607034834465153,-34.389559301316,-67.25837679638553,-44.2151761682244
-46.17629738198377,-68.454640895161,0.7900763171975905,-77.41745915113,-23.181707618510053,-32.75777426601212,-60.79450942756527,-40.77120353883088
-45.81896898618586,-70.01845243036857,-0.5856161463565926,-76.09205532683133,-23.800927471357372,-34.15841303321108,-59.08600223409536,-40.4853256152347
-45.405902526935954,-70.37776971317012,0.639479584925032,-75.77786728002853,-23.364374179136064,-35.32263594293504,-59.024273486687214,-41.248004347388076
-43.22740400162853,-63.66017965994393,12.154519730223278,-74.04411892903826,-17.258653839895754,-34.1951517430963,-58.3341953611697,-41.422556441190146
-39.68688128435447,-51.47175978993341,31.002461737640036,-70.95837822067642,-7.137530700709476,-31.176425371719375,-57.068191722135424,-40.79198898501254
-37.01309077117303,-41.76476844672707,45.45787462575985,-68.9330532023539,0.17688622568344228,-28.747500677581815,-57.37150010815278,-40.49554150139854
-37.86612894729177,-44.335827528378736,41.26888415140392,-71.08137928616058,-3.512146023539395,-29.867434614134012,-61.889437498648185,-42.110424416786636
-43.31451965886191,-64.2444795731342,10.557203344861344,-78.60180562543081,-22.39870872441235,-35.83925936725556,-71.39862514719934,-46.22090578788172
-51.1149520407609,-95.2778913241926,-38.95202120697942,-88.39398367358056,-51.319811073751445,-44.59895671340059,-82.69202374394256,-51.161690343131035
-55.59665064327309,-117.58086406673814,-79.67611960456256,-92.752218605741,-73.65927445754468,-50.57199165932424,-88.28763863202677,-52.90430790459128
-49.889350060034474,-103.43977200063671,-71.0253853916551,-82.30255311194097,-65.88213484884218,-46.75462014877655,-79.0602605640744,-46.644936024073026
-29.63557400132153,-30.545046222020577,22.26980987724791,-51.1146295746753,-8.456705469171439,-28.306623056477623,-48.99393989686225,-29.47394842377179
4.1010297021963815,104.3638543722961,209.46085186928502,-0.8171438389016632,102.46735168706135,4.407278850089735,0.7490205254683825,-2.4533172818887885
44.84529667275176,280.7109757044252,464.32018183409815,59.322863701503955,250.4111504493163,45.41382962179458,61.377534978598284,29.442432464590414
83.83849307620079,462.2676756182534,734.5279295112388,116.74598446735449,404.82816275916184,85.83401497581492,120.31441243066473,59.65277043656879
114.24975725627425,613.5034189384127,964.8049478492106,161.56447388652288,534.7415357878134,118.02993480847972,166.97454156479975,83.11121925807505
133.64015317339903,713.566975126035,1119.1605124820635,190.13059870980968,621.0777485367806,138.52436705582105,196.6998685034173,97.99838909730931
143.16471628142432,759.3681686127089,1188.7446249932011,204.00072116000823,660.1987884626625,147.93876903159963,210.4398822190771,105.09398436705911
144.49368990654173,757.5642156158095,1182.794726920168,205.62041998389992,657.8277127212488,148.403175610974,210.9725741533385,105.51383645678835
137.21304198512811,713.5830534111846,1112.6945390729732,194.619717364986,619.7012866051631,140.7561025737295,199.08482817837785,98.89571003042623
119.06020565251536,627.5352915494288,983.4194258640333,168.08084363308194,547.2632166965425,123.91515978556231,173.0560082684506,83.71816510100808
88.96355602172737,500.40414656997945,799.1139520395284,124.77207696202672,441.8374734581515,96.94212511837773,131.946138783327,59.60994757252232
50.343278916168494,344.4687247980225,576.4399639300245,69.76715736000305,312.9481302421715,61.98903838818131,79.80877642095042,29.673401076641746
11.55930995287762,187.39968822804792,351.6781032601487,15.041067507625446,182.27841564780363,25.383962143447114,26.807333491207103,0.5341108258004631
-17.675356573646663,63.70933041337618,171.7000095555227,-25.631576669591254,77.67135511633163,-4.617269605293522,-14.673392229415072,-20.610223263825713
-32.031392251237925,-3.002417789607323,71.476059139705,-44.801691766758246,19.282826543510573,-22.350594044962005,-37.00177162780186,-30.345477146927987
-34.60408804683604,-15.61441435654457,52.19445782035783,-47.045350559138775,6.6848475104495915,-28.53747137167379,-42.723059547711316,-31.829692921668276
-36.069809713472985,-5.227894918006085,75.9863357287518,-47.72488146591791,16.45373020888504,-30.473535419171956,-44.23779264394602,-33.705266763806726
-48.78575254952247,-15.581940636046328,83.77259107623959,-64.57168155968341,13.677791255279432,-37.950818881406384,-57.04947030391529,-45.232107018316704
-79.08762072312113,-78.05298165870111,27.676887509108685,-106.70689645542357,-28.331342326501275,-57.13636034502315,-90.22284098868776,-70.33628553127325
-122.50490865292826,-192.05545077203502,-100.94683158067977,-167.80318410282814,-111.78378878307863,-86.18306958214612,-139.86382843306575,-104.25485986739332
-165.0286839906172,-323.00752276200035,-264.9496115461041,-227.85934115305466,-211.65962903386244,-115.43529456366906,-189.85220716539092,-135.07348925967838
-189.94141651122044,-419.46040553327487,-400.3324368795216,-262.92051402696035,-288.32149190326334,-132.29156849634685,-219.71566460228425,-149.5483794795505
-186.39937747472,-439.5991448557776,-449.53233094101154,-257.34749142497265,-308.16387702132056,-127.95291793882501,-215.25653171819474,-140.02202317260264
-154.9921279757629,-372.32574748562905,-390.30103382585185,-211.83251400882742,-260.67492145156984,-102.21446888624307,-175.99808253974734,-108.57505343963682
-107.36337478329378,-242.05661132817187,-245.3468580191096,-142.9696411446833,-163.08238079618212,-63.72257554744502,-115.51102379856339,-66.16492571471895
-60.38993797278997,-95.97707594032954,-69.56446875516318,-75.02638078608246,-51.19174427130557,-25.789815061152005,-54.79460223165261,-27.3507429386579
-28.29006927657759,18.34164808754189,76.61380855962234,-28.66721926826809,37.73557858574635,-0.23445416538546116,-12.562764468218695,-3.565882709089569
-16.81720256247137,73.12718499238636,153.48696805372617,-12.540816967365268,80.95389637218854,7.508335025741689,2.464693089392938,1.5316150049269055
-22.192225751483576,68.97810444231665,155.58340032639182,-21.563877287354032,77.57255998451083,-0.2377401899320303,-6.288460194067711,-7.512262480973347
-34.67222317592966,29.21513755218964,107.5892174872971,-41.854494997410384,44.87244625579929,-15.732262799110055,-26.99296430878286,-21.46576829072165
-44.25119951955047,-15.06790742185162,47.35164285499354,-58.831561815203855,7.069710889501701,-30.17355237312998,-46.303832018175044,-31.566178177571224
-45.274814911757765,-40.20608712577069,6.753334027845332,-63.9064743442438,-16.564469350328743,-37.603811639540254,-55.45574924498328,-33.46924245212428
-37.97225222595306,-38.025821145578035,0.2387926499438845,-56.85252345707352,-18.35672039782508,-36.63226997138854,-52.81931271723268,-28.282594917838
-26.98409537243353,-15.123296186535272,23.84661901685642,-43.869919730443186,-2.192125497189867,-29.801548587818868,-42.6910482643597,-20.828945714139667
-18.359724700430124,13.275396523579857,60.981260642006404,-33.39109895472416,20.709318027098725,-21.600917027758097,-31.98870266728783,-16.575297778434166
-16.561331355841357,30.68347149019605,90.03520390900458,-31.81713545638483,37.05898342595865,-16.260793856295802,-26.741794978666203,-18.80095183200935
-22.37743692079185,25.91911982133037,92.10342671609871,-40.495569708491956,36.48410930321989,-15.961653512223757,-29.44537549945118,-26.99048680056459
-32.24292640307606,-1.832111275405592,58.83574285795387,-54.66328641341385,15.968150925524814,-19.79557378139833,-37.77881665343656,-36.857157704266065
-39.363841627516244,-41.101827059304995,-1.6970586023187595,-64.93454106689029,-17.56910857755871,-23.91010210591717,-45.204217639204074,-42.016332175411854
-36.602849811885484,-71.74250712080355,-65.80220962469465,-61.305405268717045,-48.93706329426944,-23.137871948715194,-43.71137711381351,-36.827659281778
-20.052186448231506,-74.14572466553543,-104.2158819556977,-38.198592438293865,-61.413722833827826,-13.646020315832926,-27.86709222758734,-19.23654643966868
8.632698673144379,-39.83859112557365,-97.43340737010868,2.164672738302968,-45.65147820271054,4.777991381998348,1.9332022133216131,7.903235020110388
42.72835760906648,23.13745483289831,-47.009251433939404,50.35724288506377,-5.275693519449213,28.301384092005428,39.165322642218854,37.96669664778735
73.73150601299965,94.23022279439436,25.28061565103221,94.32826895013606,44.95281600757284,50.94076045409472,74.35312972710148,63.707093457897486
95.54756034323019,151.91006792278324,90.8422342538934,125.35052789970686,87.79813751424597,67.70116865678241,99.94540640903456,80.65101394161773
106.97099050264657,185.4784698067007,131.74181732111137,141.627604902754,113.55759478829853,76.96428875144082,113.81544105936563,88.69429599418058
110.91503635950788,199.21867149587698,150.21777828987726,147.30147683438906,124.60372187063352,80.55615676242158,119.08526594497569,90.9400177615208
111.08616221932932,206.08626821232383,163.4027385345677,147.76162715172882,131.27793444285342,81.5189944175515,120.49339964902357,90.6506907715443
108.63170181881445,215.77167332591705,187.32802152775133,144.8123805825806,142.29622751750262,81.28831500131608,120.0508641588645,88.50829267708886
101.2682989891106,226.2103997999648,222.4947352941966,135.3086985424271,157.00113143564036,78.42595516535631,115.27561261209908,82.15229070920583
85.45820996165384,224.82153070559954,251.9044442121088,114.16050728137766,165.25815859254763,69.84427845053372,101.29920841281213,68.27841203434676
59.86924122181139,198.14947654268812,252.58046818358739,79.26505010538423,154.78100192496765,53.52456181731819,75.15998286880323,45.70000527828334
27.48081468107311,142.4487906468201,211.584779381899,34.60659985607334,120.1900740587762,30.64733759565651,39.029491892389025,17.13844597850596
-5.143604593955951,67.71987545135613,135.12449662168225,-10.658327417294537,67.36455478040364,5.612747745683989,0.09189706559036884,-11.477937461999877
-30.780590577810433,-6.913808829993657,45.43251243919925,-46.30609291273852,10.639277366992976,-15.944961411976292,-32.66715645260147,-33.64647429670453
-44.62887671411866,-62.46721071798494,-30.89496768366908,-65.46484861463193,-34.42643493507605,-29.68431274292188,-52.453577156533214,-45.0962579422685
-45.760821679379646,-87.67722404209984,-74.48620963177959,-66.75432985876597,-57.56477744725383,-34.03915535780044,-57.002398874215785,-45.17128257411959
-36.6431900110708,-81.31450938995948,-78.38502776207346,-53.6485317235298,-56.24585669977404,-30.125299636476715,-48.45981473461108,-36.422167131863134
-21.804662629538637,-50.45090116178561,-47.13688268514992,-32.564734833149664,-34.64835634855886,-20.783776433877218,-31.884637354001722,-23.256201066364806
-6.841552714493076,-8.257481935118836,5.569609452555683,-11.406750770876727,-2.030678177756678,-9.820433554910169,-13.93547088958057,-10.732253470992926
2.1092358819311703,27.151811138442135,57.913849827652804,1.197854006377412,28.00779843278707,-1.740113962426353,-2.171958839136234,-3.8276837677518842
-0.7216709779557795,34.95757688515196,82.02641305460602,-2.850420949757954,38.94887611061156,-1.3055602052042838,-4.0365497244012145,-6.68684987297189
-18.860319035197357,-2.373700411109889,51.32798064739591,-28.518310511420673,15.83871820413437,-12.20260246246413,-24.625238593183905,-21.40692066509959
-51.46666709474527,-90.49381750084049,-47.36374459511642,-74.65346212963651,-47.69687780995017,-35.11772173968292,-63.89324450614796,-46.766393845586784
-92.65805455838971,-217.51954746931935,-204.08643933798152,-132.99533178462195,-144.21692827567554,-66.59793352804276,-115.36788301871323,-77.98940521759457
-133.44647432942423,-356.8881551894159,-386.8040975668257,-190.86465544637718,-253.79538098826353,-99.97953865257517,-168.09205376790825,-108.30460080098467
-165.65036492381992,-478.9244138835969,-555.2604449870769,-236.67386502373137,-352.66164396037544,-128.29677124822126,-211.36164841509552,-131.81097089121008
-185.47885741898773,-564.5747577838989,-679.9714777778527,-265.0201274719438,-424.3190409302966,-147.47929000043536,-239.52199266601366,-146.0012151306742
-194.40316804843533,-612.2072080671014,-753.8096237541996,-277.9568494326983,-465.77254088943766,-157.6814124068554,-253.61753819391805,-152.25498680415544
-196.70041667394804,-632.678218925142,-788.088320711263,-281.5240816797053,-484.4978447642225,-161.7890546883844,-258.69320578812574,-153.91205992877212
-195.46987023868206,-636.4425858780105,-796.4644931439916,-280.06697114768775,-488.5965463091701,-162.23121133356068,-258.7126680322704,-153.2879107923034
-190.09880574812954,-622.8301304068596,-779.752621876812,-272.5954779830389,-478.0471714315017,-158.5685309886774,-252.94204444105515,-149.8218215321331
-177.05911335098105,-580.2102562157908,-724.4019301309465,-253.9138478286079,-444.32224455414905,-147.7753348920805,-236.5963804460635,-140.70759924320683
-153.35174328895368,-497.1807972105225,-616.333101182356,-219.5814029277927,-378.9320619954914,-127.02971261870304,-205.26006298180556,-123.4697344826424
-119.92564124656,-376.00588291592294,-458.98423633489483,-170.87639082551638,-284.0772494790391,-96.85841675793485,-159.6837891825775,-98.51742490815256
-82.49774330679234,-237.5943794931057,-280.61491508834354,-116.03497424413193,-176.70212154785887,-62.21197604416334,-107.31457037098139,-69.81385376999299
-49.167577059353306,-113.71454073694426,-124.14295079633102,-66.8493639040583,-82.26719359620024,-30.60317713349272,-59.381875278096196,-43.232478482746714
-26.467744857180982,-31.523893823636687,-25.982078655236425,-32.9621832361938,-22.241248833911808,-8.546968995344743,-25.52302890158877,-23.769895690930596
-16.4224118192153,-0.6900912525181548,1.8688035607645124,-17.567143646326258,-3.683676945660134,1.3699827432661422,-9.46602827387574,-13.418798234743614
-16.288249707569033,-10.973672709594847,-24.816945320344512,-16.954866721863425,-17.40563578958686,1.071967262748309,-8.2694147472821,-10.853144011244197
-20.7337091120938,-40.517115414516226,-74.34143748466859,-23.5800735325315,-44.94297784319578,-4.768039426533766,-15.016513569228856,-12.751451018579093
-24.751764496830766,-68.22600560025722,-116.84412408579104,-30.21051636571191,-68.86770708892942,-11.359295025004783,-22.721872187004234,-15.627234486494885
-25.579693993149128,-82.42085216927495,-136.6403588038248,-32.67728103873797,-79.90657474883302,-15.634465452839313,-27.022766736182064,-17.082783380860903
-23.014317050909398,-82.29604551479609,-133.96876414064957,-30.352215587728715,-77.96574118900647,-16.636896327321868,-26.73161374997291,-16.16266518610586
-18.601561107740473,-74.09265666123112,-118.99080298655008,-25.05243210619653,-68.7269663295925,-14.905164473397683,-22.917347889689818,-13.124472538170222
-14.460256678549943,-65.93385920880908,-104.09897928350125,-19.468661658811694,-59.24979856652798,-11.651782147500677,-17.623365083641623,-9.002659333377608
-12.208770333764166,-63.83180155507537,-98.32881982776586,-15.768903299686603,-54.72978439776592,-8.170619955591754,-12.819899132918787,-5.099759770758364
-12.254872193573352,-69.47827381296212,-104.46180972872473,-14.6970167536125,-56.80800129289253,-5.5013385480138846,-9.721606178410319,-2.4801934681953512
-13.72369907394886,-80.03978365704167,-118.71146672870482,-15.49204991747407,-63.44022628626938,-4.296558061815281,-8.586797928043678,-1.6731005832877464
-15.133172534677337,-90.24250560651176,-133.42206380535,-16.737465405196165,-70.52581155884175,-4.870221593847944,-9.092390337677507,-2.742128334934764
-15.424013379695939,-95.92706343834544,-142.0811896548338,-17.586020586674415,-74.75069787786852,-7.302345870551955,-10.983439595008884,-5.553368606238065
-14.592538085897448,-96.70588866269055,-143.5626996575785,-18.36584693885458,-75.81118474450548,-11.385495233449276,-14.35073564259664,-9.862802656014185
-13.47080559051896,-95.62472603128805,-142.2681276347988,-20.053386294329304,-76.24125051094796,-16.39073269485629,-19.20735012217373,-15.09359323449067
-12.938811067286393,-96.22814213827665,-144.0924166919992,-23.151650573980866,-79.02341903330029,-20.973434860466103,-24.824073352052423,-20.132736993336497
-13.28052227906954,-99.67845642792265,-151.75871404588065,-27.03150316526462,-85.10348391507819,-23.570822202658434,-29.63914410571057,-23.5692421257962
-14.12100869064189,-104.16548890090264,-163.12523286062623,-30.25684460405059,-92.74699933735558,-23.200706375785728,-32.004425819732674,-24.36359757020472
-14.820519027202776,-106.47399804647257,-172.8684923397546,-31.506051677711188,-98.76195410980826,-20.103714186468913,-31.186206148677886,-22.470421696456324
-14.972721228164175,-104.06874222723984,-175.47012006399137,-30.396223079950023,-100.28142633047129,-15.735330941655512,-27.8581637556286,-18.961332248072818
-14.799340355145787,-96.66303496705079,-167.9977511147042,-27.87357649908196,-96.23118011316748,-12.159262732609713,-23.89450765015228,-15.626884626691318
-15.307734105735788,-87.27114871921749,-152.64961022462649,-26.11135051638895,-88.48210900318203,-11.29578542277668,-21.771345703233845,-14.330855441627971
-17.929860505236316,-82.34276515497982,-138.40047937567743,-27.71109841965669,-82.35082749582917,-14.328477123616674,-23.751390767441613,-16.29028807456978
-23.428352667805346,-89.60746728235402,-139.2162992612535,-34.024990241620685,-85.16748232596525,-21.200433345321446,-30.72780413327577,-21.308147609905134
-30.48634284531425,-113.1614190786273,-167.06947791145447,-43.18474673483198,-102.21125433825901,-30.147434850837875,-40.915231103273626,-27.19243053777362
-35.12289911873033,-148.32776060418254,-222.5599670471195,-49.376464971797624,-131.864331031358,-37.64780640323225,-49.34697773217498,-29.94829500451627
-31.951114309717937,-180.79304806802404,-290.09115879995977,-44.731580333002945,-163.84663423034146,-39.35539980698898,-49.27601330696092,-25.195072399210147
-17.046698301953878,-192.4715004445449,-343.0469837495761,-23.478136132659174,-183.11777849173777,-32.01744754414791,-35.42530453483231,-10.430314082937661
9.249778263105116,-171.46002243879974,-357.3605172424873,14.025331371932676,-177.89534666913204,-15.435181703563433,-7.3731664051959385,13.128642073610951
41.600159711716174,-119.66835342365636,-325.0729926540352,60.21935969093464,-146.71519630743055,6.874761195982292,29.257734700579785,40.46257144935471
71.79503555743364,-52.68127733445033,-258.80150856395016,103.37399080740401,-99.66292712551493,29.01036762053383,64.966116626064,64.77773588093446
92.62827163023232,8.410243339588199,-184.16434756074895,133.15245201513528,-52.81532551039326,45.40611111096905,90.85621565907162,80.6173199700214
101.20699186623084,47.90697116976341,-125.57703886288431,145.40063484285062,-19.64600844678781,53.359211616698346,102.78381606871562,86.26553842803312
99.74938694425755,62.00876261034846,-95.18814190460263,143.33952951951693,-5.159454046820888,53.84141830812287,102.66621268057159,84.06905647853894
93.60349865921691,57.242856832710665,-91.62559252078063,134.7266595693457,-6.203236404736537,50.22068888478522,96.35434886215334,78.63632766040767
87.9897127419648,43.24687481681401,-107.0685627708848,127.1161066299709,-16.51591388994844,45.92879282198178,89.74694607320905,74.1824490169369
85.52771744624268,26.13614680989742,-134.9479477733102,124.20681470773067,-31.698807113988508,42.698517916082736,85.76360255741061,72.62169119625246
85.67907747271093,7.04103139041648,-171.75904132653227,124.98039224478055,-50.32412981257857,40.32012186655545,83.7521323578977,73.23074591765076
85.79711968380998,-14.743133453397729,-213.34334729827637,125.2542331679654,-71.51873431073822,37.60448559307093,80.9646445975849,73.59183627818678
82.7431248323154,-38.15902528850058,-251.40278890259725,120.16246801671926,-92.43169989089866,33.517865650337306,74.59982322218669,70.98130764260512
74.2721012103303,-59.69225287916018,-274.96360494358646,106.3546479199362,-108.35628342349406,27.726476450402334,63.208841628112786,63.56113952639129
59.91960668686419,-75.47337483152594,-276.02535536548,83.41822269267038,-115.25203512479106,20.52212183373806,47.19004300981077,51.12114802273585
41.29887870294129,-83.73952821184288,-254.61174506046066,54.29670065500649,-112.27034248555425,12.51972781315277,28.608125335606854,35.25636369066297
21.645069812628677,-85.67577518662772,-219.24753460509058,24.43444144815178,-102.29917289109436,4.414243696246823,10.505671476764249,18.852908429609666
4.568409282579023,-84.64850614646349,-182.9668081760607,-0.3458954480081798,-90.54330917052003,-3.2092521396828455,-4.248381737484922,4.924073646840031
-7.578230282760001,-85.19394696610202,-158.351136088643,-16.505477607945,-82.69468184380041,-10.131610730677412,-14.328596229443479,-4.774556530864061
-14.85007706746365,-92.60310386170974,-154.86156199859334,-24.579472180020577,-83.96378897093751,-16.755642413070568,-20.86509245403849,-10.593775187543084
-19.462742791614513,-112.09777760259476,-178.14614988971212,-28.682695487792902,-98.45334443015773,-23.989928149954835,-26.983768139669895,-14.604804387750395
-23.892999451904306,-145.67671895411937,-227.90554802844574,-33.40501754141334,-127.10764119760537,-32.38600925373802,-35.55102227731762,-18.898237268546374
-28.292388417294266,-186.7599503474612,-292.53096201814736,-39.6476413730169,-163.82711635264317,-40.7560507430867,-46.04031037342019,-23.463461520105863
-29.09538853246588,-216.63447170666666,-344.5383941539245,-42.32049629674927,-192.6391074572817,-45.33182648888768,-52.74738075950025,-25.184718770938385
-20.298588353509533,-208.09969523261574,-344.4664680283058,-32.17709087882046,-190.41980232038492,-40.65519074792312,-46.4026848367216,-19.047754888711054
2.908803819387786,-137.61395564529298,-256.6467612119709,-1.33109209138779,-136.6670930849228,-22.311929750213725,-19.088550962929595,-1.16556672084336
40.37687067257925,-0.09538987821265987,-70.18701349864794,50.8836570995353,-25.887260008604226,9.953360717182147,30.290455137344914,28.22726229414404
85.69593067677701,183.3820937499146,188.4252852951697,115.68588846742841,125.47901021137868,50.87910867366714,93.65062169564123,63.86551483044306
128.45077850740444,371.38668949876563,461.4295206785271,177.9794861043668,283.2722643198857,91.2805489062619,156.3753321127886,97.38811984831183
158.80754822342013,519.3035793310821,683.2518251314593,223.10670282331057,409.6664665080298,121.88691104641454,203.64916748553185,121.040971391332
171.79166289023348,598.4620011702411,808.6622360840448,243.29683703269623,479.4031979000526,137.27102953804444,226.87381935684755,131.01553130586674
168.98188223499608,606.8514095249622,830.2495348382499,240.36320556683225,489.3822345191605,137.74741418079245,226.71737811403642,128.66929042265298
157.08075649902986,566.7452602570382,777.103623173607,223.7560190616286,457.2917630259225,128.49283601448124,211.64301428808403,119.29139811038252
144.59540716147382,512.3973428256634,698.0555253443378,205.74457923322237,411.58762663260006,116.796999586133,193.4153294350628,109.45831262312501
138.4768164834584,475.4047230129461,640.1937416452685,196.4774012791551,379.12934810928596,109.10467467889457,182.2560060187497,104.45277734961218
141.90294765683353,474.049678977605,632.4450884197357,200.72677663119177,375.96959858783157,109.03165981422937,183.5633697174557,106.64617413746502
153.4055519737008,508.5905925796994,677.8453086297174,216.63903811357832,403.17168256373884,116.55644665438085,196.6035097719034,114.94145257113664
167.1971999204652,561.6514552378196,753.471146635601,236.23137782940876,446.9762882066431,128.10475678295165,214.82965949521923,125.09561507232971
174.8046291669288,603.2069698679624,817.0546961961834,247.70347226211126,482.7870786600371,137.47312776074656,227.752689788695,130.94800402976466
168.08428114079288,600.5240476425988,820.7539446266474,239.63912205419388,483.2462195191156,137.78415315401367,224.49307456337976,126.60257262347064
142.87753618962213,531.6014487471713,730.4246889721829,206.08670253997235,429.3366513004932,124.24650818407031,198.35843029708695,109.0493951114753
101.57029010604637,396.76626701647047,543.1569990747481,150.13562736267852,320.2423021865038,96.62212159656156,150.489734057524,79.99866206809834
52.811267256638274,221.339247570287,292.659952615449,83.56574346946927,176.04004230805145,59.910949887846265,90.27023141416468,45.679515165921714
8.065300785683018,45.91969693625873,36.596275952315,22.098062020063598,30.076305560329942,22.50168660019062,31.654369642385053,14.359183733945356
-23.30691584841824,-91.59526630962537,-169.16098601656836,-21.42166816598038,-85.86901073205715,-7.43004538195487,-12.900469621587396,-7.222291534946687
-37.655767342159436,-172.0773937006201,-294.8126172961748,-42.02624027579996,-155.2467767484874,-25.266650156594036,-37.47694336033509,-16.50163376488381
-37.34504805709874,-199.67175073071542,-344.60575222843977,-43.02011343066542,-180.94271946762353,-31.113012174784455,-43.81814192160626,-15.360843561465938
-28.00293309134449,-192.70331202910234,-344.2090417408717,-32.09884034540373,-177.90796541832466,-28.335441642716578,-38.265263778350175,-8.14109130692679
-14.991582692356545,-168.41870062440861,-317.6608736913123,-16.384042702212774,-160.19900702326927,-20.841491927032564,-27.102510725012205,0.996442822893265
-1.5410564895574783,-132.92352127416032,-271.2452184951552,0.15348388043472105,-132.13960728215233,-11.161625993539614,-13.697570615033637,9.569828940319368
10.750001050937046,-82.73343573870392,-195.3888194380786,15.85706345018306,-89.49061581373704,-0.41743174879103023,1.0568792911667617,16.538685509844054
20.38602037746181,-14.717528659372146,-80.95354895618524,29.03308307056324,-28.27266798460471,10.4532260149958,16.34391608345573,21.20347342109363
25.306983411727764,64.96436802633364,64.60488555878277,36.83260778046162,46.84314349398948,19.751588025458616,29.733093945736115,22.584662702277985
23.76803675485239,140.37675669859075,214.34137618359873,36.44628812465494,121.47297337276463,25.332232801825786,37.75970576227725,19.852236201120643
15.839386785572858,193.75519143217912,334.05180709745827,27.358672391989902,178.33916951126534,25.854497822091616,38.11050511717259,13.252167082550981
4.0367557056679235,215.4732895195919,400.225778629793,12.499988792592108,206.60482769543194,21.826218909397568,31.434815187037476,4.528117708697073
-7.627151703235373,208.8494635482557,411.255226376064,-2.847248590227695,207.13420330973582,15.52356755313558,21.260724845631866,-3.6805606686857635
-15.58873358086538,187.0707847270127,385.4523298405893,-13.692599259545695,190.66735098107898,9.801602142749328,12.079454933112185,-9.106773139900067
-18.35611585729559,165.2251927850545,348.97255504023775,-17.698323245339008,171.03039794382724,6.645525680267323,7.017049081954889,-10.904572867771911
-16.80311287608772,153.14692422204413,322.60969567891823,-15.765503434169146,158.3397364893995,6.427995700715511,6.6515176702836545,-9.797674760998715
-13.163858574217704,152.97673172317997,315.045995465346,-10.778109740994207,156.02161290639214,8.206866983964776,9.484905690585453,-7.361018663423755
-9.626414018625052,161.2166131358494,323.96062810817,-5.701069890557288,161.97282112944686,10.60838826283739,13.330519806449916,-5.066159269575783
-7.451535144867063,172.36819069693632,341.2716221065127,-2.3325253259668917,171.58205126938793,12.573664134634113,16.484787446133772,-3.719990124417979
-6.875769813909691,181.6848648153086,358.27204403509796,-1.110418560269125,180.3588891754641,13.617836585140067,18.149775477939404,-3.4432783650818015
-7.448100034767452,186.53308245240373,368.95794725310947,-1.5175753621501626,185.46512952067286,13.750658464349598,18.333134336181843,-3.9178871580970562
-8.405467552735471,186.847918214781,371.66746409004844,-2.5557414078245104,186.3827567397475,13.325480808233443,17.616290250433448,-4.631130133442138
-8.996565294744315,184.75664051657208,368.9941904691806,-3.1775783242931936,184.73771731644655,12.871434044615414,16.86529982142745,-5.0797947788217845
-8.79406744570476,183.1761584774923,365.7020429461483,-2.739050827495912,183.11786632296366,12.843088127995433,16.80665159151941,-4.980204876379169
-7.881888357530987,183.9753530963329,365.5628786240663,-1.3004394541409652,183.3945886183596,13.368502613481722,17.628100350478064,-4.400733206578867
-6.728311729836495,187.05541570931166,369.33432195707064,0.5170789985702597,185.75179741406225,14.213845187984079,18.946454798831354,-3.6718282595590512
-5.79576283342259,191.0524211296687,375.3249185441267,2.0692840738098774,189.13700940265238,15.028280156613961,20.21033802104483,-3.1086379912209545
-5.225952809452381,194.78817282379887,381.54812027521774,3.143083574276897,192.48607640013728,15.635828831803199,21.150897143910306,-2.7937296289594005
-4.8701559765798,197.97047194682062,387.13354770841426,3.928963831620191,195.4242748379154,16.091872477569684,21.853143749624937,-2.6113374241794594
-4.553166561899997,200.73866331624328,391.99446057981305,4.655539540128516,197.98319669274125,16.5057034584683,22.477820873450355,-2.44239294038792
-4.232415380498977,203.03810821628153,395.95025643115747,5.366625139286253,200.0869503546157,16.89108801466138,23.044934285804505,-2.270906060740005
-3.9121307448047826,204.75019715540154,398.79465637871584,6.047655668425214,201.62512769408,17.219060677126805,23.525009746917693,-2.108786830186344
-3.5118413542143867,206.24119742738205,401.07024772843846,6.8195121886031504,202.9055529400431,17.550025226098725,24.02957611641088,-1.8959122421476167
-2.9179942870394058,208.3340677552659,404.11208671261096,7.866279846567498,204.65696265966213,18.022178758677736,24.77045935059741,-1.5432536466468418
-2.154466494424996,211.5349865717518,408.91545043131777,9.182100604091524,207.38053032014957,18.69192474064372,25.81064138667188,-1.0633094804744176
-1.4161566143774857,215.45510908683866,415.1112346066546,10.506562323784534,210.81109109847978,19.443068692163227,26.947032680335834,-0.5950446940008253
-0.887292721579267,219.18661188116477,421.3349540906566,11.572127949370214,214.17736144499472,20.096662286724428,27.902552165037072,-0.2699650981160485
-0.5613400467066991,222.1651418397507,426.5206233635546,12.360985194608208,216.93393149691053,20.584611240833958,28.592167247753544,-0.08379988593445774
-0.280472213543114,224.47289499504592,430.55199963427174,13.058118715735779,219.07740250543645,20.972351703515262,29.139064767255885,0.06954676777643835
0.07997507764558348,226.38226722117687,433.73936846041244,13.803101938315011,220.80760701724634,21.33267217642209,29.6691291339611,0.2654208942736508
0.535137016443677,227.99329686908746,436.2517620622932,14.601291045245507,222.21374994532388,21.675386108055655,30.205898814891523,0.5049244881338939
1.095452687119747,229.5801224667115,438.5473393063293,15.495167221358205,223.54340918842348,22.038609167570478,30.810392019765786,0.8040566954956481
1.8473887608285597,232.06045513268907,442.11130122146074,16.68765939484414,225.6120431718327,22.58526353260759,31.71323528936604,1.2525866165313577
2.8303482481139763,236.56860552499035,448.92542693548677,18.34119870018332,229.47220246334456,23.500113010507846,33.14397527686651,1.9093937997286932
3.8402394850427197,243.18664940786377,459.504752716917,20.235941940441773,235.31502815596406,24.7403274787389,34.969931435726835,2.6398831351884775
4.458411149500428,250.14325298477453,471.3722623261425,21.742058827064675,241.68952777546122,25.925050004936235,36.58182943664741,3.125001200818967
4.376488633882134,254.56693639674376,479.8600638481193,22.255199283519453,246.04204277163487,26.541825414224345,37.2557656548614,3.0976298955387316
3.7328652264357665,254.38228891546947,480.9869937852697,21.726633588988577,246.33821468145078,26.321405221746183,36.71760795543991,2.5995580530140256
3.134494983288521,249.92085129252783,474.34599631656175,20.820594669737943,242.57762651065386,25.477787684518695,35.44062252825373,2.0231751425920512
3.342168227636375,244.2702626266765,464.2412301411719,20.619236984455725,237.28176240392833,24.67152022497909,34.4972052298934,1.9198270156732444
4.8609003594917395,242.38598737115208,458.7358636793838,22.13716259528816,234.85956747031497,24.77247790766534,35.129048708452075,2.732767509416816
7.632674310720331,249.24185135417517,466.83395644538615,25.839060385231566,240.02308482185384,26.510274461359778,38.20435919516594,4.566704871811989
10.866214190527776,267.0473864803123,493.80341925262576,31.163811095092747,255.26332806017012,30.013188323132592,43.58634513378206,6.998346416483705
13.070837429973217,292.1131206438528,535.5234781139595,36.19959201040587,277.8852955584622,34.33815410739673,49.57842948423405,8.993583182369438
12.513198241092113,313.38578340367627,575.0761626350786,37.988496245533646,298.38329977574455,37.36463637823156,52.97663122794465,9.146359900264448
8.190331907751709,315.13568678919455,585.9001439749479,33.82535303665374,302.4546791987417,36.460561312261476,50.23824464266751,6.3716377439624585
0.89477224909471,284.1138748189481,542.8380547396272,23.11159422104835,277.1869020500922,29.85349816506053,39.517636119770984,0.7767625053894971
-6.482781587782194,217.7710320463349,436.39625351352294,8.503268507008787,218.65258748748542,17.96006790936459,22.362022549114478,-5.932484545549866
-10.006785272084908,128.1198425801737,281.4335601764157,-4.791692369757376,136.10090631433297,3.701015639485041,3.6928903038015806,-11.016566653919897
-6.7497507266798005,37.85184792177168,113.56910306945915,-11.495131527039465,49.35682864761699,-8.6078796056104,-10.286111830278184,-12.075370100467515
3.422511937170789,-29.6367453684107,-25.781559513635674,-9.034167299533976,-19.659518253649036,-15.21213300182305,-15.102528125078395,-8.381945041474657
17.645003600928035,-60.3050478264148,-107.04318892856882,1.2886132085158222,-56.29172071963894,-14.502930379531577,-9.999323771240318,-1.2270388499664353
31.71579198465582,-53.49341431042302,-122.24191485910079,15.555778589756839,-57.75834918836388,-7.267157980333476,2.3935682257028583,7.013483221777717
42.48819993364408,-18.446169630067494,-82.46754913523013,29.869535713536333,-31.067518500757455,4.322792484068995,18.21222736982947,14.381912379172915
49.17014592272736,32.247841170756224,-8.178140664484921,42.13000492916648,12.49264405272958,17.90642721184017,34.36669056189103,20.189294089898624
52.52075825272813,86.04883766144478,77.9174390582253,51.48118226166607,60.886049839794566,31.22618345240569,48.670502299296665,24.518471548674817
52.75739922712807,128.78328844112508,150.67810440872472,56.212911893779115,100.68770882520053,41.506525534305524,58.31944606051046,26.934388815927853
48.226136994502994,142.3776397229957,180.0968487295462,52.59991549744631,115.53786393747342,45.077000581684054,58.82657034939595,25.78888896033749
36.276990838922835,108.15100675279358,135.7361074172464,36.456797427965746,88.83666512848272,38.358386525445844,45.32270659243259,19.028588041322834
15.777052574216208,16.440781762843073,0.53039958853688,6.584431159883424,11.71410832738667,19.994175645195472,15.856509903486097,5.995010111358319
-10.857145082845244,-123.92354731845703,-214.54423599418425,-32.73677975521564,-108.85367442058934,-7.437852398325322,-25.85584791781545,-11.304866262786087
-37.91594928163146,-284.64699652906216,-467.6103666530916,-72.55121575427677,-248.87883502252842,-37.70549562087811,-70.74736840372321,-28.631996726967984
-58.943050236557646,-428.28265401415956,-700.324506047824,-103.15553534309186,-375.8614524788906,-63.38189094056752,-108.07088182958155,-41.48570864898284
-69.87300074789617,-524.4282991793705,-862.6451353616594,-118.6581378287159,-462.6865665853745,-79.09511190392547,-130.2438735749039,-47.30236260994993
-70.748022945202,-562.2285574029996,-933.5096998597583,-119.33304117899816,-498.7782560648947,-83.64366783084209,-135.91680252188092,-46.487666256667346
-65.1148090414075,-552.2896737392624,-925.9011297611603,-110.57421249979522,-492.33352720483487,-79.865813351692,-129.63307802512037,-41.77725903993753
-57.77088683082039,-518.1550028690876,-875.1674491012706,-99.50270460995579,-463.3828012804064,-72.61571322422152,-118.70810051707348,-36.532198885004
-52.42053144919859,-483.59523077878146,-819.4187253289515,-91.5212834188106,-432.8323971145156,-66.25592118804528,-109.5047262127128,-33.12323626103525
-50.50780782538289,-463.13217198152034,-783.6818832529276,-88.64727661554811,-413.9476903371102,-63.06495128660766,-105.17439397617422,-32.25100765262982
-51.452056940762226,-459.5237653692667,-774.537265047321,-89.9202767701062,-409.7655830037774,-63.07411952459452,-105.54561023488961,-33.26140696555631
-53.64897964030446,-467.03509348643735,-784.3059854361951,-92.92330562713147,-415.6731416471803,-64.90355530965837,-108.44597728486183,-34.92781115588874
-55.48259963220133,-476.8999673428013,-799.44638512723,-95.29102252073967,-424.10865679126357,-66.83759106263174,-111.31600415793179,-36.15257770946777
-55.9877130213604,-482.05230425066196,-808.2955084091034,-95.66884081508933,-428.76320623106653,-67.64263984677814,-112.40504763606926,-36.369979380198295
-55.121893947678586,-479.87733832763706,-805.8302692597633,-94.07273279183663,-427.09460782219185,-66.98276233261879,-111.35147725223307,-35.66666313847138
-53.635572222539935,-472.59372683134376,-794.7073045899635,-91.65576580757056,-420.7846944845998,-65.40730285942088,-109.10263027579494,-34.63708718685437
-52.54440770494507,-465.22556431784056,-782.4805695917584,-89.90855512280177,-414.09761817192526,-63.91470439036551,-107.18776165040754,-33.98691987193806
-52.436366120786715,-462.045287291345,-776.2062511532642,-89.64191758324156,-410.85179242817804,-63.27531338725245,-106.66063590060723,-34.05530470383257
-53.06866483577585,-463.5761989389313,-777.506334695958,-90.41578550501436,-411.7531236829814,-63.52149957456098,-107.36906951859964,-34.57704528674991
-53.56603188945789,-466.2232131503176,-781.412974227701,-90.86623048896328,-413.9027136752691,-63.96307377165889,-108.08513370050142,-34.88425575531236
-53.067330973761564,-464.81261333974265,-779.8437600788119,-89.70046920558313,-412.841108714226,-63.70271148146885,-107.4012577911531,-34.40285792561516
-51.34067158444863,-456.255377666531,-767.2907085178305,-86.63940918213086,-405.69488915978815,-62.26301869121127,-104.74274407586482,-33.07725172186627
-49.00033692113598,-442.0443500840715,-745.1353533799141,-82.73955588408882,-393.4476607355406,-59.93484135049054,-100.87235840146046,-31.466593736703643
-47.294867659737896,-428.3794190412961,-722.3907846551016,-80.02333472434658,-381.2099949756266,-57.72755120332934,-97.69812210889292,-30.519664229604118
-47.59296084762006,-423.880344496023,-712.5370428377657,-80.61094505897462,-376.38232243409306,-56.990774311327755,-97.50075110785889,-31.152747516251566
-50.64382058314948,-435.2912563288543,-727.0010109567208,-85.5186221707566,-385.0339621649469,-58.7656565701258,-101.72588520245317,-33.71367899408982
-55.7617786271043,-462.15637980869224,-766.7376600352917,-93.41880804971944,-407.30601102554596,-62.96391784522107,-109.61664626243497,-37.45930376345138
-60.397982879329305,-492.91247044661077,-815.5479377145739,-100.09587682440753,-433.8730133111602,-67.74635669697295,-117.39657888167574,-40.376809474256476
-60.7101270232294,-505.9416270376269,-840.6429542259522,-99.48822966429076,-446.5027480423036,-69.70429436098475,-118.95988906750469,-39.741972462443655
-53.2633715940972,-477.54154757286534,-804.0158585984408,-86.43388985708457,-424.5595191187431,-65.16968660399517,-108.40256512414958,-33.41917032542559
-37.06380778392721,-394.2193345345818,-681.4774352406911,-59.82002197705508,-355.50495159522706,-52.172034981687204,-83.34593799194676,-21.2404529957532
-14.54906314212162,-262.33509646378803,-479.0345310453556,-23.99928025557388,-243.57803019919757,-31.847849893185423,-46.960053006241026,-5.4646955387945315
9.383026677099531,-108.04800987349593,-235.1198496776073,12.908680755465294,-110.45248484237541,-8.211096992037318,-7.004456394717048,10.231030799926211
29.89790174230652,34.02211454755731,-4.70962943200512,43.12679754514101,13.936999583649133,13.787631218547734,27.917488709648136,22.737493579658736
44.637118299978674,137.27467664398495,166.60658359743618,63.097134630615486,105.58012476566913,30.7260253973163,52.60604135750768,31.125076397380546
54.22416057039093,194.2983600213268,262.6270996143259,74.30135420827314,156.71796308342292,41.98832218406343,67.08173152444996,36.60551476242937
60.382753538872485,215.33755398328685,297.6488924107989,80.27187165129547,175.5509758785909,48.90959341253073,74.61516509479691,40.71964720492632
63.12533428949546,215.7022706254021,298.79824729226056,82.05089829484001,176.02664691650236,52.47945873156774,77.49441564151981,43.10059633669933
59.44494349205198,202.1056513784376,283.4110113635927,75.87285389370543,165.76999933323327,51.550515361706864,73.9918857476734,40.72670917636273
44.91971268390579,168.53248262444504,248.48042235872825,55.31321675763113,141.39350182061983,43.1993639937369,59.18439918434948,29.570948336420006
17.279866506602318,104.2988703041072,178.91655664871382,16.576516241055504,94.20746666095096,25.139972589118727,29.183076374884006,7.653494815756824
-20.73515477533392,7.1300459963065155,66.31703214042422,-37.05353738444035,20.986720894851054,-1.6626161391579781,-14.495211820687118,-22.71943612763839
-61.50259651636593,-109.46128493987524,-77.38076158884789,-95.07390530402044,-69.10913178644721,-32.28057752972475,-63.86272229695703,-55.25077301117407
-95.73747398271476,-220.1661470740562,-221.61885466934976,-144.2432061973215,-156.73047210597258,-59.69223850124809,-107.64315153613074,-82.40488137349226
-116.76462184985931,-300.1492065561392,-332.27589775465907,-174.77457169961727,-221.76798543119412,-78.03553873022103,-136.58900546288467,-98.87670455775493
-123.22389814872756,-337.00758575199586,-388.8959862809561,-184.40091465132022,-253.24967832750357,-85.1682588749383,-147.5276853430336,-103.69426571162914
-118.82884291282387,-335.0150961031997,-392.88785351023597,-178.21277737860086,-253.42711361948432,-83.08895757487743,-143.8931157166357,-99.9354544859802
-109.77616268577299,-310.2726136790957,-363.09265129844755,-165.03806453562453,-234.45861685166454,-76.28927336349682,-132.98435075909725,-92.61001306606646
-101.67241913094226,-281.30682461807584,-323.8154104682541,-153.01969354843735,-211.05036998116503,-69.34221587199947,-122.10310443678581,-86.20792164840465
-97.6567000077516,-261.32882924477525,-293.8483027252297,-146.83552586614866,-194.08886186038086,-65.17035050097728,-115.8428041527183,-83.2175330724587
-98.19300576499937,-255.45806872491983,-281.7668491157497,-147.29915631607003,-188.1501454623271,-64.60318585666239,-115.43005943027208,-83.96103956735791
-101.9128028156877,-262.06778323005364,-287.0046429442442,-152.5003578133179,-192.38249620525602,-66.87799905337587,-119.53923361688545,-87.25956668838133
-106.66047528439245,-275.57912748000797,-303.2020815995832,-159.29049165247486,-202.6351869702961,-70.4113294717364,-125.53486541418448,-91.27782247167622
-110.32959095138192,-289.0238078513127,-321.4088888847333,-164.519289393599,-213.43821208907173,-73.46277760659912,-130.56538229357014,-94.2302769883633
-111.4756976837641,-296.245969628167,-332.9444314371253,-165.98578086791557,-219.73059203463882,-74.66862378429964,-132.45643601742313,-94.9238570317898
-109.71460039875505,-293.84621605682753,-332.160134178066,-163.08881654255234,-218.46042209046476,-73.46118752825895,-130.39385252551415,-93.121793861654
-105.81423938325194,-282.3574180699677,-318.40074954930446,-157.00917483660544,-209.6464541321918,-70.26413317670202,-125.21096020692075,-89.6330905068608
-101.45899693081795,-266.139412575051,-296.30250301895853,-150.3582270400697,-196.43493576349783,-66.3742253327093,-119.15335493127115,-86.08345509417808
-98.79711310915025,-252.1844363796196,-274.59164674147064,-146.43909294025735,-184.2678355629596,-63.58950082874765,-115.22291676549118,-84.4323032991585
-99.81906653209626,-248.23745261648142,-263.9921600810397,-148.21524596832464,-179.49628024998216,-63.66968049944623,-116.22925075001358,-86.2923885906019
-105.46907651286814,-260.0289884984924,-273.91422862060324,-156.91020949455373,-187.25774452076206,-67.60111305219517,-123.52568615902636,-92.0658098369516
-114.56589904480118,-287.3910180541899,-307.19059362303597,-170.42434767266187,-208.31648912783933,-74.70200581263725,-135.56521312430132,-100.09009048691814
-123.15009383096945,-320.6713945202954,-354.2674100381602,-182.50458000314427,-235.8748735482527,-81.99912209709079,-147.04250384439365,-106.3632936315962
-125.17938311192235,-340.77912884674515,-391.4460335840473,-183.97730015048913,-255.08303045829769,-84.63369749493766,-149.80795354490934,-105.51506866440208
-114.91588359722272,-325.5194665071932,-387.77347517659825,-166.4494421349451,-247.6899791696438,-77.71219624833459,-136.0637662279008,-93.08882623964521
-90.0648997614518,-260.77229360586256,-319.953076295116,-126.98909906245542,-201.0493819189934,-58.98208188856237,-102.67078997581397,-68.14698890879347
-53.77177303835002,-150.41898466915802,-187.5798150238519,-70.94553529100425,-116.69980019860401,-30.768973568120334,-54.013669723869604,-34.57466127534279
-13.931251033723639,-17.983693174404735,-18.294098123495747,-10.66439619948206,-12.552605990459583,0.31562150435954167,-1.1828466649866642,0.04661566839672629
20.125547142813808,102.65150956432875,142.61287385315225,39.69987929958462,84.01739415637863,26.123070547917127,42.641479804997495,27.654329769778613
41.73023186851001,183.00786522792933,253.69462269491393,70.43765370060476,149.0369219759312,40.753317294549994,68.16902946263603,43.2350085501063
49.33701755642597,213.04003953511136,297.45621359012466,79.93134192992746,173.2686864155946,43.13719871431827,73.82886038088448,46.59884183466355
46.04922772492087,203.60469799427725,286.67108601115666,73.75784852150423,165.10802481595408,36.88641353102908,65.27442305952505,41.49015836587869
36.96975320334224,177.53960974612698,253.50906634637317,60.409058629454194,143.67356286977153,27.709676831710922,51.291972791104165,32.9255281525227
26.478882734464094,156.04746868851922,229.63334091693864,46.85652009966009,127.25326491343296,20.272484940220917,39.10997212804106,24.698591130816666
17.116931946873564,149.23970242078732,230.4976346338633,36.615785379421126,124.68941711033068,16.46867543157653,31.98377507412469,18.490533768382395
10.093034114229196,155.21709528780272,252.09691251007496,30.50625457462344,133.99306014597744,15.718290331437577,29.731300440102444,14.53637251833704
6.1880790426492105,165.53275830132824,278.75239629319475,28.326615847557655,146.9140609603134,16.413417082551252,30.729612154348125,12.70090183551797
6.001009860646738,171.8871688033836,294.5892803782878,29.750425777894453,155.15915572632449,17.229448841457835,33.504611526195994,12.950071934490186
9.548425113855133,170.45388126892354,292.1482107684586,34.2004926654321,154.78007165673668,17.670744907434898,37.20073148077305,15.118073132132618
15.869924586981794,162.9490634976729,275.2597388429703,40.457573268273435,147.47501973586222,17.95209872483344,41.31767389421235,18.513165085260034
23.04205757055993,154.6984568286861,255.768019727717,46.55453108871918,138.7991188732328,18.502047241940154,45.23589702800783,21.817409173655733
28.545290063474752,150.3573183151424,245.26343871951525,49.978176848545615,133.95154303598557,19.30350319140921,47.76820301877091,23.356565783766058
29.931604560306685,149.40463140161165,245.78089723227743,48.25302232387933,133.21835697009973,19.439547279609567,47.06520977979577,21.679620901311495
25.910988648495625,145.05360392911845,246.03035600035315,40.205776783415246,130.48541995541478,17.391404491549512,41.40820122256278,16.401592246818197
17.634515430212687,128.82908644246515,227.78802830413437,27.670145746517683,117.04896120506268,12.252116603060873,30.9034014332841,9.031022562333346
9.244174855872487,98.40869999781734,179.6489115314725,16.315488071819498,88.8624735608915,5.107831671962396,18.934150656712323,3.1135103696690556
6.679341737778344,62.48747608841657,108.26155084214015,14.108078857153677,51.75037115570763,-0.6890607726767566,11.72848812411843,3.091848248990054
14.825433811447141,37.80016517101209,37.71912922896685,27.44649692405712,19.89500504128563,-0.9974309214307286,15.53075605947664,12.113392675499247
34.56677927374567,39.482727731159834,-3.532073716641176,57.127244919494196,7.954617587439984,6.64879665389152,32.87975885912574,30.00918979241849
61.74981772842235,71.39529106959388,0.5911084673358147,96.96107406879976,22.17054547086715,21.278378263618837,60.54167863133403,52.85522961305445
88.93132263397749,123.19753254566854,44.79052394903248,136.27901532188304,56.573294663544274,38.70565421244093,90.6860194273821,74.59386050362461
108.9369171682402,176.02519702118525,106.47201696634144,164.9548722101215,96.59695259515988,53.6371604660552,114.68589865514132,89.83196511868293
118.09734468514172,212.6918663265319,159.21110066736136,177.9359797250965,127.29159782071527,62.29909626052794,127.19366092212198,96.17557654626744
117.35289990820269,225.73722970368402,186.25249337730597,176.73717901388923,140.62155958832608,63.979388130562896,128.0987920121194,94.82587657881155
110.89649162542196,218.85377143199432,186.0624836412173,167.4524688450518,137.67152703280453,60.73533407291049,121.52432929594774,89.3298870579802
103.55360723732679,202.20186921562953,168.5350481841352,157.00131399470317,125.57549951495416,55.7760120050153,112.95779780933498,83.49213715347001
98.60634329814636,185.900234800045,146.7255513397531,150.03972687943565,112.37940230388224,51.74420993120822,106.53294642922263,79.74981637072835
97.05162449771171,175.8927707126351,130.2600320925895,147.9358501247353,103.38244459530154,49.852361517079494,103.85780768580895,78.70492823837424
98.12127952000445,173.3695705009012,123.08009430157053,149.54722351183517,100.22954493464765,49.98338106624494,104.39772025496066,79.61707658072436
100.26978825730762,176.25132767629094,124.28491834585026,152.65076472365593,101.77831219596891,51.26431365113742,106.5341095940398,81.21755447084493
102.01550805349626,181.0030312995224,129.96881811217614,155.14247574772915,105.40254737304106,52.64267226431582,108.53423854025958,82.36993615721958
102.46864714483709,184.24317748252096,135.32378220157563,155.77563375493023,108.28626003034601,53.31842659719416,109.21120220620092,82.45466404043924
101.54807029258254,184.1370055289744,136.9310418471869,154.454258628211,108.67328428453979,53.02082032600091,108.27941482046508,81.49144964201065
99.83193087865656,181.0363499398107,134.29826712793988,152.01261755933496,106.57578059088428,52.033950124020585,106.2995865430551,79.98055929617712
98.07970544899699,176.72468856222324,129.35161243139552,149.5335842825273,103.30589125509226,50.90178284852617,104.16553198136525,78.51629001107881
96.74002225499208,172.74351109964113,124.19294343286094,147.6490482581027,100.12266775801768,50.001381729860384,102.45915735911487,77.41947461710704
95.83026757673889,169.3480356133437,119.32656293851602,146.3711949715336,97.27850158969457,49.34687220459549,101.20456612903709,76.66724249976505
95.22238291102201,166.0571989708052,114.12658892432593,145.5057500399278,94.3813039963914,48.776382436969044,100.1861253413839,76.12561144026486
94.94507579738413,162.97326580799765,108.73968040256115,145.0907084413388,91.49892250718837,48.26823678717906,99.39946243420113,75.7846054038391
95.12936005886203,161.18722581392962,104.95682708359031,145.32273055171578,89.59137012698991,48.01103752784905,99.09067184603332,75.72434521214527
95.67672471215222,161.7248381586511,104.86929244734351,146.0791514514166,89.69538611724855,48.16310903369517,99.35755757432543,75.87886140309632
96.07238800397552,164.2012959114478,108.70079541096588,146.6402242426803,91.74107704645792,48.5938095377716,99.80459416561608,75.90565822205394
95.60476330862284,166.5877001214608,113.96082031397177,145.99205852448796,94.19952333327552,48.883413027574896,99.65519650347771,75.3395582589732
93.8242436363486,166.19668169506033,116.43729974881543,143.4785084576323,94.75883134872487,48.54816457534777,98.21118973985162,73.90139770178247
90.89616489656974,160.98096423184364,111.9757235357437,139.30996020480637,91.3573912332292,47.27901457671975,95.27567280630792,71.72076236341996
87.68704228136586,150.59122875568613,98.30517387744639,134.69684617808085,83.14301341878006,45.10973459408208,91.35994255632707,69.37914545741972
85.60409366725915,137.31892658176935,77.1081689853858,131.63483023317121,71.4772048969584,42.57326664545671,87.73111601833425,67.80528694566257
86.14051690275949,126.62628810736877,55.86468393683952,132.2708528334005,60.72711616784438,40.7775120108682,86.22082029109576,67.98690975515987
90.02680706681988,125.96922577031845,47.22816684278671,137.69823505573126,57.64792259550324,41.11796923844441,88.49675097872586,70.41051583274059
96.21435561074321,141.0374297745409,63.86699406702954,146.49009820990878,68.36934153295358,44.480268093077015,94.78759956441527,74.37121705146262
101.4320946385523,170.93199996741288,110.24222932049028,154.02300802295804,94.01335132395458,50.3123575592006,102.80104157103457,77.66320271659241
101.08405049609391,205.9531816229122,176.7858432471151,153.70094904000788,128.03169996261408,56.3294654699288,107.94437615206668,77.1794104008872
91.44349302410888,230.8318679488632,241.88616828506758,140.04683379432038,158.01620115561315,59.32930656425485,105.26708846031828,70.37816875922647
71.98071627862949,232.39343980754407,281.9478740461864,112.03124171988922,171.68299423018436,56.76938436212151,92.17975656988497,56.81178707033825
46.23497390428714,206.86871078230115,283.4871646164264,74.38091689846553,163.3534161566797,48.09773214904577,70.14934731690268,38.65856897365907
20.421269890948466,161.71043762251517,249.08898015528808,35.69840882939428,136.47094797833694,34.93383000923691,44.080472821746305,19.77843584883597
0.4840623426749349,110.53053268613577,193.28873647291113,4.37567203479251,100.43690350873166,20.032885558429573,19.70369521527766,3.847061097801116
-10.5412717947489,65.03159476839643,132.22246370242058,-15.085895027610007,64.43687043368564,5.896323050538199,0.8092124659476172,-7.178815038543487
-13.172182293184521,30.32661359170473,75.99010170120407,-22.980663002632195,33.42630812891967,-5.866154309645895,-11.678615464472896,-13.257724116149284
-9.939612051584426,7.178339880661238,30.08547557578264,-22.279338863198966,9.514270628233712,-14.059397084445848,-18.303975564005455,-15.194860691822376
-3.1548794539243445,-1.6770364466363397,3.3392252526141664,-15.597689265047272,-3.192811407485591,-17.085054037473263,-18.91001922256899,-13.427193043986431
6.133163511697688,11.889132840803073,12.657800549324309,-3.9009016822085143,4.035642139307972,-12.987293393767974,-11.950991858072747,-7.832536479263719
17.377151497013216,57.334543999770695,76.95772232712837,12.23938551633582,40.93985423360413,-0.7470749176747075,3.8742271968760993,1.3091572953124708
29.08630334885074,136.43691511291965,202.8772069813366,30.496811828622253,110.2883485746234,18.139333943107463,27.11035482879262,12.242198279271973
38.378851759994134,237.03447676060048,373.609119584444,46.19820169102191,202.04348061071096,39.30695987192087,52.58778464130378,21.76542574722603
42.17381024752714,335.59191396803766,551.2033755165211,54.20601390679062,295.17785090751545,57.06556169965851,73.23056870932001,26.61723918171246
39.11569802418537,407.84198615041663,692.7760559032243,51.91801960715728,366.9081702187896,67.03050432758793,83.5723583658633,25.27778339742459
30.664296439526638,440.62252974900315,770.708547695033,41.03764174164673,403.56341925751406,68.16817758807825,82.56506199300804,18.870202901941678
20.44515318711729,437.26871576530766,784.1441471284065,26.728999436399775,406.20370905129727,62.972989144448704,73.80365610850485,10.50761794601018
12.28052614709743,413.61802400322347,755.3677288436215,14.729418239780808,387.90521150919864,55.7627532263236,63.14700828146981,3.5425967601676973
8.250602029599994,388.0300843210973,714.8309625463619,8.401287027017265,365.23298801013163,50.2781538500051,55.44203724390267,-0.11277498553736415
8.013272447787406,372.1943463634173,685.194176987771,7.57616719946681,349.7456666258704,48.074112068932514,52.441822649971826,-0.5905703998939095
9.608625091952387,367.8195040978566,673.5378335438116,9.59913079031674,344.31917077765445,48.460162508583814,52.90226325990242,0.5690202519780283
10.94923245522758,369.53817919362496,673.9131581518224,11.460867442509667,345.0642191015189,49.63655312771896,54.257165435626774,1.6353870518388194
10.952728588088586,370.6180169839406,675.8387184681277,11.495908326755309,346.14735101886464,50.06240775941416,54.480639492926024,1.6416547153323435
9.8223073376294,367.70758153311834,672.6262130742284,9.880659457045356,344.17341918341555,49.289774051350676,53.11872514401226,0.6631928870245426
8.63329904592739,362.70913632708675,665.6758757710913,8.106183839690855,340.2206192131872,48.05179924024631,51.28676305091055,-0.47863004308465906
8.584315698824701,361.4777926090747,663.5061101618132,7.916561195339886,339.0527151625978,47.72984003073285,50.86309520295495,-0.8139502239553313
10.161323222673545,369.7380763556715,675.7683502549261,10.07490124388227,345.7477261473939,49.39500647909498,53.15943825489104,0.0899730628650216
12.493913618584713,387.6148691909798,704.307678392063,13.381655915310368,360.9075563630123,52.763701250586045,57.53855986499153,1.6030397656291777
13.36880510887348,405.8679208851144,736.1404358539256,14.644179033243018,377.10801482055456,55.687698029514735,60.842010396131336,2.041847239748981
10.233069125234541,407.4071014546655,744.3850601391827,10.104623181029217,379.7805232532628,54.79028806544049,58.436157784230524,-0.5398618099165274
1.8400438256280185,375.0286515098539,699.5405430141732,-2.1573694922344475,353.5883526673957,47.221547674583185,46.72927517199638,-7.068077202756479
-10.52192816975442,301.6649499811874,586.1847233639811,-20.38320514644723,291.3577019464819,32.58994040150035,25.73758882360805,-16.4955452170814
-23.238396741994332,196.62385501208442,414.87196566739516,-39.36370792513512,199.97067265002073,13.757274546489114,-0.11792131243786816,-25.955690899275044
-32.088465501549784,83.19003899384344,220.81527450825254,-52.89205142059072,98.95109257563053,-4.1889454309253145,-23.763670172692017,-32.078708540598974
-34.412925816290034,-11.454417020738168,49.23173100680489,-56.93730516521775,12.15064190434097,-16.25836513921164,-38.799083094585704,-32.6755396157702
-30.286110404533133,-67.90124500293182,-63.9864417857909,-51.43596248993769,-42.469756902737224,-19.766606749867794,-42.310877105686004,-27.707044234952768
-21.971056644020234,-80.91661131804119,-104.93474528689404,-39.601024441421046,-58.94612157088533,-15.142992006252452,-35.50544371334345,-18.975377695461763
-12.255751043881924,-57.963718270294244,-81.90215576738841,-25.54460203608152,-42.66569728883837,-5.103688214767702,-22.15436676220147,-8.927131805496082
-3.1317134441104195,-13.181134520674794,-16.747853315302397,-12.299249028862686,-5.448769782791185,6.866129901660349,-6.469784730873749,0.4031659777056649
4.125135129476507,37.31118440025986,63.610791801202794,-1.812156507741648,38.67079156631364,17.46863802126013,7.805264558889321,7.528795313577925
7.836818596550467,76.09942954488704,130.1350973147016,3.528179699896345,74.3818885786406,23.588108461550636,16.820434865860264,10.919849745162631
5.274216498717842,84.11908270686355,152.00616128164302,-0.05985644306205377,84.93367854766453,22.0973321071207,16.04133030019394,8.67141894753337
-6.367220498612426,44.180205977749964,101.53410517534326,-16.450496028727827,55.023989561566474,10.497028774215083,1.303360621699887,-0.812626761840585
-27.8254166072272,-50.904395301140404,-34.25190299106453,-46.64502736656611,-22.37819530918862,-11.589122402918512,-28.624536503757252,-17.458314113136574
-56.25429791838093,-191.07974081042315,-242.4773178349536,-86.64674725573575,-139.67981112741643,-41.259395381999376,-70.00328355971341,-38.69926348417332
-85.8523859341928,-349.7944565819487,-484.40168530409346,-128.34297604828254,-274.86025050457204,-72.84091169195023,-114.74096555395384,-60.16355161576263
-110.49262955160069,-494.59877571872363,-710.3631975841745,-163.21061671522963,-400.1422895631252,-100.18158116589574,-153.8313045459576,-77.64600830924566
-126.59349751349379,-601.680573763853,-881.8647815862068,-186.34829891207488,-494.4234242848535,-119.36098039615948,-181.46282480887558,-89.04482859260467
-134.23613431335153,-664.7348340761716,-986.4107251082129,-197.9838780250683,-551.2978731409327,-129.96874529654306,-196.95169155371534,-94.87190087622986
-135.8478884588364,-692.239535606685,-1035.1082685627143,-201.4905937743334,-577.2919584002926,-134.0742196911232,-203.19721327305325,-96.98578456612739
-133.61438536128543,-695.6798241279528,-1045.5175107513046,-199.6130900125916,-582.0665008362212,-133.73889137736566,-202.9932587721932,-96.56076943564982
-127.71204376958849,-678.0678013999843,-1023.330422245051,-191.96755042805873,-568.3901625578727,-129.05862717645053,-196.19408706411772,-92.92384096625575
-116.70887076774007,-631.7825865530293,-957.3295573134043,-175.80077383147977,-529.8128584770765,-118.30601522272289,-180.03538839100767,-84.22011529979646
-99.65043490187094,-547.3046116777894,-831.5941791205088,-149.2903191177505,-457.8376738049903,-100.03473173599875,-152.32548524145332,-69.3910800793819
-77.94834969541971,-425.65458728742504,-645.1301100041725,-114.55351503008956,-352.75246097514,-75.3731792445595,-114.82750327646262,-49.85442935581937
-55.38260459412644,-284.2678163561449,-422.9293236749305,-77.75539089038054,-229.2198277895515,-48.52699475001621,-73.92426486509771,-29.462413986773303
-36.13328489911692,-151.0618564183451,-208.80091520151913,-46.07164238692214,-111.6637300024841,-24.92123132000389,-37.79837557361092,-12.651190767650897
-22.441803844783617,-50.60828202333254,-44.20632254249112,-23.85505397311005,-22.336734290341475,-8.32516266414218,-12.169650048631025,-2.1333798099071117
-13.885258307755498,7.514589592831954,51.91255920364577,-11.083311246781047,29.367222299369462,0.811799704032985,2.128565678807574,2.1041404234436265
-8.953504366352462,29.771874701358076,88.01042776252936,-5.358593444624961,48.70533563701084,4.490956731920466,7.852547891734981,1.737036260629414
-7.616778324319699,29.04635659103284,86.9849810666604,-5.726225429664048,47.750428283087714,4.501903477084112,7.487571161875666,-2.094275311879918
-12.544109595932479,12.657839411067616,66.50237796287712,-14.87730911384388,34.66154968127756,0.2561210436728315,0.18221262803421306,-10.193296201852155
-27.60658101066046,-22.18680941065761,28.143497638068233,-37.52363459980961,8.666614947977516,-10.94453934546825,-17.775235930550817,-24.636229310447685
-54.59197287064634,-82.43859933809318,-37.381720591877176,-76.00682070064823,-35.88102298102832,-31.318924904565236,-49.22057864007633,-46.52501530462608
-90.71549756924355,-168.64937826114902,-135.28942072838927,-126.71735504286056,-100.71721578298705,-59.824279281437136,-92.24689259091771,-74.07191008139618
-129.05608115708324,-269.25177914949114,-255.65652045353892,-180.43310658813118,-178.06990347818248,-91.53906633114156,-139.53008600076964,-102.70126449857644
-161.82563647381767,-364.63539345575583,-375.45388529163336,-226.62656582176515,-252.98988623323575,-119.85458374685768,-181.60174242853,-127.21653954439854
-184.2022787104572,-437.7526048754449,-471.5441426079526,-258.679061461042,-311.5968632324004,-139.9193395245082,-211.69640261192455,-144.4202880724502
-196.02873374387354,-482.81585602422416,-533.756261583269,-276.2391589240053,-348.53006298866296,-150.836249470464,-228.60761329590693,-154.22460307652108
-200.2875059529081,-505.35940275696277,-567.5316630875312,-283.15856596858686,-367.7369868309514,-155.0827560369313,-235.56540867327865,-158.48799947581648
-199.67608702238525,-513.9451021148736,-584.386883543209,-282.8176303805201,-376.2157564798645,-155.71748827515594,-236.21478176053648,-158.60540372627295
-193.99242067437856,-510.5240971499452,-588.4733005067112,-274.61762733303976,-376.05631123076523,-153.56636016311322,-230.96463565692275,-153.85867145191034
-180.34642316871577,-487.5328094104563,-570.720168756437,-254.43843187119163,-361.50103815009805,-146.52538470509197,-216.60256582641168,-141.9233243623318
-155.9908837523788,-434.3019681853606,-515.7631139223472,-218.70763904206967,-323.623832359118,-131.45338378706865,-189.44815444048626,-121.19683999048478
-121.56004112444293,-347.78559542152504,-416.3127159081821,-168.8964231801807,-258.9988589008478,-107.17323160300137,-149.54203301776562,-93.13834755731668
-82.23664597704419,-239.09780484950835,-283.48578163630236,-112.93256666935153,-175.46759140391072,-76.33587887980629,-102.59536585299962,-62.743658353970716
-45.94752615018371,-130.5341710854384,-144.6836800234823,-62.34800816072922,-90.31500375087533,-44.80985061256948,-58.15060063643442,-36.64614403028633
-19.83481662708044,-44.977571724739015,-30.211566740179602,-27.085383847061994,-21.96411956307736,-19.062494035160128,-25.207696874112877,-20.063770948865105
-7.349861894312744,4.76670564753602,41.5533089462195,-11.420672028178554,18.82800969199369,-3.3403198932650366,-8.311264711172967,-14.595922638176862
-7.614018075561373,19.43879126216862,69.78339609049145,-13.338493973265326,32.12429460730786,1.6169593127572341,-6.5065668842791125,-18.13977194519329
-16.851431459143164,8.321959573877512,64.73752052693413,-26.938828612461155,24.898399104629526,-2.064468049604784,-15.213764720160157,-26.570032294272075
-30.31092953932113,-18.774900291747677,36.381047045874126,-45.416081704380645,4.375182343915607,-10.923160995112436,-28.960948734609907,-35.67450153589037
-43.29967495867619,-55.51790451104658,-11.33839210391817,-62.51310847512782,-25.385605696055094,-21.259691269502664,-42.850809246351545,-42.092134075822855
-51.34725479228586,-96.83731532610572,-76.35714003847806,-72.5007587010013,-61.48989345375188,-29.434795542146606,-52.46117333140863,-43.26251666352623
-50.55688378735423,-134.67535466770084,-150.21086835296254,-70.35206792772975,-98.12520772957596,-32.06261121170959,-53.613617601494575,-37.33610362212602
-38.81800090129486,-157.56723550115385,-215.19509043536613,-53.25958840296538,-125.57266963176643,-26.817728536217505,-43.34250282191161,-23.731034633709186
-17.26512215600598,-155.7359329304245,-251.17933108120127,-22.710481619789206,-134.2271712183131,-13.641573595043905,-21.74434368149558,-3.983065083347658
9.391262952552259,-127.77102274270108,-247.3008571238127,14.882904257513806,-120.6434905409812,4.6648176824089935,6.975356138180037,18.112105304765684
34.44984149720064,-83.14399626994357,-209.3563853767254,50.24423248725375,-90.61632625838915,23.279202587990046,35.64164200441478,37.66490385392207
52.09356226355324,-37.97908227035459,-157.02592148411202,75.20771384314861,-56.57059093537414,37.42859529148987,57.18160425452891,50.72217031423002
59.892343983533976,-6.657620805954213,-112.74377841127459,86.27954647403776,-30.873614544842614,44.5317663775807,67.83826433133265,55.95851420015715
59.435411817116744,5.132019400803517,-89.93685922907174,85.61815403431704,-19.61465508754348,45.11496773080938,68.52680979494008,54.9709195832541
54.83240464159968,1.5589412983704207,-88.20527062574713,78.9913949452751,-20.80658468445964,42.00290079755507,63.59010368922993,51.049949263598144
50.20325801201648,-7.926196438176914,-97.35823081369017,72.24975422590838,-27.50724071016789,38.438987395403515,57.96915532034938,47.3024375911111
47.773352627251676,-15.003940353569718,-105.94135198319115,68.6035692961103,-32.95825840401026,36.41373984854774,54.713122587391865,45.31332065322769
47.51159097679911,-16.47361042476638,-108.00361120397328,68.0619140665124,-34.16763783354429,36.128501964323334,54.18540618825773,44.98027703736858
48.08272079599436,-14.289603929013804,-104.8485211796614,68.74187016837661,-32.38248552335722,36.592796106629045,54.93472197229663,45.283640335364005
48.20113829071874,-12.917418885361268,-102.50305093312993,68.77530924480058,-31.218874968124467,36.681544823731564,55.23904482226296,45.28676611369164
47.58861920411822,-15.971323977783713,-107.14781971028525,67.69046610955026,-33.93224192111893,35.97953142571173,54.36073762292613,44.79730126646075
47.192275213199736,-23.399830706074233,-120.27509503154327,66.77575659561487,-40.86993292772305,35.101942643336585,53.07008845174321,44.47951138912533
48.61503953681527,-30.23456682076818,-135.38788809302045,68.33443532814464,-48.04088779028825,35.41681794509334,53.30561138852419,45.4192117474165
52.901816453798276,-28.174477854065582,-138.84645854185078,73.99251186602586,-48.061578064043715,38.18647393674198,56.95868792587571,48.26275071933765
59.20149552782314,-10.376322083334669,-116.45124687765383,82.76194326102849,-34.06586702096721,43.4067454789005,64.1732144370443,52.30631950257317
64.2380518607338,22.764051502265737,-63.276158342633984,90.18348340125466,-4.922148987907787,49.05729354101301,72.20696546706023,55.187839274939655
63.37368821947953,61.12715516321998,9.850524132185612,89.71036584699563,31.92970800912817,51.56826787640025,76.03255425953458,53.69565776295574
53.06185486693551,88.75462143079783,79.30331256977404,76.12283866706075,63.02849135046053,47.636693507897895,70.87124261822198,45.48687197549995
33.28522653279637,92.72754835827968,120.97746186042113,49.03438909277891,76.18641798023987,36.4256073263835,55.28046668732186,30.685198554031366
8.218275405890036,71.35313815870597,124.4603623399373,13.982120500025543,67.95171718464044,20.580107489244615,32.597915396447696,12.166960305749308
-15.64962607992088,35.552022972019586,98.96202413110674,-20.059240645676972,45.77537830745425,5.0637156412321325,9.384733588625753,-5.860822592372106
-32.93111227948905,1.7090115959593102,65.93451955813087,-45.42078332291743,22.744042008418454,-5.693729018320088,-8.40494408129624,-20.142138126787373
-42.05251084866488,-19.397048038836967,43.01096093142285,-59.6117176766193,8.228432435942693,-10.485599533261807,-18.96346436890092,-29.922288091281697
-45.34196652548805,-29.4547148476967,31.124722990256206,-65.57545065250937,1.3378391083534726,-11.884458611344956,-25.241162991133375,-36.60611554680565
-46.43335101696949,-39.82871588156284,15.0158860891877,-68.16052719705482,-7.593063951722321,-14.115807014438385,-32.025540432495816,-41.78024088860002
-46.98552945733845,-61.12206977093465,-22.955561467221447,-69.56292805338695,-28.421681248053442,-19.722102703425055,-41.628458400558294,-45.19922793007055
-45.278070203499446,-93.32703628302923,-86.54811146980246,-67.34448941116189,-62.21428413690233,-27.48954113735186,-51.527625492627834,-44.44545641376663
-37.74614968763712,-124.33809456164045,-159.74790201541447,-56.55959056632611,-98.90653063147268,-33.179166789273104,-55.83520966643272,-36.65274625940009
-22.183181550892957,-137.83616653297648,-215.63059968454198,-34.23053650504114,-123.30885627270416,-32.4714925617443,-49.48671404581115,-21.005136096323113
-0.10730710227581608,-124.38709346420903,-233.04072105837184,-2.6515113454152575,-124.80433018580989,-23.94929574578712,-32.03034598728004,-0.08936565072349913
23.445960414335044,-87.72470310780021,-209.08824953435155,30.934626442442628,-103.79530863074496,-10.08480174900245,-8.363259202191417,20.941061168529206
42.47132501210703,-42.339291779235126,-159.5754254398206,57.9606704762255,-70.90309214138706,4.242748387530605,13.90760031803669,36.83486396244048
53.05905779231112,-4.82515596686355,-108.4875404252797,72.88246088211405,-40.25262948753927,14.493203510922655,28.512932300495752,44.717199707054164
55.01251329125813,14.7534715037006,-74.6698369613973,75.46280855228842,-21.85867397499104,18.629059841996668,33.334279138476155,45.08279236503618
51.256527497681134,16.22603487671419,-64.22768066291171,69.9111455187528,-17.86240635933355,17.52528886885478,30.518913398127246,40.93201863002153
45.80576573672098,6.615231536605165,-71.66818632295802,61.974680952305,-23.893625683999012,13.787597762367215,24.400488364568915,35.875036047212205
41.78384346005939,-5.314954971261302,-86.39513389043793,56.10850318631931,-33.220228433705984,10.086237605396347,18.973530597313477,32.47679090200423
40.524158462747046,-13.26176854114965,-98.96394365430982,54.198006461155025,-40.374341872918,8.060466852712352,16.418045603469682,31.62526678785424
41.77162174987677,-14.738575585466483,-104.08760059009573,55.85901891894748,-42.66981989116954,8.098517138581814,16.98177748358389,32.84701433511026
44.38386073394867,-10.495310549258095,-100.93300989275554,59.44934766835628,-40.10493887385894,9.661473548403697,19.61932976580164,35.01024923921175
47.02422693020576,-3.3396202915228854,-92.23604270022943,63.06054450309564,-34.63097382964864,11.755099840799216,22.765071296675004,36.96141841429946
48.69635741815268,3.276535720434849,-82.64065010732207,65.2772075095878,-29.06395301408841,13.402922204906599,25.029782032234156,37.95578859809349
49.08052798420994,6.894891193254988,-76.22623878570718,65.65406491334005,-25.654581707721608,14.063136947549761,25.755296995952165,37.86356405241817
48.54236298018541,7.215105193620351,-74.31010607430828,64.72843322234807,-24.941362866845775,13.81721298067388,25.203902537709972,37.09310146263424
47.76859966076374,5.827805524271225,-75.24332498636743,63.497747316722254,-25.792905476468675,13.179453671273643,24.206775820676544,36.246360640505664
47.29007255739611,4.671086679032757,-76.3961970787251,62.72838531117485,-26.631443749134345,12.668688465766648,23.51795685002345,35.735206173711255
47.28379363313405,4.665952657421176,-76.33809218620236,62.66020980540165,-26.646507444577118,12.517534515845426,23.423067610945306,35.65147337421698
47.74655879421405,5.718807105891668,-75.16340973567746,63.251733899556136,-25.900621129906167,12.729829814530497,23.86944355635842,35.93266462597254
48.715586886131064,7.635991155518454,-73.21590444102746,64.51074612872414,-24.5809633820912,13.294042778576042,24.79738521799676,36.55447070277019
50.197719406419,10.526172435359687,-70.24498355208515,66.42121649481992,-22.577318119038928,14.2164576346839,26.183391739320754,37.49184744422735
51.8897141289269,14.182384072759238,-66.0848755285621,68.56821545614258,-19.921493561474172,15.332223542643058,27.765657369609453,38.51860891850372
53.099821181086924,17.469063527862474,-61.67763450088159,70.0313254850022,-17.33246023299194,16.195937991025033,28.90616288053987,39.15355106249911
53.100147966175314,18.832954023631622,-58.749872072064434,69.86686269026136,-15.920463915336594,16.295576919232207,28.92050506781644,38.91440813483318
51.67531702510032,17.611546682101395,-58.308732619960374,67.84550463866432,-16.231372257556874,15.451253719597474,27.641188831907943,37.698607266234866
49.434953541854476,14.770974797987462,-59.73217272421741,64.84036837277617,-17.70151045581422,14.040154411471097,25.693150933657073,35.98018026751825
47.68782851566755,12.388386381906477,-61.41184051308807,62.60510541349829,-19.068203162128803,12.87550838599044,24.265965029834398,34.69499912012342
47.966752690754795,12.567058396766512,-61.89692632547698,63.10823987144404,-19.132193210616926,12.86997334982902,24.604650749046648,34.89537768678099
51.32888126676921,16.68782656308058,-60.13022013651081,67.62754844960358,-17.087460666570173,14.653818834421575,27.472720316528473,37.264733393021025
57.51662775008293,24.912578611567866,-55.07604924051467,75.70721595339684,-12.557254416707307,18.166383374524656,32.6074801655507,41.54414588821527
64.28737224999836,35.41848662455496,-46.1833612742976,84.34386927391805,-6.004106543327465,22.273443232054117,38.24189084998106,46.085651419313216
67.55887717324873,43.86330031407289,-34.78643564337761,88.22654868314636,0.6289987152018152,24.74580506867273,41.165877084542906,47.99106321629373
62.872037637062114,44.580583097739144,-24.431163573771606,81.68316682776634,4.237534674130754,23.015461857547397,37.876438212820645,44.17711395381667
47.77965946142288,33.99664221776785,-18.462588601521585,61.79871706708279,2.5468788300981013,15.623222786303769,26.613496186988797,33.0552592439637
23.752869853057085,14.17842093818809,-16.328688366809672,30.81566700467132,-3.4499521713463057,3.496472220574723,9.008498489502195,15.804963114755193
-3.9135977352190285,-6.926533804031555,-12.506804108773808,-4.181625727370575,-9.099786938205545,-10.046426682093355,-10.156185182938685,-3.8066545551059217
-28.535004516243955,-20.060670482015016,-0.5179116777204028,-34.65297447334278,-9.055169260856449,-20.930746780334676,-25.4184994241859,-21.215288179438296
-45.42770247461807,-21.460314622388516,20.13761285288,-55.08893327433495,-1.9474558181182038,-26.69413191578253,-33.885343683784725,-33.400851746059594
-53.9612259044079,-16.492607234304888,40.15135466726628,-65.47221145932741,7.1257614404872855,-27.889227408069182,-36.84487383009749,-40.150841306608285
-56.736331120280425,-15.940802414059775,45.05186218079295,-69.74961849483746,9.51202547978714,-27.263733145782073,-38.1808161804458,-43.2650466104914
-56.43449652008836,-25.966751276215625,27.787186306702623,-71.26411537692871,0.7287255179579215,-27.037359524022666,-40.35489156133767,-44.24761263190166
-52.77410621068977,-38.61940547378859,1.0795874811641515,-68.64418169253928,-12.141835483900515,-26.232359644041146,-40.898226174971676,-42.30583137189319
-42.1022758002136,-31.244283694472536,-1.507098738037595,-55.633300215918354,-9.966569172951978,-20.318398114311755,-32.482820179808996,-34.38439768676313
-20.171999386103337,22.253692223376955,59.36792207772669,-25.449213562051586,29.428388450866496,-3.877353460350992,-7.215563630002009,-17.426361688714813
13.887515844081507,134.36962049080765,204.90345364382648,23.33420302909981,117.3478549457306,25.35470626752703,37.49960631604747,8.748157929516193
55.42502964119286,292.66225577827,421.0129260210408,83.75413206802622,244.63317702013634,63.941661331546165,95.67321500106839,40.133828948982504
95.66161799740618,462.54645098587787,660.5457411821259,142.67436829161343,383.46546004893315,103.62930836144288,154.54067601225472,69.88472849944625
125.80265726965092,603.2133288269613,864.7810685145382,186.9492679037588,500.1227468540903,135.2118917919104,200.51212425471277,91.51217504929595
141.21393454195785,686.9802265516344,991.3174661842228,209.61342424844383,570.9889634115706,152.94677849534213,225.5700395689374,101.90481738051346
143.11811854874458,710.5412219807818,1031.7520484799804,212.3829929391343,592.2831658849174,156.85117878224574,230.31500338233295,102.36893884915818
137.06436468534352,692.4276010774595,1009.9249877986915,203.3982228214996,578.506447559318,151.75746558687695,222.2456749751264,97.28645401092318
129.5095019312287,659.9637416852926,964.2422002454115,192.18116379742636,551.9722623686463,144.11086252671527,210.909969898362,91.49408467486572
124.76040278907281,634.7885607879607,926.6458059998287,185.1114924327048,530.7822415093747,138.68531464349255,203.1586159827626,88.06343945653009
123.82103697625023,625.1007524972287,910.452966175874,183.69713020932363,522.1329116696672,136.9992658930049,201.00554851694918,87.55799325218725
125.19387178267762,626.960277900134,911.2740797654491,185.73261595990445,523.1247560363117,137.80791567704352,202.49777194347453,88.72216699672161
126.6407673474389,631.3300628163612,916.7107621075218,187.8937731166176,526.461753937432,138.8307733828063,204.28170773982896,89.82519872096626
126.81827275590976,631.6972214926184,917.3202662028775,188.16305282640286,526.7475828510052,138.55109157235967,204.1783508601448,89.86392973870723
126.12232971876581,628.5519312275704,913.2513783944792,187.0900855803378,524.237431192739,137.26000311846335,202.6207106511847,89.15973339131632
126.43260188554098,629.071256111522,914.1235014158576,187.42761552839053,524.670189552538,136.93347460375253,202.41088491941426,89.14245656850481
129.74671897754502,641.9337680081828,932.0414470529125,192.13565866250053,535.1185016409557,139.88682521740986,206.75859345439227,91.3263552861051
136.2485664108053,669.2130917694385,970.3090732110702,201.55115235576574,557.3927326521003,146.70219239367097,216.34922917037463,95.88518716278823
142.99515944849108,699.9104739757892,1014.0342845898766,211.4447568239551,582.6618454809935,154.60480259851704,227.13719077887484,100.69466668444595
144.42089773648038,710.546275374422,1030.3817271887733,213.71377087691332,591.767299491917,157.63396281977165,230.73284535876928,101.705644041697
134.84219693140645,674.908299611426,981.9608673862722,200.00057740993415,563.1073734794252,149.08216450671335,217.93644645650753,94.76200697910963
111.69303894449186,578.7159953738437,847.8090976588106,166.4178316063918,484.74575698897405,125.13956305516574,183.7974125395446,77.93403475050208
77.49939229746128,430.3718427886956,639.3392668353512,116.48567556270108,363.4545884333835,87.62512989767811,131.1997451966667,52.941604143745565
39.253449126123286,260.2965646032922,399.96189165353724,60.298864361174104,224.33437613964938,44.00872586393382,70.59011844370322,24.729099317407226
5.442082419191138,108.21314736839884,186.90667076223724,10.244566497281157,100.31977312709101,4.493546344617044,15.749344224832374,-0.613222235222987
-17.58144337434873,5.450804689128961,45.313315677626555,-24.298022409260145,17.390967306546017,-22.301426594526006,-22.080696509611037,-18.391685988800432
-27.869206380264377,-37.54383365400347,-10.319306851610095,-40.32965773827423,-15.953933821045453,-32.716048603338,-38.478987921929225,-26.919888123156316
-27.764929766990715,-32.012499873683595,2.59090743344835,-41.13149783092706,-9.425153865204251,-28.825754480049213,-36.471938653140725,-27.499807253097565
-21.937348517344777,-1.3460193852804387,49.03557746317648,-33.43088915999343,17.118198833339303,-16.627391133846835,-23.825691639394883,-23.150344779966602
-15.045601360340887,31.451392884778915,95.38805667978616,-23.990636018817348,44.339784503380166,-3.044677007356708,-9.123299778402922,-17.088347886094127
-10.24373711293717,52.00869044898707,121.76932299692879,-17.404823906936848,60.457980096838874,6.623403556987372,1.2515070220540512,-11.742727776765138
-8.757104036401895,56.20519085542018,123.97501539656261,-15.46519435298464,62.538748190216786,9.984867629778885,4.416034677557364,-8.413319065759898
-10.131951449251401,47.49552407248958,108.64687285086895,-17.521489453698134,54.031811698488156,7.591716525163233,0.9018362366149566,-7.3044196823162215
-12.835826273074634,33.11062098047979,87.05005292821569,-21.357680563481885,41.3711110773506,2.0505574191568474,-6.3320095937715335,-7.780758495956046
-15.12336158299684,20.493415771501443,69.89337346265476,-24.45827807606336,30.90859751630689,-3.4727756662065965,-13.532542798122092,-8.870377153890685
-15.945681996372361,14.250597333497684,63.35904487379728,-25.347981846592006,26.396179343092484,-6.8422474350826885,-17.99137969387375,-9.8904876041404
-15.41070097550642,14.50508230443997,67.07367834023741,-24.28059186746846,27.662454250663068,-7.862833938902386,-19.211354631974178,-10.818949735749166
-14.481405086172229,17.753147641204478,75.41294884156007,-22.791067863757036,31.38424077334493,-7.975652440811251,-18.69956924281864,-12.138959960299923
-14.21390189149195,19.73349664690663,81.65716354810294,-22.52170996167357,33.591840087980245,-9.008742662282673,-18.63987571400629,-14.335051336124943
-15.189269092488281,18.028218347803154,81.88896978973258,-24.296511054024215,32.00172809315617,-11.932948009021896,-20.505799329206027,-17.496498552172298
-17.443656151247485,12.582523037991063,75.85221538433652,-27.970409514959247,26.55516902961259,-16.419481376208104,-24.468542960805017,-21.26873164868848
-20.609426777023227,4.684874981702593,65.33695126875143,-32.715287942528064,18.51957918803214,-21.21115790848217,-29.565343594865254,-24.994916104925167
-23.911363519407562,-3.7408459816767103,52.911141014810084,-37.207817736898406,9.750467540746294,-24.766709584105723,-34.10542819776674,-27.818151293672322
-26.146296345257948,-9.979610421681047,42.186709026526884,-39.77661735923267,2.729802344943581,-25.784249977424437,-36.12049186718806,-28.792634672952794
-26.062707469460182,-10.878541327871629,37.72470862718708,-38.97108445240095,0.30787333648626425,-23.628128249406267,-34.091411973353914,-27.21094528435394
-23.153893281606845,-4.772123229663115,42.60960756027024,-34.536879934131804,4.1605079523169,-18.72581554565646,-27.925583080434198,-23.100548637468066
-18.249494052564206,6.284398904117667,55.03347432013226,-28.008079359833626,12.87086091061453,-12.683780547395479,-19.51310044114716,-17.484259402052686
-13.271256315670367,16.482124950776978,67.5759742666164,-22.15616947778884,21.730002248943475,-7.779966086357565,-12.136151160997507,-12.051231121369392
-10.215878266318608,19.23832718933251,70.92421557688472,-19.49519837642911,25.090951006044417,-5.912836081615751,-8.847570751890125,-8.368914171110012
-10.074526212533922,11.223288351399749,59.65290050741673,-20.872600844403873,19.769473092586374,-7.591992745084155,-10.819806516233328,-7.1534927614875015
-12.340758957596098,-5.281559859036749,36.068276490364696,-25.000182545774987,7.195842676854966,-11.571575992796257,-16.658910583993418,-8.003964492416866
-15.23225301610628,-22.7597289911505,10.202002342429651,-28.983377831315803,-6.704933184955885,-15.286527491769204,-22.925156696893502,-9.61707292182102
-16.44339906545664,-31.0431685022881,-3.5001500805290995,-29.489976407493057,-13.550176839949021,-15.878592363061125,-25.519967066823916,-10.327753133254992
-14.307195395158566,-21.603921985078486,7.903980401190303,-24.363072828252403,-6.037375018437465,-11.548193185538796,-21.579965698205008,-8.91731594615058
-9.166420469238622,6.778480306506496,47.65052111379611,-14.45057945978154,17.286165461541263,-2.922070939088485,-11.496781690642623,-5.582640334554939
-4.266403404614385,42.9545183866439,101.31334971018777,-4.757528801153011,47.614866625108895,6.1963382324644485,-0.17062225193610714,-2.576266325097058
-5.16561407524484,63.16470364966684,135.19212845495852,-3.5412315870918394,65.35673936204977,9.549412161194736,3.80895362842093,-3.7760638837885394
-17.294701252884366,38.99858508501685,106.67604394503192,-18.811850935198603,46.4798745397661,0.932706279546324,-8.375673198172612,-12.915852891237053
-42.714580459235904,-48.32899465831284,-15.047844845766237,-53.69355565428412,-25.5666195300636,-22.47407738245943,-40.97704332710527,-31.264674373424114
-78.12154702424112,-195.21807420914237,-228.8636473318741,-103.54438930864013,-148.78633869095822,-57.90358354762131,-90.38875005047929,-56.26215064478907
-115.66280513537673,-373.28977840055524,-495.84354984568887,-157.08602883062153,-300.0232397394244,-97.5413253550484,-145.76676693831774,-82.21713326565583
-146.36499696938242,-540.4291797688431,-753.6728023937912,-201.30263771663903,-443.7763845553884,-131.8089240561109,-193.64399410232602,-102.84932181170001
-164.2422490298493,-659.6720789177424,-944.4292546316275,-227.36798685524616,-548.0703660302045,-153.63127458417583,-224.02583679561752,-114.20577364951433
-168.70386593655655,-715.1282383251344,-1039.8650993924239,-234.17997937173845,-598.3146003542714,-161.2911971914565,-234.49050334838378,-116.2405078621223
-164.0122630715059,-716.1042950069279,-1049.9866700974192,-227.66918949409404,-601.4144668786261,-158.38367674970075,-230.1316045109125,-112.24706678708876
-156.42689655015894,-688.2694722934414,-1011.647480458971,-216.74913154508695,-578.7475001726037,-151.19603035193657,-219.82382676096287,-106.71245617877395
-150.97847229113077,-658.5816205794671,-966.1894958591087,-208.68031866398567,-553.4281437185145,-145.31422674061943,-211.41638005992004,-103.0423853327091
-149.68434450251883,-643.299190792937,-940.2756124742865,-206.46372763578427,-539.8178587048585,-143.41251288780427,-208.64487122890063,-102.42007435863543
-151.7354473461597,-644.5988637538561,-939.2718772165721,-209.05788883210786,-540.2579519069492,-145.07416045317788,-210.9213937103779,-104.08482939475236
-154.91738531086992,-654.9840682378701,-952.9958125384762,-213.38283042084362,-548.6114525892064,-148.12774627471856,-215.22221006481718,-106.4195090599381
-157.17574011323484,-664.8463657706332,-967.1180060308661,-216.545015346525,-556.731425672812,-150.37690949442498,-218.48387268796654,-108.0434956510263
-157.66525593442165,-668.8170968928345,-973.2129311843468,-217.32482857073097,-560.010763858252,-150.8665197656331,-219.34236035025802,-108.47267888014056
-157.08210969039268,-668.6424396194684,-973.5350601537697,-216.64013232417258,-559.9348987495191,-150.32750071638296,-218.75109196845588,-108.258555872075
-157.2042440032875,-671.784302707058,-979.1420094274357,-216.89662834380383,-562.9107401759411,-150.6993692364599,-219.33611894305966,-108.60135153751375
-159.6861059241153,-685.9813315741327,-1001.739102651787,-220.30882286962998,-575.5894488052597,-153.81445432843609,-223.58629278658222,-110.50337238280315
-164.59843411471013,-711.9600511366041,-1042.512854541439,-226.89038109046805,-598.5608254466507,-159.76534032505174,-231.60453097427003,-113.8241099642891
-169.64777859335706,-738.730890144595,-1084.642680872931,-233.4219552063007,-622.225358305394,-165.95252463509217,-239.81958966631393,-116.87486425083007
-170.81441061461985,-745.7303473763305,-1096.2125528765362,-234.40899442009965,-628.5792993998106,-167.69632632451825,-241.8675464342623,-117.00011914087543
-164.2336951016922,-712.1349426671993,-1044.4874414674864,-224.73932348521902,-599.3221135661455,-160.3793491951316,-231.53511919491896,-111.9219837587698
-148.23489638896288,-628.4245363961932,-914.2407439841744,-202.47364556869712,-526.0846438539575,-141.98240966352117,-206.14718125311796,-101.02359536049681
-124.32490620391934,-503.0289531539626,-718.7262393842326,-170.0674175645891,-416.4337930540429,-114.49223568706792,-168.34419926395316,-85.7612946900729
-96.62542183356003,-359.7127179406495,-495.82532137721887,-133.40097392601368,-291.62679195322187,-83.31724955276977,-125.19541247966026,-69.0024179624796
-70.23027688598977,-227.26789269379867,-291.36559754282376,-99.37833431446171,-177.3341486149737,-55.0629305564142,-85.25774628500773,-53.78120202918031
-49.47760459047843,-127.9006129592566,-139.91932911236088,-73.56422104043851,-93.03245878968833,-34.963173742836,-55.359039447108046,-42.2533096535719
-36.94141144267579,-71.02937627048003,-54.562556254619395,-58.969653074963034,-46.301543302295876,-25.33102404995231,-38.8055241495203,-35.349440943956715
-33.2371382403652,-54.75949038972792,-29.991918636622618,-56.01071081827277,-34.34689707380832,-25.55069367459472,-35.47668420816462,-33.009199880587666
-37.12935220214789,-71.50252283191237,-53.34691925829054,-62.7953107825174,-49.66215314705584,-33.04379960059738,-42.87714232500153,-34.44013382349965
-45.539064064481806,-112.02887242207203,-112.44357227948873,-75.11386766851768,-84.38240175747865,-44.23625187505358,-56.91440900754775,-38.03783462712577
-53.752703635906855,-165.5237215749918,-195.85804205331107,-86.60090519917043,-130.55387061483987,-55.120852950011106,-72.18777428627278,-41.25663235671629
-56.519396013853736,-218.36547773204094,-288.45674078769207,-90.13461428439847,-178.37600026456926,-61.811325881473635,-82.67488871865538,-41.081239763838816
-50.108761592765475,-255.90380307344012,-370.4034467346623,-80.65793030216402,-216.5128326588941,-61.549863522865195,-83.52044583208473,-35.290571103964055
-34.281220626374996,-268.04064148526976,-423.47571090453386,-57.95777017394909,-236.0117321269288,-53.901533403235234,-73.28726600690506,-23.814352325620916
-12.705959818400583,-254.75354569395597,-440.4909497446358,-27.289961393159228,-235.12913955781727,-41.22358602536556,-55.00832169383723,-9.093584393590588
8.764138192828293,-226.5675216025908,-429.62443901325616,3.0431035387198397,-220.67917862641667,-27.719730711280206,-34.85469643182141,5.058157343182391
25.035304114091478,-198.4436678480628,-408.82160867598736,25.87951955434273,-203.88005699309855,-17.367109032133285,-18.904962578925385,15.482035378967948
34.074608005166986,-180.6813827957125,-393.31624970694253,38.49393150413507,-193.02913418735434,-11.92705592969659,-10.000066756141784,21.247486830028418
37.11014227870675,-173.11179631130474,-385.1505932052635,42.87687558056885,-188.16179697264056,-10.347933574788613,-6.778042017549467,23.680644309035223
36.7509778181808,-166.81798009146792,-372.7105544940455,42.98350485820558,-181.7640369729275,-9.976782138931664,-5.52034276642443,24.852617389066012
34.54773219605925,-152.11963344815064,-340.9035583908788,41.12226803565686,-165.1836636589499,-8.708890753837629,-3.4112298201870357,25.684663652881778
29.876554453315904,-126.80564469102751,-284.3752328362568,36.23689960439333,-135.9992163992853,-6.508031978660837,-0.7676447156580846,25.134546772451795
20.9216191191928,-98.49273023365791,-213.80776766040051,25.2892497177364,-100.8569885331917,-5.232519159284872,-0.6300290792230854,21.094942542369647
6.814076535136155,-79.67237278337369,-150.8031440543403,6.460692317674028,-71.83110387864154,-7.041261719028992,-6.195429862138084,12.281653236359261
-10.946981487410518,-79.63675649163096,-115.59106529970533,-18.5459367230513,-59.295619013421764,-12.74588607992221,-18.241416329246775,-0.4107757349947176
-29.049522141577242,-99.54491502651634,-116.83386332429828,-45.0458151414792,-66.68873114663702,-21.43040347358251,-34.59534346841275,-14.20302450889744
-44.47418164026833,-133.85013650969375,-150.30858033829776,-68.31133871750292,-90.58524254180683,-31.512144294465514,-51.925094539696325,-26.166742691381796
-56.32400227671488,-175.6517024426797,-205.34167299268492,-86.37161508222601,-124.79862270439081,-42.09916980631516,-68.08880885985208,-34.97635123570974
-65.64863837845674,-220.0656820551888,-271.2462801723798,-100.11141286805918,-163.7845172424448,-53.16135947359062,-82.72359272410145,-41.16869702017972
-73.2204913798948,-261.86942136683837,-336.91225045694574,-110.40576262292001,-201.71775022617382,-64.11523417141726,-95.34659665986082,-45.645357626817116
-77.17727868576216,-290.00946293825547,-384.878137983123,-114.84102750174377,-228.62183252210275,-72.10038815883584,-102.76104665013374,-47.74903105935087
-72.87961071381004,-286.06661211902247,-388.7956022148378,-107.3359089567272,-229.04607111680144,-71.92072067332731,-98.66210090467628,-44.762106166027614
-55.644093318504794,-231.36565166074197,-321.8034162050518,-81.72998465192727,-187.42990095473604,-58.465156049757894,-76.72844560745837,-33.54395940155033
-24.555151015633513,-119.58160974574753,-173.21269603002256,-36.969506302830865,-98.1271497923225,-30.26491062101551,-35.402816235753576,-13.1836811342366
15.52744405217629,34.39693995311717,38.48783812649462,20.092993678902328,27.196182208105014,8.402614123539445,19.238560054823612,13.394175118659172
55.43171996481032,197.0907564841775,267.7524337273114,76.66650876183729,161.31116826302662,48.63099023164668,75.00437976588053,40.19403344868933
85.803136830999,330.2933291927535,460.2808041385107,119.7168640810348,272.52042853772326,80.75671818596119,118.86498011790832,60.86991589585517
101.32215001105429,408.02896328638064,577.0286737667001,141.8334045882669,338.67475560916756,98.6562993292789,142.77452830430394,71.65454930831147
102.55249624263696,426.5957264246855,609.7057593349701,143.8248027381706,355.832010590182,101.97905618213008,146.61941495347264,72.74031405810459
94.67504336288879,402.66932008811693,579.683893744563,132.96718144745404,337.13600328545346,95.31090619935578,136.9488590719407,67.51546904607953
84.30990176127784,362.15428124260035,523.0719097829136,118.56204068096862,303.8400438957427,85.19875613506291,122.82398646546363,60.43830601535253
76.48690033646712,327.3879706889485,472.3663105313584,107.68691490826208,274.6598332953769,77.01015695254917,111.5334467841464,54.96437812030525
73.22423166035131,309.56028456949474,444.843355853585,103.1956309745882,259.2559534805328,73.22629050665984,106.34455581147846,52.54475143739326
73.85614019040335,308.4165349159222,441.3384688229281,104.17353603655458,257.7593895224863,73.52584507105415,106.7101434593668,52.80618101631025
76.30498772899107,316.7405327422469,452.24411143812483,107.71863826465922,264.3779487134982,75.96986955394453,109.929712738806,54.37870686567802
78.40570402426614,325.78560726845546,465.2106567483034,110.79587536960568,271.88995955036904,78.36111072431268,112.99746681671857,55.781807281526234
78.80673039559402,329.25240693430453,470.93048843191815,111.50030355800018,274.97683339182714,79.21524750010711,113.9066317787051,56.054886756562624
77.31760865149154,325.1516688618594,465.9983942478514,109.5509128848574,271.8266680715817,78.17619155265608,112.20573873869509,55.02895971434912
74.70365841022198,315.5814594327879,452.8946968170882,106.01244822065972,264.0346198623587,75.88183771649415,108.80679409744282,53.210332125177395
72.0660449008949,304.7382780637861,437.424124423562,102.43058879237702,255.0308830276447,73.40380211853386,105.20065958256939,51.35533518782423
70.16758738683113,296.20772200048333,424.89379074693244,99.88196476149031,247.84511396555033,71.57620426520131,102.52171800580169,49.99428406855435
69.1225644803971,291.1809567826579,417.338587836396,98.53143775896022,243.56145397835704,70.61844065247352,101.03830757819148,49.21134372177623
68.5787202031262,288.6148090206698,413.4713448674378,97.88485265661147,241.3721073355736,70.23655682569665,100.32016031893541,48.77216778995217
68.11529526129975,286.73878307123334,410.76149035414363,97.35081960243312,239.80687096201606,69.99939463483835,99.77454391972954,48.397885866709586
67.48100043785246,284.34370828906384,407.40923097886815,96.57756199344743,237.8405770641164,69.61952897264278,99.02300520726355,47.92076903582357
66.57602594243974,280.97023800930276,402.73581516425133,95.42593738331898,235.0844039766656,68.98043693662972,97.91527667644971,47.265410040184406
65.37398370619475,276.5010018452515,396.56562403060616,93.85682137540311,231.43809674794372,68.05571566926326,96.41052940798042,46.401347474274594
63.94670883977942,271.0598594203044,388.99158496283155,91.9670685235653,226.98102336767357,66.90416177581847,94.58523799561254,45.37391784918295
62.51079213350898,265.2655796127391,380.7665265092883,90.05963638859198,222.19071478448944,65.71345135639659,92.70684225236333,44.34080775469468
61.33295434170681,260.1413858260351,373.31327638709524,88.51294667861258,217.90671544610342,64.73874431475402,91.14153654373139,43.496063188910554
60.524918743261296,256.4087444365656,367.7830807756614,87.4890501646838,214.76299120814963,64.12044194267298,90.08434126547154,42.91578021957874
59.94206528472274,253.83924064529427,364.024936742847,86.78568164861859,212.6199024984455,63.76015683854048,89.38327928393971,42.48859935669617
59.30386083875296,251.42267367321762,360.67095318741514,86.00442944543167,210.6594404089212,63.398491708055126,88.66165754024168,42.01069625221911
58.40102349497414,248.17468170825853,356.2626397634897,84.84597162896037,208.04750594901233,62.81055429940076,87.602978527652,41.33720119236735
57.18343451499346,243.714663867069,350.1726474224974,83.23761940348425,204.44138401450815,61.92038510371825,86.10743204158561,40.440300536913014
55.71419505098512,238.1973246669879,342.564967274687,81.2687947218695,199.95115688424366,60.77678960605093,84.24889600365273,39.37195293901847
54.14408705588618,232.0759735670315,334.0011744709919,79.15345635871323,194.92977103433216,59.515771128356064,82.22384607128046,38.24684884628165
52.763740210643874,226.2177631367175,325.56293917771524,77.30391712790883,190.05771747216326,58.39467028210525,80.40866409699115,37.28022426484162
51.97588737237999,222.03786894019154,319.16057988230205,76.29340187227015,186.48569192128582,57.78513705686917,79.3475027314644,36.75984170086102
52.037383514871465,220.87416989498786,316.8435584870744,76.4909059019899,185.36901397586692,57.9671094513133,79.44119405572754,36.85008317248867
52.70334988660511,222.62138598558346,318.89553961271463,77.55314352063938,186.74243281126678,58.79450703324398,80.45584175048812,37.33916511943175
53.128774450209136,224.81803127441975,322.2895457619217,78.27969391297306,188.69196931684985,59.545042626094336,81.31715139404272,37.59120405865316
52.24491432511141,223.41843232665033,321.4182264867555,77.1452451129127,187.89241135245646,59.202756151642824,80.54349539991937,36.84488975480494
49.444661926500395,215.1670738554166,311.265789149273,73.27656832784628,181.5229031352841,57.08218722184165,77.1648068307785,34.71613047471062
45.16034384958725,200.15407035692795,291.13914630956674,67.28028663621811,169.4211217333965,53.42194750587164,71.57543201983073,31.594125412845756
40.97910448409454,182.96535284729964,266.64034273682705,61.41241169952681,155.14004386099398,49.58011557503921,65.79398792801355,28.684115268294686
39.15399395352605,171.61722164742145,248.61217979223375,58.88523032538015,145.19660948104666,47.65632777257446,62.88918929614928,27.612622191755282
41.54951088886481,174.2502869950681,248.92081270105905,62.366564749748704,146.45753162088891,49.55447036638797,65.59929623839662,29.64076943511317
48.27157830952271,194.20459383207827,273.75873640803,72.0265835685448,162.12124117979548,55.69545056363056,74.45493964929565,34.68370071430319
56.58283976000919,225.19684140360985,316.5678223120956,83.98542925799387,187.63295628756416,63.90042034556715,86.17369558774783,40.58483175078956
60.9739435588981,249.65242328610282,354.69838160634254,90.40149749393692,209.01352636150847,69.24628760796418,93.50252169556119,43.26747718668208
54.96908551580062,243.14008419364163,354.2953858380608,82.03038307346674,206.14140428757804,65.51911487883933,87.40381697169356,38.135166829776736
34.22693077083267,184.90222365196914,284.2692140334295,52.63992315744953,161.2288353065833,48.02594270086762,61.191430072729624,22.32980547603936
-0.6644809912373346,69.79909063465611,133.58435291764658,3.0060525488672765,68.85365306506259,16.401795415962713,14.585583242564068,-3.357524420316528
-43.609542148452434,-85.80867986616944,-78.62119216092765,-58.238381438840186,-58.625729072626335,-24.41703189595099,-44.978985139906456,-34.26972353130261
-85.45301403943881,-249.45181977990092,-308.44211931114904,-118.07050785770447,-194.87393277098573,-66.05037627621454,-105.1847134859155,-63.8246738689712
-118.26262648734364,-387.49198373222697,-507.22556289690164,-165.17685280493006,-311.61191471063046,-100.54432837461589,-154.52372639368457,-86.61642323488408
-138.7592799622824,-480.73360942361126,-644.6131615388949,-194.8584148716877,-391.8144400455585,-123.87539520065727,-187.33435588193257,-100.69355361590632
-148.5526166767164,-530.2385673130228,-719.2685992253228,-209.38934325151942,-435.26855049126505,-136.73448125270298,-204.7858746705307,-107.44037015242849
-151.09937699057508,-549.3041904014045,-749.7111274406043,-213.68980536472682,-452.62888292455597,-142.12766540570496,-211.24829854746602,-109.21817161129984
-147.8659008849444,-548.0487978376907,-752.5723135676838,-209.83890909679724,-452.77913838307364,-141.7844782017031,-209.06179982289723,-106.7061341849173
-136.85876761474032,-523.1484581370906,-725.8839357364374,-194.95103176161916,-433.79708695498954,-134.33789866197935,-196.0457322643185,-98.16144464874431
-114.73726567001414,-461.20553175854457,-651.1621454715781,-164.174892711828,-384.98787168105923,-116.77124167595454,-167.81870236928768,-81.2265064002704
-80.73634312136556,-352.94450852550585,-512.5069414785429,-116.30888230204131,-298.26258034901423,-87.89745147845166,-122.96779718170788,-55.77387606167365
-39.167756709624186,-206.55400695098095,-316.94719247011375,-57.41430580780137,-179.44684898405853,-50.98261661153941,-66.76900402711483,-25.44012275150667
1.5350441701021063,-49.40951196804641,-99.62072307724917,0.5049990972354444,-50.35402481076932,-13.370933439358971,-10.394678400287093,3.412064828427633
32.60005410920521,83.3530689656547,90.36354089389742,44.88769392762507,60.13999816733851,16.689928115717112,33.94261120748744,24.599592832659198
48.974194763802906,165.4721512780132,213.3817722549686,68.42782174417964,129.78585950295624,33.866068506883785,58.62702948943173,34.94961312203981
51.18624482505901,190.7466089719561,256.76158309493326,71.77722178869044,152.57189487460707,37.82747793786138,63.576289702570264,35.37004781513906
44.23524495991888,172.90814850993772,236.70168653299328,61.999067676321005,139.11126440146052,32.62264160270218,55.12354943364035,29.78711791487564
34.60424186526085,136.02457929545952,185.98206360345458,48.323044500934984,109.0166911394947,24.115711688408318,42.10409147995239,22.88641965018565
27.325550418308943,102.33957632877993,136.74594525242046,37.948374798536726,80.84631261193347,17.20421807670295,31.732710885079285,18.06778261132533
24.510284624372417,84.22024375096,108.18783118697893,33.922651245882754,65.2292397770432,14.234907020551839,27.33899592343032,16.54998527042578
25.571119383057116,82.80086108640059,103.57575568947192,35.438463137218335,63.49593641859611,14.994554348687451,28.45307007507652,17.680760581315845
28.454978261658937,91.65784809753166,114.78796306540482,39.581214433167794,70.56361552353687,17.740274247413634,32.39867265820448,19.8940935889817
31.012855171265567,102.12291494756334,129.66272608524187,43.28265302092137,79.29061539580367,20.46141336221454,36.18258558319778,21.684649288263927
31.944076052218538,107.59372889368927,138.28418916662906,44.6734826197755,84.08159801825387,21.80962213438774,37.85585873330841,22.229621297942234
31.11540165024969,105.69124625114027,136.42853533576476,43.547024227596935,82.76179059966101,21.479840645438987,37.041131311179726,21.55105581763763
29.28860180852829,98.12364670836725,125.83871075082719,40.97907945427121,76.57800577993203,20.05000865275938,34.653843529400845,20.266961726741403
27.476801607597665,88.76406903708884,111.85006129722848,38.41471654126661,68.6979534344702,18.447639690548304,32.08388896796189,19.104875899492225
26.31341780320744,81.11178281351582,99.82613293514649,36.7667899239671,62.12124000965071,17.361618167034923,30.32276350022177,18.460814421418103
25.802204849029625,76.60869810511673,92.46964708552892,36.05286357261516,58.21022487537086,16.940328347407046,29.540402180541385,18.26008808382514
25.536396478417192,74.62236546418615,89.37045674188012,35.70053941662457,56.56533508336611,16.904637902005195,29.285039551231772,18.159312716665056
25.129046685648024,73.61135232304505,88.37409845998917,35.15749487432394,55.915259286439785,16.89197022962046,29.01413552812619,17.880136503168472
24.497335810363655,72.25109576081054,87.15360354532308,34.29744632235442,55.04194109878179,16.720025334425138,28.48702488971464,17.410262245424185
23.850955532370083,69.78837824979891,83.89440822817537,33.40672402637391,53.121603979401144,16.41702570037385,27.79658004391947,16.972509771478435
23.4914779727082,65.90313918035955,77.41574944874799,32.90314313429612,49.69451424080045,16.103600776626507,27.17179464057718,16.84913822933892
23.587719643236664,60.68663463983141,67.56143238926154,33.02266640829698,44.760433354068574,15.875765413669656,26.775695668644516,17.184904226606815
23.997061237916157,54.79091150014521,55.82739630344198,33.57174970518156,39.01561012070105,15.730466978021333,26.56771669727461,17.827242785926785
