FZ,C3,CZ,C4,PZ,PO7,OZ,PO8
2.315034865243784,1.3056865014271761,-1.3517926314824535,0.2894495020271285,2.9472007184447726,0.04170786349569516,-16.495813628919908,18.77217972887752
-4.955107842962919,65.21425120015782,16.38841845498196,-13.997513140617485,17.782713700114645,15.151421184120892,-9.046934794635785,15.252881111957342
-10.172853241272696,111.96832248209604,28.450120610069593,-24.770078404572427,28.653797085531796,26.491878360186764,-3.4799077081049044,12.508611163408716
-11.926482555086269,132.19027326353952,32.119642928702554,-29.790381346015906,33.55558243163267,32.15753097753461,-0.7736273550474909,11.005306060684815
-9.872950137044398,127.64505059981987,28.800437066453913,-28.781006140509255,33.2197004704256,32.878074545193876,-0.6140023101446208,10.701163191392626
-4.721913619608401,108.97528493846376,22.979608957840792,-23.198205258770788,30.47258556253076,31.409103844807202,-1.6448510114090884,11.141230092015778
2.129008763768624,89.9905203972729,19.91158566668455,-15.410383421310831,28.73013491384582,31.01125431546525,-2.158627032613258,11.702634249625085
9.063574408228062,81.86451235876197,23.283735814257494,-7.827772581619811,30.474577852799513,33.8698705194325,-0.8924596825386966,11.811379458374319
14.584344652320958,89.26686555194667,33.57373314944844,-2.3506140934628057,36.22574691925611,40.11094996949244,2.3337993477092627,11.028807214168907
17.472043383568337,108.76567182235632,47.33615002601493,-0.12272871694462169,44.15132203793782,47.67107412750341,6.334247307684818,9.054845494451513
16.89770094374921,129.48024264860143,57.727418475125994,-1.3954183529886277,50.407727449731524,52.99706047344941,8.804407581454488,5.764448291805089
12.594033209538612,136.37970428244242,56.62286549179744,-5.460207262805315,50.32764922367976,52.37097252834559,7.148412472367257,1.319674348867908
5.009808620547946,116.11854414381204,38.006566488819054,-10.832799411827647,40.27842068106803,43.43671996544754,-0.36995128819276774,-3.7332073744122662
-4.7382083421419114,63.51841400827615,1.2096111531677178,-15.825018571716946,19.47981424299868,26.31544277088134,-13.690837479538468,-8.52716751009935
-15.186422868363046,-14.599048282051951,-47.868527449364194,-19.315453574582268,-9.17807268062105,3.7853434219116435,-30.744272962416918,-12.160288700448062
-24.954965629860293,-100.7681341006593,-98.51136025103068,-21.25237320810685,-39.85873335859169,-19.562154050710188,-48.07882830627495,-14.103696528945925
-33.00975989765217,-173.18495718788347,-139.13331402850451,-22.502629381985333,-65.73580844782775,-38.76735737876252,-61.99204643179038,-14.513634157416593
-38.60949354517299,-213.8990614414715,-161.37202592281199,-24.079490838585333,-81.21775480535761,-49.90390435111185,-69.62049690732447,-14.246403774975159
-41.06673828029469,-214.93749206271804,-162.3584326079083,-26.232339666754825,-83.46382351202537,-50.9660933677462,-69.59629681037333,-14.52256722354444
-39.63987695836344,-179.87315536777737,-144.48425802438197,-28.026763591146267,-72.76342698433574,-42.130781798072455,-62.190620581454716,-16.379508107233047
-33.79107282482311,-120.93492584717151,-113.45426077236098,-27.758167055617246,-51.982225740567316,-25.528029560336,-49.080486113060644,-20.176599576402474
-23.721399964113914,-53.73045639000837,-76.03697413784639,-23.991915197521372,-25.552748179499368,-4.661415536714868,-32.88060694899725,-25.40141117208352
-10.778493741795938,7.892397707062843,-38.49677822131844,-16.57542882369257,1.6316061289831567,16.46754058348002,-16.496779748015072,-30.87687488713754
2.684750425427819,55.08000655739545,-5.839313336046648,-6.94730631380036,25.26080017640185,34.42343128890724,-2.379291948456154,-35.27129288910607
14.080852050531565,84.73682249625608,18.520843600999072,2.4888008505936905,42.4676694533136,47.274384586616726,8.097717653715772,-37.67194776182035
21.62029815252626,98.36536297490359,33.04422820865562,9.549509728247504,52.322281191389045,54.979413916067564,14.837352483416726,-37.966500674916766
25.025734941002316,100.1762876865797,38.34416402630952,13.287810995773434,55.81219862719951,59.0023725955749,18.68293775601229,-36.87725033170254
25.519733887254777,95.47472536852881,37.14461870386567,14.257337425328993,55.29503114961438,61.33295349554684,20.738549970354605,-35.644447005569134
25.10729838176358,89.4942536240482,33.51521224777745,13.966692051908833,53.56368824705269,63.4097365129945,21.742165426937557,-35.48704507522016
25.573931836412,86.29386829717129,31.36868032100046,13.96862138133633,52.81556609591566,65.47646089525551,21.829270408337464,-37.05501748591929
27.737975897912932,87.67992656568276,32.86492508410581,15.14957187637398,53.92772699782991,66.66584209765455,20.76627081777268,-40.11786545787726
31.281615488936136,92.7708533777937,37.65225026237307,17.510992150249788,56.366146646244495,65.71989627776632,18.43882312148667,-43.67414769386281
35.12470430251015,98.7276245528234,43.38909532970398,20.377944134781227,58.731307547845084,61.91343111339032,15.23017743905747,-46.48247902192014
38.0596739522976,102.29741883105282,47.137852009950215,22.822451691024796,59.5811543405301,55.65131228134561,12.025480021131015,-47.76249271626758
39.34084164605379,101.24235318421648,46.80885230230773,24.132694548209347,58.09823206929205,48.43761025633502,9.867523318512376,-47.66371856402764
39.02008396562924,95.13489334205521,42.10375450646836,24.187980324665222,54.41232422743064,42.309725469054605,9.540258789539486,-47.204303473310326
37.913486373817726,85.71404207811135,34.82625538520302,23.547769251494778,49.63065929162084,39.097965967369596,11.354734934864613,-47.71057245470259
37.171615429091794,76.94101844402057,28.475635747323945,23.100478469490387,45.60128938936245,39.83857345535757,15.17274250140332,-50.11471266857387
37.58858724039329,74.20705423991565,26.941174055725245,23.380269185427355,44.29832488949864,44.45372882019134,20.480505656886436,-54.543900087981804
38.99364872570895,82.1055928746168,32.473501506919874,23.986852594772333,46.841899857790985,51.68191222022331,26.360006424657605,-60.405438572367835
40.13639240992693,101.42054311279404,43.90778056161307,23.592121476060584,52.58929992800932,59.29324656832745,31.45515204931176,-66.82454735309922
39.244860363501886,127.36939283261512,56.49504963266007,20.64693947464744,59.000149528702764,64.67675005676118,34.18948731194311,-73.09111949027641
34.99799563496041,150.9385121489155,63.927100359628405,14.371814379914694,62.64156626007755,65.73583510561733,33.33211428687039,-78.84686901338507
27.332541997753783,163.10101272814,61.6035700086603,5.365602535963002,60.90206482130478,61.742972430770216,28.650726956183657,-83.99318272626259
17.5720256766942,159.47300691777997,49.152974787769466,-4.590122297796342,53.38714600976305,53.67645779392425,21.193506220218996,-88.50106234815652
7.7925320416743,142.45827738201046,30.599844421581636,-13.407257134797236,42.106433553700136,43.7815355328042,12.923894076008963,-92.31466991497888
-0.18039330812683763,119.5739469680933,12.106037052784135,-19.68684978181085,30.34541520867578,34.54550389170403,5.861612845367487,-95.39788705256154
-5.549545414494468,99.17760580577826,-1.2337366953038669,-23.245441988263906,20.958881890196807,27.634925985834094,1.22042157063492,-97.83123245801544
-8.698974203066525,86.39344356849443,-7.5806927014258,-24.94650794029304,15.132105782000435,23.357672341428295,-0.9719389440435182,-99.84109104187934
-10.74593908104205,81.57966172608819,-8.428114097178485,-26.067897873156955,12.24409595097781,20.869064137451375,-1.6170113268245931,-101.72664833786412
-12.85784753126961,81.65571306988859,-6.966743522609198,-27.653085005214468,10.679382773965985,18.879769755332635,-1.9015746124936372,-103.74280113415871
-15.742546170916606,82.70812099703224,-6.1119930680931,-30.16900741058047,8.88431769801818,16.37365866953371,-2.698692291033519,-106.0162350402508
-19.50038001255003,81.97823141815849,-7.366961201130702,-33.510917315546614,6.0216547430301235,12.962112138016671,-4.307632923792746,-108.52479250195873
-23.773655073011692,78.4820381495253,-10.755624840925542,-37.21443917142312,2.0539298708621407,8.830103852122193,-6.536714125753325,-111.12719057580935
-28.02966927557997,72.7042463949309,-15.354827895250798,-40.73612866738639,-2.5244947886211344,4.464277792103006,-8.952113735836221,-113.63028436299173
-31.85173467136938,65.9959999451418,-19.95102147379901,-43.723506898829314,-7.0551884643412555,0.3543761583286845,-11.133804366438854,-115.89171947504192
-35.15571947411491,59.84499768314008,-23.654314532992466,-46.19546945461076,-11.074640992416317,-3.247234443845925,-12.871923433505549,-117.9309974089537
-38.24451130944769,55.05889162844817,-26.35720431192659,-48.533368311360626,-14.581269024264646,-6.458825230057924,-14.263228180666204,-119.97776280525432
-41.63733279881346,51.27872685508836,-28.767585078316152,-51.25071564197967,-18.04679429067296,-9.715529919685972,-15.648999531705261,-122.38807802328182
-45.72951660184379,47.33897604352051,-31.84981190113583,-54.658045445421386,-22.07233034743738,-13.494622372027308,-17.38630125532448,-125.43646743668373
-50.47704169499495,42.335570865552036,-35.99053679887418,-58.62951347517936,-26.86830430235607,-17.94861973693141,-19.573724835673215,-129.08999477033686
-55.319224036546,36.499181962240435,-40.558201034399715,-62.61365723963564,-31.95767105219863,-22.70008837376656,-21.926592793252752,-132.90910027083137
-59.41928023741179,31.072230094947038,-44.26277986408409,-65.88198054457868,-36.38041956329277,-26.97911630019214,-23.909792525705786,-136.17159548742
-62.12624392140199,27.325376665427054,-46.06184689220626,-67.91028081456471,-39.29925953348144,-30.05756117810419,-25.05779966852878,-138.21729381100573
-63.45665147591494,25.57339360603558,-45.97311562300535,-68.76338539555427,-40.63073151726515,-31.750118673824367,-25.301579999056703,-138.901626883465
-64.36442280873243,24.838737755799006,-45.336367285011065,-69.3212878639071,-41.350461714093214,-32.725418776332525,-25.13985693163646,-138.9443299615107
-66.57377594294442,23.14340063415486,-46.44256746205421,-71.12951362902486,-43.29799880608383,-34.4389931095457,-25.55655894567307,-139.9013587242618
-71.8395624941368,18.194320809552103,-51.58662534221585,-75.71578634451264,-48.43424909664818,-38.58358238096197,-27.632318123484982,-143.56256215331956
-80.76739858660342,8.495205262159358,-61.63998442947533,-83.50704768090434,-57.642895415540714,-46.10310995862964,-31.88636544409365,-150.84917877128697
-91.72061690249986,-5.159579383810525,-74.59220281969016,-92.87982860653601,-69.49065482728415,-56.11199933047504,-37.58639082421765,-160.67078033308695
-100.57600314162279,-18.614400011220333,-85.06258357786477,-100.04414591430113,-79.74263022692914,-65.36926148524833,-42.470624003494486,-169.45039111050258
-101.84945800172754,-25.049889610228597,-85.77567135581978,-100.14989620217196,-82.39218669218211,-68.93872065354519,-43.285366127838145,-171.88103545193374
-90.98248890902042,-17.994826767819205,-70.9225792555731,-89.32231344084053,-72.20187741053327,-62.11391669140069,-37.12760313319344,-162.89455512087278
-66.7635624157614,4.683988802808752,-39.77766060769398,-66.69135339835383,-47.628389081815854,-42.83781946057995,-23.009527116680015,-140.07377033564953
-32.53161224207401,38.45142127810919,1.7638586043017506,-35.30944041534564,-12.396047934769108,-13.3031915051604,-2.760741019223935,-105.28494648028533
4.691291492078862,73.39168538603425,43.09307460624249,-1.329915601507006,25.473839931662,20.327293110639218,19.354621478235423,-64.52757007857714
36.86430515199442,98.7364105009436,73.48426823731877,28.26233228186003,56.896103748301336,50.14100159477641,38.21712824731361,-25.886262616403965
58.05563739055631,108.01364137275063,86.84506346297657,48.25729596883306,75.51295587020206,69.56671319230408,49.83767991344228,3.4740183749162674
66.4472447337845,101.72879590544503,83.94662547329406,56.892377562573515,79.98929950585956,75.77379184091966,52.746818875525186,19.806225152137
64.36563249098602,86.15309805143261,71.09718833603239,55.93078694200006,73.74435911973467,70.28055062044785,48.193593399287614,23.6689584600053
56.64729312631681,69.39614076231122,56.45337895266289,49.39079244447522,62.64550285934955,57.738087276720584,39.27033970627537,19.035024111093268
48.41227304707644,57.52810523414761,46.37109840152126,41.741533786521885,52.23853643838721,43.775965583619154,29.58514438108687,11.305964872959187
43.310947301564454,52.923432439334924,43.629207631152596,36.3823951481874,45.95311660137604,33.033107584858634,22.12678931913421,5.238826469715038
42.77392873250083,54.936616212832895,47.739888967384985,34.87124778791481,44.7480395128462,28.077862401994864,18.641983321911393,3.579230316351773
46.219970055250315,61.45118273107267,56.329760443424284,36.97039056317706,47.74992207340117,29.29341180364323,19.512055998135317,6.723535182967337
51.851288554766484,69.976694578081,66.5026079787944,41.28164080288767,53.18228486329638,35.397246932319106,23.979186994693332,13.276383218155457
57.5953450885329,78.12918978522626,75.73516625872195,46.0788270847511,59.15092895433092,44.188135778150205,30.577635251144393,21.081672824918577
61.83741576975197,83.99454233115539,82.34126567425345,49.95952023693018,64.16185399572201,53.233078547818494,37.637058357200154,28.23351724906829
63.76326742882498,86.53415747612883,85.58774260472573,52.13305918155845,67.35885699371632,60.373049503010485,43.72048611683321,33.69667290148749
63.338814961781054,85.71005314045969,85.51848985868901,52.411731496774216,68.50579025159595,64.07656164984495,47.90839472582378,37.40403781020256
61.09508231702458,82.19865580687363,82.68640556657199,51.08681503230406,67.83610533694869,63.74124907440949,49.94065500994599,39.93939598238998
57.88117685722734,77.06895911210727,78.05136134090573,48.79265231881642,65.93950632617323,59.95277038467719,50.26691363855181,42.05664280188029
54.6355221283739,71.74272260638243,73.01395232182867,46.331149970227614,63.709709527456546,54.49960071329762,49.971363516864365,44.289868365139114
52.148132254297586,67.93293101147488,69.2077422213295,44.41997324172633,62.17308837940099,49.85658687915909,50.4510160620256,46.79912417397628
50.83055625479397,67.02455315977835,67.8059115254486,43.44030902829338,62.05638095142912,48.116806844967776,52.8186038017524,49.4462345136859
50.60041724775262,69.03874440476399,68.70459514265268,43.33278217236644,63.27377403890448,49.8509199527819,57.260115885659644,51.98251759518786
50.981880017944405,72.13278951228091,70.33572732698441,43.71274805746009,64.76736112222088,53.647807275645725,62.754132436375656,54.21015695872004
51.39338465800341,73.40841432840405,70.48518498926599,44.12521769060007,64.97514981580127,56.78308527093099,67.42843027831482,56.051452148616654
51.46059709505169,70.66939101172305,67.66004017274153,44.28638652564478,62.72590270412154,56.726578449462075,69.44255149947344,57.55690765989469
51.17904582784713,63.906445120108856,62.099285453949506,44.199908116925265,58.01610468368688,52.602272993619316,67.93411114114123,58.91056155753004
50.852776995879246,55.57454408388363,55.839656322469395,44.10828918633872,52.20297192814209,45.72098937675705,63.50352613857688,60.425664939779544
50.857881416097996,49.66920848272202,51.89127899839045,44.293025918260874,47.509249835596385,38.88881498431634,57.95751838935004,62.45645818673168
51.35681102349504,50.116255411222006,52.92575403776191,44.81060783220069,46.054105459769886,34.91206627544858,53.42137092583265,65.19431090121515
52.11695388158818,58.85105771777551,59.88016542724753,45.34861703016656,48.77147395319591,35.12070208065422,51.26253982445836,68.45564748701591
52.56219173480613,73.96679517571225,70.92916869204768,45.388694885774335,54.648201141118186,38.65896361850677,51.39224824944711,71.65374311776218
52.0813881812684,88.88491960260671,81.46837194842503,44.665448919643296,60.73358717392379,42.8711354813023,52.34851068591093,74.05144578536166
50.44664768423616,93.83385241315604,85.61873813060667,43.61632907022261,63.16488937841016,44.57471765093128,52.152285194183484,75.17095214999563
48.067476730466986,79.92940416622301,78.93961129495892,43.407502528724244,58.920228353466406,41.58786605277017,49.469075453751806,75.08257353470269
45.86001835375836,44.11622557070192,60.98036733178863,45.369409749169236,47.430808923911016,33.750015290449326,44.395833525910696,74.35351831936467
44.75315486492067,-8.091056544299606,36.0047452031354,50.13078452340706,31.069975896395913,22.931300343025285,38.40678879802411,73.67512644506584
45.11975865798215,-64.24897762886948,11.185251785272794,57.02894240501137,14.11844604891925,12.059978240196855,33.515536587615415,73.41780867029074
46.501341545139326,-110.48632482229378,-6.815001099750538,64.24047184860204,0.7379364632370081,3.7169011025735412,31.18855157056624,73.4095342449918
47.81647298194956,-137.78063371635386,-14.881290228817857,69.60546852027144,-6.891421757487199,-0.9503825816262633,31.656981538048864,73.069143765736
47.93061023292803,-145.3982217140267,-14.379393139462167,71.65584452644524,-9.243744078742816,-2.4700493487356834,33.97268513548996,71.78308601970873
46.233431236296354,-139.77974933899617,-9.659614209327366,70.2334085088724,-8.689822371913817,-2.4370781475275844,36.671715573358334,69.26842179864738
42.87774529351186,-130.10361648690264,-5.348415380232099,66.37472827291043,-7.957567322719215,-2.524909689035594,38.568466986155435,65.70364529611705
38.57617860552997,-123.62005362161953,-4.208249855774862,61.62642723704016,-8.827045318783847,-3.72749850921607,39.21156661420891,61.58509171857479
34.14919514080351,-123.34461428117048,-6.604008967738984,57.27772682112582,-11.707069573562157,-6.171291984909014,38.84130191008158,57.444352670368424
30.14299393423026,-128.53441377533875,-11.309986825543282,53.940178055229296,-16.013659965937094,-9.403285841607284,38.03401040435557,53.61778306875728
26.709604536640434,-136.5534738674233,-16.661908121221284,51.57317133902588,-20.817728334420934,-12.815291050748074,37.340437490486245,50.17575935464505
23.71079295862764,-144.58729329828344,-21.325878055941278,49.762090561514654,-25.323706449808366,-15.938559853035317,37.09324193592153,46.991290751528354
20.888621717249904,-150.6598814923142,-24.618358538000294,48.01258490060175,-29.092801941526997,-18.559303801709117,37.36968969958635,43.86305335182564
17.99862868636148,-154.1153437332347,-26.58191918186615,45.95636431793378,-32.10183952211756,-20.71894912362804,38.03249002692858,40.62707144868814
14.898716178540452,-155.6216805329103,-27.84265647294743,43.46451687945318,-34.66290060343045,-22.63445404812737,38.81963067802142,37.231221301928095
11.600508552947533,-156.5635386379619,-29.18751832033646,40.65811098133712,-37.187960283013524,-24.54929287038067,39.47734169245476,33.755931038103625
8.248504259515835,-158.0711304498091,-31.061805508439313,37.796200224725695,-39.91468988450723,-26.58597991580992,39.88182473080459,30.362067320296667
5.0081837685710315,-160.4324296459272,-33.400477320998114,35.09415707616153,-42.81888142986493,-28.71536238007751,40.068784634614794,27.177384199353227
1.932422584541342,-163.38074562600175,-35.93811103041064,32.60410259345346,-45.79282357064574,-30.869883181337944,40.16095467343225,24.187371969017015
-1.0778013852825692,-166.82399811171118,-38.6227073677967,30.24555404111935,-48.87998629253908,-33.074983778382816,40.28113353379082,21.21392320393056
-4.179589429726861,-171.08327801505388,-41.63997528299163,27.928407457072627,-52.278353551070374,-35.44250819564265,40.5330779619677,18.01185891039989
-7.44866119450309,-176.31829461007098,-45.02957549122856,25.628201894697664,-56.08367971907635,-38.0198718828133,41.02445961243058,14.430759317121009
-10.814332118162078,-181.83320479864207,-48.375503237261775,23.353105695266702,-60.046678929371225,-40.65340987104033,41.83796667196082,10.54774378263454
-14.10148346698257,-186.14903665341134,-50.9710399339946,21.07879842731514,-63.614130745517194,-43.01656081735834,42.9275942113915,6.69558482210473
-17.12229857987546,-187.9084718005199,-52.325986968433284,18.74983617572412,-66.24235726867234,-44.79532163920093,44.04375193777816,3.353677395974654
-19.766207588714558,-186.87763590585567,-52.566738618314844,16.340054742816438,-67.75458851862129,-45.901467562189154,44.808790351899866,0.9106886379832982
-22.08771482445456,-184.38121595639797,-52.48789591679593,13.883680956808112,-68.55512688965439,-46.60134499921812,44.938947505085835,-0.6344472819727349
-24.377505604610047,-183.08096429475324,-53.34656703617304,11.439683981822053,-69.64283222870746,-47.51481459138291,44.47462364482406,-1.8816683528598266
-27.127017337901698,-186.19335285591686,-56.47749405901933,9.051271258518806,-72.36069869153012,-49.441905558805296,43.86850177999526,-3.9468716318595116
-30.793178461409788,-196.01062753632237,-62.611829411122535,6.761383353509265,-77.76977450452874,-52.967522655830884,43.8669092258599,-7.967985208936317
-35.4158319101299,-211.8042429925072,-70.94357097191124,4.644098431513768,-85.72539124558027,-57.91912241285932,45.1965823962104,-14.319059476740488
-40.323169043626436,-228.18081121577254,-78.54340168768982,2.7641240601367945,-94.15513651474433,-62.98633154791715,48.113674762873174,-21.917769675793142
-44.1835666957581,-235.67297851622368,-80.97005695685098,1.070155043879358,-99.25164000505272,-65.90581412584483,51.957517880882605,-28.105645229312316
-45.467819009414484,-224.44681506557112,-74.27430968935887,-0.6505440013660135,-96.89033068872259,-64.35546951634564,54.98090173701731,-29.38076363596499
-43.12152456352646,-189.68871001184178,-57.40302078606908,-2.6531992873339574,-84.72376886203713,-57.198221666013026,54.7435996970304,-22.82634686473295
-37.1089364072,-135.40331899295634,-33.384201293112405,-5.01853051233507,-63.76085305812722,-45.353923617570544,49.10075863660148,-7.620912573371411
-28.54877861676226,-73.81088872117598,-8.297044325993065,-7.531066458945859,-38.379854296385474,-31.681467433639412,37.38237761675778,14.186354873448025
-19.361375300485598,-20.194381273351766,11.511472969613795,-9.78309540918561,-14.614434626863403,-19.804332987817826,21.0810928511723,38.19470792001628
-11.58338815439465,13.984399017043735,22.314628817778104,-11.442331586584041,2.3959704188425452,-12.470919138384607,3.5299343917094856,59.3500734281668
-6.671173782636242,25.739076424991598,24.29356546231857,-12.483949727635151,10.389863047392511,-10.373486900723059,-11.392534736351166,73.98642967509083
-5.105511532681776,20.511087580368432,20.61596563091016,-13.21610727424189,10.385283863976161,-12.104088548058773,-20.91195873045415,81.12200235237061
-6.422734386977174,7.990913552448983,15.149590301570386,-14.08406924245253,5.500616881348853,-15.225750293329824,-24.52324568574858,82.36542723186368
-9.56408418896544,-3.2295576399440424,10.397740453309007,-15.39503676040012,-0.8901890722787098,-17.749892691977948,-24.093202000687604,80.62640023545222
-13.316614264501467,-9.101766347837955,6.783189462648805,-17.145215582420963,-6.570062556184581,-19.115555798838564,-22.88712675226214,78.47859411316529
-16.65340540359523,-10.450001575957563,3.274460822579881,-19.02924455470302,-10.894590063948803,-20.164435626671636,-24.034240231950793,77.09652085093248
-18.892797752572537,-10.978765378646912,-1.4287159230680933,-20.57537215726815,-14.336836184755919,-22.264960977694773,-29.164297454137255,76.21565012479068
-19.708361732759183,-14.478363118856352,-7.885725462182832,-21.31510636445747,-17.6413745063188,-26.207730146292516,-37.79467347772769,74.90222690287307
-19.093726959508214,-22.401868776035183,-15.384856633935804,-20.969189282440166,-21.061446692045127,-31.543568189205057,-47.66870685929309,72.4857663177841
-17.38140409943512,-32.603271529396416,-21.997528663077897,-19.670237766544332,-24.022872549505003,-36.72257324350945,-55.845374097097434,69.03798557090046
-15.311690655348283,-39.90889574132665,-25.338405131864825,-18.1466962902238,-25.396613980508885,-39.92675676976751,-60.05273089360181,65.19460470060497
-14.013132551081014,-38.68289167114951,-23.91673060195228,-17.66713402310505,-24.28104677536601,-40.102494829989475,-59.709114625004126,61.588017850355484
-14.73257828157888,-26.313753031597667,-18.39884301324111,-19.594940277206398,-20.83287735904602,-37.58597605304937,-56.13757805398114,58.37049590120567
-18.32024375598338,-5.48485843334477,-11.805741114050344,-24.680010335251247,-16.53610173979728,-33.954849632295414,-51.86154802153932,55.161903214876524
-24.72847833121454,16.534943532352326,-8.2071471848542,-32.50508042068097,-13.611464436666429,-31.210846931015,-49.34677549477025,51.40717481692442
-32.89291895037869,31.447411077542426,-10.582923843810145,-41.52390228662424,-13.88854434535353,-30.805769079987606,-49.872805785128385,46.841623817435774
-41.185110234066975,34.169569971631034,-19.26464355483631,-49.78993405785564,-17.894186785307557,-33.09075366785201,-53.136344966120774,41.723278101129935
-48.24232511439681,25.06981346940447,-32.04005228064191,-55.986115565808355,-24.773519858098805,-37.451146296737825,-57.72669378304216,36.69575250748868
-53.662249191392846,8.900562662707669,-45.78544322850947,-60.085021733406954,-33.03152126115813,-42.908163479430925,-62.0694196449151,32.41914262112823
-58.05625662572366,-8.52113085647036,-58.30483233559108,-63.142283280155276,-41.44058648077201,-48.65665088698508,-65.17643093047646,29.246277408970037
-62.34222329655321,-23.288460145637014,-68.872235843598,-66.29457644672874,-49.3289326385313,-54.09859698141364,-66.74533065472319,27.14331625022506
-66.7045182223093,-33.96827312145382,-77.07334179641099,-69.62032383439217,-56.02039763885389,-58.39446007365958,-66.67916168992508,25.844916470523792
-69.964420606764,-39.94220801828806,-81.1312007290371,-71.6807167681555,-60.03693893949749,-60.055143803896186,-64.56439121390828,25.07336645981905
-69.90876883181633,-39.723039087847795,-77.57725919974038,-70.13704271652553,-59.04867052616994,-57.19062978375715,-59.67495009382661,24.656218519326682
-64.5021084949191,-31.30270982588249,-63.12215323503124,-63.12684091980323,-51.01867767200823,-48.54164228473463,-51.60882947509912,24.510481496778617
-53.280641021493466,-14.425405273840354,-37.62625329605345,-50.57599482132149,-35.913771236626765,-34.68553410436981,-41.07252960032487,24.578316304821218
-38.04010510380353,7.390388561872106,-5.858718099328594,-34.64557941031847,-16.669669975283195,-18.457414076476667,-30.1093233280751,24.793451015779578
-22.322269999240795,27.27636003583549,23.63862905457573,-19.012931244825833,1.5456596119145198,-4.0382326628952265,-21.428533422952402,25.060594479142072
-9.924708495743346,38.11631916071513,42.265082379123506,-7.349280572304389,13.565219434835752,4.915416057837954,-17.16150532770607,25.16815240947122
-3.244439138121801,36.38209311896569,45.49876789773666,-1.797838099267198,16.66977391678878,6.995372510177341,-17.817195599845505,24.61732102806828
-2.3437712528644465,24.11182843803811,34.96428735835115,-2.220227928856932,11.777855286814367,3.5678495425644217,-22.087157820350576,22.497370378912034
-5.163461999198402,7.721617194582036,17.283448565086967,-6.503891928014944,2.730932306768835,-2.144364972827182,-27.564640887037914,17.620543104194844
-8.644557102295064,-5.474065158512437,0.5933630359471893,-11.643975235857827,-5.764644703204758,-6.741832615305853,-31.863066395597425,9.024834277084901
-10.102117839114127,-10.735380953640627,-9.11778078523568,-15.000357361521742,-10.25652422571987,-8.061311048368724,-33.47743981965649,-3.315917382375392
-8.218038231118735,-7.436428846216094,-9.993895995310194,-15.191496618876512,-9.655734771854894,-5.696849823092008,-32.06538154860771,-17.980412578993548
-3.3369444599337057,1.608000515701485,-4.108747965913051,-12.358183330707318,-5.091181530941316,-0.7044908908264915,-28.27204090119934,-32.20007118026699
2.911741666689185,11.947780218237636,4.202857492317963,-7.813417059188866,1.028064222305075,5.047303582563187,-23.392410778397803,-42.69192726871202
8.422402307666104,19.288029866787944,10.425312725128697,-3.308383108018795,6.127437684780153,9.534473052546817,-19.008000705007454,-46.91215240205798
11.503899051855344,20.852387862978585,11.606540952970633,-0.2651034358843122,8.381363003134652,11.183022669333052,-16.548174893382562,-44.12280094811964
11.500178365930449,16.30241824107689,7.335248294544772,0.6963229887252554,7.264990151482677,9.424764945691562,-16.77591161512145,-35.70944434058484
8.915032427036826,7.949102713847356,-0.3399405834714035,-0.2073338037920086,3.6261024221654745,5.0188183032303835,-19.411797460954162,-24.562367363672443
5.051697995493983,-0.15509248056435287,-8.07596129520719,-2.2253096411993423,-0.7794890589030026,-0.14512586492837298,-23.18985165597934,-13.825687732938851
1.400991355852343,-4.10837248227256,-12.991642625955645,-4.478794235545406,-4.127509659572904,-3.824058920498578,-26.427627711993743,-5.645613025863363
-0.9153600552903163,-2.111984149692836,-14.122272701332866,-6.274177512810977,-5.348146513755855,-4.448079103754136,-27.853329792904784,-0.5254845633387786
-1.43617715542073,4.577149843798256,-12.836731048635855,-7.248702714821841,-4.541600046417909,-1.854685877708116,-27.252499681306958,2.463883631639978
-0.3409281343145595,12.100198990829139,-12.095847673705814,-7.355982065171112,-2.8374692277276012,2.6586292654906534,-25.59557511296891,4.853309295675066
1.8035721097766328,15.565855233713792,-14.973007787937274,-6.730244497375465,-1.805552400935734,6.980707408785954,-24.574370384393685,7.873911600229488
4.391314378104046,11.259970660877663,-23.014407281979732,-5.511158995801372,-2.6370004878420037,9.21833925898525,-25.741930222219167,11.99093006641733
7.059582137936483,-0.9890829938190622,-34.979064347570265,-3.7639934084514906,-5.356093115869797,8.651068829525327,-29.631326834554248,17.021294535940473
9.767612531197726,-16.16617005147401,-46.52842498873279,-1.5964642357159198,-8.405569630973659,6.177855382425959,-35.286303496972884,22.58118078742031
12.632727926857724,-24.4995401052077,-51.368913633207015,0.5945247662814268,-8.969567846820585,4.008419859559003,-40.508610245102425,28.44955802489005
15.63934709920226,-14.859073048565836,-43.80872856625124,1.9917585669351012,-4.137465446441782,4.671013819372716,-42.79488231124823,34.597436279717726
18.438163133352873,19.758379260467542,-21.738928290354547,1.572824039613658,7.52043285703712,9.763882333434736,-40.538924027066834,40.947319905347
20.403084155782384,77.49826806277686,11.607651780019351,-1.3566300051009996,24.830522000030008,19.073470820385392,-33.868657957900254,47.133015062061155
20.931372063920758,146.86764276077562,48.40700786543343,-6.643995562032568,44.129102247148474,30.554180372696305,-24.643492233305306,52.4935233224352
19.790620552291525,211.1081894916903,79.4316901824146,-13.193035258012362,60.72804375912933,41.2290314499177,-15.593236825221187,56.32637887041958
17.27117609990059,255.7166380408023,98.07993484591663,-19.4457316216486,71.00132522774109,48.552937658600776,-9.063993227524552,58.22744378950794
14.033537727617164,274.8906839845439,103.02146916941702,-24.185120207557038,73.91682191994227,51.49972318434893,-6.0470591061889705,58.299118432364004
10.762470751965045,273.15002680529955,98.02454022045286,-27.128879595189577,71.15401715246209,50.80108036422708,-5.965888853427833,57.12410934496811
7.8872558066225595,261.4074947851646,89.2874400587143,-28.88170602227774,65.85309607784298,48.29721507797518,-7.2214472412290425,55.559350045648934
5.565199082317875,250.2676404908856,82.09479792395653,-30.258970067592678,60.8885952762613,45.88483896350072,-8.085054302921884,54.47286463146885
3.884824468463592,244.74532337558327,78.74753059546526,-31.47275156702905,57.7140774899886,44.68899308499959,-7.453053448757806,54.50178208098048
3.0405768006879725,243.03018396053207,78.49689564257108,-31.796138197583698,56.22837476013722,44.790248970326196,-5.2112318027788405,55.84710873943601
3.268959387723667,238.95751442020418,78.8126217889479,-29.97073238227516,55.3591059388712,45.425358872149666,-2.221492643847243,58.133950216693506
4.58877159398992,225.9389454957444,76.86825472258158,-25.075562625286008,53.78014691274996,45.39726166358209,-0.02227578357716431,60.43082650630849
6.604037467361384,200.22812399349462,70.63770218650251,-17.26442600935823,50.43342476546408,43.518679203433635,-0.2879816998423816,61.52220779588836
8.593236079688829,162.5456535537327,59.57647896865339,-7.903212169141315,44.85605368348535,39.03797385237683,-4.125914739925524,60.39691120516109
9.862282770145407,117.94290145808918,44.90937387514673,0.9522787776416616,37.36426036519079,31.981677358632748,-11.451331074395464,56.72946046426782
10.11409375356552,74.13183110461469,29.33762475593036,7.410494362567913,29.016617433312206,23.26927480181536,-20.787757808566482,51.05897174665457
9.57272588872735,38.82872220029786,16.05932364311122,10.459839311609288,21.264234618501305,14.480608855406448,-29.70287430102051,44.51258648697496
8.78770632281336,17.05490623577621,7.417142517579721,10.218012474896426,15.369998675629713,7.31700566782112,-35.74875293008695,38.206163121022136
8.272795367013583,9.468848139621556,3.847111208764159,7.686925868415517,11.873069106132368,2.977341496779962,-37.46273561129554,32.6755139227384
8.230180129894507,12.473280667409098,3.758657665011131,4.231316588626074,10.40790348633239,1.7390060635992033,-34.923209802748886,27.66932464455526
8.517257094244044,20.11464103816588,4.490737801738177,1.0554651373634885,10.004216194468107,2.935822496835101,-29.594082348894364,22.383859096737588
8.821582723073378,26.881988119496995,3.8132016242978897,-1.1407964939181707,9.686091050519282,5.3093815347196305,-23.585403854984122,15.940339946390388
8.881591422231367,29.911560900483057,1.0453964036548178,-2.258068345110313,8.975148256525719,7.5209325147483925,-18.750625553215187,7.806671706303583
8.610023575582124,29.42318716907435,-2.871797356916273,-2.6516987987065184,7.987837852293461,8.584915017819721,-16.052456000427345,-2.0185630635434317
8.085007173949023,27.437607341394237,-6.2381031790802055,-2.82541631026558,7.152563094299168,8.111432992532553,-15.399203652528849,-13.053743115868498
7.455754455206564,25.978024203005493,-7.656844885244514,-3.126603851257513,6.846825944115621,6.368974295404991,-15.894666330116399,-24.509939473238507
6.823105644438984,26.015022697824392,-6.6245940624924335,-3.6144492704768303,7.215626275310347,4.18380643162637,-16.326178679217396,-35.51119635434871
6.144776429007922,27.45474004813896,-3.526225352214962,-4.151775266910822,8.177677656867306,2.6418270749723187,-15.716616160020946,-45.31508230308712
5.218776783587257,29.600645736556583,0.6763800085120377,-4.602869466169483,9.474317536031531,2.6067342521509387,-13.768687556148302,-53.475116682368025
3.784059360066126,31.543950727381453,4.822594084022189,-4.961365225606017,10.705868887653741,4.238665124274491,-11.015185343803179,-59.86704035961833
1.703984194291171,32.47967158940557,7.962804874002298,-5.336674840625528,11.437195066913672,6.8118772266726415,-8.564962564759734,-64.56119467530664
-0.8912419572074388,32.10789581996662,9.727607279943621,-5.87113088797596,11.403531862445346,9.008278881841571,-7.549095082846754,-67.64322757886013
-3.628043316339846,30.899972380668093,10.401199975904754,-6.687692156616929,10.669520851958241,9.559376142240758,-8.579260086213642,-69.13757116502548
-6.081910731871012,29.804932427968428,10.526296690605326,-7.876908625846577,9.560621428465959,7.877255707399224,-11.52504288558435,-69.09372272943007
-7.99953273259045,29.4408165366334,10.288790777938889,-9.461342287024994,8.394856821497143,4.340598705444953,-15.680950179618893,-67.73659185385051
-9.386595984735154,29.461319409913337,9.232292352451058,-11.319391849035673,7.263652572346804,0.12630681306485445,-20.13597708471843,-65.51783069636768
-10.410247165788885,28.754271571987765,6.620974858006724,-13.139184294294978,6.074149434023433,-3.2914334907994314,-24.089241405725048,-62.99326179371461
-11.202750684213836,26.370296960196423,2.1982516689484153,-14.47980470330823,4.80782266276776,-4.734897837921974,-26.980927077866234,-60.6004316506709
-11.701869321758547,22.44903744518501,-3.2336231241429294,-14.929933538962228,3.7590517394537235,-3.7604776471892047,-28.470486109588094,-58.48994704721395
-11.620895761042162,18.53773705364091,-7.7985019193283165,-14.28048685872379,3.5674424192661562,-0.7594939285091122,-28.364642798639466,-56.52235650622116
-10.576049323392109,17.220760771480613,-9.107315383550317,-12.640197784550015,5.023633344925381,3.3112443566162812,-26.581581070487555,-54.423260988934274
-8.343883226054798,21.172314591219507,-5.247574647413271,-10.470227971819828,8.70291104733974,7.401748533581423,-23.201709342328442,-51.98519291686521
-5.1524611329785435,31.621373275607727,3.971544317067,-8.515818157016296,14.476126218237066,10.742117636477339,-18.61204762467939,-49.1887385894056
-1.8327897036058198,46.480892708355306,15.932704431351954,-7.591351582302229,21.041798514537373,12.88848512641151,-13.667299221737833,-46.1895629344178
0.34431875378781174,59.23151873073099,25.086344128846605,-8.226649437809963,25.82586207566233,13.488378331165354,-9.695258944084937,-43.214628226961565
0.17011988425680127,60.10389664032034,24.5228059637272,-10.321912932858602,25.625201527411637,12.072599010751304,-8.183485933796854,-40.45358169796862
-2.880527230478738,40.08722818667197,9.04509447498528,-13.053757937946962,17.985507869128273,8.173784948170734,-10.17095749256967,-38.00210513575968
-8.276520117994789,-3.8835552345739077,-21.73113381226486,-15.181604597976513,2.6837594830811464,1.7664879802196662,-15.633668342871054,-35.8596921691913
-14.580149228189153,-65.7685092324118,-62.238316645869034,-15.647232571903274,-17.6390024549202,-6.3240352357149545,-23.27416185521783,-33.95786464412622
-20.08560802530123,-131.8343072883714,-102.86034646885284,-14.133099270015414,-38.29418696224945,-14.464240996192313,-30.95140414777271,-32.20104518715772
-23.598193508811868,-186.44360100733533,-134.10786546413925,-11.232173516437532,-54.531817475317425,-20.82100072900308,-36.59493185457169,-30.509254954452846
-24.9062613358752,-219.09704105438726,-150.7725980055119,-8.109675708472892,-63.617921494062635,-24.206538058030663,-39.10542734550561,-28.845467282179214
-24.694060244831622,-228.62561202723634,-153.69686782263153,-5.861067383683301,-65.80466608752106,-24.60922919102302,-38.71902667549792,-27.21242398331712
-24.00591853369623,-222.22399829070477,-148.30277293033225,-4.968907227679978,-63.68834949223207,-23.059074885920577,-36.65118940783081,-25.628194186256042
-23.640046243555496,-210.3772768224724,-141.0801398127348,-5.1790776944839045,-60.48648053492924,-20.946348402469734,-34.300715865450954,-24.109878558517547
-23.83306299759047,-201.20888245343795,-136.34730172852997,-5.806921229519342,-58.385179068765964,-19.272439032088116,-32.537936896736,-22.677821411621935
-24.341215219788733,-197.58186487031654,-135.0301457559258,-6.198581006732863,-57.879243348001545,-18.28609891765106,-31.460248354109055,-21.355145031048586
-24.764411917476338,-197.86630110011907,-135.59607773962293,-6.0417521071471425,-58.22312145099564,-17.62174963396875,-30.634469306929503,-20.133033760810765
-24.878699374311356,-198.84965751698283,-136.0060625125809,-5.417486480437781,-58.42941759779971,-16.734268176448907,-29.569283708550373,-18.918655374433243
-24.81780070427977,-198.5732201780811,-135.3824302927184,-4.675133630942131,-58.12958571744279,-15.342242881503164,-28.1253843501562,-17.52837574774664
-25.03607028847829,-197.7167622736853,-134.65662861427495,-4.234188436794311,-57.89457044310417,-13.685051845353287,-26.6790839410067,-15.772015341427405
-26.03998873978039,-199.15767023000646,-136.00104320232236,-4.349777513355181,-58.90935650037978,-12.487035680411545,-25.957864977710596,-13.600088204964484
-27.960917917233935,-205.85624488734794,-141.1957042928568,-4.8903234607561545,-62.0914366479408,-12.57721720459943,-26.5616167423476,-11.225243109965694
-30.18666783075364,-217.79867710543994,-149.57717586840332,-5.267045554686543,-67.00349949108467,-14.257525541084302,-28.352542255295766,-9.136111579000605
-31.349876471518797,-229.69299165032882,-156.83196086662494,-4.653970552274399,-71.23057830479618,-16.758937002738982,-30.09026854967818,-7.982122029018213
-29.830772514899998,-231.54005052009825,-155.91734553832814,-2.450764535226849,-70.90833532606733,-18.248885852828288,-29.692794882406808,-8.370207508976714
-24.59722316602335,-212.8952240404893,-140.26887944837074,1.2846428397689011,-62.496974297924545,-16.615788362096264,-25.179478034254828,-10.650645067339317
-15.918125893973226,-168.9598945887811,-107.73955974264734,5.735981341997061,-44.96156403844716,-10.7231396045744,-15.859276023384952,-14.780046195111261
-5.492630052730626,-104.711690276483,-62.804324960146225,9.64533232364981,-20.989266963428847,-1.3832197162578457,-3.0413082924208794,-20.327796763945248
4.140798903229327,-34.0113294569147,-15.38424568618901,11.852826122235236,3.709078029107527,8.666238459083381,10.266302368483586,-26.62698405072041
10.631905431784386,26.235727356775293,23.268168448378777,11.750846177433523,22.801384372555965,15.938034606751964,20.61522044210656,-32.992403889513554
12.758599093867359,63.52120214655319,45.32523068826432,9.45044327784887,32.128209360833786,17.929457453082136,25.668641282619852,-38.90081700513342
10.834422667334843,74.46490465221375,49.18110557199965,5.667876393266057,31.324491461610304,14.393763354073933,25.170851063905427,-44.07110703047477
6.461684029388288,64.51037564757951,39.09876963561579,1.4844045962660664,23.48361354483694,7.371421431599031,20.82212939144022,-48.44039840315077
1.8471996717010262,43.68551125485534,22.546477538863595,-1.882630868871825,13.323133076071384,-0.0010483234785376994,15.245616672732307,-52.06036887870165
-0.9584142470033138,21.798230967798936,7.199995817090253,-3.2870484843783445,5.121922800029194,-5.100156245551089,10.759618538025476,-54.955657985307525
-0.6242851206253175,5.931606497624294,-0.8899616561335315,-1.9135856492576788,1.5339969077406097,-6.848945947678652,8.648632874204107,-57.01798784660665
3.188597104456909,0.5539747053022651,2.120558143182238,2.406130342559748,3.508412567012957,-5.698555909823405,9.144382213929223,-58.01770720979117
9.82696743263912,8.388443658701359,17.672921703424915,8.977403592298137,10.761451194106161,-2.8452164084104163,11.828251937035711,-57.75003988910988
17.8801343610084,30.219438821119155,44.403867515549905,16.343190424328156,22.151496222289282,0.6177679421363446,16.024400343267935,-56.22681812752249
25.615508301477647,63.647346915479254,77.90529308969906,22.77499666148191,35.79424142391748,4.084291904603665,20.973396565976728,-53.77156934548198
31.529991749405653,102.43858486871254,111.50930681515884,26.96841244152543,49.238054427957074,7.324025748924686,25.874910146695687,-50.933928668633676
34.84406695809099,137.99865885552114,138.41142356942598,28.581650473365812,60.031095355861495,10.213095422911698,29.99116562241898,-48.26650635968099
35.722117655596385,162.78553141020674,154.31595801095784,28.303303812254374,66.58878888681568,12.629509913808178,32.8651236356122,-46.103215662230916
35.086264354460795,173.69311125318453,159.0915171755839,27.399493764337752,68.84427454696883,14.545454074042063,34.50594109678352,-44.47077357141465
34.09872097923178,173.121273230494,156.34569658795152,27.011305447133694,68.1665395746598,16.11082696030735,35.35001762206742,-43.16559457083013
33.59309087522973,166.98576740439145,151.15603375646762,27.62394963552178,66.51748868154031,17.561200542036637,35.975548984257266,-41.918425596859294
33.769609189274014,161.11653611010544,147.42169702205175,28.986993997942594,65.39148509712714,19.013618911023258,36.765605238027824,-40.53336183017059
34.28683832076036,158.49624435629423,146.42941948594665,30.44615520289687,65.22477529638422,20.358463674708215,37.75827775950052,-38.940408636365696
34.62776922436957,158.81479576718985,147.1993217986483,31.416289632437365,65.55607044542258,21.36297423701628,38.75456466822257,-37.177136321337656
34.49106093504589,159.93913085018983,147.94833701746077,31.732529941253112,65.66579448673133,21.8997330338643,39.555889974523204,-35.344362927566465
34.01189512473218,159.87027369724134,147.56621529129632,31.76283483384234,65.20426895098875,22.125456780396675,40.15589995335516,-33.558847972145294
33.73700208650986,158.11353309612727,146.39117188290075,32.26502630389393,64.49583426551708,22.50788860279253,40.800679028024604,-31.903785657094986
34.35509146707151,156.14024453558162,146.0981532422333,33.99623671313054,64.44747593570797,23.68926707236424,41.91004133043037,-30.387471240294346
36.242762428067074,156.82125440642423,148.72957472478646,37.15963806193438,66.07391379451312,26.191092328480384,43.860356106863506,-28.936965746483477
39.001168266027186,162.68681563499408,155.08471510195395,40.94789154117126,69.71929342004341,29.994863409796654,46.660010933306886,-27.439246599165866
41.280309142231566,173.48523970650615,163.18579985843303,43.54504902891378,74.30329735475398,34.17742543197076,49.67175666567246,-25.805536230186462
41.144233416221844,184.59695770033593,167.99387323082922,42.772408165362954,77.17649426434951,36.92757344743618,51.63867197580256,-24.019339702663416
36.93767656640328,188.05747409409446,163.17219957128563,37.147975387552,75.01670985846923,36.17432250203351,51.16383956734706,-22.152320533183126
28.23663278487985,176.4027089559656,144.35735484771473,26.782022748693148,65.52510734512292,30.652200560741747,47.47272567537509,-20.360100965406044
16.30786046702068,147.26376798204717,112.06839411699593,13.552236601529863,48.965436046031186,20.801138221378274,41.002155517450966,-18.865509376171076
3.7362954808745243,105.63439849567372,72.28351198659276,0.40842818826704486,28.49159183796244,8.85363924883125,33.38785222445318,-17.91289810712506
-6.62504028529886,62.05095586626352,34.09364697831914,-9.824276472004586,8.911651148261276,-2.0729107367072794,26.78885747926046,-17.67841734259523
-12.809701414278436,27.631307293115412,5.720811761664709,-15.493342457283047,-5.446249657264554,-9.389279684942554,22.929825590949967,-18.1612580901291
-14.377908827127053,8.998438667465193,-8.801063831314286,-16.50787273141426,-12.516761882654135,-12.09216846270231,22.428953460708236,-19.123302778819635
-12.27969982767118,6.070737580869496,-10.531033096604993,-14.008441158948886,-12.95100334399786,-10.845783444620801,24.76660606422821,-20.143405493933436
-8.171558844319234,13.609347136925658,-4.010934677132129,-9.674287418630197,-9.181557575358234,-7.161404292539215,28.79775614050387,-20.794354690452437
-3.6801654340111667,24.881849589993372,5.442288961025414,-5.1096223988682565,-3.913078004094177,-2.3636619015383884,33.37384571682357,-20.86387440946842
0.02020800842604789,34.77886071310357,13.816754931580594,-1.5120111075532792,0.9623767806319876,2.9195156713074826,37.673454078685175,-20.485132325862004
2.2885341987697148,40.82905548039769,19.068617759014835,0.45035411067985137,4.583827998794828,8.525067814519774,41.17026659020805,-20.073687095270678
2.950501339718381,42.52144135162536,20.756803435040304,0.6871417750886124,6.759005173726508,14.167271011034275,43.46297391585013,-20.08369214120204
2.2389836268221943,40.32135757801501,19.45385799902493,-0.3288151471998636,7.577336228112434,19.073522181031922,44.212778880221805,-20.715571081779338
0.7328210725192051,35.2351763425363,16.33948639870756,-1.7198774615076673,7.287473387375527,22.134998156766592,43.24311030793957,-21.740297105644462
-0.7861796560978207,28.797121859197215,12.904572960940078,-2.5262094072898726,6.349180094194327,22.432423596240433,40.68891743144133,-22.53822736955729
-1.5704806558724134,23.041999117596195,10.647867734946512,-2.090089845706652,5.454296800578337,19.770276351130242,37.067656508624374,-22.341018635350785
-1.1595478271795603,20.30782446988628,10.812767319321186,-0.3473973607645463,5.420790299579862,14.9004098674841,33.21366774959539,-20.57102868733576
0.45015075970294616,22.80839900934157,14.161597738793592,2.0960261071389614,6.9503218149438695,9.300162621527619,30.066132821877808,-17.120482225724203
2.7842891287525653,31.706436536089136,20.60550491772665,4.172679569392193,10.249532355348025,4.570448222284561,28.33334271699677,-12.422847612832369
5.054904850041038,45.615520622852344,28.652589808829333,4.844938082864011,14.608644985131818,1.7033652919350362,28.137989869469564,-7.257997686277828
6.502471007259097,59.373058835156705,35.14559577128916,3.7365924097873746,18.23961957360678,0.5902995091564047,28.852745960467708,-2.3763179859429138
6.810569332591893,64.63079213108527,36.004471796207255,1.5853245379649454,18.737772497956293,0.09138128336944899,29.323883902776892,1.8555505474632301
6.375187386247677,53.0793128745295,28.10852820416008,0.1595863426060909,14.195716956733548,-1.2940510466569544,28.468254934166517,5.581521327297201
6.21011255579408,21.08626784707794,11.379953250959188,1.5239931567591878,4.429980165211675,-4.501712636120515,25.934648073834676,9.281198609593355
7.455421157962037,-27.11354269373656,-10.4119295540051,6.961150112578595,-8.507864702859498,-9.280698530672913,22.39803360855321,13.405822040937057
10.728589899185666,-80.13876638442326,-30.967030936698254,16.157284447787454,-21.023711115719678,-14.279049516344942,19.250406822648284,18.051252877631956
15.70563889931407,-124.17897591438714,-44.32617876462658,27.172020674428882,-29.59360032362546,-17.791726019130603,17.8464588148724,22.858081252388455
21.208800457079047,-149.1670806125997,-47.643668303087814,37.26264301072183,-32.38522393039837,-18.697458007367153,18.76686393768907,27.177250750730483
25.771805259915592,-152.90737801661223,-42.25013346505872,44.122076151930166,-29.95692330873482,-17.00458028274968,21.553090603531178,30.384195963916937
28.362464728662058,-141.04865615419143,-32.52836187179375,46.864194186420136,-24.70294306995604,-13.712842221572737,25.051920227537554,32.16393903573395
28.85993941195136,-123.4828388392398,-23.511613449182477,46.28476425913607,-19.501001945133485,-10.164003262653376,28.11244576915875,32.64313518535967
28.05564517660277,-109.7147212907249,-18.726529731024883,44.37184342022977,-16.421054260352665,-7.350470519133257,30.18610110367099,32.35157616739836
27.23342487429827,-105.60418009252156,-19.25036168220202,43.402249622507405,-16.11207995535785,-5.575052271524646,31.507644308818342,32.066901179362965
27.574492161781492,-112.16836696563489,-23.879058730344095,45.02527299550913,-17.89435995989213,-4.5299399398591,32.83558368176669,32.59089038437874
29.628621966007632,-125.75198257725313,-29.767378611285753,49.58167744626628,-20.21695382496064,-3.6088779025163027,34.948729242260065,34.46854704061411
32.99122521400574,-139.01516324689777,-33.24045487880075,55.78558535561842,-21.234169253177495,-2.26001832365473,38.12525142727478,37.6770313208887
36.27609656275244,-143.04949887717666,-30.96876061105174,60.91579022824009,-19.49387914594831,-0.3033333686843224,41.77919146968087,41.40269571134987
37.4792189544554,-130.85497395597434,-21.513105100949375,61.6534385801187,-14.684062529443706,1.8421934391516575,44.418592906335654,44.10236056916822
34.74740986926986,-101.04820625630522,-6.513878598462447,55.45310874104174,-8.076333515770793,3.162654408945931,44.06925278261922,43.98588960668588
27.325045765610387,-59.51178561288591,9.52460760690842,41.91394806522134,-2.1915545503070426,2.4262947995581454,39.14056636356667,39.835075567819025
16.2086823388162,-17.33047510651607,21.19637726647426,23.389083899171858,0.3972770852464775,-1.1291341162148305,29.40788932675318,31.812174609937767
4.05267824545672,14.336008088140238,24.96965333371799,4.339402562166552,-1.446037645082674,-7.1379540497556375,16.57254302677305,21.79923212044861
-5.775396280019902,29.586017392982107,21.08370653892349,-10.385950441006425,-6.570499446355494,-13.915170531235246,3.9591227725279943,12.960960117689147
-10.594815581536508,30.117222332477343,13.309602250678722,-17.518509405868492,-11.967320986673672,-18.97092940899871,-4.677780578189396,8.593670941507163
-9.567319391847967,23.26032409073523,6.691341986970958,-16.60056527504563,-14.330923945567877,-20.06906855193466,-6.761704802992231,10.721126936750021
-4.006219222624159,17.19558796576182,4.7245209495920175,-9.90960858958173,-11.848248978956306,-16.308806774584234,-2.143005364446402,19.09348794660198
3.3066284994047446,16.53929996624063,7.745209805034887,-1.234304471483574,-5.143729141653502,-8.642359800376699,6.675147638917138,31.104647062449576
9.402703723003553,20.854286913871057,13.353014047286065,5.777988788226871,3.130979398850378,0.45180348990476593,15.499611995243786,42.72551905018072
12.33004810333127,26.342760636524897,18.265418114087794,8.897311453092211,9.705388552265083,7.944323730531998,20.16245799891557,50.07264838643768
11.72828143199485,28.987412024242722,20.24147276400366,7.75745462374603,12.22045916865619,11.382932821385268,18.202299229954402,50.92740117934221
8.626607424421051,27.094205543572095,19.047870033451428,3.491033833014519,10.129845740227367,9.716369943423599,9.79413834036845,45.527748646697745
4.695230264372473,22.171931435899157,16.267313251433944,-2.1218144118858717,4.712602736723827,3.586308022992338,-2.4178063646548225,36.279354466955716
1.3501493029828806,18.054705413145342,14.255215654160324,-7.576470510200635,-1.6643549121235495,-4.958004705014107,-14.482268556864462,26.550034134205838
-0.9106890183650039,18.586891641056106,14.622463149432226,-12.258082422553509,-6.733149230436132,-13.262394583835697,-22.8242908163862,19.172254293469216
-2.67961348317848,24.59968105576852,16.730562862660435,-16.489463341502898,-9.54931909782917,-19.163137217430826,-25.7500574715992,15.408615934341517
-5.242491426145655,31.690774721435645,17.00720250927242,-21.006648553727647,-11.192596739748982,-21.919575645959398,-24.08593761144276,14.832394585775805
-9.78587662895788,30.69679753487451,9.917388013923432,-26.18342298129679,-14.423387021505512,-22.46537780103684,-20.61082845225339,16.025231330345857
-16.611189432709537,11.627836927925577,-9.3648636268114,-31.51435642278421,-22.245571924359194,-22.767681867973202,-18.545140096929664,17.558793673749168
-24.801604357653098,-30.552481150703258,-41.826527109180084,-35.72216973512822,-36.05258559375407,-24.62736146775025,-19.894893040255642,18.673032106314643
-32.55762100654681,-91.75324600471318,-82.98904737931554,-37.44003942508103,-54.45850790726398,-28.630692825530883,-24.54298115697434,19.3694145486448
-38.0321875543591,-159.16763852842874,-124.1047856794031,-36.02988146530378,-73.6141285196279,-33.87111424777813,-30.53376751430843,20.043559165934564
-40.20007813919193,-216.5177736182597,-155.78768083178514,-32.01183112959208,-88.9139078262944,-38.558011624675,-35.29108786835546,21.014839279869648
-39.2796217663968,-251.29514600596835,-172.10965059195019,-26.840853678467223,-97.12541213426061,-41.070529303166396,-36.99562053979765,22.27240832626551
-36.49913334961952,-259.92595291574185,-172.89123172051637,-22.181455480699036,-97.73384059144152,-40.778096298717834,-35.33730221761747,23.53960367404118
-33.39168761092516,-248.25400672516994,-163.1090580002228,-19.12368447494688,-92.84981531828893,-38.18131500613898,-31.32695536269337,24.534369141286085
-31.05519323222127,-227.7569834297864,-150.13617902780368,-17.770097965527548,-85.95274416464325,-34.43150810688041,-26.459986923537173,25.20618813214017
-29.770269949888174,-210.21840204816715,-140.587032787553,-17.34441591477812,-80.34002213801719,-30.667549927409375,-21.857706514859753,25.78825210481354
-29.093056107042376,-203.59981858434094,-138.20509869682826,-16.666414766870478,-78.03919669547834,-27.59584937738794,-17.88353396819354,26.643542410354687
-28.267294380082543,-210.11536571330305,-143.11284316589578,-14.725914074919507,-79.38005619945636,-25.42849054851711,-14.319153219331877,28.00166585665189
-26.70716737076172,-226.0030773830109,-152.02813060775844,-11.166292421477953,-83.03007891614676,-24.022478193197692,-10.840892261934757,29.728306162397917
-24.361658137417106,-242.50780525430818,-159.21769332658286,-6.5699247682265645,-86.36401098484274,-23.04463496158234,-7.45998900422557,31.254483622642287
-21.842908525607665,-248.3834798006113,-158.33663551776968,-2.420370693702263,-86.25891144688418,-22.12241467659462,-4.70997289904213,31.740277811668328
-20.236300690324455,-234.09662747075242,-145.0162975092626,-0.6175068656874381,-80.31018656602606,-21.00308375117804,-3.5111283840853846,30.450937186323554
-20.594345767071026,-196.45891467627987,-119.1919947837961,-2.6096438225454444,-68.03674132519524,-19.676296403781866,-4.760036197473041,27.188472534147717
-23.302956185033384,-141.11618186948292,-85.70773737338982,-8.525826223662145,-51.361818423219304,-18.363939951791394,-8.819179156227243,22.524242623091318
-27.67815249623802,-80.86949047053669,-52.45692795317353,-16.852743480543968,-33.9303462710095,-17.357507189998707,-15.184139850008707,17.630686913160915
-32.10767666719056,-30.201652504779556,-26.84996219386442,-24.972022896241754,-19.52800353867861,-16.810660421063798,-22.559969765320048,13.741622655776242
-34.750734106122586,1.1134715747218,-12.569970933410339,-30.34935077765615,-10.46346707152403,-16.629149151348816,-29.347594141217005,11.541884163499914
-34.441803966215666,11.745406171299592,-8.45680564196871,-31.720320277019518,-6.806941925362759,-16.516098299326096,-34.28191671823035,10.875371352562363
-31.28324969176127,7.98118108926225,-9.996650972853837,-29.592929738071607,-6.8226763134932655,-16.122016011338037,-36.880261666639484,10.960216993558396
-26.58344796826296,-0.699418620883852,-12.25971170313978,-25.815692309544147,-8.190431466897707,-15.204115002150525,-37.50214598320218,10.94595434009525
-22.189947327963228,-6.6698347247645415,-12.389334623794525,-22.535453674443485,-9.205305449817518,-13.73252404670511,-37.06382751055477,10.417228487923733
-19.613404895598272,-7.036897200546817,-10.360532175003245,-21.180932472552445,-9.328098980223118,-11.942660502525372,-36.62315057517187,9.52157592688863
-19.409272695653218,-3.497044002290907,-8.05775791998339,-21.97207187778571,-8.999465982938261,-10.349195180388369,-37.05123290622338,8.703547610969652
-21.064369521939025,-0.1752487805702333,-7.644970979706589,-24.050456519771195,-9.046175800384894,-9.677583048572822,-38.861853148916666,8.308840753963581
-23.32675245117957,-0.9399826434210441,-10.179526311159012,-26.00408990888379,-10.043509417470972,-10.614328207186198,-42.12074760049455,8.36293373536219
-24.749897239342662,-7.146017544660597,-14.900354521514734,-26.50620289012424,-11.837109817943015,-13.362894533035114,-46.35892286530366,8.628940849257685
-24.245947721750763,-16.37513805083409,-19.30757407418362,-24.888906328444136,-13.370193039892284,-17.227232390999593,-50.56343816124208,8.809961878464321
-21.52071332801015,-22.85269827284041,-20.122230337566585,-21.517376771570436,-12.999002747301908,-20.61049907153998,-53.421585049068035,8.690684385980909
-17.269221948872328,-19.959086820731788,-14.984946011511015,-17.789139108123013,-9.335361390065861,-21.649059809673197,-53.864088578446975,8.138731457100098
-12.992869000585658,-4.019919530300125,-4.144454554636827,-15.627024829638609,-2.24860262442465,-19.2260288727843,-51.65612288282399,7.051049151737683
-10.403053975597409,22.81727119759273,9.022079960487048,-16.582537439195118,6.659207197922045,-13.714896013934894,-47.61902489141293,5.367688966747833
-10.62246896110865,52.790466984507226,19.340758264922368,-20.980531998155833,14.595694605578052,-6.892818135949161,-43.249521939114295,3.170218607471668
-13.599081277870443,76.1363304391512,22.480206438629857,-27.624426830333228,18.952155731555884,-1.018687180906782,-39.92316420521499,0.762252064024653
-18.094828904068915,86.07142661663146,17.327895325427537,-34.29774468121439,18.690586083834297,2.347187277761735,-38.177248550417744,-1.3803223714465431
-22.287077939240373,82.08308125186286,6.5840383231865385,-38.80820960846701,14.861438170576763,3.0486947230176753,-37.51675869611072,-2.7968019109150477
-24.643452795876772,69.57238181029847,-4.806549508467018,-39.974398178985034,9.935442519587811,2.188104330870911,-36.826322467258294,-3.254770165163565
-24.569335844298045,56.31915720106089,-12.34783169753544,-38.006032478527764,6.414372966713333,1.3277120082699199,-35.075580605650686,-2.8473446120112946
-22.495619376168385,48.25745334340289,-14.091614094812618,-34.140280457744744,5.624563662691697,1.617242248140959,-31.851044625578545,-1.9152705252991638
-19.447189233078575,47.19678786643676,-10.968788609551051,-29.8632834748158,7.3830579325822425,3.3666168213405037,-27.426430832262497,-0.8575177217317653
-16.43663727616437,51.37069609307735,-5.515381882660698,-26.23025960628408,10.544923024281418,6.183703522545486,-22.438357801043882,0.04211055760001127
-14.052896087894016,57.60164444807697,-0.18421737551669323,-23.605089787538116,13.85891412759994,9.406925719693398,-17.476279866916435,0.6828741087461015
-12.389189531510752,63.20331193042608,3.63933080739558,-21.79143727751508,16.530261230175928,12.478638937658154,-12.854449018062127,1.111388305100022
-11.20640936975131,66.72722057746522,5.690557316309948,-20.326552082902307,18.318692990310815,15.103558816849013,-8.610562887669593,1.4432628215504297
-10.151196565866115,67.91373092771846,6.435597715504308,-18.749517039248367,19.38483353992981,17.248513325107332,-4.613789825884259,1.7943196653998517
-8.927410776279627,67.4485158192059,6.686901798299979,-16.783231819488297,20.11029614384556,19.07553168440145,-0.6780930045612498,2.2357386255639624
-7.402290149803861,66.58232191911561,7.261645235244288,-14.416877574217741,20.920778880552586,20.830224268395536,3.340123964994783,2.7722184064571778
-5.632982671287863,66.45848176665712,8.617937454699316,-11.858461620299781,22.085444480268293,22.70045983263185,7.469826200142252,3.350937497351127
-3.790854590167947,67.45499949524182,10.655328244719536,-9.36398073685715,23.593321140266678,24.728220132249213,11.632174515466719,3.905043744372995
-2.0178511215460384,69.15546464851094,12.928164502764286,-7.052000969073583,25.24548189619035,26.857146351485486,15.755095423291513,4.406666695887944
-0.3242575898732065,71.02367547603099,15.134711143648717,-4.8497325240588225,26.90372774799831,29.06936800895034,19.90920826496703,4.886146704971075
1.382368272779308,73.03272957641198,17.37704774054391,-2.6058514096235568,28.632649174877287,31.450336404770937,24.312770405329335,5.399238359885521
3.1705444251517525,75.5075673063305,19.893235228650177,-0.24974009686174037,30.563463371971785,34.084565741321335,29.1533749098233,5.972352923841816
4.990442411527933,78.38550904692023,22.57313637409802,2.150275140260989,32.62860598443492,36.87907697213747,34.35926226561463,6.574710339588153
6.701184803866041,80.83462151348765,24.843758047028867,4.454626166542706,34.48261834518502,39.51247359340143,39.52583767709078,7.136601778090146
8.183989578602556,81.77134124118287,26.100349477487647,6.5550525747915644,35.729215040903334,41.596810155831925,44.087438957839616,7.592614653025827
9.440244389391534,80.79815269934518,26.268795661238144,8.436634042541586,36.25451338035172,42.946191233984365,47.64746290667137,7.921028567472038
10.620317970181135,78.6895329629817,26.003554180732,10.2085558445268,36.39045815982462,43.77330247299132,50.297708037438234,8.169579590401387
11.993928814794543,77.13583669266234,26.44662173660113,12.121605354633187,36.828728032573814,44.708892447943875,52.77467490689085,8.463826341284376
13.866164782392246,78.10015031684532,28.78257423797466,14.514181121210504,38.37327171942714,46.620071959585275,56.324828240203935,8.977228362461586
16.411687989696453,83.05443679328603,33.703178008864256,17.613731617505767,41.58324027070026,50.220975562803055,62.18382226604599,9.840305072093212
19.45192966986799,91.97856803067086,40.74425158348566,21.254604390501186,46.30788010759387,55.527216735317026,70.73224293448312,11.011562971578222
22.32439872010287,102.27940821378418,47.74002402023766,24.731449970372143,51.28590006492565,61.38939800709291,80.69241068012417,12.193650400893958
24.031585030487946,108.61570786852023,51.07316341755381,26.98381596276766,54.225943811334304,65.50440776054364,88.94996491846042,12.883677693759724
23.695944936723677,104.72469738665397,47.204374736656774,27.074654545217516,52.68071868481637,65.17258274077462,91.41521294226995,12.56890291145973
21.087646688068077,86.9645623661172,34.94782109724277,24.685872233138717,45.4476638030717,58.59054818872169,84.74744872958321,10.972584224534296
16.869907070074184,57.43802988564606,16.980476242193447,20.32139210060108,33.628939122750715,45.97321224366437,68.11545281966193,8.206255809553989
12.355098040359385,24.172977698875812,-0.7826795149107265,15.09496808121055,20.486671152860616,29.737242941550928,43.964291960270415,4.733478468702743
8.882761606781786,-2.376346562528483,-11.94570252488835,10.228560957021116,9.965562200678121,13.500041505220958,17.23528369166377,1.1640502550925007
7.184630888361313,-14.610264662613321,-12.965500983652875,6.541582496865761,4.694166187955907,0.4247452026703222,-6.610327800059826,-1.995065455353017
7.11394893156016,-11.577436250494834,-4.993951735015411,4.203363784141976,4.694820897650288,-8.094933136741382,-23.682880546140165,-4.47601350658997
7.87948632051018,1.0514453499778171,6.920360048973841,2.8586247381856267,7.601913687096684,-12.636574474075754,-32.761930631001995,-6.197161310249108
8.601915595796628,14.633313179026045,16.725592009601872,2.007582288367229,10.204232889019071,-14.830931644654033,-34.99158483557454,-7.089089950475903
8.827881643608672,22.334961354086996,20.52437120238564,1.3805029365151593,10.287128708656095,-16.059189740255146,-32.65399850181078,-6.9652205389539
8.710930188445522,22.111172435892197,18.156562780166066,1.0849880750217429,7.646691344517266,-16.66519889842757,-27.92370026900943,-5.568393659685029
8.808684793702419,16.52494789441082,12.548849054059568,1.4653710159877587,3.80627270908115,-16.097441922954065,-22.25293175648565,-2.785694283019276
9.658438368216164,10.251383685244715,7.57824600281788,2.7698612435607224,0.828135478920886,-13.705267135225867,-16.452588613681744,1.1078446980713774
11.369519326853112,7.185648651225623,5.841228238331486,4.813678066207281,0.04687295745108086,-9.546701448041194,-11.101349130280413,5.3521161144695455
13.440496413518652,8.596081512154715,7.424283530688931,6.858782320948142,1.388536592817418,-4.6888610451821044,-6.85012184907635,8.858960820376241
14.928409379133097,12.733501773061342,10.088668282649751,7.871164361255733,3.497567085710454,-0.8680892707062666,-4.3857580176614235,10.600717232202637
14.957171307764606,15.777542213756638,10.718098596260987,7.115782715914351,4.531568788633068,0.28404479561550355,-4.080434454270423,10.072093022641885
13.347080139525948,13.893381677065051,7.438405140443591,4.776203680894258,3.2711972442362542,-1.9218906581622028,-5.557296282741708,7.594608398831448
10.982819290646495,5.773901221106679,1.380606255405724,2.1549760880114883,0.037921803373437354,-6.724500024132799,-7.491399813689296,4.278634799180744
9.586588192919914,-5.672599490510013,-3.100916819629074,1.1928673946109059,-3.1327459791869288,-12.028456711769604,-7.897062447235043,1.6124976499353738
10.881195075319004,-13.934195762158566,-0.3441381429184299,3.4670123023194312,-3.3552935428190436,-15.207598918392168,-4.9184833225925555,0.8330609715839652
15.543048672662495,-12.065948085694751,13.293195351318827,9.203710825311498,1.4999824184345438,-14.305607459546986,2.182228087304711,2.3575343304280274
22.565048736825982,3.159621073785644,36.58839282371772,16.90305949799498,11.328189022397556,-9.055320776132922,12.371129882917256,5.55892565846688
29.48737918779697,28.68938246310455,63.01974553798158,23.86371450843629,23.388513103559305,-1.1406460458564587,22.98151491311236,9.021585487750105
33.473079845308284,55.9980280156564,83.3520600297669,27.39153082182789,33.35702429346077,6.49869787963176,30.69892778045501,11.164908833597698
32.68797624995289,74.98947423549879,89.98855331099755,26.068987700426053,37.32310179428039,10.975183461134561,32.93622457206442,10.912974081310377
27.223440276904867,78.81225092310511,80.6846678646338,20.403893452620782,33.6241414436152,10.684220706852454,28.88955853697162,8.068195080066019
19.039416682436716,66.93108966121166,59.56415927198965,12.518891329811195,23.521931958853532,5.855603433529997,19.763345349995074,3.2429363468613333
10.968252405571432,44.937746153406444,34.97270302870543,5.085830845681062,10.441315408559934,-1.7441000929667274,8.15200618022993,-2.5274499553298244
5.34958334156421,21.46641421341813,15.472422306800555,0.11394224519106722,-1.6940213768456056,-9.673646568932968,-2.9977183036661517,-8.215415837420501
3.0360184519508446,4.041618097446092,6.1481048963932405,-1.776198153599041,-10.090076934965559,-15.757783513708047,-11.316717333581368,-13.053228939982484
3.2409052024876797,-3.9479019801251383,6.999057448778105,-1.309939252962341,-13.902338339010381,-18.71609016958418,-15.520150645767217,-16.56713517740451
4.190063602487819,-3.7555907079894366,13.911078283043613,0.06624483357096075,-14.022038670392556,-18.345529564054537,-15.484944531749676,-18.51628614236081
4.117144677303497,0.5857494948389571,21.307144047914093,0.9365842361877644,-12.189080139438529,-15.361401004559864,-12.08243953698371,-18.881564181280197
2.055830136702777,4.962297246840176,24.85275210703254,0.4271272663361229,-10.069594097974395,-11.091516871349992,-6.928349793957959,-17.93075925770216
-1.8688187222663672,6.947324863676708,22.93334163951074,-1.5937418117735667,-8.751444313749873,-7.136058393291121,-2.0523443802767014,-16.242725473433925
-6.607525372542004,5.949458389342297,16.654043279175003,-4.497675210768192,-8.665222521968733,-4.9771241569951625,0.6094088668537745,-14.551498741465345
-10.606643208581385,2.408121912185246,8.935208529497311,-6.9979719207748134,-9.660879733507537,-5.526354912860736,-0.12131181378686873,-13.418504803233997
-12.330025975846588,-2.8913582231360633,3.3216060360839457,-7.475964674965187,-11.086257418202377,-8.75742836620927,-4.119891683422262,-12.937503977615641
-10.818762056973062,-8.985570083103687,2.7150643738312423,-4.624905282960313,-11.986658000930754,-13.68032255103182,-9.925542733000622,-12.7255874000241
-6.176565066414555,-14.749710799011279,8.12224663268984,1.7639105619163236,-11.562709902670408,-18.77433145468647,-15.382901172015343,-12.26770156593938
0.2522814510900101,-19.14239247660111,17.867771838309235,10.325118392523665,-9.718156141323325,-22.67527184656264,-18.674324650632308,-11.393502323858721
6.233279811840577,-21.554467338876208,27.95540182306255,18.38034231425694,-7.2709476139419165,-24.706228719752016,-19.1579651354528,-10.522540740568127
9.500711567700131,-21.908248054901513,33.77782776847485,22.97789740693046,-5.550217547301229,-24.954124029625508,-17.531810677963417,-10.456052079187087
8.775712094872395,-20.452555377547366,32.41415842468604,22.258323505724327,-5.570957493396513,-23.922925108616116,-15.272354141220259,-11.820200913152561
4.426744119790289,-17.5330093409025,24.18944935050777,16.434725219560328,-7.3267603922702245,-22.05420046935762,-13.723438532402598,-14.524919933080229
-1.6014877455803458,-13.52393873936243,12.580729968584185,7.837384036498937,-9.654205070055976,-19.41878983071722,-13.359796462446496,-17.606728450310133
-6.590353506394031,-8.783776133570093,2.6052278221937355,-0.0433638423782964,-10.719575802830455,-15.713070331293665,-13.589059139610724,-19.58872936823712
-8.209810360805752,-3.4707354032420707,-1.3586662288689944,-4.064373844812095,-8.835423526753031,-10.522243859166734,-13.15085540312312,-19.18977185846612
-5.507393755288301,2.594713848504055,2.6961225820629013,-2.7684215535792327,-3.2424746712501307,-3.728372775512435,-10.894225330703886,-16.024234198894618
0.7127003353567021,9.653438596049202,13.689882870636247,3.063020689281669,5.417194774150293,4.111758156976794,-6.542747255815837,-10.931569097833215
8.270771655292831,17.340858959459023,27.882518403141784,10.862154066989579,15.126342106191961,11.646951716756993,-1.0342938031945015,-5.743334321531214
14.555616527201451,24.215573158254305,40.26224312611101,17.464741651558878,23.103297070923,17.05506353732127,3.798613526151799,-2.5566897908007973
17.584399481375318,28.05672805282592,46.41563658967933,20.452480240527713,26.84720371251662,18.769093797260563,6.0944764692478275,-2.818260537173521
16.715514965434036,26.846967337732,44.1530827979458,19.071257987090174,25.188177111675156,16.26734022717207,4.93394967826377,-6.6191590632731225
12.767765020121177,19.807670898474413,34.24911444901346,14.416481490042536,18.840811442702268,10.466568681632987,0.892014219939997,-12.525257404386082
7.58703629336065,7.989544922533795,20.116301041701355,8.88962567967025,10.204585560546986,3.4464596730629897,-4.132891127084692,-18.06463093261018
3.2861409971003543,-5.604894813251304,6.691769661671678,5.145614007172912,2.529151082375647,-2.3838719106165254,-7.739565815039942,-20.737664211821375
1.427834072577587,-16.316149523537092,-1.0768637755867376,4.891442586458817,-1.2085434998342606,-5.257829708988742,-8.107202211971346,-19.16853972296794
2.4054352779198793,-18.839394151432685,0.11961632905928678,8.007370360369533,0.6454407965642022,-4.699753555678057,-4.84234753669056,-13.873476210190743
5.248370524299669,-9.241966859105506,10.491570546356499,12.450550098629018,7.744146666050558,-1.5972278636012427,0.8003502565432823,-7.207225172571293
7.988405153706897,12.579420409333299,26.505515224282345,15.119342225547381,17.698095083671703,2.2633438546966156,6.444641709118655,-2.412505675512731
8.510613074248392,41.58978823097379,41.767649874531436,13.347708206045455,26.834516166920814,4.9537272350653625,9.656221770450202,-2.1837320991823814
5.551313492376311,68.98701606729493,49.56888604650412,6.276528361158642,31.635978368307995,5.153248009515791,9.073723769630252,-7.457856108582037
-0.6293566776033634,86.23618588368024,46.16374177687515,-4.644376544229918,30.336176670846857,2.644715915503814,5.085382324572681,-17.03012060929987
-8.252389194384516,89.70632071475048,33.07152354445591,-16.285289546135918,23.902842762711956,-1.5911000317286026,-0.2705713896223016,-28.12025141859148
-14.72355801704163,82.91779398769343,16.87306231768382,-25.209911115534684,15.786335574594066,-5.721617820618229,-4.149084000245721,-37.5072069092439
-17.70148513586491,74.53669827983649,6.215047893053165,-29.023522922198286,10.380359458003682,-7.756186054767835,-4.116467469106843,-42.63617656795768
-16.01855805218227,72.96483994584644,7.403836768665314,-27.041729992952543,10.877180233301285,-6.339190657021889,0.7960328847011312,-42.26528870956935
-10.044418315656978,80.88879589681356,21.02056275300533,-20.12252846170212,17.655906196091397,-1.299177210379553,9.67332073674698,-36.573833172311055
-1.396294724030276,93.47493750752541,41.570244650575525,-10.009599641915154,28.130379817967643,6.303594566889245,20.10324847832334,-26.91954715524896
7.7719913893534445,101.49345968171578,60.387164305179255,1.3054716049015587,38.13643530988765,14.621893389158627,29.145825541735032,-15.459843501751774
15.523988346673288,97.21756885620093,70.0340408648872,11.930440765593382,44.00790558301192,21.684139006462903,34.394874200683105,-4.712842676470171
20.636835867288116,79.11514937330354,67.63909701335525,20.21152925223842,44.13709701990203,25.941444652356978,34.66215435331526,2.9729091732452857
22.73496070730451,52.43342875572572,55.48962953503013,24.896157693774136,39.25488072701116,26.533051725992372,30.08417244451257,6.0195378377353315
22.136698872115335,25.753948071936225,39.01716620501898,25.419571854762513,31.52936784633461,23.327638648915702,21.778083069456493,4.121317592577884
19.575105751019933,6.18662653523265,23.78766594473383,22.178504700593532,23.253097480485017,16.889740961924854,11.353526790804379,-1.6033462582353157
15.929491278080581,-3.6565755077621622,13.33194397415933,16.534757422952225,15.95088824714309,8.433057850334455,0.5368033147428264,-8.962640797014153
12.016718703368067,-5.492018418627632,8.649082497222452,10.396551173396661,10.2396105418969,-0.3269067384983386,-9.041954305015642,-15.467294251017842
8.432794557334102,-2.9962721828464556,8.915221794202838,5.498917891799217,6.162819207334051,-7.543864715938333,-16.022227178820028,-19.229234389840812
5.455961183292518,0.563072054862758,12.38402193469532,2.7486450410714154,3.504689279032282,-11.809511982672543,-19.56142433242686,-19.597125152658222
3.0665127313952296,3.2398644292181458,16.92009946112787,2.0039412554312315,1.8591352915121047,-12.679474172681264,-19.604869203076014,-17.25701139727571
1.1105330549849999,4.055994302691,20.34780659013284,2.3913849450086575,0.6214599355495365,-10.844933724878544,-16.98492137283173,-13.78387568745814
-0.4694992655798829,2.4841077758780306,20.99182845358585,2.925860913315062,-0.8432044597424643,-7.806056192307622,-13.201123539076054,-10.891564497711752
-1.487516565637186,-1.531280858949364,18.37268240964825,3.0516988171661734,-2.8461818467769646,-5.187680043604893,-9.922556969131687,-9.745869722631552
-1.5523589607636816,-7.17823226470253,13.6251777837848,2.8392153454961764,-5.072212290241874,-4.022133037425752,-8.411585862520996,-10.619617424507092
-0.2673637380294142,-12.504681190848972,9.287695951060295,2.804322523203872,-6.551029790139858,-4.3101337767361905,-9.087693568354242,-12.955713790656485
2.51627050671942,-14.56760974717914,8.461614259976892,3.4917940685757913,-5.953287446947372,-5.0352772041738705,-11.38186102562994,-15.71175808019414
6.488286713929243,-10.198239409990883,13.534959559074695,5.032278408700316,-2.1526750069858647,-4.656504240575617,-13.95886584102472,-17.7846879395641
10.77242515368861,2.3633906805018277,24.70122351991543,6.8990240109757055,5.033454206442945,-1.9434262072424424,-15.291120587683038,-18.347088027016014
13.999634564542458,21.13681190768008,38.726350328609804,8.04873660598978,14.142758257761516,3.1731991970865994,-14.402321702684663,-17.00882548216457
14.648668674269462,38.66005796590685,48.824668417049445,7.463636972525026,21.86395539883377,9.200593232207382,-11.428641740777195,-13.808096077015154
11.642513357099208,42.89116529007335,46.504529643136564,4.83902517555296,23.82748380899724,13.496905118086191,-7.645056655313518,-9.110610279086664
4.985063938096591,21.864817100892164,25.323361074495125,0.9742972484975309,16.43639968089474,13.45846172431689,-4.865386894890568,-3.517250067881525
-3.9246610171284986,-29.369892184774038,-14.979536201656733,-2.468230966189734,-0.9905961892319368,7.938953065777131,-4.508930146732476,2.1745512046417894
-12.587314027627539,-103.38584852394007,-66.39111557090524,-3.788600064106052,-24.99967315390815,-1.8870188928251284,-6.858604132019558,7.002337912867056
-18.29392952462665,-180.5184076696403,-114.38387628080424,-2.210254049140728,-48.68683597139721,-12.776459781300456,-10.936652075961884,9.956336789814056
-19.248975580437776,-235.72401371393352,-143.36850826072498,1.6024150260116088,-64.29300371531617,-20.75598531062356,-15.05693717086401,10.23249744657852
-15.377335392141768,-249.41641593548107,-143.47690555480855,5.8173151982931985,-66.58229819697789,-22.90843668296774,-17.72256430058098,7.561967143544255
-8.376244554647258,-216.81188500320766,-115.23876147571845,8.387124153054172,-55.288985208340506,-18.702025958405393,-18.366161132423457,2.4559185889928785
-0.9448450707651798,-150.6119812196904,-69.54615292083633,8.152916000817706,-35.28227698652341,-10.176922392909917,-17.557038935161508,-3.8160894412340607
4.434401699385488,-75.21484711638523,-22.70759501053527,5.453222010540689,-14.268174759779244,-0.8971348701720067,-16.614410286602595,-9.590944489511221
6.53300760389885,-15.255391440472415,10.943975217631783,1.863907538516984,0.8170992968459179,5.777641136039536,-16.876137385227278,-13.403754243121627
5.6989347157143655,15.529310673358484,25.062033868249177,-0.7944631532135569,6.8381177876746895,8.193127751761331,-19.02911130227681,-14.534604296054287
3.340059806427943,19.256204928117356,22.870409851940536,-1.5959467243521528,5.353177653076837,6.9092721398888095,-22.848638038667158,-13.23900352372717
0.9329154960297127,10.331525130784105,13.800403636865532,-1.0989931689969126,1.0259689408657335,4.024942470200873,-27.445708285220157,-10.55396135596264
-0.8165941953219347,5.9080328754334115,7.459318112499066,-1.0089627989640442,-1.3707257415606457,1.8062323961225668,-31.81360108916255,-7.790536377384999
-2.175445381878933,16.193505020143576,8.561550206713507,-3.109863220785145,0.4564382174862161,1.4689420295969562,-35.30018148130256,-5.969688224525452
-3.9129635082505896,40.05211479642797,15.524557439932034,-8.126775104242064,5.553299533786244,2.781233421546268,-37.732298606161606,-5.461747688078083
-6.560062722802465,67.65705923388886,22.926146814694246,-15.219199242112897,10.939091073721505,4.571936581770805,-39.20024154497841,-5.964266709364553
-9.92907463112068,87.58211350183784,25.690054940136275,-22.39318871881381,13.773060709343648,5.672045744270228,-39.74688699768899,-6.776639339334032
-13.186486274785329,93.50595305369689,22.18777494203394,-27.54433198223631,13.020680598619485,5.638596380491793,-39.228329583699804,-7.197485071611935
-15.366736069788264,86.73906804077824,14.613517212127304,-29.48421397330266,9.725476143550551,4.867592823886291,-37.4335738368469,-6.840176027083105
-15.935103472536678,73.96193155999697,6.986647713595713,-28.37240428064947,6.01153369113538,4.164480286766577,-34.327586561089426,-5.7331185778593206
-15.028502176824077,62.57709923569197,2.5502305209573515,-25.398057642534418,3.704838513613527,4.174301408407091,-30.188896709772926,-4.1995895333652395
-13.276971127676566,56.98382121740118,2.3086919097238114,-22.02484112435451,3.4981541602068202,5.069494968049895,-25.517453560059177,-2.6273781144957735
-11.404947670544571,57.6102111320159,5.24206608059401,-19.307672944648367,4.988660983141435,6.610119649920993,-20.793546677957135,-1.2755614894391112
-9.903480354264495,62.229947157055584,9.476519799676849,-17.615017205483355,7.253959108030174,8.401722819996788,-16.28575620059184,-0.20761363720957252
-8.924688845824402,67.89168724733781,13.361543420129301,-16.74876009855845,9.424503087090352,10.113380764714874,-12.03389415866479,0.6597306172612831
-8.35403673644421,72.2565315381863,15.967137757767116,-16.240579934487993,10.974984349696033,11.562427241184071,-7.963431916889178,1.4635636282481024
-7.943339228339999,74.18911146321955,17.13945725848344,-15.626963716488795,11.781801252593345,12.71482119014187,-3.9996150812033266,2.319677252784584
-7.440714060025242,73.86178400721887,17.34997213213764,-14.63058335388745,12.06039698528657,13.656105663148983,-0.10581978383539949,3.28375735165394
-6.705183593597815,72.40787472250534,17.36492035336673,-13.237230588504357,12.198819367806134,14.527941455125703,3.7313504675522333,4.343451841294922
-5.774039921373132,71.12651168345566,17.77212876859039,-11.649946624796348,12.50846958305545,15.431716177919583,7.525540782960306,5.43853620216671
-4.827656616043824,70.67357427459986,18.651916194156126,-10.129373483914195,13.042056503044888,16.367917743534242,11.318103468180544,6.504937346792273
-4.051799789928846,70.89545065737302,19.700879594133795,-8.814724785778456,13.646721663434262,17.282721943695453,15.211679136106666,7.51924664345813
-3.493160054473106,71.4175138352056,20.707106126012583,-7.6570334773094,14.211191285542107,18.18535160115497,19.364520175154773,8.509737071558428
-3.0228418214893846,72.29336280907219,21.871948599684575,-6.506581134345961,14.846601216560234,19.202296905972144,23.888552135013363,9.523420431329022
-2.429949021361595,73.95147138909881,23.608796174494696,-5.258974791276126,15.794325709265404,20.48279702268131,28.683120847127775,10.578495697510926
-1.563130610078244,76.49419551127379,26.014468102153646,-3.9291897231185993,17.14384698125763,22.0264516829064,33.34989711194305,11.644114163903868
-0.4280256522320867,79.15490899711016,28.557084126434955,-2.618735927910623,18.64136098289123,23.594677937994607,37.33062858422028,12.661261913349216
0.7874949960998965,80.54253835807717,30.28503020434727,-1.4415153706932853,19.76760263839868,24.797686403168964,40.25533242691584,13.583476432380499
1.753153249584739,79.49395335753225,30.376452630389636,-0.4678370841221274,20.017113224489986,25.308297772487343,42.308613047849654,14.410124819212683
2.118115684807542,75.89056125201823,28.669162878485906,0.3213918325593578,19.20331632991472,25.086357308016424,44.36292165845472,15.201776668033812
1.7306721508807381,71.0361094463182,25.98104861412996,1.0848185791733067,17.68143384880869,24.51889849271361,47.71865231372175,16.07435878766296
0.8784960293439447,67.54386625559731,24.13782566131689,2.1199899323483735,16.422601242686863,24.400467161979098,53.46098220998426,17.159257529436996
0.3636070201455379,68.61053629364764,25.49761758611391,3.7311945103223,16.79921466719548,25.670396345631627,61.631380348519095,18.520271091155248
1.2537736547941245,76.4444812649821,31.782949382197064,5.988102398952781,19.951181109508756,28.890657546590358,70.58881475500812,20.055011847473843
4.354685676562089,90.17850474338756,42.56233250754357,8.540443290460749,25.893405656970153,33.654554156652885,77.01880915453593,21.44771865999026
9.677508804017679,104.6250846374237,54.42052391339453,10.666362948227471,32.92755252976032,38.325730429175024,76.88293794089991,22.230165651695312
16.23723431057411,111.49634647917816,61.873285625734844,11.569511895175546,37.98269266407012,40.46407655857904,67.12357098824977,21.9387469595066
22.34552481445907,103.3534895348237,60.036159691191095,10.743970521172068,37.989308334946244,37.90738087100028,47.363723581744026,20.284091561618823
26.269782209284436,78.30848627562123,47.60871811241653,8.171678635329158,31.59622637739897,29.9731888807198,20.604601630063918,17.241312222567977
26.907788870699772,42.24560095419599,28.095575790140703,4.2449895737753165,20.107658820540518,18.021748572168814,-7.669460134076743,13.035409848489556
24.12299881677289,6.389175283774061,8.059440015162298,-0.48810499064364427,6.873522206259376,4.918126042564418,-31.674057792830755,8.079092897883417
18.61375477069691,-18.993869154706847,-6.836582026202246,-5.533235348008988,-4.6420705127376864,-6.3882764777942125,-47.68792899048579,2.938971752137834
11.489871918358448,-31.05220315204064,-15.526079006841439,-10.451620391857285,-12.92722270116748,-14.341086783894738,-55.34583617595183,-1.6666104979793723
3.86745110595086,-36.60152555983678,-22.389921316791217,-14.707497646694822,-19.23800866365525,-19.405734818941497,-57.238890815585926,-4.927862502180179
-3.3247841654912835,-48.24596903003824,-34.465201523377075,-17.591962729481747,-26.576504683490562,-23.484644791527604,-57.1762570918933,-6.147090623423251
-9.362529422555532,-76.54765413577648,-56.73521044317786,-18.40627871225707,-37.508162903951536,-28.542662665811008,-58.15952790491617,-5.038344031581433
-13.722042130124137,-123.22039508682066,-88.59581706235164,-16.839971233256602,-52.29084929587172,-35.34592314333237,-61.14708310025865,-1.9376223780336974
-16.151437148781625,-179.6735977363775,-123.78009513803495,-13.267119963295695,-68.53174651170171,-43.073185410844914,-65.1047148365163,2.253456613822267
-16.7724894302883,-231.63246960453134,-153.67026569109046,-8.705344612787679,-82.5116364226101,-49.935677994527744,-68.06765510069042,6.402080152451382
-16.08769509337179,-266.6812468771489,-171.772363918877,-4.410645237502204,-91.22865264983403,-54.29877369663348,-68.44550303478297,9.585958074685738
-14.814962704763008,-280.0655275441524,-176.61649085518593,-1.3321841651841693,-93.85468036721946,-55.560945443291594,-65.82390958439511,11.411497576839245
-13.608389485797565,-275.70304665050435,-171.64483479801123,0.25242853107969065,-91.8301917617148,-54.31760685735813,-60.95715878582821,12.062876568125432
-12.828963837329383,-262.6702326744261,-162.6841252580633,0.7216160040101779,-87.78292046833008,-51.86480132512257,-55.16811949131384,12.092935341917046
-12.49974674723573,-250.0380101142735,-154.90258534749265,0.7694816660358219,-84.12795894077205,-49.480333347700764,-49.64112536461529,12.097986993095116
-12.436020908889038,-243.1897476491823,-150.9644030555859,0.9964591361976611,-82.1749102387172,-47.92537554925704,-45.00051223032747,12.456211206163623
-12.420302943378369,-242.97902140756716,-150.88417388882814,1.679198061823339,-82.01441622688937,-47.33336587202986,-41.27501522566696,13.240952340894994
-12.305068178680322,-247.0605539498087,-152.99522135449448,2.7826293679399243,-82.93146684042347,-47.38275925517405,-38.113124490548785,14.299949526875036
-12.03206789523652,-251.95518060733954,-155.19195519467914,4.102221032370283,-83.9620033204361,-47.57301181326166,-35.06160742838487,15.405753741169415
-11.623825594793411,-254.84882178445793,-155.94604880178193,5.404124044804253,-84.36761733067728,-47.48629314037738,-31.784011217865604,16.380761800908896
-11.172503726016242,-254.72041263772863,-154.8891685540597,6.521223797419441,-83.93410802735963,-46.9689737787714,-28.162151699149845,17.15604823839907
-10.799651984728854,-252.54700306459608,-152.80304439443165,7.418449508727581,-83.00296017112608,-46.167655883036105,-24.26422442045752,17.772054474262358
-10.57806640542074,-250.44082687765882,-150.97923472393458,8.210032622358128,-82.18886694104704,-45.38997246756407,-20.218663227653778,18.339711496358735
-10.471070144565898,-250.1099383946338,-150.2875235082462,9.085763381849608,-81.92703380814493,-44.87031674840004,-16.096942732934664,18.97535030212954
-10.35472269375853,-251.63990180349418,-150.58362159516872,10.164523993519154,-82.16197880503294,-44.60659886409405,-11.906373857996833,19.7319952548768
-10.113281871568716,-253.4774235230522,-150.87267226734025,11.383528718336297,-82.40481409384304,-44.38250660422864,-7.6912442758030055,20.564879013650998
-9.72481045507198,-253.5804971032718,-150.05282917066762,12.526513741330776,-82.09270363683255,-43.936907330528605,-3.6231004924761314,21.358446419363244
-9.271658469361471,-250.85602585912739,-147.67654744573014,13.377422045116287,-80.97596897165164,-43.143459902599886,0.04541367148752842,22.00149523913356
-8.890788222257251,-246.00314914552538,-144.3067362978988,13.881334169016373,-79.31402898260222,-42.10108081029279,3.1668782229789034,22.462563164613567
-8.716729859476747,-241.46704537213944,-141.40265798225315,14.207469757305644,-77.83807696604998,-41.124659635666255,5.896368301165955,22.82160676789748
-8.830634353633751,-240.58135734713113,-140.79398735089387,14.698229239128798,-77.50238246955121,-40.64622123347485,8.74461059660238,23.245280860593095
-9.192518676971224,-245.95148212225638,-143.73722528476475,15.736839993411746,-79.01072654331489,-41.00720423920628,12.412104510438914,23.91625711879318
-9.574353577038028,-257.32805717854717,-149.7237869900928,17.551034706062513,-82.18969456315617,-42.16247148734902,17.43279902639785,24.932018306226734
-9.579489487026342,-269.98081594979647,-155.69875084043113,19.983563031386637,-85.53904376637281,-43.45078215705047,23.73868074722757,26.19934756183491
-8.812351822892369,-275.14641101255893,-156.57888598487585,22.35091621193614,-86.43235635962598,-43.66385242047672,30.335546007434022,27.379034977861792
-7.131137896436376,-263.3745556205078,-147.35274718234123,23.573082441152152,-82.15563017462604,-41.510875442405265,35.33463845868705,27.94716780952777
-4.802292655121335,-229.578951432549,-125.8513813227277,22.642047016958273,-71.35663556844176,-36.28275412714696,36.508542228181284,27.390087920792773
-2.4142392629493856,-176.85941958210742,-94.49072268018632,19.227904449271538,-55.037148436621784,-28.317988387326658,32.262778066353185,25.45140217363472
-0.5853383313299062,-116.36022782917286,-59.69863992419613,14.023625408108845,-36.38362701884957,-18.95606136656721,22.56581750437272,22.281033643596594
0.3351108035084676,-62.723128940656906,-29.16491655798024,8.518948530928414,-19.438151008848696,-9.986428477793005,9.253078682224682,18.375258719009466
0.3653555336788698,-27.528604845204796,-8.475569714778524,4.2555282812907755,-7.357127057350221,-2.9189964856855597,-4.590621385250146,14.334762122151178
-0.26001699827226576,-14.461308876508005,0.9264199500543114,1.997275218581836,-1.2486649707346409,1.5173477944702312,-15.899338326359008,10.603644345791801
-1.3372343847763772,-18.79119178050478,1.4650288993751714,1.3569964720358971,-0.14529865952417856,3.4434418512136293,-22.837579994138018,7.370178499509591
-2.807498388399958,-30.952285899115637,-2.585082082581054,1.1388218000759376,-1.898757190631878,3.5646574078300373,-25.28729201918346,4.679306916934034
-4.64559995500925,-41.63129673961401,-7.336271094390488,0.1617460787960855,-4.292491964693564,2.814056513651492,-24.4467493172425,2.623873180153479
-6.664394439477543,-45.52219966343006,-10.567167057720985,-2.0039929064121225,-5.797094019822254,2.043527907348474,-21.965762599764915,1.408711645781562
-8.469222374029275,-42.49380116196286,-11.916220078769518,-4.85407013920615,-5.8685337115718825,1.7487494145182847,-19.25237912774751,1.2037431986798155
-9.635622213475331,-36.55057400989247,-12.469844274300161,-7.344606263254698,-4.9413603070712515,1.8466326241008801,-17.27227108124725,1.9195200820646676
-9.936540816520834,-33.37442971738641,-13.979975196077381,-8.502316462678493,-4.122340065891415,1.6945190828573728,-16.645468530032833,3.1379734298088064
-9.38862514275487,-36.98250954870497,-17.5967161319579,-7.865118765922671,-4.453944766207728,0.542654449397766,-17.630277699803482,4.302223129537726
-8.089213059460084,-46.4086714411234,-22.369313148344958,-5.62535235388464,-5.904490226212413,-1.7144701366833728,-19.8575677161608,5.032212659140868
-6.049844230996115,-54.270031782108845,-24.548373706451077,-2.561693563882744,-6.744124590490597,-4.014820723336283,-22.118482002608122,5.3166853418558375
-3.2349770320755096,-49.05087998865714,-18.76692226088895,0.15968703683434515,-4.022853634445432,-4.370105467448671,-22.62456494497078,5.439888135376906
0.21632995932704174,-20.900161166686757,-0.962896168529416,1.3270790957769825,4.829550064812925,-0.9014617596426184,-19.80055331486298,5.720979111399122
3.821303508762469,32.09044703893153,28.656383716958903,0.1485703227000995,20.206626390570534,6.942846576873274,-13.16957801999522,6.277180219161928
6.848022599313599,101.24374086491669,64.73047298790374,-3.3384640506324677,39.58900014719855,17.82285527048939,-3.7205268020818947,6.972812152328015
8.65459936760571,170.43960539487355,98.81612562711047,-8.179776086201269,58.48817958436094,29.022996183041954,6.530335694586849,7.554378053555248
9.037489721715469,223.46898484727114,123.28989213990528,-12.870042560337204,72.55462256676958,37.749551812931934,15.522984914449703,7.840358983001954
8.33456644160273,251.29302460971593,134.7372358143277,-16.020113649591583,79.56454019729996,42.410402974277424,22.076028924626144,7.824363059096192
7.212169757779124,255.10428295875897,134.8980949749075,-16.959503814179826,80.13852390541913,43.14651830368035,26.23378998557699,7.643584598046147
6.2963267309664595,243.9612919921715,128.9217379329364,-15.934801041013774,76.93960088139598,41.42539898117809,28.943957971812768,7.4695483098834785
5.900356819386443,229.15584953058917,122.35647645067114,-13.826353628502524,73.05757293123715,39.09512843997388,31.383840764005704,7.413170382804882
5.990123574398536,218.98527554869523,118.7731040060126,-11.613386254568393,70.62687312565534,37.522416387065704,34.376031149949426,7.493435039177355
6.331744888424277,216.4660579900532,119.04521995375298,-9.937109593593556,70.3105177165598,37.21597111327571,38.15251874532181,7.657712069856605
6.667397731395772,220.09905704299211,122.02973471069504,-8.965638741667979,71.58870164598919,37.937984522679024,42.45678186062167,7.819891252662115
6.821893002647207,226.16423211852756,125.77055835575838,-8.512588886913727,73.40409776033792,39.06622890713742,46.827863250898886,7.899834499410235
6.745873371026325,231.02787759911996,128.56933840987446,-8.234415325992925,74.7830831235588,39.97996526220362,50.91115361683511,7.861820152601549
6.524859849739102,232.74306284395644,129.69173330842403,-7.792924293238918,75.26655248977106,40.34812104742172,54.676608455922974,7.738832643147335
6.338561767094734,231.67916865815891,129.58866354732803,-6.977305777915809,75.06143254356316,40.24658323987319,58.440483200937656,7.618608315562573
6.349927423540164,229.96966778324284,129.48884561912283,-5.791332469926958,74.83059511512579,40.05148660669994,62.64309388935819,7.5869306808169465
6.575407048356899,229.91551370609093,130.48106879075397,-4.455768182392057,75.18552290095953,40.148914779511145,67.48044494737003,7.661958993973347
6.844025530123228,232.24513057159885,132.6594080102983,-3.2838357272149588,76.19507291233978,40.641032320083966,72.63244360411255,7.767829305084649
6.899703000153467,235.48207752905643,134.99186571036495,-2.487862580202042,77.2846323216979,41.260387860122954,77.32141351918116,7.768214744951332
6.58031489086949,236.95333711799975,136.04559247622888,-2.0488520319401076,77.62609064577691,41.5556753957282,80.7382379970875,7.53996615143061
5.947262303113137,234.7248773232159,135.0355204395765,-1.7283373194257023,76.7444971697497,41.21170032226069,82.62927498367195,7.050248165143136
5.292149618719514,229.153810833319,132.49921906021908,-1.1855553385948308,74.94171223212739,40.29714987711481,83.71269458448147,6.40723674877438
5.030474466868956,223.19694465938113,130.26910942327888,-0.12052203886118451,73.3108287031443,39.317983310580594,85.63351111662276,5.857997019788843
5.516611153354061,221.3782313635621,130.78989350057938,1.583695370609387,73.33222713704151,39.05610954720821,90.32102826603904,5.704316782457628
6.807333271925754,227.66381660805718,135.915240060222,3.717594745272459,76.1312260169726,40.20847415136758,98.85229703589478,6.130058931267466
8.448844620304428,242.67798482152367,145.41512928289083,5.6698178703819435,81.56684357381249,42.889104259670404,110.24488775099186,6.999953538999007
9.449849942244992,261.3427370601833,155.8545592330776,6.557978200440852,87.5636706317018,46.20292731752412,120.88094978434248,7.757254485327199
8.591321929601941,272.8043547120341,160.9004824696575,5.614131646686813,90.30223281893339,48.239348520935806,125.22588802984289,7.54060515318249
5.023981937871027,264.1099200837815,153.69472767690016,2.6418726469560023,85.63253822877425,46.73034372198333,117.94306654888588,5.52976236961795
-1.1627576197952547,226.86476089864192,130.54440346661778,-1.7878669939814564,71.28233417727485,40.20411554959337,96.5985086501971,1.3763093622289788
-8.801807111732309,163.35337588556575,93.80674605903467,-6.608110933140459,48.626388880482075,29.007413237982295,63.4880505772575,-4.513281379118268
-16.11346621721684,87.77489185959635,51.79611660077537,-10.85479853794209,22.713515111218946,15.471350305586615,25.311639865497746,-11.028578841911047
-21.546038241814507,20.59968468136747,15.176430620982412,-14.16890997532981,0.16360220448690266,2.927855178317522,-9.453443430651769,-16.760613609673676
-24.485811245045117,-21.63958708047492,-8.398146653243607,-16.80400313111879,-14.091595277314896,-5.989191992956458,-34.21414189753138,-20.585560388590412
-25.39529960363529,-35.448317261089066,-18.281354244100292,-19.093611219526295,-19.377889196364944,-10.78662850286039,-46.96476404963376,-22.13539913398904
-25.313096892807312,-32.712694168604635,-20.964118081389625,-20.767631485166664,-19.573513763161902,-13.378194256754938,-50.55902258969505,-21.908016857353026
-25.07303161679776,-34.324021785650544,-26.090951719718994,-20.69124609126631,-20.840996334057056,-16.92416847529656,-50.528888003711096,-20.961931863463228
-24.775886202614803,-58.314822927978085,-40.62528359853021,-17.357812618086395,-28.045083925198835,-23.88090328966424,-51.843193356940915,-20.373893965367863
-23.853387444472872,-109.15998400145367,-64.56475636860968,-9.936666427084303,-41.905789077319,-34.409889980014114,-56.479941840948506,-20.763374167467838
-21.64737653322537,-174.3534927044631,-90.67307594564008,0.7693703691161342,-58.497049610781644,-46.087130977609434,-63.015580737016485,-22.124507275507703
-18.082476736677048,-230.22858306107884,-108.32919071038866,12.136480613905764,-71.32804441497511,-55.072691867240536,-68.14668598669708,-24.000884647848693
-13.961554603906704,-253.81319979067703,-109.26587865311413,20.56506178633581,-74.79187867208795,-58.058820434007345,-68.99681671870609,-25.834020306345238
-10.670823369854187,-234.30422981395898,-91.99986664242098,23.009322158436753,-67.06662364595068,-53.911764380007085,-64.80542521934704,-27.246015457825127
-9.466391642729526,-178.1859698928089,-62.611331109375726,18.408354445069516,-50.949852583479064,-44.15055640511479,-57.167463308703326,-28.111638598407318
-10.781425983242144,-105.6796601126366,-31.645489349365423,8.242207065228582,-32.31513433047924,-32.088987523251866,-48.93573359913371,-28.446824702423832
-13.977175642776164,-40.90061857467845,-9.023182021395177,-4.104971944558931,-17.175178615824034,-21.193308906898576,-42.61868294852843,-28.260089123911257
-17.678681689898294,-1.172036387828563,0.244435344811209,-14.841921034286283,-8.991821082184845,-13.575188135595125,-39.236165325644805,-27.5100789752202
-20.477575780517085,9.16184344536621,-2.539516308378469,-21.338060378572994,-7.575377060079922,-9.373880110853687,-38.167454646817255,-26.209286594896845
-21.58323583088428,-1.9649508170348322,-11.526462207187791,-22.982790644972727,-9.915897903643197,-7.217989114858805,-37.879441839275266,-24.588877919527476
-21.078966093663887,-20.427993182088674,-19.845137003424,-21.01358780683485,-12.21783647776116,-5.350152983811321,-36.96075864499748,-23.174237017008316
-19.721587452672363,-33.404122492431135,-22.823154540072363,-17.58695406021964,-11.89904006918437,-2.7114251572156096,-34.845782120585916,-22.662339591741404
-18.497954915150522,-34.48657302241525,-19.512576758337246,-14.711057007457256,-8.59485197480017,0.5527456276764766,-31.940577813096244,-23.622012186450284
-18.221243744183354,-24.861599732473632,-12.365111877059492,-13.55890316488429,-3.9487558738832673,3.280211062307194,-29.27064806505435,-26.171048013489894
-19.299112138468384,-11.244871284112769,-5.715036033051753,-14.29484450856475,-0.5792939135762889,3.9426608186787426,-27.958841687324867,-29.823729155539468
-21.622587590716865,-2.1418036478002995,-3.75732494602453,-16.234114278001247,-0.768064080479672,1.4307668028753364,-28.75404985524295,-33.617039242721326
-24.503543357659414,-3.7372510349964116,-8.476483380951752,-18.131694336220477,-5.287459219446341,-4.29350959425828,-31.66867692973312,-36.470077970496526
-26.71981860001732,-16.524490619223382,-18.096900449752145,-18.553618830836122,-12.714277528579293,-11.892241260906859,-35.759110195503254,-37.607885229722676
-26.811941382876878,-34.05112376956886,-26.943490235288394,-16.35572184265244,-19.595793035034735,-18.883688221245247,-39.187453364561506,-36.85908389583488
-23.65818725173329,-45.02145041067767,-27.39253097784711,-11.176347628695861,-21.67246875881627,-22.473640231484076,-39.72562622136729,-34.71225055332297
-17.103615803790287,-38.597556435394104,-13.518886530345776,-3.6943233017354773,-15.84964466726517,-20.75146113467604,-35.65341328546983,-32.12240811847374
-8.265120255724652,-10.60906367778023,15.260809591069266,4.569732257942278,-2.015497252154165,-13.703191023337842,-26.673230620786654,-30.13792240882757
0.7507783483396874,32.8393256122105,52.699281621652034,11.878350839645522,16.36456121942108,-3.446702049620857,-14.313875485190474,-29.468133410741455
7.6463046561426244,76.94112350125313,87.59051828856893,16.998414344222205,33.420757756807625,6.555291584445977,-1.5097288604385948,-30.152947448302736
10.852996342022536,104.72056549490023,108.35993619712072,19.59040280682564,43.392171551180546,12.97869509542218,8.49771155566383,-31.502569219733832
10.102108464211307,105.27910536539073,108.12008840616589,20.053766243379087,43.23302920003067,14.070506962517825,13.403252605615686,-32.39147265567464
6.395126274219236,79.22142588648975,87.59577895730108,19.009360055535613,33.93560256336219,10.29317608894266,12.637181067729546,-31.811197777654552
1.4811427157662502,38.180938420538794,54.489280525840215,16.85718532153296,19.88161170807582,3.890993342568853,7.409442191177334,-29.408143037075295
-2.8197834777913795,-1.2154918282648948,19.801006813242314,13.743066867157033,6.632812731397874,-2.309816532070816,0.084928138216883,-25.69438182690649
-5.131129880725288,-25.414507181277184,-6.859205364767452,9.889753122008965,-1.604577333259549,-6.179274997782619,-6.755653147341088,-21.78504053459322
-4.74536981442228,-29.579269817249337,-20.65501431385678,5.933493261418415,-3.5351989977789704,-7.005711763823743,-11.171476706826397,-18.80085060709066
-1.606568643111934,-18.113970162380905,-22.229617090239103,2.919110451854031,-0.6964553524537194,-5.418327343893664,-12.355957037436136,-17.289804674876702
3.841737327690132,-0.5345976142538629,-15.89049113847701,1.9025316708213489,3.963009399464608,-2.7222321459618963,-10.674218086452704,-17.006799111861056
10.85867691500354,14.303928361094489,-6.681163502609296,3.4266362055830313,7.875270869525912,-0.12249795143315756,-7.321166009819905,-17.14585356793887
18.617925862397698,22.17950519561669,1.9515372227779981,7.234903518287413,9.994556491716907,1.7309822976129356,-3.7864314668834367,-16.82776725390669
26.407070988606815,23.95429502717006,8.913387322627687,12.411719602333422,10.824906079301558,2.738220256625306,-1.3293771073662137,-15.527468110622417
33.77082061067955,23.22430284351775,14.771046687209841,17.832068064857307,11.596160539028533,3.0641135201981355,-0.6201395676033762,-13.243117229289282
40.53309647601754,23.258533801555863,20.43065267059552,22.609226965362947,13.244423773071608,2.872925777553025,-1.6350204249527898,-10.417874379958883
46.67496153674707,25.022211998527652,26.02349343435322,26.295418134359732,15.77105069859757,2.256171295693289,-3.8076434195738456,-7.732940582142573
52.14860610647492,26.949217521862565,30.52095179296649,28.826500856404756,18.23240277284039,1.3289451497189875,-6.325117834777947,-5.857541825744276
56.77225186609099,26.250359602339202,32.26791466448752,30.365356854598055,19.31621507586475,0.3760638540558646,-8.385152041229654,-5.189036525054396
60.283132544287945,21.113854154841178,30.224675942913066,31.158066289013746,18.23218840867162,-0.053984663420549944,-9.29111072903812,-5.645717131254406
62.470531748130455,12.757246400924787,25.189862181310176,31.38817120386644,15.444109023345385,0.8147950364089771,-8.44060952954185,-6.634770636048463
63.23167032278433,5.967578019445496,20.008422709899833,30.999309466198696,12.720904573065248,3.7518448801885858,-5.389181613055316,-7.281986074894793
62.492074122913905,7.218100244245699,18.254521409989625,29.582246398228843,12.292424527922227,9.10355084416398,-0.08613617565377807,-6.852219331067591
60.1140015741139,20.972390800405577,22.019296421433754,26.503684245553085,15.507765487090573,16.389626052735068,6.862365048133669,-5.133904024874057
55.97542861546483,46.41857459052113,30.333077459200425,21.32504102556347,21.866922382788054,24.23206767216823,14.202131043112447,-2.5546930171088293
50.24593633054953,77.07811716722965,39.50747327437969,14.289382597836441,29.162279954992986,30.814820598224664,20.48029084774873,0.038066075115328134
43.648852674098265,103.97412024099701,45.33426741912887,6.499499742753817,34.72606045659933,34.71714212292411,24.756129078161155,1.7830862244393904
37.41700471483633,120.49145866346966,45.65773672909388,-0.4420836286664699,36.97048222637043,35.63500972190499,27.11833125096496,2.1479065088860527
32.83374336707749,125.66546376803113,41.48434818901285,-5.1796185673014135,36.160455770794975,34.4911047212251,28.60333214803593,1.042370076770532
30.580302477661267,123.58447212210095,35.83511783264991,-7.260294481488373,33.8922136812273,32.79772576880454,30.487981035828103,-1.2754500209509463
30.32214432452689,119.38166411486876,31.253118482299993,-7.236311969426305,31.703628494589,31.652018392877043,33.382518553106515,-4.343563460368256
30.86234451443975,114.92158650462756,27.950962147786022,-6.137042734319812,29.905292715759714,31.038316313480333,36.739868188902,-7.557172943522052
30.809983955473097,107.59161722161241,24.087134259075174,-4.715136587032775,27.54338999659296,29.9314135957692,39.14641776889367,-10.161323416153975
29.337017039848504,93.12321407469942,17.894274607185757,-3.0422704729009458,23.478473944466465,27.124703735576826,39.215440128576056,-11.312934287232165
26.53239411197861,70.06502589383078,9.81312174082574,-0.7340856236609481,17.644873097061424,22.172612888480955,36.470127265699126,-10.319566224028668
23.163477833567917,42.22793975615871,2.7903040389223723,2.4311937399478443,11.43077481501191,15.768465694799836,31.620132563037576,-6.993356606157902
20.076015222834783,17.159491195439212,0.4467223505532868,6.035069365602288,6.872583118945954,9.32810515790268,26.087110562043787,-1.8995633863888708
17.682017432955032,1.8507768254747845,4.534914494131844,9.076852497982898,5.311181628653315,4.140972194685931,21.164958620085525,3.722197029708804
15.86527698749183,-1.1750823210601755,13.590399536294148,10.535619779723987,6.533286813490908,0.7215555314859174,17.416207274191464,8.408244760968243
14.298275008683976,5.197819309449655,23.70314270872625,10.03302265083162,8.99115912655694,-1.226545586882228,14.673743983874916,11.09575504386715
12.865477553757543,14.978190746432952,30.7750647002211,8.12936020832632,10.864379127565915,-2.3199512305940293,12.535939778897282,11.584241454788172
11.835266269051063,22.664017770892546,32.66505850715469,6.044148606518632,11.146191437943619,-2.939797620540904,10.88656147015885,10.559899495124945
11.643522324221214,25.666620703139206,29.886949818210052,4.980723563652956,10.01551622753157,-3.048033204918748,10.008895883942047,9.159419121168542
12.466583684084274,24.41677366443726,24.705119215094317,5.481415698925559,8.37982050630947,-2.442623498207145,10.246368679925048,8.336108183166584
13.919110846765339,20.872243772095104,19.56662538277046,7.186044890677945,7.095167157048773,-1.142193967914547,11.550708607062617,8.41448706580644
15.104259993756173,16.961672785793972,15.982073481277679,9.082876181794427,6.482097252135487,0.4673811618655569,13.322892450627128,9.081519681946782
14.987780657066413,13.873673096954747,14.289975157889144,10.056082638519575,6.359557497038655,1.821416553670575,14.671708881717938,9.762218067229085
12.875402944325478,12.04392773419782,14.011063360334205,9.424074896269525,6.369742237158771,2.4923877163239916,14.874639736935304,10.087238549784098
8.748543689485782,11.32811953236072,14.335361100311715,7.22804083259788,6.258960104912796,2.3678991214277207,13.71232167700188,10.138707293102033
3.3087303835872857,11.197754837187935,14.541499814558609,4.167082631573267,5.971535445716524,1.6075794293558114,11.493251315431385,10.34030777913968
-2.2894138705350096,11.067365492081136,14.310951418094806,1.2228316542235402,5.5996035465974145,0.490948491512639,8.812471048182898,11.098877488163437
-6.907864617727134,10.655356391261009,13.820665061356532,-0.8399556863314616,5.258897946867113,-0.6975615054097314,6.228331893280266,12.461623378976489
-9.883420315348754,10.048593487099671,13.489318710970508,-1.8250436981051146,4.938806630891527,-1.6980246981501725,4.0499118349545435,14.039153765880279
-11.244463862146771,9.388873548196393,13.516235915266918,-2.1073182903890824,4.415634854510663,-2.2680300365387067,2.3355603255903525,15.260536646345352
-11.582190069926936,8.570445939172348,13.610320153678325,-2.3122771301817706,3.3406543212619315,-2.2112803134059202,1.0594458047283315,15.78169060983874
-11.677554525718168,7.355018657626685,13.17487356847877,-2.9155924942794074,1.495647523804356,-1.4735185008004525,0.2834693734523204,15.740152873507716
-12.114697878064058,5.775755517245361,11.775502051988562,-4.024418321543288,-0.9759525605705991,-0.2652533443787037,0.17052498645792152,15.65091495188743
-13.07086357396377,4.299772146972131,9.465843367548215,-5.420221996030957,-3.5799313197576597,0.8998974949966247,0.8172277467796089,16.003365058135234
-14.327804136401102,3.5010093526366948,6.7508443669010365,-6.749927159130873,-5.734810393761878,1.364847293549918,2.0594779038210245,16.844608402175375
-15.440137476758977,3.6065448238551774,4.335577760039596,-7.712051256750713,-7.068131759132517,0.6783986253287752,3.4466633284565895,17.650977772495345
-15.975137657796262,4.419085220510422,2.8928685232552094,-8.169725157326711,-7.523486606261533,-1.0598394827716642,4.439575606887804,17.594929576901585
-15.745242684099864,5.619344919809781,2.8759016434413844,-8.192593666417153,-7.267807929858769,-3.1303910165836153,4.6918178199280725,16.051767656596134
-14.938644851351786,6.996108920624076,4.286334800117666,-8.025896890192081,-6.5583601750062375,-4.523994292874187,4.204525586152506,13.031655108081585
-14.059215651309108,8.335619801386537,6.478344325380183,-7.977989794788714,-5.684362205456516,-4.507581471872186,3.252902551002755,9.262726973748704
-13.67617560003351,9.238182253835308,8.25815416105943,-8.267444606118216,-4.944714683991869,-3.070257195371548,2.1587018238245874,5.863225221294158
-14.114693462094731,9.261446837626,8.388503490154127,-8.92175440752614,-4.575938528403278,-0.958943231549655,1.0752661104768866,3.7923232846348616
-15.269496493047576,8.32965851594382,6.230551788256364,-9.784297241035325,-4.643947629834966,0.7168038016331227,-0.08526737108225091,3.4037043288035873
-16.638273007665052,6.928335535058164,2.0866824838003524,-10.590445822437408,-4.99992073324106,1.0714921898889451,-1.5524260203982274,4.3592164800597955
-17.530881443737243,5.80995645615291,-2.948553281372411,-11.036186185508832,-5.3502668996631355,-0.09394450484388694,-3.481601112384226,5.932984014126587
-17.337470853541593,5.5068369987219254,-7.448574281520317,-10.829212835458922,-5.380011155368369,-2.1673579098254883,-5.736635133319762,7.4910797962945335
-15.763433862798585,6.126951596518,-10.140032722823793,-9.78338421097855,-4.853570957937543,-3.98902435984158,-7.818627318013387,8.82710341380892
-12.98652274786566,7.481801494896596,-10.302932549320376,-7.9778857807769095,-3.7015922395409975,-4.410345659212395,-9.053004709536133,10.142667367239634
-9.694274448532664,9.185145272804911,-8.089169420893642,-5.882673523590982,-2.1308081992729715,-2.9245094813300567,-8.997135002978377,11.71368415450256
-6.945822711707273,10.553049993835092,-4.632723616449672,-4.301178243650788,-0.6885010809647379,-0.05238047671324192,-7.831619574347702,13.505093198751359
-5.846937753260453,10.630371944246074,-1.7132581713182662,-4.086862478197637,-0.12630609559098974,2.785550850474989,-6.42828061928954,15.031293045809269
-7.138006518886414,8.678961614364646,-0.9716780363235725,-5.765349350507603,-1.0293157327372013,3.9240711373343733,-5.969001717839408,15.58186256876842
-10.878595165244413,4.849164599337853,-3.1165041326439447,-9.272339667528975,-3.4337204806366604,2.307042603429187,-7.3183230553625185,14.670013954188452
-16.377990954260323,0.3105844177305307,-7.680237443964767,-13.937147973620164,-6.749643663473124,-1.9494382294570354,-10.55564442772748,12.40040906143225
-22.390500708609064,-3.4695704686843705,-13.457332136287977,-18.69637329857384,-10.078772138425396,-7.602644657632972,-14.965428680831875,9.501072630600124
-27.478017955388538,-5.728964295871463,-19.196219378766756,-22.433867527777632,-12.680612890765948,-12.87671526172982,-19.454983266165208,6.981625283398268
-30.411661121022675,-6.795674546927915,-24.006453317818337,-24.330876471450416,-14.241427191702398,-16.24519562637584,-23.092690562378195,5.618936377252468
-30.508176471526262,-7.562222977545004,-27.329158725353015,-24.119175695618843,-14.813236963200852,-17.00995547108071,-25.436294022250475,5.576736779889886
-27.817929059422188,-8.564884990206709,-28.719905884111217,-22.146978014005754,-14.564936828243823,-15.46383427789906,-26.523229430723926,6.373837301526532
-23.104593891499004,-9.359691912783031,-27.72887132751668,-19.23402497439081,-13.567866096066002,-12.645920212594083,-26.633792545355078,7.194449616448284
-17.620023052181082,-8.486303423603454,-23.971711706256922,-16.400300076667286,-11.738776735919288,-9.846632938939017,-26.046294181251113,7.335787031987741
-12.762353409131377,-4.0249967716982775,-17.399264631095225,-14.60327827692899,-8.964769495092316,-8.085791183354798,-24.949490744672858,6.5375005031198405
-9.735645424940708,5.2077931083280955,-8.790653466720176,-14.542164813920017,-5.396494537765918,-7.784005410273538,-23.534786729610815,5.0473028767010515
-9.276354412103272,17.968073389380052,-0.32014935235683023,-16.469996882026148,-1.8071055356952752,-8.756521332816282,-22.15169009610437,3.453338515985265
-11.451275885615852,29.285761934002284,4.327774384220314,-19.965296335608077,0.2543064282411791,-10.484535320724191,-21.349015144649798,2.4306663987884334
-15.553183617591415,31.02256556506233,0.9060079899207576,-23.786620523806885,-1.1688587997941207,-12.457976934937813,-21.69047102106604,2.5376188730624514
-20.195635941108048,15.05146966981235,-13.399104090195866,-26.06929129038772,-7.519294678941745,-14.365066906042834,-23.409774844672942,4.096759160507914
-23.702785438019607,-22.116551277126792,-37.93428103248937,-24.995226417364478,-18.70615726242322,-16.05362828349016,-26.138157407135708,7.11753002914798
-24.730167937829282,-76.07583808727443,-67.96290762216577,-19.699696344225075,-32.696842471656396,-17.381253503839698,-28.942996144007665,11.23859387569235
-22.844022957050022,-135.16176659005066,-96.23208187171042,-10.881966331492281,-46.14762514164129,-18.14149880354624,-30.722466536571254,15.743566198787866
-18.726156676178768,-185.18003639981532,-116.07648616008801,-0.6634884605500558,-55.83451865068442,-18.153138784778843,-30.74611079292343,19.72277813341583
-13.848828763559968,-215.70850317758257,-124.32538890640822,8.316035735106219,-60.085173860839916,-17.429716024508974,-29.013424980994856,22.36844478136028
-9.774471308330964,-224.33317266991696,-122.33778958535771,14.076269449066025,-59.37708339943142,-16.257320480663566,-26.21128518205956,23.273615485747705
-7.465935280291384,-216.5239487349919,-114.68489854313262,16.07748365746756,-55.79980457406793,-15.079370217919736,-23.309789949891616,22.568812207729355
-6.981477149653979,-201.71832621856257,-106.49636666494756,15.203233235730929,-51.81221389560491,-14.261721797461652,-21.06649992514521,20.814900695287125
-7.673663319272373,-188.4428331155665,-101.19317612874231,13.06205662428562,-49.120586851909316,-13.926967577197708,-19.745646243529507,18.716480936411102
-8.68917138157761,-181.31583961207238,-99.74752853245442,11.116421056783379,-48.268735675751415,-13.979737986561823,-19.172512779794534,16.822014821578456
-9.415206543989822,-180.8237201976191,-101.32670327075087,10.14162205569013,-48.91253488743409,-14.258119490322555,-18.9898987153916,15.365117504207056
-9.638354845987706,-184.7723199216269,-104.35084795331679,10.182551979222888,-50.31879279256789,-14.64139213655279,-18.8810558030745,14.292644452306869
-9.43818594458391,-189.89743806011617,-107.20200112254857,10.833756475533347,-51.70553363248486,-15.031259398679211,-18.636983806953403,13.408505930158709
-8.996984403472,-193.03576778066494,-108.54830681822938,11.573519727332329,-52.39936127273321,-15.287539808856602,-18.125369109022312,12.52137169870843
-8.472537441715707,-192.0540809951669,-107.60478032094049,12.003222678490907,-51.9738683632702,-15.243950425869647,-17.2764961084632,11.526555606391192
-7.960674244709134,-186.6049954258421,-104.41495171913833,11.96935211171604,-50.413230158781985,-14.818742488488489,-16.119519661888862,10.416297235017884
-7.51360428319752,-178.32461042678972,-99.93384207642707,11.567149521974166,-48.177796087951805,-14.119039133967242,-14.816024071334885,9.243897834134305
-7.190749693501826,-170.1981157115358,-95.76742646052165,11.021224390049017,-46.07940682471749,-13.446889284178225,-13.64341679403391,8.067698202835382
-7.114084687623697,-165.38681798559318,-93.67964398020189,10.503213415892649,-45.0188347091614,-13.203800172137166,-12.929808419495034,6.9017196017537525
-7.457804556657086,-166.02938630221684,-94.99606707220276,10.022398308083854,-45.668879850380115,-13.732516821458768,-12.946767410851905,5.705543047291874
