FZ,C3,CZ,C4,PZ,PO7,OZ,PO8
-1.712078326157266,-1.3372064129255326,-0.27084313855795206,-3.5017769185204966,1.5844142315596144,0.22846788497508214,-2.2413791794996047,-1.5506904081977584
-11.84302441171761,-45.159249288753045,-24.909270055539814,-8.008624015436265,-13.606423456161949,-10.493485966219287,-13.809386443035393,-2.5821254678535803
-19.601599057230814,-78.36766084296474,-44.1192857296052,-10.982414165025432,-25.058948890650687,-18.37410149952703,-22.222616844874818,-2.2980764217375795
-23.582113760056647,-94.58525045036201,-54.50221946895178,-11.663269853610512,-30.491134698679915,-21.861917853762076,-25.715609422295923,-0.11623776850481876
-23.785542375398602,-93.96289358870666,-55.87510801208696,-10.358108684967599,-29.926633494530655,-21.29884938195202,-24.60517133718061,3.488989000143784
-21.339141325474746,-82.30833215605013,-50.954959809750314,-8.114934947901315,-25.451448165912513,-18.512690241895005,-20.930196548228782,7.241869684826049
-17.752052281309858,-67.58563419368572,-43.68203072336147,-6.05034512460885,-19.96418777939248,-15.692894372369503,-17.290740392586063,9.725121952113355
-14.215481623915354,-55.94396513883766,-37.22231552167879,-4.794197442473303,-15.689139641441779,-14.299200893104047,-15.612034237105608,10.04550314655735
-11.32986307081406,-49.663641154252474,-32.93204838745814,-4.357093769449738,-13.426200599990288,-14.669886066007864,-16.53400518916442,8.152565332581345
-9.260503704394486,-47.78707214509615,-30.720996954262464,-4.3824601813378115,-12.878152611026882,-16.385886089268894,-19.585874459135923,4.724891421895127
-8.024318464258737,-48.14171698955907,-30.064534747440128,-4.506998858974001,-13.473522747892726,-18.85151360556131,-23.73283295405078,0.8042695145273681
-7.625000428789486,-48.87771538319773,-30.586118775833445,-4.573348014795748,-14.829741624633877,-21.532371004800527,-27.79323248028918,-2.569109046478551
-7.9945947845833025,-48.817204753779606,-31.904312268412095,-4.623062632284273,-16.60219391385565,-23.802062465178757,-30.603062139802645,-4.584182005128712
-8.891841452603714,-47.263434884970465,-33.31703128842301,-4.755077878542482,-18.184672992306478,-24.79951187142456,-31.152655214111565,-4.764637207152274
-9.89926422752278,-44.00197557005722,-33.898534863359544,-4.976105102331075,-18.766838946563492,-23.635912228429362,-28.86974162968134,-3.0260874041344366
-10.53663508466231,-39.392071838157186,-32.909055325263026,-5.135361565719597,-17.712082882051405,-19.869112551704994,-23.925480773568992,0.28172807619226214
-10.425491564203215,-34.08659867246308,-30.04098426521525,-4.982190083351323,-14.851508972098646,-13.874922889025864,-17.300447162241,4.381266509402823
-9.439013587942945,-28.494576460752594,-25.36568660566484,-4.320140157597419,-10.4907471984842,-6.833973048399091,-10.506785186159615,8.189111989377013
-7.789641970206256,-22.63148260809811,-19.290287920212613,-3.1651636822305345,-5.2959999226100765,-0.33657315590953196,-5.096280717089609,10.596101902657706
-6.008485749562207,-16.59106845337881,-12.701969621863958,-1.7994221348302493,-0.2260421507837271,4.194524473228001,-2.1596532406613904,10.86180191133784
-4.795030068225166,-11.028037742117261,-6.995372812950243,-0.6810561158766245,3.6066773670971424,6.0129332350648195,-1.9753292335162222,8.960470131324003
-4.7853051021753625,-6.960907086293512,-3.624483836989025,-0.27319391730537207,5.309258847413116,5.252830844643891,-3.9422623382750177,5.654822644526723
-6.340328466797431,-5.054538277312139,-3.3681073045862506,-0.8921896393683482,4.649324350823625,2.68900876379723,-6.899315322397849,2.176102772918899
-9.425725085587953,-5.184748740297249,-5.925334045481412,-2.6165238750889404,2.170943163833068,-0.8271026175458693,-9.742088768505567,-0.3574654310019304
-13.57582183375229,-6.659630567135122,-10.149665471653236,-5.23157221952892,-1.1312180005661259,-4.835176556430937,-11.95909456899765,-1.4341558330160729
-17.9215400336037,-8.601592093878034,-14.569671720153284,-8.205664522836711,-4.230024913005899,-9.216529254262758,-13.660724326286328,-1.239788031851978
-21.332006980183955,-9.925362200546386,-17.702947388080513,-10.766612756266403,-6.204024781191772,-13.654459948454539,-15.06538281001276,-0.3290666093407474
-22.74756237266378,-9.172900952628698,-18.192674795606205,-12.145706963199155,-6.197348180377511,-17.16241675976744,-15.929031140150425,0.8303159113053308
-21.653075360060626,-4.954592633889527,-15.18183696524429,-11.926334620364726,-3.616631283564871,-18.271553247849344,-15.498781141830724,2.0965154047488563
-18.441758949463996,2.9394139338227547,-8.969067720808566,-10.295416954832072,1.3504923290094946,-15.884814268456749,-13.08434425304213,3.5556296273851284
-14.378809432797208,12.755207044723537,-1.3319424642712665,-8.010313973023951,7.394540653871955,-10.153853597087709,-8.751482336363438,5.2388311816659865
-11.095296166955526,21.32314612934997,5.084081681526582,-6.07272918983478,12.467708018545988,-2.6611310146987432,-3.5337988190969845,6.905417497470389
-9.86158784855244,25.75013420495369,8.099593504014745,-5.288068388760827,14.805576135795576,4.266081053584397,1.0138359007146214,8.050857637811085
-11.036922462063636,25.036217575734337,7.151604797779172,-5.936820179957631,13.895328810999585,8.666340058522627,3.6010470744829917,8.137996376596762
-13.96640768937985,20.623505548257416,3.558100037947826,-7.695184818982495,10.777489599333823,9.844208220636506,3.8560456391030598,6.923061110182568
-17.334285534410622,15.862202066145827,-0.04761533546592464,-9.81521166927876,7.635679543387932,8.651760552073892,2.543333578305369,4.690359895589913
-19.777244507398684,14.830262332548337,-0.6828223333452135,-11.477623568651822,6.979796779597938,7.064353235416442,1.2547999297623589,2.234613391949809
-20.48678005585462,20.63264120199465,3.800041019434193,-12.164408698137395,10.617955348713423,7.194396247537922,1.6379254784975577,0.5496164946519239
-19.5481542690292,33.26067158976664,13.33863475022823,-11.869476715541282,18.51827149020221,10.09669710578897,4.418897740963569,0.35785441475077584
-17.852857760451517,47.9411179887163,24.611568393562134,-11.022953403925754,27.991841735891413,14.935349437528563,8.716368681940828,1.7380888633177083
-16.600955923041415,55.67728813758326,31.39057472750691,-10.166025692262988,34.00493765829461,19.08905293002824,12.174421191390174,4.072830212399414
-16.638628664411314,46.8837059293503,26.944815327486218,-9.586335100581874,31.091572815400472,19.34791258358657,12.048326162247152,6.352224464664303
-18.00485408652568,16.70068514949603,7.648026392971238,-9.160655389742287,16.206303453681514,13.65452035449238,6.725812436068497,7.6614066245897705
-19.954353134859723,-31.281818738072744,-24.374224321709256,-8.50131915417231,-9.148009771157176,2.3814257515285857,-3.230410474110019,7.584329087526949
-21.42523179061971,-85.64796385568008,-61.492822606148394,-7.281112232582491,-39.03651600750303,-11.664691891692229,-15.202951802557372,6.3251879924722205
-21.64332280060219,-132.15457643090397,-93.87023561491746,-5.495127064240638,-65.62157148225846,-24.55055832561423,-25.761246864342354,4.520080512694411
-20.49810343306916,-160.25471304126816,-113.9532666900705,-3.485939150608246,-82.70948530120695,-33.06469723055556,-32.28327132599232,2.8791670694136116
-18.50548277137467,-167.37828327763575,-119.57226981500952,-1.7393431566252542,-88.28733285793291,-36.04504505292028,-34.02351656802889,1.869162399721233
-16.443116191001835,-158.78586501271542,-114.04027001399821,-0.609961600112222,-84.73405652720018,-34.52306658350613,-32.105317864454356,1.585106945593789
-14.921943700739986,-143.67253115472195,-103.59217991903124,-0.158920883791922,-76.89550661285462,-30.79687177990349,-28.614816910098995,1.8234234336364985
-14.145459926561879,-130.30810226902983,-94.02539330627064,-0.18196700012294484,-69.43836302462061,-27.142883019576704,-25.466188186211173,2.2586046934048896
-13.941299574646687,-122.99301130800745,-88.4957432654712,-0.3680639078794468,-65.03224482278284,-24.91652017397256,-23.685541618809733,2.6085320301056165
-13.965380613690488,-121.81439069188416,-87.23545445380361,-0.4619927546680414,-64.0242613059852,-24.356369104290856,-23.333450823434493,2.726485637414275
-13.909689418650467,-124.27445417006975,-88.61549271082707,-0.34337879383570313,-65.21350279140376,-24.917109710763977,-23.855533172729366,2.614829631741052
-13.610154535338763,-127.25302707793037,-90.49512810439268,-0.01940183752978085,-66.91291075686948,-25.769679174215625,-24.524403956624408,2.38018726322601
-13.055676956320236,-128.3993237287801,-91.2059606557835,0.4234540375725836,-67.75970358853468,-26.21843614056755,-24.774362332897027,2.1566622972581073
-12.345331635773391,-126.81974208865049,-90.05827372642172,0.8735125091308847,-67.1510681959838,-25.94784245394838,-24.383537202821557,2.032509498092235
-11.623787369811103,-123.12408081018852,-87.4083031842439,1.243760833548509,-65.32070402441636,-25.070620475838425,-23.493697922509618,2.01737740968767
-11.007979677130018,-118.8276886075714,-84.27627703451778,1.5079750716079745,-63.051512836318004,-23.972409323102347,-22.461716550771595,2.0631475194955136
-10.532039766384806,-115.34329821178466,-81.65790013592846,1.7035136020172823,-61.13827746152862,-23.036587453706755,-21.61443167491128,2.1126528346087605
-10.146057355087589,-113.1900884443445,-79.9545844844061,1.8947101028814908,-59.92946739652769,-22.42834525126331,-21.067967890283107,2.1342453607813248
-9.770152450438028,-111.96792798582138,-78.9205726757997,2.1245051215743547,-59.26277167204611,-22.077008290591923,-20.73215032711825,2.123314897050129
-9.355976715733131,-110.9758024567586,-78.07438749618532,2.3944024107661597,-58.76913770262344,-21.820367889861217,-20.454695309049857,2.0869138051346505
-8.903852045530472,-109.79553069650088,-77.11454589508797,2.683037037103182,-58.19982443081603,-21.544641116439198,-20.144946759714365,2.035619046894385
-8.434516877988393,-108.35636296423169,-75.98376425284688,2.974471215876421,-57.493763845601535,-21.208097141343174,-19.78053622234579,1.9852732850687476
-7.959791284222968,-106.66607157050606,-74.6867597209669,3.264993207071037,-56.64840261799901,-20.79252742677795,-19.351997434169146,1.9539780189184366
-7.483844486739334,-104.69691108015562,-73.2014023291817,3.5507712799554287,-55.648249270742774,-20.288079329630694,-18.849783229878366,1.949430767604211
-7.019151099421386,-102.54199258832692,-71.582980653325,3.8222902881126597,-54.53717989132967,-19.727941572379287,-18.30276868727589,1.9610684872447388
-6.584034181391103,-100.49930198097937,-70.03228959032117,4.076025040555207,-53.46969240585679,-19.19468593297467,-17.786404513562108,1.969957387145499
-6.1812756523476144,-98.84293227726393,-68.74639408833798,4.324586448865864,-52.600715134324325,-18.756308415049254,-17.360828356507337,1.9671688729591998
-5.789734209190684,-97.52883792762472,-67.70801325079374,4.586282498124422,-51.923984699722894,-18.399799434117583,-17.008495650463605,1.9592772654918107
-5.385715960612071,-96.23685517903026,-66.69893397920167,4.864244755891678,-51.275472498065874,-18.050178708207543,-16.65606937479376,1.9555562242612938
-4.969045151727522,-94.72934948173533,-65.54477110137482,5.142355805425754,-50.51644077896893,-17.65703405726473,-16.25866794822602,1.954801631746549
-4.559827052923698,-93.08364634299683,-64.29007643467503,5.404847501833609,-49.67287231131833,-17.241767657368072,-15.841431543145061,1.9491087053733998
-4.170047584326477,-91.5202147894841,-63.09286262104819,5.655341699545668,-48.86412650673486,-16.85068442628018,-15.449877481175395,1.938337620109844
-3.787874597433404,-90.08433258719302,-61.99872851227843,5.91157400181027,-48.131650505680994,-16.483342798736334,-15.081478458792246,1.9344808723104763
-3.39537573261064,-88.61718390791464,-60.90288297610358,6.18371001937933,-47.40155620262458,-16.094420697399364,-14.692277601322152,1.949071394185417
-2.9952999706342394,-87.03582121765916,-59.73621251972155,6.464368684627625,-46.619328844354804,-15.663448323096855,-14.266494078148423,1.9796822584856482
-2.610699457767735,-85.50865296478233,-58.59828879510095,6.740716940733333,-45.853981375218844,-15.23352858521892,-13.849987189806289,2.012343309051478
-2.2580624040938817,-84.2595347936085,-57.63719891459572,7.008940105751871,-45.214549482222665,-14.864052513676931,-13.498680404263252,2.035214353748222
-1.929432444359502,-83.25359737857355,-56.83374952301566,7.270798906717062,-44.688269734642695,-14.560495871405307,-13.209803453885716,2.0453615394880877
-1.6048159802333726,-82.19308606677941,-55.98985943256648,7.520694481195455,-44.12692215405559,-14.273549383075734,-12.92633850259672,2.0430841004776568
-1.2743158817070093,-80.84141155960522,-54.95043062955205,7.747882394353821,-43.41242379407616,-13.962432834161913,-12.6044883626782,2.027760856683873
-0.9388366599759084,-79.26249489978439,-53.77597370297411,7.957321942035433,-42.59230250643724,-13.631119220120508,-12.251251801739674,2.006448176124238
-0.5929422033272824,-77.69555198999838,-52.65511153688459,8.182003055447405,-41.818008626175356,-13.291418068317185,-11.888096789967214,2.00403484414843
-0.22286414917153533,-76.28339264752799,-51.69569878860726,8.463028492854413,-41.18139564604296,-12.91802708916559,-11.505867650743834,2.053790308553569
0.16764212193176753,-75.03676466432499,-50.87521094160226,8.810584987211039,-40.664428274306914,-12.477782907588198,-11.08891238451793,2.167256976070433
0.5354632428546973,-74.02790105160148,-50.176720891007655,9.183715570861768,-40.236055901592955,-12.008093709259487,-10.681036654149331,2.310001953211067
0.8184831154883573,-73.43087776515515,-49.656092532736345,9.509112521757356,-39.91278307087099,-11.633804618980278,-10.389151705632173,2.4102853593703197
0.9902592519714767,-73.22687974913475,-49.28911410737173,9.722658740452825,-39.66153643848567,-11.471654678420638,-10.28685535008305,2.3994517711110093
1.0983748246783491,-72.92441468553508,-48.803337775551654,9.805626053868876,-39.284929654787895,-11.507603037261422,-10.310988234223151,2.257671107160684
1.2487836214387626,-71.7657548422294,-47.80304546494389,9.804863249996844,-38.51508195957302,-11.572195531168664,-10.269590745518801,2.039684251922803
1.548733428440862,-69.37348524431641,-46.16251498546649,9.837378922294999,-37.300670151757416,-11.436598303374039,-9.9652989242927,1.8702593481118515
2.0476135638239703,-66.25225179347552,-44.29900345032073,10.065531144926041,-35.99707455030566,-10.941954547832506,-9.327642538883957,1.9050112996405566
2.698092198548522,-63.65566719618305,-43.00740438737141,10.619950952880105,-35.21805164644556,-10.083531708964703,-8.465957309600276,2.2528048984345492
3.340642382657588,-62.90307565493446,-42.95408607750917,11.48085528514566,-35.42655613063018,-9.048632524780228,-7.646381538766962,2.875699655327036
3.7273375519975,-64.57996027874418,-44.18260704104246,12.387097881291163,-36.54945042176335,-8.21519771453337,-7.220905010573294,3.5222051479324006
3.614726654375523,-67.89662696738696,-45.84251361833673,12.860203471781125,-37.796775920535005,-8.046123703939298,-7.48014504786534,3.7678836920415923
2.916043036287939,-70.2759322075083,-46.12804680577198,12.368918464973966,-37.673733566595224,-8.811079455886851,-8.401743494909965,3.1918159519728793
1.8217462047059092,-67.43418375091697,-42.4702324623147,10.559426283252463,-34.183001241581586,-10.226423783489087,-9.401714658900996,1.622053041517578
0.7643413457171985,-54.48609335657203,-32.2189366390636,7.421960088659522,-25.35170671185786,-11.292656194188792,-9.334619889888469,-0.691146386775902
0.18920630335447702,-28.242241760319416,-13.917997105084561,3.3030529094711962,-10.149065297290855,-10.591078913514469,-6.920409600344878,-3.101701909696436
0.2548829437124408,10.172053014887316,11.282045195414431,-1.2249602053357815,10.50775108069188,-7.012352217233278,-1.4776945200576854,-4.81512550111386
0.6891130288513777,54.09670273702041,39.02498048352506,-5.536084204000739,33.307946426539694,-0.5310681242125118,6.4606464765964216,-5.243552481487758
0.9607688166091712,92.96757006732848,62.78921905465859,-9.056498078358207,53.2476705237985,7.500206612584393,15.117219154663191,-4.2795815774974315
0.7083606202215113,116.75200487070566,76.55429702691893,-11.282849974907663,65.51530017411277,14.844676112854257,22.19329836202546,-2.3406281214420597
0.14163079807533094,121.2014134180903,77.95033122920123,-11.797141772395463,67.8207597672499,19.486900399761097,26.027031792987902,-0.17142537920653264
0.09086680388388929,110.8191685199123,70.04578762873759,-10.373652408236826,61.88054689366887,20.724597049887517,26.51067098814549,1.4721776061990546
1.5930848660339192,97.25206682336699,60.3480119419468,-7.159385688032374,52.95932853082821,19.548385225890847,25.158370118631137,2.0956484266941313
5.241451810591773,93.48561257315374,57.18516721388678,-2.77974747681788,47.42593833826232,18.035732019802204,24.234325175472744,1.5945202628731499
10.723529455261659,107.06315529950332,65.42339079235033,1.7789672677388295,49.59352436541514,18.13479849716477,25.47235614333638,0.22738497036136693
16.86771271343882,136.36321645732588,84.05643886220686,5.509354369648073,59.67659697374594,20.607959533276926,29.177431466982725,-1.5258713077324169
22.182079688900384,172.0397064327608,107.05824902621733,7.773043280267787,74.02606861416112,24.761750796205003,34.21789881677947,-3.156797551503715
25.555627038344802,202.47562161943313,126.84513225366875,8.519004263047512,87.38002453472593,29.042567656364135,38.8261966772068,-4.299284490122279
26.712918363402853,219.79419901757436,138.18061778874056,8.212021234186121,95.6875932953945,32.02850510631131,41.64136196688588,-4.820194204008311
26.199420174579867,223.00519478594686,140.29821609673573,7.531570785031875,97.8634099025043,33.16204104914411,42.34792565496609,-4.810895038757309
24.977236786368117,216.98962834539674,136.32780086637544,7.030867329590707,95.66011640843269,32.83576383267873,41.60733708952053,-4.500815953978449
23.920282479180567,208.6846692318085,130.83843803229536,6.943514923731785,92.0885698642524,31.928299482651862,40.47080441794789,-4.1359738609668115
23.490631497051474,203.21529916353688,127.27108447124509,7.203828591792971,89.59716730407916,31.21054668190616,39.742096389050566,-3.8739221428886585
23.699129818954507,202.08331429934205,126.67690930131022,7.606668860988527,89.06680981898772,30.998017513597997,39.66032785349495,-3.7426868559703177
24.26681883036765,203.73219315775603,128.01842816232264,7.975999176131455,89.89357554574826,31.147411328522608,39.96353872853963,-3.6816209438738094
24.839668124398177,205.43569946912635,129.37637716073522,8.254072908784057,90.76228544356546,31.277768186819465,40.1747605458351,-3.630021791028079
25.15925201660474,205.2679135333208,129.27010658155172,8.4971420838097,90.57869657254813,31.067532566446776,39.9381476702804,-3.593288137153168
25.156987295507,203.37288294601575,127.59606448017084,8.80455558028783,89.20268120114375,30.521300856778364,39.290517292356654,-3.6344603545500758
24.960258983353548,202.06992988132825,125.86262518200904,9.218139472548591,87.71380492218434,30.08325396626483,38.7479106545697,-3.800102607303274
24.807417733582287,204.52916047275437,126.46198253685102,9.642446507288945,87.95751365468398,30.46204023059679,39.08364928686623,-4.038958287161256
24.910381949580394,212.38423475620831,131.09610168166205,9.849927867415373,91.393442432668,32.17357577222066,40.82262421302362,-4.170018353993954
25.35114978297676,223.6451090773674,139.18572387699226,9.603847590535054,97.83072362144507,35.06957756994895,43.73767993598698,-3.918199276662137
26.082705522915308,232.63537545686265,147.47107848496773,8.843955735723165,104.98479805546278,38.24405503388276,46.751244342488974,-3.0024604932363235
27.016652594696268,232.60446678208993,151.42927203516916,7.80089806083211,109.41297007271147,40.49881022459786,48.42709035477265,-1.2495555364846926
28.09959130278638,219.69947730029193,147.83873349656383,6.921832055038902,108.41916710120728,41.11863043896701,47.80545026470108,1.2989405319344876
29.290326454188254,195.70557918609495,136.84064022865905,6.613603376437951,101.7156622867428,40.407003882569754,45.03413503244004,4.327969671941256
30.446394777779876,167.54143630966388,122.03702442363569,6.954318611836436,91.67706803333901,39.532410444534186,41.33326935370587,7.278238801562887
31.22971827384596,143.6386569369629,108.46744325485128,7.575389650981117,81.94985093815673,39.70341048641215,38.26563524684359,9.475568325610656
31.159999682108968,129.52209283430216,99.80064701597462,7.822797991677322,75.34179427876589,41.21480127493356,36.776789648672114,10.329702785984031
29.84679890577548,125.47885550407106,96.6337971762384,7.119590985376473,72.43377948453221,43.078969868153735,36.65561697864214,9.533652226747716
27.27262847613824,127.61470976788233,96.91328681241592,5.302033072819202,71.77688994471322,43.573488115784485,36.76994022652794,7.178642571302262
23.914483211982418,131.06014494336037,97.84876782477716,2.7133026889266305,71.29791682102343,41.34793391005439,35.86258114386348,3.7271549347015713
20.584604691057425,132.7409621738021,97.69134314534485,0.015478354205655735,69.70117684614648,36.31329938394232,33.326046799747225,-0.13729744181356474
18.0839488392471,132.0419242952676,96.2165905704136,-2.1214729956157,66.92376016668189,29.74906700804893,29.500258247993607,-3.688304759851195
16.897951667689238,129.7517061935101,94.07418624656404,-3.2439850330154356,63.67979620399174,23.669890231557364,25.46073914632762,-6.267298552918364
17.096851791516862,126.80966787652687,91.96818517356417,-3.163873377565787,60.78670824552866,19.927054156027026,22.54779204722895,-7.321767041683666
18.418994208950277,123.8171419922553,90.3200447177614,-1.9003716744370152,58.79738150595564,19.503933938145476,21.863679240140172,-6.456194756433897
20.409653070353098,121.16130534025793,89.33257157223228,0.36879265405313105,57.93847748110703,22.220226438293388,23.853142184705856,-3.5668084649118694
22.53404073589456,119.26668721938888,89.13725386807066,3.3027316301419334,58.16884240158316,26.889624683731046,28.093663785404164,0.9854911882873568
24.271736190900093,118.84497159259797,89.95752178800187,6.380738861158488,59.33912092098121,31.876407522689636,33.44674067122761,6.311431975918909
25.204683622052112,121.05472595002985,92.26853616039593,8.933756247403233,61.443697565122314,35.81557928924711,38.54374025046302,11.160456927853776
25.055420697395952,127.03501379087845,96.60535210109063,10.24982639819146,64.66481361907815,38.0760534434984,42.28353152462078,14.296762058914537
23.63745833285199,136.35498262212442,102.64736483425379,9.7461127842115,68.83753645443217,38.64237774481925,43.965222488102654,14.921367322390676
20.77711826427892,145.12109236610746,107.97182108473264,7.175870083334831,72.52423307694846,37.537406770462454,43.03051731823805,12.944952813380121
16.33558182520817,145.70357070268173,107.7502079492814,2.799171703835654,72.61308587355951,34.34016033359788,38.820481439685906,8.997118016475865
10.383829786610926,129.53979732937768,96.44267937296131,-2.5907579026377445,65.30887516048499,28.31279506089299,30.775867916380417,4.182079719754678
3.4117228922792084,92.0967054358143,71.01276262113714,-7.86414340015916,48.3194051742882,19.114360695733026,19.053939654777807,-0.3091397395206633
-3.6387083498970045,36.83057223594611,33.622134669112086,-11.93569729638322,22.84847036758067,7.5232071318197375,5.04223293748386,-3.5765048446311423
-9.628989399896808,-24.928298377113148,-8.2961069305329,-14.162450460531538,-6.159160028734777,-4.481596566634008,-8.787279589687742,-5.244158888925706
-13.66825751286765,-78.64797400129902,-45.029879029875275,-14.555435489317851,-31.967104308023163,-14.459152279509468,-19.77098747525199,-5.482332728943423
-15.488128974242978,-113.20244859780819,-68.98975859155505,-13.696116373450343,-49.11889009778852,-20.629529569657702,-26.20327233030062,-4.836853723905826
-15.516713826017657,-125.50912298333034,-77.90984554425708,-12.411863229372626,-55.7898799883163,-22.66144755716279,-28.03098425050609,-3.95430600881344
-14.612909231565897,-120.68913581499925,-75.08564103011369,-11.394835011513909,-54.094062278216164,-21.651145871439457,-26.679358992177267,-3.3228409179703893
-13.63929858003232,-108.21513887117267,-66.86150811258271,-10.963964689637855,-48.402826232222694,-19.385925634967077,-24.18084968176868,-3.133432211707617
-13.130998718945467,-96.86911165563224,-59.223519588440354,-11.06131233747679,-42.94849422811622,-17.43299663593359,-22.201266397548146,-3.302976223086055
-13.209522818752307,-91.46662670579886,-55.52422162906108,-11.42137746668003,-40.17135903689892,-16.595439628411555,-21.512066956868505,-3.613760214786245
-13.704046784825369,-92.45956703353724,-56.155088030520346,-11.768964004000035,-40.43531457319365,-16.900053230197994,-22.041751020940797,-3.867615005794807
-14.337927664091131,-97.49955676147606,-59.58043402763233,-11.93654411061152,-42.72336871460449,-17.90553487221675,-23.25158443454956,-3.9694393587996797
-14.871295862061102,-103.3973370409791,-63.66219258301472,-11.886612315030504,-45.55508972781617,-19.041533435311703,-24.516740835007752,-3.9251114779448812
-15.177081637728147,-107.58318563669707,-66.64861330475117,-11.682008459510559,-47.67941314209108,-19.850502961911253,-25.37740565015098,-3.7969170253140145
-15.26505580309656,-108.9385692669261,-67.74159463947592,-11.437952987064143,-48.48813023718054,-20.136807434496315,-25.6723851270606,-3.6613117877776404
-15.252987109023577,-107.98349121879264,-67.24569579427843,-11.264010578698725,-48.15146576124576,-20.010367990146566,-25.55618710267455,-3.5802778843368817
-15.285247092905308,-106.3001987569745,-66.2097909718065,-11.20993630164206,-47.3930515441475,-19.777465966150665,-25.36570231026336,-3.579540395355459
-15.441663786685462,-105.40975160969637,-65.67848402195956,-11.247868502448013,-46.9640470355017,-19.71760025695944,-25.385677494521683,-3.6387808866938185
-15.703921912626573,-105.85783251675555,-66.05178135311466,-11.307746500404718,-47.16930819720999,-19.91029274999844,-25.68025352477534,-3.7081126910863618
-16.000974701682708,-107.19349477985908,-67.03972036532922,-11.33575803502076,-47.81457934160908,-20.250347495657394,-26.123259675295596,-3.745893760913824
-16.279734693613356,-108.69734593736503,-68.14874511054522,-11.32326484294245,-48.550095865720536,-20.604264669352347,-26.568610091842157,-3.746931581972279
-16.531585360848815,-110.02822189708974,-69.13933279398987,-11.288634279532207,-49.20706282374539,-20.926936641436537,-26.971524642231127,-3.735897136963596
-16.76697655130236,-111.2193616043071,-70.03926233170966,-11.246095455047037,-49.811503967722174,-21.237315730275906,-27.35949529781455,-3.7370953134914795
-16.98943283438591,-112.30005890588413,-70.87816281202586,-11.200754712067946,-50.38657121604696,-21.534917788895296,-27.74114457211472,-3.7549680522382634
-17.204098943242165,-113.16810002797344,-71.58216626190404,-11.16517217856823,-50.869834019548044,-21.789181528863885,-28.090186197392878,-3.781322921569278
-17.435195882946832,-113.82411305749832,-72.13277199640612,-11.161962004478694,-51.23325701092783,-22.002329642118468,-28.40592827108904,-3.810897034588141
-17.710475641558983,-114.49713385921238,-72.67260982760399,-11.200070552438365,-51.572872604655494,-22.230495233105678,-28.734529731713756,-3.8418490293034337
-18.022170974232402,-115.37158887735228,-73.33404738458566,-11.25517703025782,-51.99035495594153,-22.512309685504324,-29.10162775679985,-3.86575853314299
-18.318499259975646,-116.28315267163042,-74.02169974228305,-11.285396404853595,-52.42716305174652,-22.802782062236346,-29.455295599776335,-3.870545800172643
-18.549680695056214,-116.8986189204255,-74.51493830583215,-11.269198335058888,-52.72800079573411,-23.022937209646155,-29.72564790271764,-3.8608061916126886
-18.722991536620285,-117.25293097928817,-74.83208630930172,-11.223244181252367,-52.905260627770275,-23.180663858336597,-29.947482606635276,-3.869234662038842
-18.904972338553826,-117.9440958246168,-75.38073014569017,-11.183505239255826,-53.25678863210775,-23.404861052213416,-30.28192050376435,-3.935498166402382
-19.168808278467107,-119.61631753184368,-76.61377954221763,-11.177859186126469,-54.11808663622999,-23.827759335207073,-30.87634427469319,-4.066563456970495
-19.54314008935375,-122.22849522710649,-78.51261757917403,-11.221059911186048,-55.47619596194462,-24.43750520752802,-31.698489482598845,-4.218244841520421
-20.00286196641602,-124.90186370479523,-80.45931668996779,-11.322689457152887,-56.8668243327276,-25.06248611725931,-32.52000721444005,-4.318342565627437
-20.484048062617926,-126.49719004177766,-81.6348523368662,-11.476642107436989,-57.67051860530767,-25.494069728023966,-33.061376628930965,-4.311528313816222
-20.89123387669734,-126.33668904150171,-81.5469067097745,-11.633174748944283,-57.51709901483295,-25.613476041398364,-33.15798864773737,-4.193086854917748
-21.112331208837148,-124.5488311752347,-80.29632453437473,-11.698077603605677,-56.49413275042502,-25.434319183780183,-32.84351928810604,-4.020009550719813
-21.08352650740386,-122.11013776614926,-78.60217490369531,-11.591087241441251,-55.15970339980557,-25.108092067746384,-32.37525264306354,-3.904988991739403
-20.89097416746902,-120.81489376766042,-77.7503849246543,-11.330287742014225,-54.48550243210018,-24.947571394142468,-32.23271978589262,-3.9871413106179117
-20.813281949428276,-122.90317694509785,-79.31049017391062,-11.066244521067913,-55.632388219615635,-25.388182665998954,-33.00004651999281,-4.361775187144751
-21.21193189463537,-129.8399483039014,-84.28501024195835,-11.021771263340085,-59.320200994957915,-26.75638807033557,-35.023601262623025,-4.981140002265083
-22.289787837006013,-140.50666689367893,-91.85907379829696,-11.365207967284013,-64.91106072495369,-28.89520317254586,-37.953411966352405,-5.593857024122668
-23.855971574186242,-150.17656889332932,-98.688797228645,-12.083355252519995,-69.89429869054749,-30.937208265912442,-40.52769521856072,-5.804953451671408
-25.247333026771596,-151.6591757121384,-99.70639002145609,-12.90650577451156,-70.50087798374676,-31.50715223830624,-40.91556810041544,-5.2703062586047436
-25.467440040593118,-138.51490546967005,-90.39721346269168,-13.31732705178044,-63.41881792839902,-29.32645976671747,-37.5487649169712,-3.9324917730412237
-23.504103388841404,-108.52802755237634,-69.27526449844865,-12.673513068674131,-47.65275419675042,-23.867609297592796,-29.975965309997697,-2.148883475584438
-18.728803439697764,-65.26869720810872,-38.99071649980013,-10.451628608123322,-25.336572680453664,-15.666369339491638,-19.213941482906755,-0.6052627078210469
-11.244642217134144,-16.821953779168215,-5.382702843536823,-6.538059713892374,-0.9707486445992871,-6.140986147604948,-7.377858570850642,-0.021579351525887594
-2.0235040076704074,27.496768406596853,24.926976727986833,-1.4026684661551159,20.456028095638835,2.9478904136231487,3.2048426480355277,-0.7765170180769198
7.289474172179988,60.6061753050422,47.03636515550848,3.999275727425849,35.40025247710333,10.121157305400729,10.922972742091558,-2.645054568664542
14.888192996049707,79.64842707230395,59.135032550626605,8.601945551899657,42.79203743149459,14.63296845477118,15.38864516030915,-4.813961367178351
19.444016423118583,85.9301393532139,62.350573145105095,11.693872263481433,43.84763860291694,16.611326872591874,17.32957496382273,-6.2054173179124374
20.586892349216853,83.44393809661655,59.59224781408252,13.203958318706635,41.07794912033475,16.889856822940285,18.0327837794599,-5.962881752311236
19.000445846386423,77.06942363936655,54.2543806396609,13.640482136154969,37.18963404617027,16.625334116961426,18.702997191514186,-3.8508176214966894
16.08045820093169,71.11850208833823,49.27199559449431,13.736266128110282,34.30591749653879,16.82296830682279,20.025833848432786,-0.362413299315439
13.321833116361994,68.29345332996057,46.509853622983314,14.039630477496695,33.52717647386282,17.914488595428864,22.027669191323913,3.51400535745003
11.73611739920619,69.09771475120927,46.40600630589029,14.70371106997842,34.76321787920242,19.574024097658274,24.198677061401625,6.743716838432505
11.567614897689031,72.0348844068755,48.05224538580027,15.557173620598059,36.93103499339508,20.91589102932866,25.808163412566152,8.678369111042464
12.385590406262125,74.7544539937242,49.87156789662689,16.329261093086807,38.58912483695587,21.018477436016944,26.289019800340714,9.25720973417116
13.419662339790522,75.55909097263086,50.5848479967414,16.824790134912885,38.742129238060926,19.47944583375984,25.503738069245784,8.894594600814424
13.92235784588116,74.24703060953547,49.809262835535975,16.94478398432187,37.3020881864556,16.664556462664994,23.750376357501807,8.154157080934677
13.41038395661565,71.79771220995329,47.92448549706919,16.60857290819431,34.925200080120014,13.533478002268405,21.551409295541898,7.428270871006536
11.751493290976777,69.41741178762695,45.51129982790992,15.702132685567184,32.46510692819567,11.206571513142544,19.424494782724448,6.812146708940131
9.125756165058077,67.84568168676972,42.95846190459082,14.11641352233022,30.53106789662036,10.53006895623186,17.789351654862077,6.206468982012612
5.899122714639511,67.2676622091561,40.47161145053536,11.837027509080455,29.38447813120384,11.789129691308204,16.974198299017406,5.520841690234451
2.462459437296588,67.48907189641406,38.22577569288635,9.006834041062406,29.022442632729227,14.60054022153682,17.180454966230165,4.804976956999478
-0.8817120113131746,68.02442758661253,36.37754605412793,5.921158278332328,29.239038595170666,18.013025012698737,18.367619836982772,4.226273858836288
-3.919609040093961,68.21661411003525,35.002335803798665,2.9690111090039752,29.685226413424225,20.857948541788335,20.187907970229187,3.947356536952186
-6.437810290134717,67.62781019490671,34.17432662884895,0.5513879472763193,30.055180974650906,22.27849129349925,22.105689614946513,4.021138786754671
-8.157234293482782,66.493085577175,34.14167854736834,-1.0017385806652073,30.332059015630367,22.171271804984023,23.658735928771662,4.3817565999388695
-8.787051007845836,65.68953040487324,35.286841859590375,-1.5004358221285439,30.82712610254204,21.23063142397089,24.66442178528652,4.921499504523866
-8.184843331091857,66.04848742070213,37.74125091089147,-0.9362967132379719,31.880088434120378,20.514999752091207,25.21740528673582,5.576374142300592
-6.509565500111649,67.56112481749707,40.96681482046551,0.505504969949493,33.44407676871706,20.78909576944404,25.504460597671777,6.33523117406795
-4.256123820333284,69.20708877013939,43.751130250978136,2.455111087174672,34.92817649130929,22.04533556547884,25.58711437085756,7.148804788752388
-2.1414181964300343,69.53249257090891,44.69450960288027,4.396212056989456,35.43388471998152,23.469568118428324,25.290230358563967,7.815966034314514
-0.8837429572228164,67.44068097898027,42.836376596231545,5.77161314863001,34.191147630027274,23.844614255814445,24.25679841393847,7.982693780094891
-0.9437470035022258,62.662231853626686,38.055192449534786,6.176746517033999,30.93120523150019,22.181484699421603,22.1616439657685,7.3241071192396
-2.310666653732924,55.856459176364304,31.17813227517411,5.574180861413362,26.09356147524112,18.29255459435501,19.005555088434093,5.81668790190595
-4.439835585629198,48.52990337660409,23.881647167621356,4.3813284130818175,20.848160390567838,13.033364980208203,15.321031509497631,3.891081354179712
-6.425304886414152,42.71478544341091,18.31527373382066,3.3190098305980107,16.83097608035458,8.038133545222237,12.09289297528761,2.311348538347019
-7.379262318958136,40.191101909219135,16.321552166307047,3.0659355270492865,15.500120383219274,4.996482133765268,10.334795267845541,1.820884591698334
-6.842960978663347,41.42812230185504,18.457560786227308,3.9152446013594204,17.311856796407707,4.807923532640138,10.523094868546579,2.7651033294681495
-4.998271046965698,44.981390578493354,23.447317952918333,5.638879971235021,21.248766003676085,7.101012247023601,12.257539563708853,4.9136634630098275
-2.550948781469141,48.02034198721267,28.62514586773381,7.627972960740667,25.164698022922735,10.433512298145503,14.408978150450142,7.569043666002987
-0.34849737122788654,47.851778906458854,31.27182610794368,9.209234854216755,26.87427048256657,13.070124320490162,15.689818279058413,9.879752800895492
1.0569997820658081,43.516583858011685,30.079144561451642,9.953966172323586,25.362363419227876,13.87666148572724,15.310022649140322,11.184547526393342
1.6690736433467448,36.51449968050809,25.903193099260644,9.82318732104916,21.405987002267764,12.834507961703366,13.3591116350279,11.226895732559157
1.9935461161657573,30.31985115402843,21.443951822479086,9.089672494588095,17.286713786117886,10.940955170811414,10.739275092350987,10.161015206309866
2.6936340279485527,28.896545579868306,20.00587059119677,8.099443723053694,15.730690822211425,9.589613822944624,8.690528598940645,8.375096743526786
4.133772168334238,34.61710153334387,23.752500416178325,7.033686647564015,18.467808704744268,9.738770095947016,8.098114409810954,6.243827858360723
6.076584937152405,46.200018328950776,32.03791252163737,5.842894404613742,24.929215599560944,11.248818012324215,8.872557764695063,3.953815203808978
7.739697529680063,57.72680057662854,40.64114051891199,4.411572956869137,31.725973230619452,12.731049875763055,9.74081878148269,1.4996031070877707
8.21794103194283,59.93635749484291,42.73816253525925,2.8313389796781525,33.49077238513132,12.07520268198656,8.68328089357136,-1.1604140373013818
7.036932028216964,44.056814437424045,31.743578220401766,1.5501198588988152,25.11318562827684,7.495380904334314,3.926834347992861,-3.9113552516455887
4.489269588136948,6.608752607221271,4.867153104361235,1.2317793895025737,4.457582432803911,-1.4207342796327072,-5.000426126614653,-6.413895518927682
1.5156797798718595,-47.71531132841213,-34.70405428531194,2.373475980950925,-26.007657617893923,-13.297261494298738,-16.81717439560073,-8.243592434408031
-0.8223894514684292,-107.40197295446855,-78.68002603698193,4.929906339136778,-59.910831268499706,-25.53662339369128,-29.02011185044205,-9.16562483610049
-1.955889541160411,-159.46293449539812,-117.4809438066391,8.224382083907424,-89.89625016115312,-35.61151932843667,-39.15529563145209,-9.350127082210555
-2.1027304412619685,-195.67021009476258,-144.80238213188045,11.251823209893368,-111.10457881842967,-42.293577646397424,-46.03286873640617,-9.336911426506926
-2.0249672504836416,-215.57889103300363,-159.97133810503587,13.212605958706535,-122.97621637073898,-45.984071534410035,-50.04171251980457,-9.705426061667337
-2.38658520932624,-224.23437808681996,-166.48793111064,13.940286105888148,-128.15524017815736,-47.89100541874151,-52.31421660028476,-10.61980977296238
-3.1485966618153305,-226.33864846980313,-167.90001324186818,13.931847490014178,-129.34787144297758,-48.66194197854977,-53.36947531463319,-11.559534864203993
-3.4487988977356627,-221.47251847129775,-164.25082335919754,13.945408185749372,-126.59141879893593,-47.566804584111885,-52.34230883431024,-11.487413598751582
-2.0926313177592157,-204.24041520239933,-151.94976397018402,14.429004058562473,-117.12658893349125,-42.95917935539142,-47.513986046465114,-9.443870890546698
1.6502339755080864,-169.2830203864381,-127.19221301636863,15.165391881678412,-98.01067967225072,-33.74497275322091,-37.83420113819327,-5.247483234309851
7.467326296721606,-117.19937272869711,-90.20891471739749,15.367467334311973,-69.41263304668783,-20.754154679918997,-24.287981125584544,0.15038269388160977
14.017089773231447,-56.7449718646976,-46.99746300591632,14.153819042442832,-35.994644914206965,-6.93179760423296,-10.011860273490433,4.947499814806301
19.520424204569373,-1.5812646300061393,-7.162885643502806,11.09775299094578,-5.2639835176519565,3.892040915273547,1.0450588883211425,7.324963621103927
22.56532736545673,36.195301071462175,20.65665546388053,6.520357887204332,16.007198526752276,8.900525043895529,6.091906934913365,6.388421443327278
22.663943365386405,51.5179089339798,32.7588820626953,1.3721719228284377,24.93958061633164,7.677750928224806,4.86106129210607,2.664855388085004
20.295721757817795,47.674535221100406,31.407225819531384,-3.2055193949613794,23.40454441656363,2.2887286654378145,-0.42514323091764633,-2.148327918524154
16.506734991289026,33.35543830866394,22.733844270251794,-6.37515240479608,16.371223609371715,-3.8928697930349174,-6.347757584012934,-6.026493412781139
12.375432018567244,17.85867699702615,13.259024584410279,-7.886601972947517,9.089168142356863,-7.84021286375988,-9.971491448248578,-7.550227078789861
8.647064513112335,7.37230444346593,7.1990190166183785,-8.044291988796145,4.858004393788606,-8.102744338749428,-9.97181762167212,-6.430353477303159
5.641829022780803,3.7787390567608146,5.671562755056495,-7.450127143509933,4.340838761983172,-5.10838191049155,-6.792174064449928,-3.4412533798130487
3.3527454929336873,5.563268430772779,7.47764239853902,-6.709298395160173,6.230214911253626,-0.6122740565981715,-2.0380849204715195,0.07128527128049475
1.6002161797467453,9.579683702809147,10.454656215346082,-6.242444685761061,8.463631349699332,3.2700661279171648,2.3923611498675177,2.780786932685356
0.16646457415323987,12.72511971838927,12.622124074673872,-6.242772644452679,9.294667916317833,4.964416354816515,5.029243352494133,3.8038604106059353
-1.1114659193538914,13.121347383953205,12.844672199541279,-6.735459525431262,7.911907810005244,3.9513452876546973,5.22219389081023,2.8631929536721294
-2.2973973880304888,10.592073510993485,10.991795055996956,-7.662921856307786,4.54814177314083,0.7823380792288704,3.1934705220104624,0.24651779341661062
-3.3608920720674047,6.303042523204007,7.646772098991994,-8.924106564374432,0.14300362671406006,-3.304556081215501,-0.16963695845824564,-3.3278385024354242
-4.211653110713107,1.796226205930557,3.578113215984379,-10.339340354649655,-4.218478275675412,-6.920587211720436,-3.6548062486669863,-6.869844351676783
-4.737899941964125,-1.9128600131903297,-0.6399415036018345,-11.58687085913672,-7.737022047281052,-8.952489767920957,-6.065085967262383,-9.306607343245371
-4.848161553787929,-4.576192028261734,-4.5993332736751515,-12.211792444458023,-9.966822423523036,-8.77630863771577,-6.5013562174969985,-9.738574069325855
-4.533731320768238,-6.335395066464895,-7.789231298331575,-11.777004895670803,-10.639542451122846,-6.350301655047405,-4.615270413317274,-7.754896551595363
-3.9391187287078333,-7.3074894808530475,-9.524946684988828,-10.109699043419726,-9.588458218955083,-2.301749802386042,-0.8374691254706228,-3.7044204513352526
-3.3785005664291807,-7.564447023470806,-9.281967818832415,-7.488252404872078,-6.937839259901962,2.0554265493470623,3.5531368690543603,1.2509767127064852
-3.2407843164847474,-7.344448061690466,-7.148495831065615,-4.6177197637031275,-3.3352202949236336,4.986117679855073,6.727683261395551,5.4365936912813275
-3.8065664512908524,-7.06393424441446,-3.9279698720190312,-2.36829376512493,0.12889787143824433,4.97364692952132,7.015251637353797,7.285651398083251
-5.086734241163373,-7.042240891340086,-0.7589045515520314,-1.404912737606796,2.377721162161989,1.4782451201547424,3.726204450976871,6.028987054850038
-6.7945336038895485,-7.282732914606206,1.4317631847587946,-1.9048427485686403,2.8614415799573876,-4.669447349720543,-2.4034082104089443,2.0917811636852144
-8.4715454886838,-7.584140199642425,2.2557486419993857,-3.505420190520649,1.757711532393253,-11.561000226136017,-9.471129696363354,-3.051584035162915
-9.685470351238207,-7.814342429989969,1.8784881528015418,-5.495526916830334,-0.21402992589577763,-17.06179929206743,-15.25817210109638,-7.518539415776445
-10.188412816229338,-7.998991909718809,0.860279625551093,-7.144111698183388,-2.164309756705622,-19.739303848655364,-18.20088570417592,-9.823418844676354
-9.973181093331037,-8.193336175832767,-0.09801698028083031,-8.005111644857928,-3.3937095448464634,-19.385102182577857,-17.99039110842163,-9.435298851643646
-9.230054248658957,-8.433769895663946,-0.5314763713672122,-8.06348588045101,-3.6763312531614782,-16.930017436688228,-15.562408698954634,-6.848001467708594
-8.238359176525586,-8.907978238539604,-0.596672552519107,-7.671008717367856,-3.4048609458641437,-13.869189048278315,-12.548362342932304,-3.2088627317467964
-7.23504112372972,-10.060796065205656,-1.1255471989140142,-7.325021602256108,-3.447171837523389,-11.511592261065788,-10.47405512660969,0.2309006914114958
-6.315135210034903,-12.318349587670507,-3.1192179916833145,-7.4201278019427,-4.655408294502236,-10.428897384149902,-10.091478091921957,2.5427795462949185
-5.424309926631971,-15.605240689960475,-6.956885146594326,-8.105275987681974,-7.285428721668032,-10.39204680332312,-11.185627796770147,3.253285249308503
-4.459579992471008,-19.210850314594012,-11.9653021308831,-9.297114145067184,-10.779783914486632,-10.817976335178436,-12.954019266064282,2.221055681625481
-3.407820772106623,-22.256600034322048,-16.743036805653865,-10.79007005230033,-14.121926543657603,-11.39444636683413,-14.682584126563393,-0.538700071277019
-2.404987315435662,-24.337101892597513,-19.966619434970447,-12.352597008447935,-16.466482455374713,-12.382669146667194,-16.21201255564159,-4.875167683983338
-1.6594831361029472,-25.696755513685652,-21.027225641200946,-13.747241153695413,-17.52401910308178,-14.336363499806218,-17.85408587437681,-10.33249865931877
-1.3046712325748167,-26.8330460192186,-20.118545329100694,-14.705956451464669,-17.47271557008381,-17.4762827466482,-19.88547142955055,-15.97574547730958
-1.3054104752356595,-28.0250794626358,-17.930284062777872,-14.937473768460961,-16.631417149255142,-21.267121202745574,-22.098005304612844,-20.47147021044404
-1.4854874556761777,-29.243238780152495,-15.29771921083651,-14.205542467547266,-15.252155469138236,-24.562453369194632,-23.795660069570143,-22.516031563716517
-1.640002518225021,-30.349199115791652,-12.946679385288812,-12.447883131070686,-13.527133319974869,-26.206159947457035,-24.219247773244835,-21.425242413571706
-1.6524946122369926,-31.208209856651212,-11.286690192443086,-9.871546292137507,-11.65406705172419,-25.659299209873893,-23.057579732544085,-17.542817232702482
-1.5630935943375797,-31.626967450423077,-10.297427589465276,-6.968334642567831,-9.842721497287702,-23.278678460687143,-20.706405823053945,-12.20886482452142
-1.5678288115988481,-31.38618572963794,-9.668975287359412,-4.415916988132119,-8.309030822548644,-20.142590335650354,-18.149310858928523,-7.268524340165032
-1.939161387604049,-30.495477341903342,-9.179196628312157,-2.8650707719038415,-7.301698064296721,-17.5439045259623,-16.532344636908753,-4.331678684685536
-2.8794248124636246,-29.372318513066094,-8.984036958224229,-2.6775736355254374,-7.07098396606741,-16.378813535798212,-16.61485532433474,-4.112637577625615
-4.37465954768672,-28.61409288445995,-9.511659932845367,-3.7439430734715486,-7.6977388882585895,-16.706872535002482,-18.346907124991812,-6.151785710040561
-6.153293707057863,-28.53224595312825,-11.06493078840477,-5.503543397454105,-8.916164081668727,-17.732988087586325,-20.827061042565656,-9.058904823150694
-7.80323630696062,-28.989883734553832,-13.564089877431677,-7.184057402532829,-10.187725515973195,-18.28173803629972,-22.73987953947094,-11.177463242873348
-8.982319884709693,-29.760610330355735,-16.673938472149796,-8.143483373775462,-11.066938837971946,-17.528728893946322,-23.075278815219402,-11.36051996101451
-9.579239381171755,-30.962458333455956,-20.08288259668429,-8.139919590600076,-11.545071238896103,-15.541423644742144,-21.700768158178953,-9.485200501618685
-9.723123000727004,-32.97933254372425,-23.546846501570965,-7.4059886512535344,-12.012011565330406,-13.27628639089949,-19.418438723995013,-6.4581197139832645
-9.658449813047444,-35.887182528149346,-26.67103197779608,-6.511779956704043,-12.845984980306831,-12.036841931890876,-17.4779254904341,-3.7210908965104728
-9.589320568344315,-39.013295050050914,-28.78985518310605,-6.093989977134978,-14.016818351381934,-12.734815391781789,-16.86593656396619,-2.5237055781027165
-9.594077415000744,-41.129744119596275,-29.207318538645904,-6.580307015532585,-15.047356931826105,-15.372047291178077,-17.791839889315845,-3.3489253291885897
-9.648102552463921,-41.12346136553952,-27.62148310483703,-8.038916610153741,-15.307802123478208,-18.987008417173204,-19.62140369756238,-5.786833754139523
-9.726838510842269,-38.62765770126869,-24.36623248617016,-10.220109132846279,-14.377789972349047,-22.0697008300196,-21.255671334804678,-8.888731791718687
-9.916663839510585,-34.359201309483716,-20.376337124155427,-12.740042274218672,-12.315882455329172,-23.268364547319667,-21.756363171734957,-11.745485084873177
-10.440643176625317,-30.216744719683582,-17.06974911076683,-15.256277529093005,-9.845317310085441,-22.086525251217168,-20.904810265439576,-13.90558880207337
-11.530941478315096,-29.015052628849425,-16.19135291276263,-17.495686063607007,-8.375447209771718,-19.20105746133738,-19.358587819049298,-15.380671152247539
-13.175821405282507,-33.433669982760954,-19.317382145178346,-19.13497534854835,-9.584661603375471,-16.129068626243168,-18.222574037743016,-16.29765926739661
-14.90025168961792,-44.150738166024134,-26.833880777300692,-19.691365121683976,-14.446800389613266,-14.31706985289925,-18.20845736228501,-16.518415493399036
-15.791342334366803,-58.18944145747227,-36.8927162309619,-18.60323813311685,-22.158950077097597,-14.164015329493639,-18.92132388478386,-15.557950640075259
-14.860254694435636,-69.0830494644981,-45.371960779789056,-15.526402924063289,-29.85821126986452,-14.655301230243,-18.847085606458606,-12.886913823916709
-11.589948088067683,-69.5701880985809,-47.443875334650606,-10.664495058578083,-33.69396196717936,-13.942457702831565,-16.18244429063605,-8.398581179557029
-6.3362642658670945,-55.6152869760588,-40.13946810300915,-4.87269182904251,-30.850835278268658,-10.543473202280078,-10.026373867727303,-2.68779740578624
-0.2923872472913849,-29.2181713142964,-24.31919422587993,0.5998912773909296,-21.284191672227802,-4.366796449660484,-1.1321497301905517,3.081726317651051
5.011897733674489,2.035191443319805,-4.6180566617871195,4.620120295751926,-7.967016333757211,3.1380822914327955,8.322773670850436,7.662734800864635
8.402891259334833,28.655823177145095,12.79248667527098,6.6432810686002215,4.6104695081168865,9.794204115234182,15.83279982379467,10.273054388506983
9.546887196065635,43.953086348664684,23.292575565364718,6.875213150297157,12.764438766675784,13.904134491984916,19.82728300830158,10.889718274750374
8.964940067755311,46.84441330287371,25.820339988142536,6.055227434436442,15.287636184362722,15.050219694949515,20.314042122794525,10.14592311351504
7.627217920232688,41.25394238353157,22.667109317813075,5.03015621341727,13.51067599782591,14.047576186881162,18.58363621032981,8.936689081470256
6.42638165141545,33.01735166462687,17.54105780364898,4.388220714908198,9.997431481529059,12.248913130001002,16.31213900199594,7.992217547776525
5.842606346975362,26.712415213613962,13.46710995117515,4.3235399987115395,6.996061849077496,10.788335497588209,14.72796789853858,7.6445186710005935
5.911916190837995,24.260062198479975,11.798884451687803,4.7167974218110125,5.629595809578781,10.214271056068265,14.288026495592868,7.84491980522537
6.392578977037575,25.330556631359403,12.428056717969405,5.30519695663666,5.958036220046163,10.533086542427483,14.826225600336361,8.333395728084584
6.96277722908975,28.411173489819774,14.449667084762828,5.832781898841886,7.408235559329604,11.41899749105715,15.865295228894905,8.822031390757996
7.362842231118837,31.6749265508545,16.703124110137697,6.1453527514466035,9.150296401595673,12.41455171030693,16.87625989273771,9.116138875663102
7.477469734794647,33.62993541428339,18.1827945935707,6.229762059743482,10.407717518205974,13.11760055324093,17.471879930992685,9.163654787849683
7.3581387680320445,33.705681091321885,18.444323672904037,6.1913966298044505,10.78675701767234,13.359565678956184,17.55149836415823,9.042637573808118
7.16799203465588,32.48154741260181,17.807846803392582,6.17386485703582,10.466452133667165,13.272170854221216,17.319459660749427,8.895688771047844
7.066610740868705,31.180554953250358,17.065712096116247,6.267012996686135,10.011997596678395,13.152883912879554,17.114017691679166,8.84012788377968
7.113226879710861,30.712510902480084,16.8451864894982,6.468918043904141,9.904473295176427,13.222807553043006,17.156185725629758,8.908234072008666
7.26220202361803,31.117456161049205,17.20176545183041,6.722336445506555,10.216182028037402,13.496092442402484,17.434358484679738,9.055878321477923
7.437522458395735,31.87474142726607,17.797839611718135,6.977292293921367,10.71798109057766,13.860740886299276,17.807492384412058,9.220042851881722
7.599910417161023,32.59530582122229,18.37081071324741,7.217475547593795,11.219633657532286,14.238175973991195,18.17858510830043,9.366086054294405
7.747296322095037,33.28061239875336,18.9256884794872,7.442025885789508,11.72187517744955,14.63029454225352,18.54401012040724,9.489384663753839
7.877586457945897,34.000117560961016,19.52018655219941,7.645623685920056,12.264916887766505,15.03885704672096,18.909811700410664,9.591970877086863
7.978498387168684,34.592084977955174,20.046209628327304,7.827116115140325,12.764279510712853,15.40918815979989,19.231919115291433,9.674244949676813
8.054982780507595,34.852159134603504,20.34825254146855,8.006404491720213,13.09520545094854,15.69165499359004,19.47308396311035,9.747426517741987
8.143574940436018,34.906576701623486,20.491596657091804,8.21459283029358,13.29703115780548,15.928497156472574,19.683228814335163,9.837421206742347
8.281011712764704,35.17248201554392,20.758107547159323,8.462493642510815,13.57959952481207,16.227380306783946,19.96853521180227,9.96403498735843
8.463254390039246,35.889932159430394,21.329148994032245,8.728278348344075,14.088280883897635,16.64062761929603,20.37314982458692,10.119329791788173
8.650844122941566,36.83746122864828,22.069275044125252,8.983501708363335,14.732068333844135,17.10709605000053,20.828857178830678,10.276030477750323
8.81676427568919,37.623760018261926,22.707198845433748,9.2258793790452,15.308161147044922,17.53551394437258,21.243705782856278,10.418576221178988
8.975363549748534,38.17360404436484,23.17630579141559,9.477241238926885,15.75853935132355,17.91844143422817,21.61377184883449,10.558081096547497
9.155790580090967,38.765548600597036,23.662784693565563,9.750946213264458,16.217549300871706,18.326101527233806,22.011238914640188,10.712723405837794
9.357949899896392,39.59527289679854,24.31265276265591,10.033050644499147,16.798676419723616,18.795000880770576,22.471232165203638,10.880795753256715
9.551666971922648,40.484614098157216,25.01473912790325,10.301722601391917,17.425259960848912,19.269889147427133,22.93729767575727,11.042871270382237
9.719839661575264,41.1440217470653,25.564253211278725,10.557366316494525,17.943270936557514,19.681780484584785,23.34228283071831,11.189606231942415
9.886080603699384,41.62125029199838,25.978212365856965,10.822602230563554,18.35829273971633,20.05445361533951,23.712566229007393,11.337016390501953
10.088773857271407,42.30194132023997,26.5169536914739,11.113639105531687,18.861340422940412,20.489590832078676,24.14919949991934,11.50860873918997
10.336170756426268,43.43692094522304,27.365106994722634,11.423215765665606,19.59474201167237,21.044854945946454,24.706533949683855,11.708715643073786
10.601119550089923,44.818086229299595,28.391476845066407,11.737019274734138,20.465671654995116,21.664165172420518,25.327417183066213,11.921790822067628
10.857812884144387,46.02336510105706,29.301292776772133,12.056898226328084,21.25203128120857,22.24734516638184,25.91519986771462,12.13493651458596
11.106202220722896,46.88718343065576,29.96744298986866,12.394323575396184,21.853129870118487,22.759202859610923,26.43851257768725,12.349003990477982
11.351738062261095,47.581064179870936,30.506782405337805,12.741426396676566,22.357032458178345,23.23483832867012,26.9306168678749,12.562631380729165
11.576920634778189,48.269279974568796,31.047499001853115,13.063569536924389,22.869240787560457,23.694492245837644,27.40460669003752,12.756682301914571
11.75760833578849,48.90605583076989,31.56958971225945,13.333480644995577,23.38279026876494,24.113024187954284,27.829858652536814,12.911074977859464
11.91349526961482,49.50481094351872,32.07189862835385,13.571444381833684,23.891610482040285,24.50510901972458,28.22283676611113,13.0413944164584
12.12403928312368,50.45995238584946,32.80215039771014,13.842462455355953,24.564715391838746,25.000924903175502,28.721057361956102,13.20799189973562
12.471767600258168,52.3134835038344,34.12200283646029,14.208656958295743,25.6592786980409,25.765421097031535,29.496567771489186,13.475109375060782
12.96065623119954,55.06478520675481,36.04331360202956,14.682878680680037,27.18424440099949,26.80745817693142,30.562203478966726,13.853882118023112
13.490537717738988,57.81454143285822,37.96858501837008,15.219864036993197,28.704228515204466,27.887426956373634,31.679876328080496,14.281548500604043
13.910365749391158,59.271006410725974,39.02098082491882,15.735889208176545,29.5790441672441,28.647394725770138,32.48934802093384,14.650838061231084
14.10127328880405,58.724418289241235,38.71507329681658,16.13248016998742,29.462384817878565,28.85864793024519,32.750831702869654,14.861289739839089
14.038643843593968,56.64702615606155,37.3797896466415,16.328687399077683,28.616085927889106,28.586596194614632,32.50918770516911,14.866673373123616
13.828424578499025,54.55996960172449,36.06157402572042,16.321893487409476,27.826180515210797,28.194825553632366,32.109458357349475,14.717638008153129
13.720043759086405,54.46187162892428,36.11017516898077,16.25532000734615,28.07523665540832,28.245187654997494,32.11587397322259,14.591544472767616
14.051959348334432,58.10245150269476,38.674108091271506,16.415253668895954,30.16209114818221,29.320740587288004,33.14465654376524,14.763690919440108
15.076493696719297,65.996280872611,44.05767980553349,17.097182222421313,34.25035405974318,31.714374072342245,35.54082993896102,15.473511999568595
16.706141748330296,76.24438230859404,50.96508605795953,18.380560054892438,39.35428915594532,35.020130149187025,38.93982013274502,16.717172326303647
18.351533515543625,84.04345566375449,56.18809000350949,19.948665987522826,43.14436557573362,37.911568071779605,42.01448193610592,18.096007233856987
19.030990602136907,83.06295293950065,55.5250916399082,21.089133138998456,42.633090767917516,38.46630707324439,42.78250973769112,18.862058941667108
17.771454982018632,68.73108048460534,45.98306404797851,20.91282186502728,35.77756185064518,35.071495582856585,39.51809309906432,18.192968810822382
14.109911530330232,41.62044113752512,28.057149341287207,18.7132625582537,23.116622076071096,27.43474274903017,31.796927073970604,15.577949794968701
8.414043569076297,8.399854979981733,6.360433375461987,14.320681335857426,8.174018695266025,17.007466083350415,20.97943317959512,11.116007177688472
1.83259965055315,-20.80902710811123,-12.204505906772248,8.292710282038811,-3.9568968721851943,6.448636101199744,9.74073039555577,5.562749976712622
-4.113969797714991,-37.33571341145111,-21.820251046724547,1.8251258437079707,-9.146715237113783,-1.6133665284083636,0.8653187613789222,0.0819877511386088
-8.106302048065002,-38.1468623878786,-20.617178293381,-3.629096792557542,-6.331457237450757,-5.797551182305176,-4.008926035008817,-4.198400926670819
-9.492142584561288,-26.789035233831818,-11.278371349275627,-6.898392010209152,2.116965320135053,-6.464059652784282,-4.997482074323658,-6.625873015140548
-8.451020746118752,-10.75146280041615,0.8375766235011898,-7.552220950917577,11.893971810979282,-5.2609542857848055,-3.6504289732027333,-7.255308512725586
-5.835018367177889,2.7696952540784863,10.671988584789203,-6.0628828810261135,19.07161306420765,-4.093318072806532,-1.995525519872889,-6.7741427146407585
-2.8087404551036066,9.968152764077887,15.631448300010032,-3.584476036756824,21.758382428479237,-4.172376181152299,-1.5445995621546547,-6.165957269574351
-0.4479060782076721,10.917075572536119,15.913829879589747,-1.4428626002395895,20.32410185429205,-5.612520081786269,-2.7480233121355058,-6.2668201605228315
0.584457032965514,8.048321510699795,13.407592088252736,-0.5730451927087032,16.504556570872502,-7.605204528303362,-5.014091180402221,-7.406275326983506
0.20482221234617598,4.27638252960162,10.332225448993954,-1.174944532141064,12.290372011950023,-8.905956065601199,-7.127500158950629,-9.289570961205388
-1.1313285611072315,1.8686581958285686,8.41271674160646,-2.745670821627452,9.233715698075693,-8.377388509032858,-7.842107053152593,-11.173598246450814
-2.663841576154712,2.0413437248815947,8.581742145513887,-4.432824169447035,8.191305575882195,-5.452192433717351,-6.453745614519911,-12.24415900852081
-3.6496012040138845,4.857644964990367,10.898169515510236,-5.4777325918849264,9.26460238756663,-0.40494224861159667,-3.143613674586769,-11.992322554819085
-3.622842256117738,9.378672328347664,14.635378605539108,-5.506768834892771,11.88227712387529,5.703262598501244,1.0999009899156071,-10.397670678242246
-2.5057459686920676,14.236538314037764,18.675098786796372,-4.576582732231638,15.114412439730435,11.433979661534265,4.976598373007962,-7.865057738643046
-0.5860698372884803,18.40207347576009,22.074322042456192,-3.047909897932418,18.118021614046953,15.523536460452862,7.4859237162761865,-5.0239839829590816
1.5775477563104052,21.534301962525596,24.371469804629026,-1.419357702510902,20.386595967041032,17.25039514259627,8.252789570335418,-2.5469804967248604
3.3005062691546447,23.64728429859676,25.407890703372946,-0.19113289675692166,21.630260103313166,16.465336601720388,7.418081985994426,-1.0438813688598336
3.978551773560131,24.594518819641223,24.989046900701812,0.24898286367564004,21.533753191751934,13.431210141307403,5.320953773020114,-0.9620274615667922
3.3204231871877243,24.059482538423666,22.886805428781955,-0.26491142461567563,19.786816587384184,8.714301285894297,2.3186460566425886,-2.415501504456856
1.4936831494277782,22.06016650478266,19.219756166148077,-1.5966160849079714,16.426869841601608,3.181183160457095,-1.1452033032697346,-4.992532076454673
-0.9249794777036051,19.29019628671377,14.7243830037186,-3.307161018494339,12.1063602757047,-2.052897785585856,-4.410435234008046,-7.713614706679211
-3.1865462274011405,16.81888110263737,10.52815418176989,-4.762734950557908,7.939032526302439,-5.8449125387555565,-6.640650789083532,-9.293103835396694
-4.6588951969696195,15.478395012343926,7.625679351829147,-5.338179647131692,5.032643490368788,-7.330053430430443,-7.0714875769317,-8.683030307741443
-5.018071381335321,15.610332670082848,6.571996278065604,-4.66519730754734,4.1068643523497945,-6.131627871597715,-5.326113531652119,-5.665539746611025
-4.286008937864278,17.30798253647228,7.566306854351344,-2.8369166772241132,5.399725633158491,-2.411216246581269,-1.6444192773444573,-1.1538132356261432
-2.7574672583536493,20.643979347090003,10.60581860494213,-0.4531904012970206,8.710911681176114,3.1609516488621514,3.065462732211346,3.0525743860856425
-0.8805818069375853,25.49204219319356,15.409222085603393,1.5745568064322624,13.403559490776209,9.464652840534104,7.421532655816676,5.042200512080055
0.8738665758021932,31.22608261635379,21.26472376043433,2.413535372294067,18.459312473413124,15.100259747707682,10.03467694633481,3.7484346065978476
2.1318135065739328,36.83799217104034,27.167819335899164,1.7014869965153965,22.785167426337683,18.76477198640121,10.113299482273517,-0.4440787615097263
2.688672875415266,41.48431138910329,32.26258630321455,-0.2875910931459984,25.69154892397135,19.748928920770645,7.884079150820589,-5.834052867854442
2.5101633413811784,44.88468206757569,36.17111447664556,-2.79781519174975,27.163107942090903,18.29270352491881,4.528787056670405,-10.236965680315818
1.6816028813204675,47.16372000500413,38.89166819825897,-4.960779639287991,27.667506307311534,15.558265550095852,1.6321479974574282,-12.03967251649469
0.35477676887426435,48.42355568521931,40.45292601236285,-6.1725715232044225,27.688843464446084,13.180092850831459,0.45957328114108287,-10.889174203650287
-1.2873791783653978,48.61455926232498,40.76054286303549,-6.318591152471667,27.405030529774987,12.555482907439409,1.4445349946488584,-7.708871144902118
-3.072143918519288,47.78723730374209,39.76026629358854,-5.794055698562553,26.699924813606362,14.146958218315689,4.0609116214619645,-4.153609394170688
-4.896346993679409,46.267415385904044,37.626134216296016,-5.334689825551514,25.346244985299553,17.111292654041012,7.042482710331939,-1.8584815854427916
-6.75722672947726,44.454488042829944,34.7192867631403,-5.700369014927482,23.152303844379336,19.538365553713273,8.859730551561801,-1.8108915831624315
-8.694752758810589,42.54067734872694,31.44002811811555,-7.305982113912823,20.08678384067296,19.35908610084776,8.36582331072346,-4.02039306283651
-10.663891188141687,40.59759699284249,28.23033581406973,-9.963893572158522,16.469576455908424,15.5495692253454,5.409907705717949,-7.54101188161422
-12.448024862015966,38.93280114416337,25.68074887539829,-12.900854182830003,13.10187091441535,8.906923226718733,1.0658829477200684,-10.834450767438346
-13.712868362036335,38.15901709093205,24.432235308116613,-15.080960396555339,11.062295348713647,1.8040200049902557,-2.7868527875094213,-12.370309463497346
-14.17569770836228,38.75176704079731,24.795702575632625,-15.676957125596752,11.153216429723058,-3.0078425482694215,-4.386717687635923,-11.234245016348249
-13.754237806799315,40.60212255901128,26.477180750628975,-14.433082501523973,13.413410925961282,-3.785918245370029,-2.9651946040182477,-7.469864285795245
-12.582026583047723,43.18390004385697,28.822793584912766,-11.734523212237288,17.157730211774147,-0.49574516014068765,0.9733192789756001,-2.0065446155548843
-10.905603401017869,46.2047363258968,31.432884357313945,-8.381670176134968,21.511709335425753,5.489536766446185,6.065476753986427,3.7444023175299295
-8.975394504420755,49.93073327764763,34.49427046302455,-5.226913920446015,25.90665932691766,12.283565369767574,10.814025637178048,8.385373829879967
-7.01780823760459,54.68401113832451,38.4046254876961,-2.874963919294207,30.075065731574917,18.295693949220052,14.140922675836068,10.902809387897651
-5.27769267009161,59.99225459333581,43.014281925546925,-1.5745265350067899,33.65428108289141,22.561708742535544,15.563382767593064,10.839418262495965
-4.052501615289261,64.34351197172053,47.244079575650865,-1.2988899820452702,35.917758465619755,24.665103878027814,15.103585792495918,8.318249403600603
-3.646006119644001,65.92584738791913,49.493802392378946,-1.8986142097238323,35.98438219886129,24.54942538478404,13.13601414186915,3.988958243134472
-4.222927573342898,63.826482432947394,48.570122385538866,-3.1791935459360925,33.3748961130721,22.453248839264077,10.288038161188805,-1.0838521502640932
-5.61681601537251,58.89552093741446,44.54201621597441,-4.844501235777397,28.526362704508188,19.003829927203718,7.4054471154599515,-5.6153113750151125
-7.217379749789659,53.85949656741799,39.09228822982854,-6.402064519966161,22.971663408040012,15.329077168434255,5.523434019091871,-8.398108696025572
-8.092959381566253,52.5832176041569,35.1528105867301,-7.21345695724199,19.042377041005196,12.939938714860213,5.708441193660021,-8.670238432733287
-7.4113304667571,58.38460071486642,35.697163870848165,-6.781144119856814,18.999379529936505,13.174454716844549,8.622907514022048,-6.4436303237896375
-5.0020625228997755,71.60371990827093,41.853481375388476,-5.135751085703554,23.679653131234822,16.283040975392385,13.860072578330097,-2.6284036131011534
-1.7025549886460953,87.56724961429293,51.19677253066576,-3.021455458289105,31.25091951887318,20.676745628216054,19.458012897769926,1.1901582839405735
0.8423156093920463,96.82008008263266,57.612063804576195,-1.6516692070025267,37.088770591561264,23.062476435199294,22.17875365285457,3.322823806667082
0.9388944281918347,88.70505565701563,53.5933210795113,-2.101909834603294,35.44936683777083,19.784131901426957,18.78553006356726,2.6824686351927176
-2.2330307976258275,57.04158627387215,34.212433228560464,-4.695463454734998,22.42133270531089,8.818846641764615,7.796016228412683,-0.7267055681294305
-8.101302453886234,4.57126066763003,0.4615353278926768,-8.780191548805522,-1.5250842055258627,-8.778143459450392,-9.357960356581257,-5.815808098465581
-14.928620825557639,-57.00015395393645,-40.341464775595114,-13.047589282053432,-31.1360957385516,-29.00484103544244,-28.629484435657403,-10.92705025664865
-20.658656895377895,-111.91829829603782,-77.65486862872798,-16.192511719691915,-58.60454320557878,-46.67348679478773,-45.089628955229955,-14.585024916011667
-23.873754121940337,-147.57699909889587,-102.61731275885712,-17.509749308536684,-77.21431601289405,-57.798543684823095,-55.13525431112864,-16.088443898478413
-24.32434143030858,-159.82392822834876,-111.88381781914946,-17.10231051335577,-84.26849894761244,-61.232948514391985,-57.913525451566706,-15.66112111521639
-22.80303032542459,-153.50456327117723,-108.28929794919134,-15.6554987545027,-81.68955390135743,-58.7149840198613,-55.2415025720365,-14.149843623714494
-20.553058089958707,-138.51773713888443,-98.35711259466277,-13.994190415634458,-74.24012745332713,-53.523350987745914,-50.26741813301091,-12.506658984827485
-18.628534332795546,-124.34506891681744,-88.59047330548051,-12.709863210226123,-66.7704301708957,-48.723145120934504,-45.824315903710456,-11.366905075204945
-17.540945904263648,-116.35079955798105,-82.8365042890474,-12.014835600497625,-62.21128629390705,-46.012201393801746,-43.40533044436536,-10.904921770653932
-17.26065468386347,-115.20923701777501,-81.75646178857767,-11.801402086002609,-61.126574331442235,-45.555915514569776,-43.076371480399835,-10.941276997229696
-17.431251745023044,-118.53001619957455,-83.84872655403287,-11.796121560043103,-62.44523612302199,-46.519151376045784,-44.0115514181433,-11.15193787206522
-17.621936004817663,-122.9509735709646,-86.85557354479323,-11.719159670100744,-64.5030400954532,-47.767249566716465,-45.14887970728609,-11.247825449076485
-17.521450887759112,-125.69139455562973,-88.8387796977018,-11.403613623273774,-65.84714649179381,-48.401823874609136,-45.67289458301355,-11.076474852425932
-17.039542530425138,-125.44727749933098,-88.82362402929039,-10.845468972700248,-65.72288627842342,-48.050552780289784,-45.268501687028056,-10.648308648171705
-16.297133940805253,-122.65072041509298,-87.02131707923643,-10.166093810576456,-64.2542029531226,-46.90587960357844,-44.14505925629543,-10.09487127995008
-15.513099517290618,-118.94265538020952,-84.51258927713982,-9.51194524051315,-62.22755214710298,-45.50906262537192,-42.82355964449611,-9.575931119501197
-14.856816786459811,-116.01163487055804,-82.46890467573233,-8.963042451366945,-60.52154570856918,-44.378217037363534,-41.7822706782098,-9.18516965045386
-14.367112428814297,-114.56135364664823,-81.420292462121,-8.512591314965649,-59.55158774229882,-43.716894835056095,-41.190089635179746,-8.91564167901891
-13.9814578764861,-114.18482490128058,-81.12631844095753,-8.11221336049386,-59.153941863510255,-43.39896446369141,-40.90931557740793,-8.700516211560291
-13.620790156559663,-114.08697514009911,-81.04973292629846,-7.72210022839893,-58.929034511387194,-43.1827805582492,-40.70952101036443,-8.479759624721462
-13.24129137865765,-113.81052891065954,-80.866271963209,-7.321747975978369,-58.62887749132988,-42.915087472798916,-40.45626999165606,-8.230947502535296
-12.826185952272255,-113.30830981959579,-80.5357858967981,-6.89562878603955,-58.2215627267538,-42.55822249553631,-40.123631807159214,-7.954040279465059
-12.363992592939121,-112.58109611711643,-80.05751200883155,-6.432284128899919,-57.70928580142949,-42.105787390953466,-39.70708302007688,-7.650159025636793
-11.855886427263137,-111.53440429957462,-79.36065401370895,-5.941277575199007,-57.038369089275236,-41.550183875651676,-39.19704086663231,-7.324978990484433
-11.333778462765933,-110.22148429035983,-78.4685894948604,-5.456172673241914,-56.218799887980744,-40.93422309556249,-38.63458320170928,-7.001016403884962
-10.845801373745045,-108.99715376391319,-77.61825354354436,-5.007285258487184,-55.42138396301657,-40.368635165055885,-38.12739240037242,-6.707735508311008
-10.412458161234406,-108.22261017824114,-77.06829482150535,-4.592676294554238,-54.84276353061211,-39.94308233386628,-37.75951889095275,-6.453365726876869
-10.005709052431037,-107.84549880039016,-76.80054147168194,-4.184104594258612,-54.47894934253102,-39.62672740184593,-37.49602122469937,-6.214686265192776
-9.581036509171488,-107.43481146681235,-76.52335595960405,-3.761476221641905,-54.116473916976126,-39.2959888103034,-37.21582073728951,-5.9620445462393175
-9.125557939112658,-106.68105431296055,-76.01054239308189,-3.332542076935082,-53.581299345305986,-38.870874794015364,-36.84642383004949,-5.6908123296293285
-8.664498914801491,-105.74514962911653,-75.35881699592021,-2.9149449224525097,-52.93946895203215,-38.39686263510009,-36.437791844840895,-5.42097817453463
-8.22302625426414,-105.02330341460566,-74.84363521549514,-2.50803964114838,-52.398586894052464,-37.9766956936494,-36.08884687341576,-5.167923443326589
-7.796921803156109,-104.65345949788049,-74.57517046480486,-2.0939315908039777,-52.047977104345605,-37.647828777659,-35.82880160201269,-4.924136285806339
-7.36832996258474,-104.39965883160599,-74.3995160867056,-1.665282784435305,-51.77375920130313,-37.36016577318477,-35.60345326401802,-4.674430256611971
-6.937954978789626,-104.00865523312022,-74.13574761796282,-1.2398969838448364,-51.43203556819888,-37.061972664736864,-35.364746970298384,-4.420618538562733
-6.523469221926381,-103.50074928126847,-73.78743934410018,-0.8405137597449012,-51.01635124967934,-36.75731767191072,-35.12422618375459,-4.179726437836114
-6.125047172039459,-103.00267616350506,-73.44006492773312,-0.46657656768186706,-50.59218487661913,-36.45507087509274,-34.89662173128698,-3.958239559926527
-5.710263863026138,-102.42756329297292,-73.03604053262558,-0.09584470407800617,-50.12782697592772,-36.10161642277075,-34.631295044534255,-3.739575723576145
-5.248270226844266,-101.55386887347588,-72.4163090580738,0.2874790803593129,-49.51427647557365,-35.62703291344236,-34.25892293660782,-3.504383237239408
-4.755243902738297,-100.4772872882016,-71.63395929259092,0.677273340177806,-48.79253451769159,-35.07394631857643,-33.81753589097035,-3.2574807976821356
-4.292129423633349,-99.79946387781902,-71.10473970760107,1.0623800969736077,-48.26972869098959,-34.63696510998695,-33.487823426929225,-3.0246802721866137
-3.911856253185208,-100.15380526714486,-71.29352895024373,1.448389238615992,-48.29002033406879,-34.521893245313194,-33.45557491878748,-2.8224885817634564
-3.613019375889058,-101.4951896280175,-72.20844900150529,1.8490239404930449,-48.85331530010126,-34.74609697272771,-33.7263064268689,-2.639616458784898
-3.3437681297568624,-102.92868218505413,-73.24795250905156,2.255943719042082,-49.49489926936171,-35.07719669599252,-34.07994915793804,-2.4525329932082487
-3.0370599401688825,-103.27560587465028,-73.57102079112589,2.631043850183111,-49.56792610088412,-35.15979582579595,-34.20002137046523,-2.25168543774085
-2.634159903054758,-101.8296013279307,-72.63091400979214,2.940715306652977,-48.66194856955544,-34.70820070047458,-33.84864344980209,-2.043503963065562
-2.094562623521117,-98.7455736529848,-70.4750324125537,3.1971447639487307,-46.841872467275046,-33.64865683329596,-32.97923211520456,-1.8307744131471548
-1.4265091509023462,-95.0689853828976,-67.79442239248057,3.459209453877454,-44.67514377828977,-32.210131798414,-31.802036684879337,-1.6063958059896688
-0.7373526384544596,-92.63290253745633,-65.8741844277626,3.7911561112957433,-43.16221450585727,-30.971619498991977,-30.82451172801019,-1.3755168723747104
-0.23752113311210446,-93.63158654841493,-66.31406119032715,4.2209416550297885,-43.49545649510039,-30.749691904741965,-30.758772556958313,-1.1749810911411906
-0.13557715549529206,-99.43174670393094,-70.19970259357203,4.728565052842261,-46.42932758032843,-32.183810789831476,-32.15582826733059,-1.0522738888489775
-0.45772054497075976,-108.85237582788324,-76.85553202608396,5.253055378917658,-51.364858251274605,-35.113403763494325,-34.849967017306014,-1.0127467319271657
-0.9168472712538268,-117.18721080688066,-83.06074475736703,5.698899740718973,-55.802020683002986,-38.15555265673112,-37.591269089599116,-0.9849351087695607
-0.9419916029948132,-117.30830147213752,-83.71242157081751,5.9566047400851465,-55.889085431102046,-38.91853712232126,-38.25809112276329,-0.8358493565217753
0.1277137179221654,-102.80599474719085,-73.98977237329674,5.96538916881431,-48.0952583584867,-34.90835308894211,-34.67944795138223,-0.4150251437384569
2.775820153677486,-71.43274486263849,-51.862297670351964,5.7965614046539935,-31.108011139779464,-24.69622922966161,-25.655018067438323,0.4134182097109309
7.0773772196136955,-26.69186377194581,-19.404458960987874,5.673687714680718,-6.765541784940949,-8.715284019285814,-11.60984558022138,1.75573521216159
12.581347260249608,23.385584694147,17.84859371294387,5.860057720763955,20.554046041465924,10.728201799293775,5.450145731832648,3.6566354749438466
18.352933148903436,69.43549843003343,53.02125504931259,6.451091092647848,45.66775622336685,30.199688404171226,22.614519772165806,6.0303237401842065
23.192889088115496,104.02033437120382,80.21766618014901,7.2201515830734655,64.39332317156885,46.232913158620185,37.0046397938736,8.59218494923288
26.002769829375964,123.3457979414282,95.90759477584947,7.673624408343108,74.50627549307889,56.281666609019474,46.55255494618305,10.872611290097979
26.20362621490865,127.17447051101568,99.13114047008703,7.347456902498834,75.68499730043295,59.25201313147505,50.415416894023785,12.37417580295334
24.060986409603334,117.97525023185149,91.15900962896134,6.193759517826615,69.03543255602189,55.65662366720929,49.084882298256275,12.841135580132981
20.741983745662594,100.43485063549848,75.31348554673832,4.7896478262847095,56.86355100000364,47.528108642048,44.309451871306045,12.493911807205755
17.98013901355561,81.28082554375695,56.86038741533664,4.162695948164569,42.69859798555647,38.05140140493779,38.775407515117955,12.038307809720921
17.398657328115952,68.2984854527441,42.17419209157513,5.2701485778313915,30.91511545188961,30.751156820042212,35.38959645978933,12.36778421693584
19.78397015998657,67.84985566760334,36.724185088203534,8.43600523736631,25.46485254130393,28.298691973643997,36.232217083975115,14.092909695322104
24.717501358172008,81.85899433076862,42.64211281385445,13.121943111122292,28.139340993828718,31.435874662041638,41.64371599437781,17.187299524033758
30.81392320531844,106.4113751738556,57.4969464721499,18.198392985889786,37.53217631900082,38.683692820784294,50.04569731241052,20.98851711824346
36.446615832756116,133.48662119593655,75.45252844680356,22.53580498785351,49.665099892703786,47.141791626486906,58.74127808133563,24.558039698881906
40.52279434905348,155.2145787519546,90.42554298531765,25.51638801977889,60.14990534752409,54.002488741449916,65.30910037398107,27.161944763610382
42.83830309517516,168.03162234097994,99.34504094959887,27.140247689152385,66.5906960899416,57.897083446756795,68.76295199280949,28.56269622267502
43.83004543589044,173.86611331943604,103.33929429017668,27.71032956397866,69.60759388035501,59.25924535140781,69.75203749542774,28.959966279115065
43.959955842865156,177.4569217216594,106.02348700837864,27.392453573630046,71.75128612086588,59.53574381425235,69.71040156301169,28.673376060227504
43.21358944124144,181.81136856592826,110.17428260801147,26.020964603216296,75.12151486967163,59.86693689032979,69.60132613330964,27.832597681035814
41.08980475361346,185.32547892456807,115.31492482615695,23.30159675453978,79.50136543008027,60.20169634719061,69.17575867889146,26.30295958100053
37.07173324856821,182.82428688659795,118.0125810108882,19.230255212454846,82.4056955574337,59.42915939047949,67.23848192367329,23.867975296188995
31.202055768141552,169.69075455299685,114.55525924582376,14.36787246790469,80.93123530711584,56.32225534060216,62.639502952468476,20.491130583454034
24.317139123701807,145.88566779485487,103.88455330547397,9.721805503052162,73.94179982437835,50.53357383004278,55.21281631255647,16.444280271643695
17.75764524361712,116.85077810965872,88.59824157774483,6.284198866025906,62.97582984591377,42.950313893463324,46.017163156116844,12.222343502895582
12.748339893647096,90.68715808233483,73.40157032938494,4.532166886857611,51.31931246545412,35.25493253346829,36.802626043483485,8.333706122715315
9.850962580629828,73.6560589476149,62.26474218073183,4.221454421110641,42.039435631561325,29.085486403361678,29.153792892742707,5.130117882351933
8.813903711553698,67.05244447928708,56.34158340490572,4.600593568154875,36.41453269024067,25.36736372785855,23.89031943920128,2.783078836200247
8.858910931184909,67.29688609751969,53.94125531065449,4.89565043116848,33.73395487862583,24.150676985470923,21.02398395672333,1.3881878638324834
9.173766473833297,68.75997835953252,52.24601172366754,4.759277106589189,32.34109151098001,24.8909002888346,20.14833563853098,1.0836899587677586
9.298679537338545,67.20797443168607,49.351739448074,4.426569516268199,30.97658091249847,26.874760208217534,20.897265738986228,2.068211562809206
9.217499136654725,61.88300689139621,45.34173962595566,4.507771934413901,29.52519394053107,29.533258547940854,23.17315368259372,4.48191163005936
9.16003762063299,55.52349353975685,42.059880274930634,5.538075561959103,28.916069691713258,32.54446726415556,27.06065959074103,8.205075610844514
9.250651191585776,52.70833077412112,41.9927370357133,7.507167882165791,30.443553990002712,35.710835726389725,32.48793559164932,12.671519194292516
9.174807981928884,57.17455182710366,46.74030520339105,9.599031927510758,34.816516541880056,38.60854891746408,38.74180342647819,16.79219507976167
8.03344716026728,68.83110759168987,55.42951003396292,10.309383590434685,41.14221909792934,40.1201381234748,44.02865071457546,19.067525456425
4.528365371947471,81.71689660634419,63.67692214594608,7.975964843664742,46.234559369858225,38.20051274676955,45.43448796016352,17.93591652884361
-2.484604027217678,84.62902281760714,64.08910282676952,1.5638333782185616,44.94210817545452,30.326312765940745,39.65709759523861,12.327162742882104
-13.243616007759641,65.40655441411651,48.96655231810725,-8.631772308360622,32.00390876617836,14.75826269596921,24.523632660559038,2.256265884154544
-26.501270881584347,17.653938288140644,14.54767791902246,-20.74584899377939,5.010421678168825,-7.898475246745535,0.6780333272472944,-10.825383903522866
-39.522341032132445,-53.56975652657476,-35.36909706737188,-31.785402745508062,-33.041102708465054,-33.83006990859378,-27.598832961945238,-24.195342138783843
-48.843598569943914,-130.94336092053928,-88.93623420581854,-38.656354798968586,-73.39461001501353,-56.68636640300378,-53.24686808546559,-34.61913816975623
-51.58428033040366,-190.56017574984628,-130.02085030111618,-39.3675318887843,-104.21964077908791,-69.82250327936714,-68.91027103734372,-39.467910025392094
-46.73297943008297,-211.98103906881283,-144.89755751803636,-33.86358566307968,-115.42129287455658,-69.14827083188636,-69.9913730215618,-37.714037099896835
-35.74159777518306,-187.66681712090636,-128.56897635532889,-24.069620244505863,-103.22499245366907,-55.0893402605105,-56.72094028884016,-30.319243638884167
-22.04498917172645,-126.68185652586877,-87.26630843299777,-13.097926448691815,-72.04354065216597,-32.50630824932089,-34.081980072937576,-19.803829318020938
-9.681296977192043,-50.54415008479124,-35.648836400692915,-3.9915836869488937,-32.52144941329411,-8.522545990519701,-9.55661702837584,-9.201085747868383
-1.6900743535473124,16.54217498322687,9.826712238768778,1.3838443632845225,3.221620406431719,10.573536491356519,10.116278689672471,-0.9167744825529143
0.9173728035303188,57.819848363031355,37.81454736436823,2.7957634299442518,26.603014793116923,21.665642313673228,21.45811591461542,3.965272935067616
-0.8248037050678512,69.38542586965548,45.783587242095386,1.3330511139927652,35.32418861762952,25.239668818655414,24.840863903498292,5.677719893866022
-4.685963155305743,58.84647929192867,39.098840780359694,-1.365298775967249,32.80713356773673,23.989247516887566,23.153141355489264,5.218486759865464
-8.378129731694742,39.11481488169286,26.732904057458274,-3.854983829059008,25.200270725099408,20.75175868595714,19.637141194895303,3.6720936783226175
-10.384878006904101,21.52573000429184,16.47383891396786,-5.2664006351657155,18.004019530512124,17.137339580738097,16.280337698182276,1.7908190067084568
-10.203804635163989,11.926243040235494,12.175014929246124,-5.298372338484609,14.1359502047172,13.490188151641762,13.522296989457672,-0.03986363443213308
-8.117986200340999,10.749379580026877,13.810423106352147,-4.0325886368543635,13.963034689407166,9.778537391972787,11.033138140294897,-1.6036756254692721
-4.80382323177714,15.518684047004767,19.289084998169177,-1.7779583642489514,16.523623218292336,6.444872491872341,8.68713023159081,-2.673895884539935
-1.0182089919350759,23.41223872499851,26.354143982810065,0.9980506246232514,20.73607712677133,4.502454965398217,6.966721707561292,-2.9988342806858665
2.5664558583460035,32.4416353745052,33.499345471486436,3.722673198576966,25.875352990243957,4.892399435925269,6.637522363401369,-2.427360344108322
5.42375885321244,41.187588238300215,39.8156019999092,5.828085088507936,31.333153368005497,7.673868900786585,8.074759162401078,-1.0511232772601333
7.186987976862368,47.851401781216644,44.287248140784556,6.90727702801041,36.09294422490858,11.656686717450306,10.759701279316598,0.7470308586875841
7.6532754921445125,49.601956951821954,45.23427708089617,6.843626900366108,38.421848015672836,14.74172060197557,13.279677553860788,2.381680026606222
6.820333839676146,43.13928666682493,40.567749229221754,5.852969150651509,36.21641890780429,14.848583893491115,13.899981563750233,3.271205678040598
4.985413084887862,26.90940641800364,29.210343153108838,4.422516650979164,28.207634633340344,11.059650237755621,11.533762865448708,3.094162855346617
2.858704033428152,4.191679015287116,13.213908422195042,3.162806482933228,15.6530982209505,4.4793926438163565,6.6959163230462035,1.9858093195493376
1.5460099408499566,-15.137633314842775,-0.90119351911744,2.6050771442314553,3.4151850430509234,-1.6974771542057612,1.8625720376327612,0.5543196963883164
2.2580066187192314,-16.590916359007142,-3.301914498613086,3.000012215960047,-0.8683813491478362,-3.1896458978984557,0.7797230428981577,-0.34155377744696425
5.766736305654847,12.650028518774315,15.006403331672166,4.199568903160381,10.07104291545862,3.5113660505292454,6.775571646904022,0.016273659190047064
11.8593762686668,75.74451678249936,56.692523177682745,5.6948369083264545,38.88616566497424,19.200393915601985,20.79992588723556,1.8302601186868792
19.144623635014696,161.1918084727461,114.47642364884139,6.817852118368319,80.6796861457067,40.954848797735586,40.27870662251809,4.629131456620182
25.42883280729744,244.72102586690878,172.1408791951507,7.022733965510819,123.5395040262116,62.7650797007367,59.60094368494952,7.4227925123299725
28.560589540020736,298.3607769907019,210.52770783883045,6.104870539498371,152.91927652349705,77.70965149309858,72.22654755459173,9.104634339641276
27.349621280747783,302.6462930110795,215.8694774826286,4.2454266772502525,157.95926819442815,80.75389757324815,73.47758869395095,8.910050104887228
22.096458911714592,255.64688315845643,186.14597202275579,1.8738451719227056,136.50250545360893,70.85842650884119,62.619442015944834,6.715802474737747
14.470036026002765,173.90616115307088,132.006857827382,-0.5483748229604305,96.09309020096619,51.38354902656899,43.160478105499685,3.0478849623116426
6.8102656488786755,84.78198127526238,71.75989754342008,-2.687229310622458,50.413375938428906,28.610609994302447,21.23361156187614,-1.1921170769535732
1.2070874997709493,14.364125842640494,23.18004630989439,-4.369310731803455,13.114541963356873,9.110323203991298,2.922418054705798,-5.138300242056923
-1.2213111360989635,-22.732168931366246,-3.548430215412863,-5.518334257300377,-7.702203844969998,-2.7993133142804227,-8.111401781931571,-8.298648171580085
-0.5692718556949976,-26.969574261799618,-8.430651951922142,-6.07959126077289,-11.710738051846565,-6.37475168963916,-11.601464302419902,-10.647989356583674
2.1217407561058614,-10.196078758273407,0.7731684212713461,-6.0006763151037585,-4.686643239076521,-4.068454373761053,-9.976939598006123,-12.443971086616589
5.43075468185326,12.151627864069297,13.857378478380456,-5.277257719361693,5.527506297537462,0.17969874763988458,-6.606391238539738,-13.903917028202295
8.135629605524386,28.291215755863593,23.109643245479383,-4.016009658475347,12.919379195586368,3.0086216031222164,-4.046798852228013,-14.96643940765696
9.578665707438855,33.562941945148225,25.602535219171074,-2.453651444128645,15.204660197878933,3.0387689472714285,-3.152704852297955,-15.299174123446278
9.737027953565107,29.75050883750648,22.590325498302725,-0.9100653806283963,13.41313038545183,1.0622934575784062,-3.270417736195065,-14.542917624643499
9.039231238871567,22.010777318902498,17.316628532535226,0.2944388207938283,10.134375326099361,-0.863983348965455,-3.1424642643821055,-12.618778348795862
8.04688028605513,15.54344888219571,12.807700431080104,0.9143267195177127,7.706588685776685,-0.8141534749859672,-1.8978585729897197,-9.880069502074637
7.159686219195806,13.32601639293518,10.574140396611307,0.8320536414788222,7.1602571357088145,1.8699546584091808,0.3846512830364446,-6.99664156892794
6.486199776427323,15.370013661685912,10.409478120334784,0.09773533019818516,8.103512887182564,6.245651546398608,2.7569647262668266,-4.643370489286983
5.929718924404634,19.44615286164495,11.063098022195136,-1.0523540847919066,9.338553369177543,10.358441003180982,4.020235773009796,-3.1948903862276894
5.402130852610027,22.78780355244792,11.333685609934744,-2.232381673507526,9.792657326389888,12.393668930016876,3.517049149126583,-2.6115911232339895
4.994520010056798,23.805424716121514,10.951405222709187,-3.0182729494353113,9.2410037573344,11.724766693914047,1.6286534872336438,-2.5570034337916017
4.9759811206299425,22.789487095867266,10.699201926051302,-3.0970523773554417,8.399466760553965,9.25274260371189,-0.3425749275919512,-2.631282722676275
5.628835413026442,21.29018685318268,11.73193075439888,-2.375919804538456,8.36521815207783,6.861930557902783,-0.8551653565391746,-2.5559077799630536
7.043740931342859,20.847698468241806,14.660225404732172,-0.995419304489763,9.845574614024919,6.350511939403426,1.0336372845694528,-2.222526032572625
9.006023937384809,22.080477542630824,19.09224531641046,0.7402152155357425,12.723300919378362,8.466735204976679,5.158083857621636,-1.6420111947032026
11.026007805199797,24.56376373829863,23.841228507624194,2.4557184680814714,16.154889176422163,12.53734611223172,10.294927570396796,-0.8898510289034783
12.486318709043191,27.187672746736805,27.451281058519214,3.776306591712637,18.97028200639536,16.788344746614587,14.666238697966762,-0.10165778500676483
12.84645920586856,28.574488576445333,28.640539802831928,4.380554433334404,20.066462671926455,19.13134401377459,16.613554274106924,0.5120745497204761
11.838977245099649,27.533529449933013,26.618749179611733,4.0552992168190665,18.723389810269232,18.061331525052246,15.193677702944798,0.6954193211614889
9.58435722332645,23.671105481680534,21.422051022670466,2.749426520304784,14.907026267793633,13.319553571889085,10.527675323756858,0.23457818808175157
6.561341145285144,17.87756056324188,14.15879779228914,0.5992032617815001,9.460076654656811,6.046546496701709,3.780024306293112,-0.9513294797138239
3.426842375432958,12.111557039304554,6.792763298966974,-2.0931399555391543,3.9065740823176585,-1.6796908769783172,-3.270623868201674,-2.7801142409277113
0.763295931199686,8.329137752704737,1.3130471615359873,-4.921927465822149,-0.2209563855520042,-7.740679215224136,-8.922767540643454,-5.047157751874846
-1.1261591059025569,7.240993673497334,-1.2795147195183167,-7.470184884229124,-2.1821943585070978,-10.875458579778961,-12.186963811915414,-7.497071540635257
-2.287434264363179,7.874433683762077,-1.4531601508729053,-9.422267973153799,-2.3953376177416787,-11.127833338335872,-13.062391497608763,-9.885786399388637
-3.034198772447611,8.289762579248414,-0.7360742417282509,-10.664333890971665,-2.090829098967414,-9.646847888961627,-12.3668773459304,-12.017747951001342
-3.754105499682612,6.9193706011796925,-0.6958138584212454,-11.304983712675158,-2.479661797348322,-7.988787573272314,-11.260597156937775,-13.753215554071893
-4.673710657329208,3.698966467574545,-1.9108140338129442,-11.568143252992385,-3.932488142375988,-7.287610363925423,-10.690532425814046,-14.979471904530977
-5.688364343242054,0.4600866999844989,-3.4408382606218164,-11.6087275461918,-5.588609202884945,-7.6913505339136465,-10.959638087031157,-15.560715868105754
-6.381772282538816,0.3564370453015545,-3.104515491785159,-11.395067898267133,-5.626567689432784,-8.357388837891166,-11.60330633930191,-15.323138199837915
-6.293249599157373,6.211144708765907,1.2978865220460365,-10.772739180764676,-2.260279839906594,-8.081480584309752,-11.715755666337804,-14.136187522062581
-5.3193377184978665,18.08012900335104,10.080579094408687,-9.66515727640434,4.783481520427044,-6.296665168808691,-10.67339999786444,-12.072112892163373
-3.973437862676617,31.249586053680687,20.06309598535927,-8.220968150624424,13.055441511005013,-3.8471905093629397,-8.86439493638117,-9.515469713503595
-3.2492714624665147,36.50093289240442,24.652679752131345,-6.746615001289731,17.474276637185422,-2.918065447936476,-7.850951768340635,-7.079179512478683
-4.0919128950464305,23.632754007055485,16.360260489193887,-5.460844093212485,12.2496520098043,-5.967238942911467,-9.664950530547172,-5.321615911948063
-6.794829194556429,-13.013800794843663,-9.158760728551636,-4.290262009851499,-6.053496985484895,-14.22075554136829,-15.565293253661126,-4.441974891831712
-10.741094299412191,-70.24993093120803,-49.88727393516948,-2.9070875433803836,-36.06539329482595,-26.692957966790825,-25.064088554368034,-4.1800624779085185
-14.687124840957322,-136.0347172617743,-97.31465669526555,-1.0019090767683085,-71.47056121446643,-40.419074524852725,-35.924943457307656,-4.003241971445715
-17.414925830856447,-194.36323565383535,-139.8724315058871,1.4223671792918753,-103.55300854966066,-51.81552476274215,-45.20154702124407,-3.4508576217114295
-18.33813264176885,-232.4750969721439,-168.13305262556858,3.9725620212504285,-125.10174235869879,-58.367785284187256,-50.69001171062818,-2.4007534761104012
-17.702828468004757,-246.23117660339517,-178.79001322011158,6.069308736634545,-133.45281833250448,-59.66563746901561,-51.90767513044826,-1.094116602054133
-16.315219420856774,-240.6916239828122,-175.23079396916248,7.2819133521114345,-131.00223092657495,-57.256877225977306,-50.05510821015571,0.06638475177458852
-15.034114101754737,-226.08655320697704,-164.74826005157493,7.553410202240876,-123.17296468019532,-53.554317784684386,-47.113233285460176,0.7809233417620478
-14.370318377793389,-212.19201822921187,-154.4907010471746,7.17703109328346,-115.37457694464396,-50.574246501373715,-44.758782064784654,0.9987529937477319
-14.386993217469152,-204.53671030192888,-148.6293024198428,6.5823799526993625,-110.8247663327827,-49.23492852609392,-43.75960985963871,0.8816729425001619
-14.84871434011604,-203.84937932126618,-147.84255531544937,6.110367387856015,-110.10414607569378,-49.40883565955305,-44.02214145014477,0.6617811871712187
-15.435345265497633,-207.74131035828657,-150.47314206304944,5.911942064811301,-111.99891180152552,-50.40213421765745,-44.99009838415751,0.5187336567069529
-15.88849598623719,-212.80373629262314,-154.05590691230398,5.971751610363469,-114.65491846702388,-51.43268819330505,-46.02214309199433,0.5372785916036698
-16.076770713627,-216.1320269222461,-156.4566129215913,6.178348336530963,-116.4485478149745,-51.923942096843916,-46.62002159847082,0.7196021759761668
-16.011990380403,-216.25105218248646,-156.5625927201836,6.38877503259647,-116.51614941033391,-51.652358161265845,-46.56552324827678,1.00792678140218
-15.818689348885975,-213.4879529089061,-154.56266056765526,6.48943916141987,-114.97585301150933,-50.78004182324708,-45.97999581708562,1.3107453083583815
-15.64997181989878,-209.54568237195642,-151.65811092967425,6.452838951347119,-112.72712354104277,-49.72791361457946,-45.22996658224799,1.5460947877093356
-15.592419929239298,-206.32606442110327,-149.2326049939132,6.351676415823466,-110.83512518950556,-48.91147772605951,-44.68351065324463,1.687366826295139
-15.6359040547188,-204.77688746180382,-148.0122580036862,6.2995759853295406,-109.88255626898624,-48.51166234098939,-44.49206831462226,1.7717482770818316
-15.72999334083429,-204.64106568348737,-147.84658848282794,6.355373433218495,-109.77044142316161,-48.45148720801388,-44.574595145573035,1.859029070067515
-15.856842059239996,-205.10975491226975,-148.14820347074266,6.4744928571443,-110.02730016977036,-48.54644932394383,-44.76977360596807,1.9817805283594774
-16.035520820278208,-205.51358194212312,-148.40091966773497,6.549809382334509,-110.2056806339624,-48.63165148553116,-44.95418977259398,2.1362925614085935
-16.259438881275095,-205.39207608415126,-148.24865707852496,6.498561545103656,-109.98957364662162,-48.55284771577638,-45.01633114234735,2.3124440775036263
-16.451583661304973,-204.24627150820263,-147.3411664451186,6.320111052382816,-109.11457382131579,-48.12715467797455,-44.80120811152843,2.5149757331634532
-16.50080050000504,-201.69852871272144,-145.43643200292374,6.097350261641903,-107.45576721290908,-47.233979259093815,-44.190693773509516,2.747172430381439
-16.34849862701559,-198.10687028480498,-142.81613737941203,5.967382493122686,-105.32491015708213,-46.00515285595184,-43.28615315239214,2.9839462869770004
-16.046366719790612,-194.84777469294684,-140.47899122898409,6.0785064213364715,-103.57847517102685,-44.89430684142556,-42.475047355271386,3.1787527666081346
-15.748466090841873,-193.64719002030154,-139.66373883677755,6.515076652203984,-103.19978803626684,-44.47309288021465,-42.241901447859576,3.3048857895453647
-15.66047634213277,-195.3311948545858,-140.94541607666974,7.189943640593285,-104.55233252580074,-45.05510098217909,-42.83558451825713,3.3860341486959573
-15.966015787360815,-198.94839635765587,-143.58774917809512,7.776333563576183,-106.86258678309507,-46.39584916316192,-44.0288618384952,3.4830927842157644
-16.716797708922158,-201.75433327405912,-145.53440983241313,7.779515803859145,-108.27381324120168,-47.62853693798615,-45.09104981232137,3.653911859644174
-17.699709953111526,-199.7888457525926,-143.86523136813963,6.762199726886037,-106.34741301224683,-47.43674912627499,-44.936071804589766,3.921460858036301
-18.380043215497896,-188.7079728004622,-135.4446957599721,4.597685123933717,-98.73509255582903,-44.42607371873596,-42.402974034443275,4.253952868762169
-18.048202225284616,-164.9915224826789,-117.79513657791051,1.5703590652800457,-83.92833392296743,-37.67568264369065,-36.69000910494095,4.533333697989997
-16.177751528469578,-127.64296834628362,-90.26262433826842,-1.7608096121009296,-62.05203010481713,-27.343490441260105,-27.880393208371633,4.516209527664586
-12.810006552944529,-79.73287216432773,-55.059593494499154,-4.850135315437319,-35.403619534460844,-14.992824869331844,-17.28020607885699,3.842726862681837
-8.69552661133897,-28.530803973139093,-17.35290665486694,-7.413070700115551,-8.22707385941928,-3.281491023445451,-7.2171074697317374,2.1483292543205477
-5.045615253173395,16.53673120120086,16.13223841413583,-9.479261429341435,14.523605700203717,5.023259202227215,-0.21186203038904064,-0.7398860827701657
-2.9960237311700815,47.488407824949974,39.60912716256591,-11.241630162721307,29.041077672765212,8.266036720288076,2.1311594778188505,-4.623083840318803
-3.077966117499215,61.14097233903404,50.611447506730975,-12.835462728380275,34.238708186085326,6.683138028381805,-0.0884508102315345,-8.886984738510723
-4.994551177722917,60.28165905225779,50.90632736191932,-14.214728434630176,32.1395049836138,2.262142032275529,-5.082305333244799,-12.65687467648867
-7.815371403610638,51.87460664817845,45.32141920533706,-15.197900994984737,26.760943344695995,-2.2746282399404985,-10.231490368624932,-15.111790396677213
-10.453826250756684,43.338847595973434,39.134700219047005,-15.619971014200098,22.075863288593634,-4.790723526825494,-13.319779701982688,-15.81719006192552
-12.144629981528327,39.197143303851774,35.62772220791398,-15.462830872794678,20.260229884200843,-4.597762926719896,-13.427602083220053,-14.892812629372003
-12.680063551831584,40.010564257123036,35.22845326632609,-14.876858073467853,21.23898190562733,-2.4087831089793927,-11.00515400519281,-12.901975040951807
-12.340051564427792,43.70720165161975,36.431567071962164,-14.09494123693061,23.575112803272543,0.4451737581147953,-7.218297067401522,-10.512613457969904
-11.622569345579128,47.766400582667146,37.44821210322047,-13.30238836074939,25.818034955529992,2.9051848122686788,-3.124361216422882,-8.129704431604093
-10.94493331512927,50.628725151230945,37.348373722291086,-12.538513385126793,27.32810129590274,4.612181697552754,0.7765489745340031,-5.722618813103884
-10.450909659107888,51.91320780833442,36.258241527998806,-11.687278447490792,28.2756314927861,5.766290269793379,4.46843904877287,-2.9560530636649296
-9.989885279648377,52.06449031491807,34.98216296924174,-10.578327444523023,29.1959090581338,6.722123282912053,8.058593679873061,0.4439827048721656
-9.265860441116292,52.01593441944778,34.53064212757139,-9.161013891297234,30.57933720812758,7.673629641442151,11.449894494333309,4.303149229004125
-8.078516266658461,52.87697670508579,35.71277800913702,-7.649137460017267,32.66382880003415,8.572328687414705,14.233094038435357,7.84608475824047
-6.517120036340899,55.50385486084534,38.81604977349437,-6.521321267000077,35.38903829536187,9.236522492473213,15.834585888804646,9.928488662757415
-4.983701398745527,60.1392053513461,43.51515358539201,-6.343241200154209,38.49733356453918,9.549732264928865,15.845326658366522,9.579132384829588
-4.03315073316799,66.37708304128827,49.090465833801574,-7.504496656446743,41.74021760065699,9.620495508610631,14.33938680823289,6.557610432299438
-4.137706408305601,73.2861942474222,54.692315048940536,-10.021670601104884,44.96795319729309,9.751710404685255,11.923577814083844,1.585191105731236
-5.500203621543459,79.30096581841188,59.27227637732138,-13.494975556577662,47.86988696211523,10.162873428507957,9.399261121847335,-3.9088374096867127
-7.955365058904261,82.02264675876285,61.28633213780594,-17.19174713561692,49.53427026385149,10.655522729507336,7.253351884973805,-8.382603116150687
-10.931352725347658,78.747565575203,58.86279610247644,-20.1857303623516,48.44066755191195,10.584282124967102,5.426224423508927,-10.777169482483394
-13.481801542205353,68.21133303271426,50.93551853823322,-21.532409424690776,43.330307135102274,9.320890587558367,3.6232692338378025,-10.80987029454471
-14.473164326889787,52.646558173548684,38.78911008504115,-20.510809506502227,34.5537765840501,6.939327418613023,1.9339474689917668,-8.887973624701727
-12.976815464975191,38.2326465291297,26.603625520054386,-16.914293032290065,24.76757424916824,4.5361676018672785,1.1726255556114473,-5.789946664854854
-8.741197837153468,32.754300869078904,20.00268104271749,-11.257704740184302,18.093571904042804,3.7952593506576253,2.5375983427273447,-2.3348238108479866
-2.4626163458224988,41.43094725532845,23.13562886492435,-4.721974257262521,18.000976047743713,5.993655344392162,6.764514676881127,0.8229320940470574
4.382579573826359,63.579850845352055,36.142569885962374,1.228973316845952,25.247946309195665,11.123732881326976,13.410888585920004,3.2664191472455566
10.126740286440937,92.50175520749613,54.79252407689499,5.411431875742355,37.30596119127279,17.76777868602979,20.85321736320938,4.821476596742355
13.620095376173055,118.8736433657722,72.66135179534342,7.370842523210677,49.709223231862346,23.83939337313047,27.061596454089592,5.541677763981315
14.664273787464008,135.5540151753258,84.49234685629109,7.467167369449122,58.463312928253195,27.703101554231832,30.648066985276188,5.666317014129075
13.942492916397182,140.7814762025608,88.61288858467998,6.567290685540426,61.96119229137657,28.943769466217038,31.494529889159722,5.525280217595324
12.536045154853998,137.96725881417223,87.02709817878923,5.556016965946827,61.28544654952537,28.34736434725981,30.59303694041629,5.406542407799221
11.356786797734507,132.7182166193514,83.48697262368194,4.9630288830470555,58.97471371816257,27.231305549353497,29.30746860011798,5.454984448894751
10.820353888087524,129.4420851183041,81.11825360731333,4.879272798955387,57.3256186587014,26.657605880095705,28.618196967967812,5.663628160019724
10.86543886851775,129.61019419234196,81.09089233450615,5.119584824556759,57.33412167644342,26.99645935016522,28.786778650725488,5.946342242203002
11.190436588742791,132.0821663439529,82.71363267848669,5.456620255888867,58.62824989631445,27.944661053744777,29.47725941100011,6.220251798263662
11.505559761288714,134.559773950448,84.37839613293036,5.775609519538238,60.05004827562784,28.830342180682266,30.103297060245733,6.440945072518102
11.68032480900704,135.16409728319914,84.67452452356545,6.102220540948332,60.44082265900111,29.023904189798348,30.19619609621025,6.5974743393225745
11.7676544075271,133.66449084790142,83.32682210568026,6.527791224749536,59.397006609566574,28.349160645737165,29.70676459919443,6.706422187656613
11.921713562483566,132.00627282682788,81.67615512637825,7.078505243132846,57.77265004278106,27.345243703893754,29.143867675921538,6.815454261826669
12.238819422464472,133.5784111217509,82.26007288256336,7.597000953801998,57.534360096270376,27.150574755324133,29.391437763745873,6.9913129511356
12.600529645497803,141.06757356931558,87.32011434948997,7.732722982008461,60.73406955957864,28.908668096358877,31.167922560853288,7.2823966494264445
12.644607691792755,153.95844127680402,96.93569489472655,7.105800821694539,68.02901426990596,32.952475261649575,34.40311506173394,7.690242186846653
11.935500903364904,167.59876320693215,108.1620064787102,5.58406027588511,77.77255404995351,38.29821901713606,37.998407228872644,8.187418168246094
10.24950874921014,175.0279192514447,116.1259157843604,3.4801887411144485,86.5057229038975,42.86296243033709,40.2416485520959,8.764067588420726
7.76842686509007,170.77054066726004,116.64281855189603,1.4797461585229927,90.71070853923722,44.36596607124708,39.68498980976913,9.438937138759572
5.023987783819891,154.19249869611417,108.70596815505577,0.2923057721091585,88.73934992594663,41.442869781943244,35.958551597514635,10.202573767151666
2.628154807273655,130.18353574102193,95.19873787565152,0.2459240193116618,81.68732087802294,34.39571893135443,30.049291202733237,10.948904957984933
0.9912853933199399,106.729469763018,81.3861042798525,1.119177741214809,72.7277124204807,25.228094096932598,23.932791504582855,11.497387604313158
0.22377537012461376,90.98534573051381,72.22161634886962,2.3389839400451713,65.44550736066135,16.97032863129777,19.805726280572074,11.740749933954977
0.24690275886935084,86.27475651785703,70.17293115409933,3.38638389700414,62.26531252057626,12.5801142600279,19.296714322523695,11.81560958316503
0.9584705289667841,91.4873909077095,74.67134408546686,4.086619084490326,63.7725566530492,13.818880829860587,22.920276175865347,12.115931646366453
2.27281300979575,102.4891333385217,82.99017469081646,4.568650830649324,68.91929456531318,20.485124340043402,29.857025849859134,13.05584245212496
4.01298621220664,114.03337049119075,91.52031806199281,4.978902896333539,75.55883328373129,30.310354382936342,38.08209420743148,14.703948926146566
5.825845461513599,121.14947004731451,96.71373732469131,5.256469452861021,80.9445317105185,39.69441102644156,44.9175930079873,16.579661190338943
7.309063797678363,120.23276422500395,95.84728268054033,5.209448218304853,82.37816535088183,45.174584869917325,48.03204617680269,17.841830005683054
8.328979727023885,110.42088709547568,88.0413301226817,4.828407456842286,78.28147300674622,45.07582837087782,46.596985698750906,17.809841575629974
9.263047787412072,94.85135330542634,75.2693821154614,4.520141936583274,69.35141379154848,40.45931573517052,41.95395799824272,16.4637562407046
10.886905085070529,80.39550557623194,62.3364119738932,4.989922093620415,58.861471926362434,34.684308989207125,37.194102111223806,14.541921997954834
13.89656063131761,74.98694577006725,55.11024426677219,6.805874488756805,51.44197298461332,31.68043737363378,35.66977024963052,13.138987285049687
18.37716257318654,83.54535867889626,57.61712750693566,9.964224023033836,50.76470577250679,33.88242409142435,39.227963575232636,13.07251467830928
23.611256638037567,104.9934394043319,69.74757648475845,13.791307364261101,57.519363317412186,41.03632453434018,47.23370813056054,14.439608057867577
28.38936862352829,132.49226567558782,87.16049814747755,17.267867727444216,69.0218869972671,50.53209752051019,56.97858647617693,16.62819709709922
31.63226741322368,156.95279909679024,103.56799260655802,19.55764507008672,80.73717674393939,58.96080395340983,65.18967518485091,18.72721337423616
32.925531091709175,171.66544567592754,113.98394256547724,20.396613715104202,88.72460025138614,63.89266553042013,69.69056507332661,20.03629641897378
32.644884916815926,175.1663673353621,116.90654529071628,20.125393944827593,91.44885752567824,64.85061175169214,70.24893426221021,20.361420731836404
31.64242011998656,170.78342520742717,114.23535129007975,19.405411767808843,89.9420605949509,63.069917906744905,68.2472855365859,19.973484230065367
30.74470729656345,163.67755514253625,109.36192677836654,18.844075928208582,86.52498147784546,60.43109913220167,65.58687834680377,19.338759914645383
30.38300787127857,157.73787502163873,105.01712411717536,18.747216333123347,83.21904780552235,58.37154911562356,63.62578471111725,18.835088510497854
30.519307253193592,154.25198655217298,102.24877990818021,19.075249425433505,80.90969653487456,57.38559153244535,62.7349437487731,18.60578422982146
30.81821163458406,152.5303697496128,100.73748704821499,19.5529879125845,79.48987979603386,57.183210663996796,62.51343183706522,18.573138797614295
30.914147555120945,151.34464954924272,99.71826561711815,19.852466827783825,78.48869517471945,57.18200235288374,62.321970681968644,18.55261242032619
30.648264318000496,150.06494719047373,98.74652089988957,19.786927211838325,77.6235528263875,56.97838667023062,61.77874147398815,18.399625599587967
30.194636718717334,149.10646934711409,98.02748348938444,19.447822848902515,77.05009349441063,56.607852838956305,61.02438451832032,18.127597279474116
30.005839136008298,149.66783825849265,98.28840787541424,19.19725796856206,77.28170225080817,56.51131513982444,60.661004585502205,17.929721228042382
30.545366473126375,152.7154787104446,100.14685515380518,19.47021617196565,78.73709743705571,57.177546425286636,61.32569958833711,18.05868414524529
31.89870099030999,157.47788436421197,103.12085881705269,20.460278812684408,81.0147970099031,58.58736507549408,63.039750768356875,18.603806362115815
33.49477946209977,160.4812664921025,104.95304750609021,21.868696114842912,82.38759742537417,59.81906004697009,64.73968998436047,19.304108154170518
34.172947529560275,156.40228678590896,102.12575076706231,22.887336921596372,80.18041334771182,59.21456665484082,64.44589358399455,19.54869228760945
32.64262600853068,140.90472395938428,91.72957027119938,22.461730522859195,72.17648825336782,55.171310426432015,60.16250648017245,18.607794606330824
28.128371940034366,113.83576880983551,73.62765849168063,19.735292964957978,58.27211963105896,47.125419877299024,51.049352041255844,15.987652194288126
20.859714472016716,80.40280630246986,51.301545449818676,14.491795892757898,41.14678467099817,36.070908253292274,38.13063003675766,11.723754128237276
12.13721139499989,49.16733961186894,30.54861317697123,7.403387875463977,25.28008349603804,24.24114343145313,24.0602574529291,6.463404592804558
3.9236745366245294,27.984369902546458,16.751407516326545,-0.055970581431548636,14.832325677340718,14.146665063353241,12.057042664540317,1.2969478071468357
-1.8562001680357636,20.510335305480833,12.47939940620235,-6.055007999061066,11.74306185854646,7.571838408502128,4.615874632303744,-2.5923262214344835
-3.996229953493867,25.410987978766517,16.8859927431365,-9.071504746608214,15.220036340779867,5.084353529839481,2.6653314535304546,-4.326392555104171
-2.4003084486002293,38.310797566744846,26.973929159365987,-8.518444516409193,22.734492075246024,6.169698216418747,5.471792331038239,-3.6457312923095158
1.914283047116338,54.48151492735847,39.41772183563757,-5.052112007454998,31.53442551394531,9.642203307959845,11.094399274519457,-1.0448077467335686
7.139313878119893,69.97445302707112,51.39523380537168,-0.3934918247664416,39.43620186376,13.903652779664652,16.970984263824764,2.321003414386898
11.201640330079833,80.68591676404378,60.03462801110236,3.309936894563975,44.49135674895705,16.97608377217354,20.40034441010105,4.96619429904225
12.375327250107501,81.11928767527284,61.60361005489028,4.339076022501672,44.30821462832468,16.644834514591484,19.013390115518504,5.577285559649753
9.839409449223565,65.14882428478624,51.97805125105284,2.096036792490935,36.20862038497849,11.051349725745414,11.397611633222079,3.5148958091861497
3.988238591267954,29.234992293812635,28.740475958582795,-2.6976875204299477,18.592865020130976,-0.3783647602981695,-2.237288992840586,-0.9125178357055032
-3.682514086512371,-24.03444511982391,-6.455649359349878,-8.392886471000649,-7.38741177813406,-16.262807076565366,-19.77839611853427,-6.561542318776552
-11.136009122625202,-85.08634862289611,-47.25715520187298,-13.187397151147895,-37.29488562212637,-33.46197056621621,-37.7089018966172,-11.928644190501048
-16.58840360057818,-140.53084403396505,-84.66426291434087,-15.890281713309962,-64.76736466963884,-48.23473886901127,-52.34937803918325,-15.771208621210246
-19.169397107981002,-178.8476647489889,-110.82071717252407,-16.313704871204084,-84.17649753762984,-57.79024966167865,-61.28204747700643,-17.576746456462295
-19.133822076291388,-195.28896272860655,-122.35554994186579,-15.153495072602736,-93.04410975348019,-61.37618360390064,-64.20910011105767,-17.662597175121583
-17.559759602578204,-193.2699693173449,-121.40959473772685,-13.499306825715365,-92.84169270293363,-60.34392561922607,-62.81359559821878,-16.89120412902339
-15.755464527319907,-181.90268253023535,-114.0460852127558,-12.286011019043576,-87.8991114970924,-57.2852863311817,-59.800288865660846,-16.19131705119108
-14.716565831944003,-171.60650009933687,-107.30215590035823,-11.961498382268148,-83.29528871680526,-54.84633016409899,-57.73198508948961,-16.152232225359384
-14.855863219983014,-170.22256222865275,-106.52701771771652,-12.453912581137764,-82.92789561858353,-54.828708368468035,-58.22337558394375,-16.86476970710577
-16.004603596025287,-180.81145563467362,-113.84561735194154,-13.339617527367755,-88.39320550438845,-57.789370589746326,-61.63757305926117,-18.009770670560833
-17.562027381155144,-200.9484802445656,-127.65240579497875,-14.070282753635285,-98.61210727091468,-62.99747620845447,-67.10377217681418,-19.082385392190783
-18.71293829937846,-223.19942992073442,-142.92176080921485,-14.186169591469309,-110.03130836923772,-68.61497002319236,-72.7224224448144,-19.640995467633026
-18.713300792183272,-237.13743974192167,-152.5727651911873,-13.4961283268587,-117.56609195329625,-72.17663038396938,-76.05356272733327,-19.514004105603455
-17.217314725090468,-233.21117378259524,-150.10573654534755,-12.179353110698237,-116.46805048362057,-71.45616439570975,-74.98220359573291,-18.90319672784679
-14.50905202069177,-207.40345464179248,-132.79938618091455,-10.72886454112215,-104.63947753198093,-65.48955366258265,-68.71617400334362,-18.305656523972015
-11.464652796907599,-164.1796530574287,-103.75431561798123,-9.710337776582955,-84.1610051851469,-55.204423436097066,-58.34795466245979,-18.22524967440889
-9.200355230594923,-115.46519110376369,-71.20715233875606,-9.442280948920951,-60.86055390518797,-43.17605881596635,-46.513321266584995,-18.786176185069206
-8.571305218021065,-75.60231210580616,-45.055144493507335,-9.796656365416299,-41.839973203501145,-32.53118790092769,-36.21797726327935,-19.49473838969085
-9.80107422290076,-54.87612491485039,-32.37062009082074,-10.271964252121595,-32.23420437962133,-25.580228616954162,-29.475432661516482,-19.379675029884407
-12.445581892597932,-55.268356461957254,-34.44462053429787,-10.318661603329696,-33.06068556859919,-22.94897577468335,-26.558261309062683,-17.53398970255856
-15.68215181973497,-70.73947954422762,-46.96683119289049,-9.717324811531261,-41.34919006237765,-23.656175275260278,-26.274342270802215,-13.793835239246409
-18.71805749284772,-91.45818400801548,-62.95112917842127,-8.75668551721805,-52.27019237645139,-25.97229419369582,-27.002634026254512,-9.120272303727408
-21.072496218778628,-109.0390493176703,-76.38197299710332,-8.083695221704682,-61.760567245111325,-28.43547809832161,-27.744260211249102,-5.350153911506973
-22.61916235343405,-119.70304669424648,-84.455998043094,-8.31876707518811,-68.06679512731124,-30.417881919969453,-28.52076909065509,-4.342408385435165
-23.457856695581444,-124.24284040624471,-87.64605845288956,-9.680654068569751,-71.65349473393353,-32.06488172363289,-30.00175581570558,-6.959176761542687
-23.75823728125136,-125.92236504566657,-88.3430663438864,-11.838491380076057,-74.10082577625018,-33.87032463875177,-32.792765132667206,-12.493773481156294
-23.6569444499984,-128.1752528129221,-89.3036878588296,-14.046690089385104,-76.97595079126354,-36.256385635505644,-36.927907585970395,-18.926035572997268
-23.201836744258284,-133.13996836607546,-92.55151042483875,-15.460605820550432,-81.17863150246023,-39.33155882871554,-41.80569428199735,-23.8818178700639
-22.32928122700198,-141.07134538200137,-98.74451818507049,-15.472834576327513,-86.70245436691506,-42.81035597196384,-46.46232809662161,-25.749809591552346
-20.90539724740096,-150.48596110348427,-107.00185723949572,-13.938848509380264,-92.69121427889493,-46.07026734074093,-49.9747473956231,-24.351913363424856
-18.853785622843024,-159.09700716604306,-115.39717098137702,-11.216657731998646,-97.85915421442655,-48.36729209613008,-51.84446292377251,-20.867614753934564
-16.304407052286766,-165.29250121520442,-122.08142239124868,-8.006273628990526,-101.23698875406475,-49.152349657362514,-52.22615019657117,-17.134291075335007
-13.634406789112761,-169.2434112601017,-126.38687901315723,-5.052429934234444,-102.81411708680355,-48.2994082137005,-51.84588491545108,-14.73130307819571
-11.333774126751056,-172.71535825362298,-129.09119981625068,-2.8481680711642174,-103.54537661598015,-46.09742991786931,-51.582996721014595,-14.298613096734085
-9.775792835735256,-177.6875050225601,-131.68029633007404,-1.4871799351530648,-104.68000280019402,-43.08920636906318,-51.964502885772774,-15.37651018795954
-9.056800604858054,-184.96794419066325,-135.30347417508153,-0.7302990721586311,-106.98248426520934,-39.98403496563636,-52.95892617745364,-16.788551933247888
-9.008285772167541,-193.92126586939202,-140.24958513212934,-0.22761718340839396,-110.46151684909829,-37.7145798695723,-54.23437958467617,-17.341720979383098
-9.347624942368737,-203.29860292260503,-146.13293264341573,0.24092934224154006,-114.6747290759705,-37.42659387812857,-55.63572080753225,-16.481534566301704
-9.853562557132827,-212.2784578334798,-152.37969412400113,0.6356865943571665,-119.19198860879297,-40.16460353390523,-57.45310309698752,-14.57223468091339
-10.473173858377953,-221.01838282051958,-158.6427787783368,0.6987369304649144,-123.86873293735117,-46.33802237319238,-60.277042582166715,-12.665912309695646
-11.324323547495622,-230.6946970658217,-165.1077793111331,0.14591162712777964,-128.9344404810657,-55.360009425858685,-64.5961946701602,-11.889800524620338
-12.58968768842147,-243.14853068207077,-172.63438875349664,-1.0805160462851986,-134.97120694855906,-65.75942652032818,-70.42091082284898,-12.780339788824532
-14.325064295990735,-259.9027537975116,-182.36921098312322,-2.6353866918978004,-142.61596545774142,-75.65598063185793,-77.07417750302399,-14.922009988180871
-16.26818828891279,-280.45065838362257,-194.58444074761104,-3.805090627469648,-151.8115644916088,-83.22510577800765,-83.16030999508162,-17.09557354128893
-17.79622330056908,-300.6839660421863,-207.29686955845912,-3.799923761742667,-160.93032469278495,-86.93789903405774,-86.76496069088594,-17.877412653248278
