FZ,C3,CZ,C4,PZ,PO7,OZ,PO8
5.242046377026068,-33.779491399904074,-8.40675771394587,8.745818763794102,-3.3805311884171942,-4.9513832898695345,0.35196119080091803,5.6055333613211635
11.741099051595947,-98.83887931857207,-30.316646244219474,20.753974105522225,-17.346757097699086,-18.890733988148448,-12.511686039203788,3.1659630400936845
16.579551376368173,-148.26076642421867,-46.741158029068856,29.838843346197716,-28.18680307692954,-29.629245389030356,-22.773797377392825,1.0694524247013313
18.776006861021166,-173.34791012451473,-54.6464923645149,34.330552518621246,-34.14764396941369,-35.21600007866091,-28.717442766041785,-0.3920688382280376
18.358131199355295,-175.21108524980997,-54.409110281728566,34.35290908325938,-35.40186484140769,-35.57220362005206,-30.01289991294247,-1.0544243422766972
16.17960185193737,-162.4115559522767,-48.97139064139867,31.391569273574817,-33.58593251277731,-32.24992081680241,-27.66699721982506,-0.9782081059939298
13.367212889328721,-145.7007830921374,-42.12214974819564,27.293669631267605,-30.82078842857919,-27.58147155673007,-23.52117173592976,-0.4693708982869792
10.754775660138701,-133.3423083406707,-37.055313302551305,23.39356324465674,-28.86362693504709,-23.701036626230046,-19.541202354555306,0.036788762813982794
8.633176732342873,-129.02562475509143,-35.657510330858585,20.23214473630308,-28.681694632686284,-21.845108009654364,-17.150925056211122,0.184521122024742
6.890996014917158,-132.16869101030662,-38.2985410176956,17.82508524372352,-30.35842620835429,-22.13332799258347,-16.822123899037372,-0.13252819934591914
5.346683659355824,-139.41515305865562,-43.882807969224054,16.0869659304218,-33.19338315757607,-23.83763910372563,-18.06671148984093,-0.7593448519858748
3.996194230326762,-146.48480314555468,-50.2486228164197,15.064852062620487,-36.00277455626827,-25.968746281162012,-19.83281642381321,-1.4282939410430873
3.037161803550517,-149.99836342411578,-55.010196198308485,14.912453815091714,-37.625720042792025,-27.852084844899657,-21.0983863855592,-1.94726556854344
2.7179130286857647,-148.77085195887562,-56.54355230223289,15.732726630877583,-37.4428973282894,-29.353803874572932,-21.334338925053874,-2.2843110250359935
3.1472873856420494,-143.93727160024454,-54.56998121896261,17.42095529052462,-35.60471085693932,-30.650771132712908,-20.61092339429513,-2.5059024472485714
4.1838103359428205,-137.85765466886778,-50.0633101850101,19.579481690069528,-32.84770611672164,-31.790062680755977,-19.38317244154967,-2.6523527515335803
5.471532495444761,-132.6522031186193,-44.69631550025182,21.56455074963916,-30.07959334879977,-32.450074340032515,-18.185730022005103,-2.67244253916777
6.629073459815946,-129.3878421142421,-40.205116825245824,22.709465824629895,-28.013360683750836,-32.12202290271809,-17.435965529465992,-2.468169810816416
7.5069537037378415,-128.1379685798661,-37.83540007429441,22.654789212847184,-26.97241557764865,-30.541716075649767,-17.36398426214182,-1.9990630101282316
8.338081914333431,-128.33995262856277,-37.881793879376275,21.575081789169325,-26.824465846969776,-27.980034979594826,-17.973251249135824,-1.3538767168025754
9.620991783392851,-128.9848580185784,-39.487125015591324,20.10268050359013,-27.02721135134951,-25.14468229620833,-18.99431470058998,-0.7360704724866038
11.747570400247726,-128.83822801309495,-41.00246222613629,18.960261198506714,-26.86041592723186,-22.794223743726963,-19.918019551419953,-0.38096700843095604
14.605734369103097,-127.04442592562704,-40.91321051431249,18.54211107702656,-25.84134354326838,-21.381782347819566,-20.200739845562783,-0.4679906280702204
17.45126989381863,-123.8466852635388,-38.79440111641506,18.710404440770553,-24.099906997547627,-20.96455249724689,-19.587110955479872,-1.083098196868433
19.169493797608865,-120.67211485243287,-35.601778354734144,18.892477031149816,-22.412515690449833,-21.369553590217066,-18.34759875847656,-2.235325821429488
18.77892581459237,-119.28700393452301,-33.09746886472081,18.374965952305047,-21.818208492822258,-22.43390983160555,-17.23915287886652,-3.8776356155696257
15.892205660332433,-120.66236938197102,-32.86315614328292,16.642710734929835,-23.060607147698853,-24.135421911872296,-17.162308300673125,-5.876030139383106
10.921678002713456,-124.46187056415201,-35.52455600178279,13.655937005686667,-26.191240339995495,-26.527516457611025,-18.67046386504267,-7.933717155461667
4.977802169915551,-129.3696855403704,-40.47007981700088,9.972300031119984,-30.493126036151416,-29.512707113829848,-21.57778535331576,-9.564452808235606
-0.4832361760899985,-133.72182374022435,-46.015983404169596,6.605941833305468,-34.68927844957697,-32.60931263491475,-24.89368598777973,-10.225257184130228
-4.155440630284962,-135.95960214216674,-49.959520464231595,4.600151372154903,-37.362287889346184,-34.93536328058737,-27.189049537384804,-9.604928646431441
-5.354510721502891,-134.99197211747722,-50.495981110522706,4.498920257505359,-37.51456339340063,-35.54053586983514,-27.277187939768368,-7.891633762756648
-4.247643105767848,-130.69102925465538,-47.213183642555514,6.050376922312874,-35.08222470733954,-33.94828836018241,-24.86122586804473,-5.781960208771949
-1.6941008398456079,-124.24503811347985,-41.53101209876928,8.362748940883499,-31.079433363842725,-30.53087137796713,-20.746218615252378,-4.149559475734854
1.2375741925034613,-117.78044260325156,-36.085005825065515,10.416180896597657,-27.15889822400523,-26.39103705091214,-16.448466984451,-3.558239506314368
3.8007375024482677,-113.20039864023435,-33.278417634660286,11.593571068024803,-24.76452075300348,-22.778981459980738,-13.419591390429487,-3.9409232761602757
5.854375095811975,-111.05476717281303,-33.924653825982304,11.931534594220997,-24.393331085853504,-20.430350612417605,-12.34037229658071,-4.641745095482465
7.788350767885088,-110.36301700693045,-36.866318166664676,12.022804069631698,-25.423751287346374,-19.25118261775169,-12.85206136908156,-4.756149796429516
10.200620048957946,-109.44306841563794,-39.71636472724208,12.68839501336498,-26.54896278250256,-18.4904357912263,-13.793636377474712,-3.5424096084878784
13.525161353036223,-106.94914557797733,-40.14271706687921,14.574062978194652,-26.477524456769103,-17.21848537003447,-13.76448917970456,-0.7187047311450426
17.759626426073105,-102.41396447289821,-36.98363338265568,17.798811625306712,-24.52525341232641,-14.82505664745094,-11.765479967792952,3.409358052848242
22.369680090840713,-96.3109175858644,-30.789689585193457,21.790105298614026,-20.913995269376194,-11.342078816239043,-7.704189235714949,7.981925732499197
26.41406932741296,-89.97029583039765,-23.654472902254412,25.430776769416976,-16.72652493320877,-7.5035038721481415,-2.5702919590942424,11.788827498087137
28.88444156364964,-85.30974181865233,-18.31820158051562,27.512227245656778,-13.489177480673796,-4.500631647058482,1.8671616003172213,13.64849094797731
29.138382659942394,-84.0647839167626,-16.799543707597948,27.27906514944117,-12.459651339044193,-3.46892093318517,3.8059156793614335,12.87109773252713
27.201541074934546,-86.67634336588303,-19.256508410853687,24.75452377550735,-13.946762817751171,-4.908031004503821,2.2816615823081605,9.603015847353339
23.75523580163423,-91.6834662986662,-23.89020235572757,20.673491370083276,-17.118045231222144,-8.365583058244274,-2.3140090765778583,4.8466396734455195
19.814793975156878,-96.35050615823982,-28.088480984733735,16.108037731398568,-20.495499428416867,-12.623556234215718,-8.392084389907865,0.09713818718468605
16.28938883529154,-98.2463836627975,-30.063039889991302,12.026825483859687,-22.841422837958877,-16.318340816924078,-13.92661427176478,-3.2526814881572896
13.652141680944233,-96.66669524402876,-29.857312342424123,8.99702230579894,-23.85097491036998,-18.6353495005714,-17.39233990423251,-4.45552346384683
11.849524095947986,-93.02341951072208,-29.15753478727394,7.114748095233027,-24.252535353576427,-19.67863483050796,-18.388887319393373,-3.643428416156056
10.45552559842728,-90.20298691836976,-30.225966597927222,6.152342463343826,-25.344992260302433,-20.325695350075634,-17.671995108369355,-1.658366247523297
8.992826008149361,-91.34691147075705,-34.65945085306205,5.836100614794574,-28.266572011245398,-21.651666326170627,-16.61910109707494,0.4087786878743828
7.27606583865899,-98.2980684014394,-42.44296606946943,6.080963564345037,-33.28304244494448,-24.196763116919414,-16.40353845094197,1.7186474255682513
5.579178149404964,-109.89235811648804,-51.48979394714247,6.9784035125600035,-39.32382568250857,-27.433955977531962,-17.281521313433576,1.9693053544867984
4.474554702836376,-120.89040664355201,-57.907015145653595,8.48057295475161,-44.02630064217225,-29.76190376809973,-18.375198896804427,1.3551237540421497
4.393186031754116,-122.88016905787349,-57.260233347679126,10.00860180098217,-44.49799540074213,-29.143775433250546,-18.12004158689369,0.2864253796782856
5.19510786237753,-107.7409704529983,-46.64580700892763,10.380460012155442,-38.65795059838508,-24.153892543828622,-15.179158555963106,-0.9148247549583921
6.092572587953947,-72.3048176926552,-26.59114734824996,8.278291217240094,-26.518591542624787,-14.881504155985564,-9.311370164648343,-2.1533980187721746
6.039543390562201,-21.32463232291241,-1.49011464406973,3.0439258471622423,-10.580431569093372,-3.133260644296532,-1.6571274832214,-3.4873383568758185
4.354897125390886,33.60968226338358,22.028210564119362,-4.733335440430769,5.069515174974328,8.256005652616134,5.757988120131293,-4.946537806909021
1.1626760650397148,79.06943102899741,38.07794977163694,-13.29422700919615,16.560498695298385,16.66455760983473,11.014804581383515,-6.402869027284056
-2.6467846533406645,105.91123758299244,44.15557071787609,-20.47242825127404,21.93616517434196,20.79565222847387,13.194785334384488,-7.589948023979096
-5.90468654199354,112.933409025819,41.90107265800521,-24.69826293419053,21.785687476967013,21.06022958777289,12.67167447819937,-8.248537131833588
-7.777206256556237,106.13190700915612,35.65266873841629,-25.645553348365723,18.53252869802381,19.089475972575364,10.705374249538565,-8.281710237435336
-8.122520950726045,94.53236181783052,29.88745300314142,-24.180445097986375,14.953614869118306,16.76281319256361,8.679256784653413,-7.805975508103611
-7.415667230346718,85.56023639881673,27.214845165125524,-21.736697417324606,12.895578655026277,15.36476065635289,7.477609658167163,-7.072384394630475
-6.371390386942057,82.57535182635169,27.91567295378759,-19.571142539247415,12.834328702663406,15.276229865029919,7.296690285048734,-6.329181786024594
-5.56099234385836,85.13283952846507,30.764307283539118,-18.324151963340928,14.226345518693078,16.177260142533317,7.833923232040876,-5.7241336016566144
-5.236906576027542,90.71174111599356,34.154974630261506,-18.005897931508073,16.143811540855864,17.455821970905756,8.603361979115132,-5.2894471805081595
-5.368186053635219,96.42949061460594,36.82550487136425,-18.242889384022057,17.762368721037053,18.54863239009103,9.181323817776505,-4.980806866285798
-5.762126855154084,100.167208566855,38.143528150136916,-18.55998306185594,18.610070829934546,19.131335816203116,9.339914365356746,-4.722069325460266
-6.178473810356962,101.19069089662118,38.184962546575186,-18.587702800410703,18.65876536440823,19.184890568397872,9.091917630740053,-4.437285810471214
-6.425337779525672,100.24402755382386,37.62123979611065,-18.182229895075324,18.267787962577234,18.94591744303158,8.642856660533267,-4.0777267202787355
-6.437246236735537,98.92714922170029,37.30849957081846,-17.445666442915414,17.942829075841885,18.740126783306113,8.249077212518424,-3.642477337034889
-6.293757863374679,98.59274408747152,37.74178603876332,-16.62599754642189,18.012284820715383,18.778304386972692,8.056992046590507,-3.1741142795522204
-6.146268540179243,99.56086584378575,38.80644953739124,-15.942762725280819,18.461716052536026,19.0585031973175,8.042205588380574,-2.723925305418492
-6.102036811091255,101.26111359334651,40.04357070427475,-15.461669162448777,19.05524135216643,19.440355594878792,8.086362727092611,-2.314036352861007
-6.165959250493856,103.006138394295,41.12123508805414,-15.108717610526513,19.59122558588949,19.79607757544809,8.097865721929747,-1.9311533005604977
-6.281654044388123,104.52359642610232,42.017422808306314,-14.781461627832723,20.024609260247388,20.084931732096734,8.056103858937744,-1.5528361261790589
-6.407044616425282,105.82134094737691,42.81678661222943,-14.430907817625657,20.382667071456723,20.31202531071238,7.967392745739794,-1.1722296691012564
-6.536280316438557,106.82534234846126,43.48967162798809,-14.049636106052063,20.651934907117816,20.470267876967085,7.823323773532917,-0.7947408724786447
-6.663512308910318,107.39848031794158,43.965040975807966,-13.624200726440845,20.804669329160657,20.554877065087883,7.622580868801044,-0.4189179530888266
-6.760057211015572,107.6792859741369,44.346951879056085,-13.136223957285896,20.9023050886059,20.613376225592415,7.409765872137028,-0.03221072308862278
-6.806363103939607,108.15390192497523,44.908127337984695,-12.605891918536845,21.091539419256552,20.73372889399524,7.254100529145426,0.3721663147394146
-6.832753461057554,109.22863209114765,45.8135118479244,-12.099451889793732,21.461782297165815,20.961621963728085,7.178291294114393,0.7825663329042437
-6.903272965773026,110.79448995851739,46.9234158177725,-11.670695934740154,21.93978775453768,21.246864512668786,7.1272797495842415,1.1802847551316737
-7.052984027068762,112.34132669867526,47.93997160843853,-11.304513191728429,22.363426855961535,21.49159540959533,7.022720998230159,1.5606718472206582
-7.254482387777786,113.4782306757649,48.70839815538458,-10.936879101882486,22.644285001660585,21.64348890719772,6.839009505438157,1.9352630031963929
-7.452647853691784,114.21055019377069,49.29333628330251,-10.527131079344452,22.818306551588762,21.723070548261425,6.611240866567209,2.312413717901662
-7.618280540319762,114.70506060581897,49.78281024593414,-10.090082476743383,22.946625717377103,21.76919232458871,6.379140726866307,2.684546696657502
-7.753299758722983,114.99863120974673,50.15705308654102,-9.652871527468418,23.035298014257137,21.79674725736243,6.153231309309494,3.041706708831886
-7.855680307553351,115.14454148130673,50.446938205590484,-9.205952112932902,23.100814048814875,21.830705380441895,5.946318300547936,3.393805104897804
-7.912555406543358,115.57592504394806,50.94398297939159,-8.723827737429255,23.274061564421807,21.952790908207863,5.807455368597818,3.7688257313932834
-7.94620830730793,117.01203458320863,52.06789334014695,-8.228564910482575,23.742817668897587,22.256546442767938,5.78093273866178,4.183681788526302
-8.047955230710205,119.74421370168554,53.90984158757858,-7.799651892330764,24.53241649944006,22.72381873979138,5.819210207956565,4.620466759375907
-8.32778099363407,123.00525052560849,55.93432545583726,-7.497413565113846,25.364230029209722,23.16187700260678,5.7640100172719,5.03605327373449
-8.805035214803182,125.20763990772613,57.22471481359342,-7.282724262204571,25.78919566085897,23.302567200211037,5.450800900161771,5.394219218785995
-9.347690700481603,124.98155062041435,57.10379109958598,-7.029174969852376,25.5084343936696,22.999132888445317,4.853810296640411,5.687712306046412
-9.729933685796514,122.18177414623483,55.62531600002676,-6.617197731215942,24.612509760159174,22.360345502530894,4.140693891541717,5.938009820806549
-9.76708621925466,118.1953752520021,53.654079655714945,-6.013567779705667,23.586451457342076,21.733987096103515,3.5980847661543,6.189219184314116
-9.433462569120953,115.5547497639006,52.62514520805817,-5.2794847561175215,23.140168677396474,21.575265658700854,3.4952371774332303,6.506715422976344
-8.912118177808493,117.09445401435666,54.08702693385935,-4.544760573877589,23.953428296876424,22.258874006323214,3.953039972654428,6.961636011477816
-8.57552043589718,124.61391257872945,58.93000511053889,-3.9941332697098284,26.31700431966413,23.84658148249674,4.828613813664761,7.580439078938288
-8.880148570267123,137.10269446492686,66.35172920176477,-3.8300781266066215,29.69555861568408,25.856650863214764,5.6407453420615505,8.281622019281482
-10.137502969104938,149.4499289790345,73.19479869826525,-4.147699195184908,32.49670495290767,27.212610001880456,5.645282274604712,8.860252790107715
-12.204996150752066,153.21010863750433,74.58060566338139,-4.764544063834923,32.460789103002966,26.57977214930849,4.161719828216073,9.058312013828933
-14.292023361391633,140.13530937583616,66.08821597951795,-5.174795902658368,27.750839944960347,23.06506923345957,1.0579002493690421,8.686057175424175
-15.120134002536984,107.00618633219032,46.43565798717627,-4.759443448110388,18.193188694727887,16.893973648212814,-2.932115701574037,7.708705608302055
-13.488474528514102,58.67306419508992,18.884159252659902,-3.1730937019907315,5.788000270970788,9.539071162303589,-6.385663890812743,6.235253233782596
-8.983724588567139,6.859028815821443,-9.800173753441968,-0.6439834910760289,-6.027114929418197,3.0643526165705186,-7.88629536780905,4.42051210604955
-2.3979673967232307,-35.05170326104275,-32.415686618039466,2.046272361496566,-14.0428572319176,-1.0045380204147003,-6.85854596069093,2.3549386023170538
4.453943691317122,-58.295005891540356,-44.65712377247467,3.9148295439016434,-16.889560809340136,-2.5843984086572727,-4.001023513390395,0.027241848474831958
9.46886733768577,-62.37625752326898,-46.77537519901057,4.246887497544186,-15.611351863634347,-3.095815469576028,-0.9965699448173585,-2.601468128891256
11.155147043138166,-54.12714380708561,-42.74182996913477,2.9035423417887447,-12.887630356378247,-4.594400971579906,0.3585576641382447,-5.452558690858843
9.222854331447328,-43.184737105436355,-37.68502837865975,0.3191158631900779,-11.448950363725665,-8.4999589008548,-0.914195204954218,-8.219270534951198
4.601983310472583,-36.97622592389197,-35.303463587362714,-2.7438179040451547,-12.68333844559646,-14.706078665840087,-4.524161519228191,-10.390959249355515
-1.0260696071375244,-38.04331935929679,-36.626263525979496,-5.4773256875288,-16.16987731313551,-21.569636348966398,-9.135422430533184,-11.42525408246377
-5.870044340845295,-44.46394125160909,-40.33454405693932,-7.19475501698521,-20.181797175147583,-26.707933472552668,-13.038023586498063,-10.975880335691341
-8.553557299910318,-52.125211443570414,-43.93388395009133,-7.395838148800298,-22.662570070661335,-28.108675224589447,-14.853130092816023,-9.04855012550832
-8.413999653771597,-57.11929906335844,-44.994581961107194,-5.844211897443225,-22.134252603545065,-25.013191017745445,-13.977907120880433,-6.013375312611539
-5.602813819674227,-57.31522005642083,-42.102887762982164,-2.6972373938902368,-18.262327987039118,-18.250149709149227,-10.69718014421638,-2.488973591263373
-1.0188411776137034,-52.95210377969629,-35.41345981936489,1.4137960596481685,-11.997912814215345,-9.942473655544632,-6.009315579286054,0.8355113288042276
3.931274649606066,-46.28009874740393,-26.634618562568942,5.479520616961326,-5.254604565759447,-2.69707684530313,-1.234797546699548,3.370837945990272
7.719191448866899,-40.32160268880078,-18.335174314603975,8.385047168227086,-0.16013448108176198,1.4367221545192328,2.4845907078228913,4.744204289380985
9.116766424236047,-37.25934419938943,-12.846673726593949,9.233783605805362,1.8408154244847237,1.8036071073929971,4.608118843845937,4.849831396023718
7.512306650640293,-37.414366322139166,-11.37558165042213,7.598471564095691,0.5737171505682764,-0.6462243332383503,5.338289543968721,3.850320082921216
3.0400050920455963,-39.505232909386045,-13.789526449918624,3.6549568014258496,-2.9174234169924222,-3.91177711710286,5.406772410850894,2.1435503625880825
-3.4799059565160833,-41.89963412379096,-19.014071137861162,-1.8154628067473952,-6.9962239003172435,-5.99200273484581,5.619451953787323,0.27623950812192416
-10.764150879323722,-43.81335682262104,-25.61789531927604,-7.5992276903813485,-10.244622457474538,-5.893953600604753,6.3918759707079085,-1.2313174445655117
-17.41955874302669,-45.611606622949765,-32.25933466246773,-12.420355243805334,-12.04447225742494,-4.10578786968355,7.489323433943951,-2.1307190847103117
-22.344330243487644,-48.186130767420956,-37.93463730093988,-15.398504867596387,-12.711075889826672,-2.331102918660967,8.091347914137684,-2.638102269897645
-25.024953281089715,-51.93345723464533,-42.032321473122764,-16.36603686101289,-13.157933852064382,-2.6143048613638222,7.190771700440485,-3.4006669750405982
-25.587431836588493,-55.85777891028911,-44.1354852870548,-15.858808715769364,-14.223956352751944,-6.235007741637101,4.202176447765722,-5.161909688786269
-24.600992309374913,-57.2511672550092,-43.68004140119495,-14.798048270898871,-15.988518833003825,-12.885859182477803,-0.5133404694469998,-8.266365597703007
-22.795794252246896,-52.542016935067664,-39.9478825476647,-14.061013653274955,-17.57207968019471,-20.619799087531483,-5.588661850022724,-12.313053426156252
-20.879191571144318,-39.695051401693746,-32.88941083156662,-14.14237077725341,-17.784290064204104,-26.747546830938635,-9.262477047917914,-16.220030094848873
-19.485733298785195,-21.40018936068849,-24.53881388946089,-14.97942372259202,-16.39434306190485,-29.309543366178296,-10.419784068408932,-18.700216447980623
-19.133613580493577,-6.8067362291643185,-19.803873053722562,-15.924541051173978,-15.122120364579793,-28.26991978384916,-9.404075108616695,-18.867577490235565
-20.06761443437033,-9.381931712620307,-25.26239641516709,-15.879675976963428,-17.346651900319372,-25.620040931660228,-7.96624853607216,-16.617524077316727
-22.04347913057331,-40.54892971273556,-45.8064528531632,-13.657539751251402,-26.295578685818743,-24.229760881973416,-8.256664251812053,-12.602547711543234
-24.26196103844798,-101.98750058260583,-80.79392888154882,-8.555079042311915,-42.641497224513635,-26.11813741326237,-11.45091276062636,-7.892660471870674
-25.62011446379227,-181.3720355199562,-122.31336039755668,-0.9250600123209703,-63.08894471615538,-31.21878914329585,-16.900165332592852,-3.5643602106033887
-25.22736108207891,-255.09687147298806,-157.30242985744724,7.6118122759205065,-81.11676208366909,-37.39675342622253,-22.378463173414833,-0.42238865574554574
-22.908788964529577,-297.6442527320315,-172.9832323400773,14.582297715986028,-89.754500518538,-41.66502533829683,-25.286097195882764,1.0955169125945072
-19.368543083792993,-293.0941135346158,-162.86440346706036,17.641668813747298,-84.95227796430528,-41.80197871598361,-24.05402343172621,0.9065969876786173
-15.867740121392538,-242.60160955047704,-129.94496119009048,15.676789039273105,-67.63669097344889,-37.37543909435562,-18.89217347343963,-0.7491297680104176
-13.574666841790117,-163.71555227362416,-85.25524617626643,9.4239558466527,-43.271874873322474,-29.643640185717352,-11.489534816910277,-3.3492774563625756
-12.962813985356792,-81.99500578207092,-42.56953202806437,1.2071875928719733,-19.21015610924563,-20.57877988015114,-3.967008783766438,-6.187947125403816
-13.609529572288528,-19.626024062641584,-12.280060862783191,-6.1075345911617855,-1.3724460502823084,-11.788487658761099,2.180302515348298,-8.563868107347357
-14.500902154490785,12.95396967311922,2.30592033856134,-10.392334101684858,7.936887230327417,-4.045585551192658,6.512390736344879,-10.009411950661242
-14.64390605943601,18.655562751184018,4.6516920466398926,-11.099149645454645,10.102159485585892,2.416356890265357,9.319201879064003,-10.451084765739273
-13.617397182287116,8.940394659532876,1.502768554383283,-9.26648505601226,8.495093271306827,7.276734099514848,10.945778696846878,-10.209043771020411
-11.757270735550653,-3.617257025191231,-1.292885657029643,-6.781154278310878,6.2818234813484155,9.801228354233363,11.344318166445724,-9.83207156043593
-9.915676688103584,-11.02180715318226,-1.2745446908370615,-5.373904624226904,5.032584168574892,9.132365175089454,10.156506637734337,-9.858600166006251
-8.988059835474921,-11.494248992248366,0.684901446004377,-5.891123392090099,4.6421854335607895,4.970775111483762,7.165909077644442,-10.621933441458985
-9.496020425601824,-7.665293367595215,2.1452681237203928,-8.126815746698812,4.160519773584745,-1.916620304327173,2.6880133344829877,-12.167884187270376
-11.41430987001043,-3.545558229425721,1.0689131997901604,-11.142146939310086,2.746963110163639,-9.798484067558512,-2.4229603447647197,-14.280224221852004
-14.25010712082341,-2.150100555548566,-3.0464186992867113,-13.790476876751432,0.20739935956101774,-16.658716747215347,-7.120155006533772,-16.56961892921139
-17.262297864945012,-4.389242200963464,-9.053248944300218,-15.17712480324566,-2.954852122734235,-21.001461678757117,-10.567870846024698,-18.58252472567101
-19.696160063076686,-9.001409191277617,-14.737292834380957,-14.910481130629037,-5.7758934489925,-22.285344132315917,-12.331844192260252,-19.902005670402396
-20.960964873563675,-13.229212872907754,-17.726868474366835,-13.120672465589761,-7.1754485551534195,-20.814989569197557,-12.315867090746085,-20.222830313673853
-20.737236154873273,-14.043065218437455,-16.42927050778856,-10.302071025721,-6.326347268849457,-17.307273386592023,-10.603115952332475,-19.38954419897929
-19.039129311228056,-9.559481947193907,-10.70600715196273,-7.091918659086313,-2.986163818544146,-12.50667369250541,-7.379299654261586,-17.39917774118989
-16.259816289406682,-0.11161048319548833,-2.0643233636810185,-4.106012320744662,2.298462362873735,-7.09216730631273,-2.997460819541714,-14.38956657815162
-13.182439193916649,11.444426728151221,6.6686232956646965,-1.8766795319677063,8.192436250432397,-1.8484717960599668,1.8876876444151605,-10.639008511338618
-10.875910765612659,20.307654054644207,12.079092123773208,-0.824252417167423,12.823566699593732,2.149415064604546,6.265668113727942,-6.575941645541577
-10.396486940130675,21.212063951602325,11.233395656636743,-1.1667125001548992,14.323678732742309,3.643400014835557,8.946856653537369,-2.760635821240177
-12.340089988607257,10.799133991006372,3.024418989165384,-2.7897296749202503,11.64553842566477,1.7227916481383143,9.014092164351451,0.19791927465495704
-16.468967832461455,-9.606001385142592,-10.547155899131173,-5.239565341245872,5.429347179943171,-3.4353083237468396,6.384926230947268,1.776029270222001
-21.697793692999,-32.261625390591156,-23.984020767701654,-7.974016866635894,-1.5963692534443967,-10.127590516381028,2.130101968700798,1.6558519122998543
-26.555270817941167,-44.23263344491783,-29.681166889049774,-10.781371730235088,-5.236602591567423,-15.475872166375295,-1.7856812969687565,-0.22499107953796
-29.92166780503644,-32.37239658262289,-21.146953885141293,-14.054208170650455,-1.5733684404644022,-16.62024763638288,-3.366616919647666,-3.693219847357364
-31.61587089805391,9.616385590288749,3.256168725851517,-18.62303699443269,10.853853234072023,-12.205231429744202,-1.6508270750064802,-8.379518031053523
-32.456358188646846,75.84912910626866,38.22233957967841,-25.146267367472344,29.657941301909275,-3.283925037742857,2.6536232792407923,-13.737792558778619
-33.73300853773605,148.36190632158787,72.72977185063391,-33.40431967336792,49.027980171176615,6.995179241787965,7.415003217332568,-19.052933539893928
-36.397047557497594,203.64820983577422,94.48271471468003,-41.98594709163481,62.0422552838493,14.852187947245895,10.1485563249629,-23.485105860233013
-40.462692619916496,222.83847974400473,95.48408373861666,-48.6657954065802,63.80147989228801,17.702687540713576,9.327423738440748,-26.19818780907342
-44.990408749090314,200.2771392098089,75.76257838085664,-51.35813874487799,53.718197177956895,15.304510250887404,5.164092372245412,-26.576404874103623
-48.6565330637709,145.856278438667,43.17201878257326,-49.14859412825694,35.697425679619876,9.589982392247023,-0.5989077047685204,-24.461582756893442
-50.53912419441248,79.93180267385507,9.413699060009556,-42.80961850548306,16.145221449330165,3.3722215069903125,-5.728513726294227,-20.28694608963375
-50.616217681689406,23.837398435328364,-15.398719183490478,-34.482644038376556,0.9881977936316418,-1.2015857584498928,-8.694976395735097,-14.998470650703618
-49.672365987338914,-8.749247448790697,-26.62393009224518,-26.69732711127525,-6.634781118538546,-3.4980383293167345,-9.29259987405463,-9.756667139947389
-48.70629759458075,-15.371258292182564,-25.61470746592728,-21.2844973029321,-6.919377097614491,-4.153085186712319,-8.39363180109696,-5.542446714283161
-48.25754375653097,-2.5112386675950535,-17.266251099577428,-18.771594429887195,-2.2750096572396825,-4.117090271159975,-7.135793150178013,-2.855310483535893
-48.10111974119585,19.845645228332415,-6.680366981150452,-18.5052340018401,4.403879395237575,-3.807692512832363,-6.175610290846002,-1.634078432294933
-47.47547734504525,42.87636505520185,2.8658531168864267,-19.264921215807473,10.89947557175045,-2.995955743306851,-5.494228894828866,-1.388917098978717
-45.621061929747086,60.48983440044776,9.870819000926566,-19.869841477614028,15.807516414084636,-1.406185010165893,-4.765770898450877,-1.424904089876832
-42.211913607268365,68.4214623336403,13.413125325926861,-19.42918246290759,18.094731927558154,0.5768904001009882,-3.8792843772709342,-1.049302572578145
-37.39961292054233,63.29428561457725,12.393514661974514,-17.285921778528134,16.870817773625358,1.7744443688460787,-3.1579296154125434,0.25318218323958414
-31.51843708285822,43.44669045829842,6.023615270306566,-12.973200433708595,11.760100586349381,0.8570592359134237,-3.1288565370462065,2.649188934913143
-24.742450364582268,11.090216710904778,-4.962554612758273,-6.404005249259291,3.5533840686120537,-2.663591122465312,-4.067815865986595,5.826397949907921
-16.97190861351694,-26.3435959394491,-17.601605582482463,1.819726755692765,-5.535059621306608,-7.818525345694361,-5.68439638205281,9.023229318329825
-8.018622275275135,-57.5707331828948,-27.341578207398104,10.31525993567851,-12.435407019440152,-12.42584199638657,-7.175871315503736,11.301199693962582
2.058530629852239,-71.58420049245188,-29.876194213366027,17.275120616755895,-14.460170940459452,-14.118652531845653,-7.619397601844807,11.975888161332787
12.710222842573437,-62.57493973828289,-23.18976986155329,21.16402510618337,-10.576744471517776,-11.585729674965181,-6.475140688828107,10.966563079644262
22.932086468680346,-32.86504634458371,-8.644739698244575,21.37133164918919,-1.9906053198644384,-5.315545328736844,-3.9177899174423874,8.834898829759176
31.60619285108659,8.006180405949237,9.565013006922625,18.435242955291706,8.35033831517137,2.5956065354118936,-0.7976121210177619,6.477438017906145
37.98713953632264,47.75571753648925,26.373509880747612,13.719117729560702,17.135294045554733,9.487799263914003,1.781165498962117,4.67048560811486
42.053890573079975,76.97489288591416,38.14813952829731,8.743465322276155,22.230960164177862,13.457129065694547,3.0564708712832,3.7558024500747473
44.500479362582624,92.71030611483081,44.00734096957007,4.557709418251508,23.515819165662407,14.203005961728756,3.0376858316405984,3.6366099161095176
46.36491242628657,98.04890256447993,45.423172783393035,1.4959047073917666,22.541560287685616,12.944495066356566,2.500242250498938,4.031110981721906
48.54672278272683,98.3413142924247,44.57251292067448,-0.5700070450131304,21.307986184907552,11.539856927544292,2.550630829143187,4.774663423406467
51.52820153734003,96.94417624887261,42.80294629164519,-1.683478491306423,21.029742466923558,11.435175739254607,4.05281759033668,5.964940522658963
55.42324835392213,93.53924630771937,40.38668121676444,-1.3889257062111968,21.725033794734554,13.098932400740807,7.276432318269493,7.875446516961109
60.199371598110595,85.94504697677196,37.54170767443379,1.1862053681387101,22.77587295074046,16.168719164393288,11.926856630149663,10.718011434518418
65.80709396357491,73.55618928531868,35.55161787142485,6.74452709314913,23.85193611032927,20.012060527507714,17.42889280632357,14.418962413464499
72.09616075590561,59.38368333366385,36.751503240368606,15.12480343496576,25.378403858983255,24.19303896174676,23.199662273212915,18.55096317938181
78.643147612236,48.96919836873501,43.192229153324966,25.031167770606476,28.19144335220294,28.54345416104721,28.74345607591724,22.46292388172134
84.7237714404517,47.00199971423435,54.99166968574297,34.45006247665625,32.72578638746813,32.92300587281188,33.60689019239414,25.53867345806918
89.54152259019699,54.22228650330934,69.72276334814309,41.54256815098682,38.44232553420353,36.988072818291954,37.355160924324124,27.448668786001054
92.58803536975495,66.90351586854443,83.43789716826632,45.46015685984547,43.980245714717164,40.21942873947148,39.67450555745791,28.26320125706232
93.87101723333973,79.2113917203847,92.6986307818489,46.58034932172687,47.92204294792049,42.18757579399524,40.5388664940573,28.366305516733753
93.83272995838833,86.62260665017145,96.23144687761042,46.06475148749601,49.581384776873946,42.81178249761124,40.270607774766475,28.219923844714714
93.03361829792203,88.01562098448589,95.17004279341819,45.10334400247209,49.25607239538002,42.39219532386629,39.398898228522256,28.12230157553759
91.87294269669084,85.37954425234632,91.98173974960437,44.37407010068984,47.879123052182976,41.426250411152935,38.41253608513856,28.113724831862015
90.57247865889023,81.98023260353072,89.08608764674791,44.00766633730298,46.467445877548954,40.41050460055595,37.608559458856824,28.0818955285618
89.39206676676325,80.54393219677375,88.0698618683805,43.93521408150828,45.776499865224785,39.775254340347054,37.12860609648284,27.973838784142767
88.8150121147236,82.26339394469416,89.56673037271865,44.25460473895297,46.20591502098864,39.885512320046246,37.07079822707849,27.94397233449231
89.44918498203698,86.47000777583703,93.3051042340116,45.3196338579516,47.74386151079093,40.942011634444455,37.500085368636455,28.316055384436208
91.61843838421908,90.77136993610274,98.06621145127473,47.490791008975364,49.86338563863471,42.75886620976799,38.322580850087,29.363078555321568
94.86682279806875,91.93462448873909,101.82846695100285,50.68783856571871,51.54851175656961,44.60599865573383,39.16342401045491,31.020776198592483
97.69449655809665,87.63530104318342,102.40189045737611,53.98981022029043,51.624887997398424,45.32642536061909,39.39672715993092,32.695460067393654
97.76972110749797,78.22116860260817,98.33162530318974,55.56879050512162,49.27316175640933,43.74064219977538,38.33600684105588,33.30749596651208
92.67401196605165,67.05812406918261,89.47794013802263,53.1796971280199,44.38566742951279,39.14267987403371,35.48109603856138,31.633895098023626
80.97846298246989,58.84766797102908,76.94775754517232,45.16557150016926,37.5600235688746,31.655777239236603,30.730506360558294,26.871944756872754
63.187346923569436,56.970606605688616,62.62643689931319,31.537364409067216,29.843761383277563,22.32025782299171,24.5266331737699,19.179381800537215
41.99318163432664,61.82090361449016,48.77866735297625,14.44896554784512,22.49201666924077,12.897076753105477,17.897006451952027,9.87001694645787
21.53568694627332,71.330894009279,37.8739040348417,-2.393210600740385,16.850472179717265,5.429817588442309,12.30707806571121,1.0646132939305635
5.882307726906465,83.0704519930854,32.338757342338525,-15.223295556954024,14.220385041802448,1.6463595597328322,9.25028235753843,-5.114374381983831
-2.578887440502225,95.9281991041384,33.818163356800234,-21.842745041005617,15.469472260505606,2.3293816402527003,9.61933826162929,-7.437073040982781
-4.04732273338051,109.64657753933281,41.92297308155863,-22.469329066558505,20.353570339725135,6.848680209315789,13.086985427386935,-6.099464064081933
-1.0712585489902857,122.38147720689257,53.14972849219622,-19.334631600520783,26.914134737523025,13.103841985816047,17.864636570094792,-2.611955035896059
2.7146680830763166,128.5648781407693,61.09249636545465,-15.299112732072855,31.579209320878235,18.077109086282054,21.15236465829551,0.9160478984065936
4.24602001764688,119.71192653584916,58.60323496012597,-12.329980454359116,30.35068913643247,18.941742463534126,20.25893450527843,2.7402691752182005
2.2636358537905643,88.71968123342377,41.230281458751,-10.723577230274842,20.717492871147435,14.292185352367218,13.90385250539604,2.2050770900976016
-2.4417706841989864,35.17015816922046,10.026666493419858,-9.429118392775095,3.232246200118071,4.85122601748023,2.9683750862870597,-0.1262044330491245
-7.7920918807807915,-32.23087545775842,-28.19729496400632,-7.113643443229985,-18.328375448695308,-6.794177130979269,-9.801917691533937,-2.9468533559308905
-11.676287520140873,-98.3446317601921,-63.66792495093539,-3.194769624905519,-38.50181231991424,-17.347766307051618,-21.033442345154803,-4.966902666430564
-12.984036575563364,-148.2234688532731,-88.04515846222925,1.7952896192570127,-52.582229869165985,-24.251888273513888,-28.224749209082766,-5.518833973402468
-11.928653062072234,-173.75203588269045,-97.92988339374124,6.624978562512691,-58.58887294815601,-26.66681707015477,-30.69741671051872,-4.724046640584222
-9.636430306959422,-176.40706574480515,-95.58774835694044,10.15487342785136,-57.70473637367698,-25.515997135459852,-29.55438185248925,-3.2318592831762634
-7.386574320861175,-164.92274969879054,-86.82098263772059,11.93763674020076,-53.12800274249615,-22.698890642399217,-26.815975998180505,-1.7752122084945705
-5.993987988301285,-149.94469089907946,-77.64412790817337,12.299872329485867,-48.231078313494756,-20.03513097423348,-24.34311426926168,-0.822951694010386
-5.6142779824025695,-139.2160664369382,-71.81248352148324,11.99121904139248,-45.159256601228776,-18.551696996198675,-23.147709358781828,-0.46966827129386535
-5.921249075091105,-135.63625645018678,-70.20515377136205,11.737336773589213,-44.44865589325166,-18.370573952243937,-23.309262819155855,-0.5276420712393299
-6.419151925729764,-138.09338026575867,-71.65083944048482,11.973373511606583,-45.46578786632194,-19.027006150405185,-24.310707705983184,-0.6988937973220755
-6.691823742261602,-143.47646114324243,-74.17297953102761,12.80335151388673,-47.1083304702047,-19.88223534485366,-25.468136440500807,-0.727366643151572
-6.531281353151832,-148.5099356682534,-75.97992338080958,14.07991980551203,-48.372906404918666,-20.42044541227928,-26.24965873661416,-0.4897950016212318
-5.965708054012232,-150.99528486639338,-76.0737351721965,15.518597242653708,-48.6987850131319,-20.401876204182685,-26.437652080639516,-0.016056274066821606
-5.199849058309539,-150.43968288141198,-74.48300445395908,16.83080281067038,-48.09175813448692,-19.894752926845424,-26.140509552495573,0.5588090000443694
-4.482293391131693,-147.90503177100837,-72.02738231077345,17.853263392675313,-46.99259513621418,-19.17901926784498,-25.661629982460042,1.0854958330371063
-3.9650879168380238,-145.06190397216167,-69.68069848565807,18.60329856787389,-45.93244779005369,-18.55016035741937,-25.28873707010775,1.4805007078927435
-3.64819220911703,-143.06452762767435,-67.96820790171743,19.21701801094934,-45.205193607061005,-18.14698473471176,-25.140332271381265,1.7482701846954454
-3.4357711428431776,-142.13703387961502,-66.87054082015665,19.833310567680314,-44.80918978193195,-17.933455572913054,-25.173793109075717,1.947758935056964
-3.2293287169642944,-142.0753153492679,-66.20737731336294,20.537638409103565,-44.65125113338388,-17.822104445188696,-25.311199672375697,2.1486436593262335
-2.9649415995134176,-142.8908986128816,-65.97242379276338,21.394924520000142,-44.73375814202989,-17.784367274454826,-25.53033173471785,2.4117762988748317
-2.590172061539058,-144.7453242933456,-66.2109070897389,22.480364409481048,-45.09613030097004,-17.827364054650644,-25.83006218631955,2.7831341638619858
-2.0557894310850133,-147.2785813733682,-66.63902068905169,23.820651365044164,-45.60294758019721,-17.890194378795385,-26.13850308103578,3.272926152650104
-1.3653324690073856,-149.25145955400683,-66.54874922646073,25.28965045429405,-45.87064148436752,-17.8120636071823,-26.297042834729503,3.8248199330686714
-0.6278798104164895,-149.10889713430132,-65.21278300825564,26.595396570830836,-45.468794573757826,-17.432872749233567,-26.1562015506548,4.316854662755126
-0.029572277665629077,-146.06779597193233,-62.445357573871696,27.426069306296185,-44.233123155870246,-16.730395189520063,-25.693840694312343,4.620603655566449
0.2796963111889101,-140.86066559216297,-58.86041370996013,27.66871620494831,-42.443405541831,-15.870031825080584,-25.061335547190353,4.689848663711487
0.2978369544710103,-135.71713797953817,-55.72449738407401,27.54784883495237,-40.78719432497656,-15.150371073736101,-24.551097525158575,4.616897934564862
0.2003468628021133,-133.7250572978668,-54.56192928967076,27.59890429395261,-40.16605913852464,-14.904242398038326,-24.517888080882997,4.616502707383658
0.2846395347432633,-137.67089831221745,-56.545122223896016,28.48243765201189,-41.34741535329628,-15.371400139798146,-25.23916304318855,4.941395517087354
0.8637442673390615,-148.27401682517336,-61.6023052253721,30.6709409587047,-44.42528713871219,-16.510472746742526,-26.68883015495645,5.755664927237311
2.1178403989985988,-162.2727171384708,-67.54903301577524,34.062208707727564,-48.265890098887624,-17.802645890874196,-28.314095627798167,6.9984708703790774
3.910148681327371,-171.83668070803773,-70.07998008274102,37.67959575769743,-50.4169403929696,-18.24397488952007,-29.033314601215533,8.294908562818604
5.655114203961329,-166.83596879777548,-64.30377106592555,39.73273749935412,-47.89933513614201,-16.69978268061749,-27.60953464846483,9.001811074844108
6.400512868318973,-139.75521114730427,-47.40944672346719,38.22603605919145,-38.711798412726615,-12.526124109894061,-23.27656853933155,8.447620925343733
5.204625117786187,-90.6503932471097,-20.88037218912613,31.95047081661874,-23.202863975898623,-6.074683891610945,-16.23842653667157,6.302716317282196
1.6582948409272922,-28.737460480291297,9.404275243322045,21.31636123140058,-4.349833973626774,1.3047615447126928,-7.689671634655343,2.874079298075845
-3.7816755901280903,30.973465084154366,35.567311208849006,8.441477028447308,13.377658212920181,7.817684133122599,0.6787516379680587,-0.9064377216851558
-9.916575766104765,74.36261564526347,51.34336570775853,-3.678766999259232,25.96721131760519,11.992828926361733,7.373702777614753,-3.872462860514242
-15.35769962627134,94.36142738055028,54.80462999666619,-12.495185662655294,31.50799764555386,13.195897934177811,11.577182923827285,-5.211103671076391
-19.173086517254156,93.14402919910182,48.71551105017713,-16.963401115372932,30.659054478495484,11.649260073384916,13.200821949139696,-4.9026404655403075
-21.227793854696817,79.54469016459969,38.56684881443537,-17.75649474594995,25.864047823724572,8.098757589046489,12.643580939533424,-3.7238683363211607
-22.037499959228963,63.83893972528433,29.701908087750095,-16.60693397498882,19.980127000436298,3.4797686741450176,10.546124772672153,-2.78930310402954
-22.29653042899729,53.20198892329697,25.218822639292803,-15.276827004371228,15.169116648976644,-1.1924525777493433,7.707515833794123,-2.903015801834905
-22.442947507731894,49.9673169986829,25.478625260465556,-14.788741872524977,12.479835616968447,-4.808183439178754,5.061993269256035,-4.121057643112856
-22.539425698209392,52.5542381350029,28.89533551616401,-15.255304634520343,11.980981997158464,-6.308190265587518,3.503390330645242,-5.784510979352833
-22.468489985582355,57.536672319037734,33.145368460796476,-16.208265084089895,13.074811018735168,-5.104417791167215,3.522564528163466,-6.973110930617182
-22.207842226924633,61.51291279876332,36.17202506988885,-17.079638886774898,14.796626792424211,-1.527982362958555,4.9009911607754395,-7.069455879631684
-21.942824772212735,62.3320274337657,36.81630337269121,-17.533846168025484,16.137283369578608,3.1215721605815396,6.768168875631456,-6.086148489469186
-21.95139386888524,59.683998726675355,35.06888149423139,-17.545084596834677,16.41571923517927,7.123238254456085,8.081726363273853,-4.590773622971645
-22.379590544706847,54.96396228165142,31.891683022886554,-17.271057755164318,15.558318075852355,9.21923338125372,8.248949218956867,-3.3179854979380496
-23.077480834322746,50.37616804251527,28.657736957556057,-16.840153564882797,14.099580435029694,9.291592602319867,7.482667986007277,-2.726484633119147
-23.600897818309292,47.72041318217323,26.5144675350124,-16.19240431992194,12.890175204673152,8.395824980896654,6.660815636243458,-2.7715492984962147
-23.38991774288467,47.619016331200314,26.031692387034354,-15.101728931712064,12.683291934161623,8.114966122514828,6.771431561535515,-3.029052045015653
-22.053621918472484,49.563000388204124,27.20372020638567,-13.402903254956076,13.78804581388347,9.594432461865104,8.260269011388166,-3.082221358957526
-19.62110955025682,52.44886856614975,29.577764139500445,-11.26770181513493,15.894795994486559,12.798925124611928,10.657284271229324,-2.889082341663855
-16.594794408531698,55.05467748690717,32.3480337556567,-9.275950257665821,18.14056669566806,16.4346154526079,12.736456028949755,-2.837326466523149
-13.729997177534932,56.316035048492274,34.53446035876499,-8.153248934704138,19.464757268714894,18.639272296553344,13.190474132306692,-3.412165220727205
-11.651718890269665,55.621311827791466,35.38080987190795,-8.328284533593012,19.162779626195434,18.087750658147392,11.474274125337184,-4.706772545205849
-10.559822412177109,53.13257329488842,34.765515642573895,-9.640535653810755,17.318770578731815,14.842686952465417,8.287902769925799,-6.154207283370836
-10.218382572992223,49.75271974306717,33.20528156589135,-11.422180431175375,14.764015568446203,10.370484725850666,5.318360410460073,-6.726800602866604
-10.20278643993181,46.52000826505433,31.350842786678708,-12.884448086271284,12.527246394115153,6.66734455649585,4.314459991588268,-5.5287782597717925
-10.192900636751256,43.86097097418072,29.42534890391076,-13.53133298364817,11.171252386024848,5.053004585029752,6.0302211740456375,-2.431555715168485
-10.115113459449114,41.42300477661859,27.155982344848933,-13.35864501221458,10.512057285372377,5.417722171471677,9.693276178044066,1.649678209064763
-10.098973892805054,38.65200699133113,24.22696826162825,-12.779657486184371,9.875793281160487,6.3796121299637925,13.341012195383112,5.04888393488938
-10.34165834469055,35.486418430249415,20.73838169394399,-12.364119788573435,8.617558268165949,6.20650204344558,14.84947113072833,6.111421787613678
-10.972191629225687,32.46787630668409,17.21825222756338,-12.522644697487712,6.515954505203692,3.9241338915239683,13.09587020394075,4.054132016317874
-11.950982214846078,30.284761411559394,14.279988464233373,-13.273058765102256,3.8803642696213925,-0.007994790608111738,8.635178657248135,-0.5429081286170802
-13.028677362776538,29.35481472089504,12.357423500043621,-14.213148687577192,1.4407178686790836,-3.80692472259791,3.518295843772528,-5.919435038934302
-13.807877080193478,29.821256025797428,11.720263731910077,-14.741682085949304,0.1087666094140536,-5.236992533700201,0.3011834349867174,-9.9349979180073
-13.920125810317042,31.68731688749797,12.546686327446498,-14.414765647359184,0.6218380385553823,-2.8537212359799784,0.712668909771554,-11.068243390994542
-13.239223790207163,34.66534894365346,14.784566647546937,-13.217132398454199,3.1304131938919704,3.0030730705186737,4.667586224458775,-9.08746216688213
-11.991523750925603,37.85820738586746,17.903064833018934,-11.581553919405453,6.957442987693859,10.060758281607178,10.186235730614873,-5.075160148607524
-10.671718711195485,39.84336491068588,20.908774617570415,-10.161890696817233,10.789968393565667,15.026090479323875,14.327616721660306,-0.8562890461432981
-9.796098712730629,39.40922821570819,22.79958848786199,-9.502418248435692,13.312039475625227,15.185742861966933,14.68675752183653,1.8419937366951225
-9.625398178679736,36.43495119430119,23.17900026754505,-9.76217130414349,13.932479300571199,9.868159335543986,10.671750324262941,2.1076450013820476
-10.008027379857626,32.134763563100776,22.561121420721587,-10.601862834841095,13.136498894324614,0.9428787281179873,3.878033317681351,0.15802704053659117
-10.443459392970468,28.43075717928629,22.130495260408342,-11.29863728817767,12.22038433872364,-7.96431916406179,-2.64061427327707,-2.846433204549348
-10.371469166367602,26.93011570796286,23.08558017407588,-11.099138224431941,12.552160008329505,-13.159421753081482,-5.8307271484742795,-5.395879919988846
-9.568746165861807,28.129426801957013,25.879386021174653,-9.692491468901125,14.754396031946516,-12.613572624207988,-4.09891895524612,-6.366064388704602
-8.421721219261345,31.117903696164134,29.692707621794614,-7.530966874788392,18.22880389806197,-6.88406008757248,1.9415784112821113,-5.534711718220697
-7.840692230348952,33.8030878492678,32.47594332956678,-5.718307136814863,21.3034001070836,1.210644657528554,9.806426150922373,-3.5968156851624884
-8.76341647017228,33.717184939356784,31.781449304298174,-5.428503591522204,22.029947014510626,7.987622938988848,16.39997616094075,-1.6670256020899024
-11.497831368520224,29.329407732879247,26.173244416497067,-7.174791349154127,19.303471744619877,10.669649595904973,19.55278510827722,-0.5807697561473801
-15.344935918452142,21.249963229422658,16.40948249537575,-10.41769725693513,13.667803030348473,8.626882493756582,19.00265749145513,-0.44717759114647293
-18.81858188389474,12.343888131567514,5.450601081971824,-13.800504724830283,7.216245955715533,3.4585705873531913,16.277741786984688,-0.7320453481741
-20.382517174505246,6.316751378201372,-2.9569130520577667,-15.869143400387236,2.5290288275824175,-2.0575373109558397,13.603715807784774,-0.7684342038710846
-19.255430429951005,5.559202624482312,-6.281796324007277,-15.814468726993466,1.2801113788999665,-5.463810524969118,12.564402230447817,-0.29487709742936485
-15.785946019166973,9.76372625651902,-4.449849226955607,-13.798923140510931,3.4130676060590748,-5.686866940818428,13.350751910853058,0.36613103516413814
-11.19568196618658,16.250962148373322,0.44718603183706807,-10.73112464757233,7.371835699494577,-3.1702557570767382,14.966316350114923,0.5835929111120465
-6.886403684470661,21.62257351554725,5.632506440752892,-7.683359594533719,11.132672659480251,0.7791983279457037,16.0983508256809,-0.08510667495395005
-3.7348200191189904,23.56652110076284,9.271235696895381,-5.315148566701177,13.325649766982403,4.867056823736492,16.0019390776039,-1.5331728061240812
-1.760414050889747,21.902683425106225,11.321962853138565,-3.630801133142917,13.823288496484427,8.372066561216176,14.866645703944684,-3.1131792977485775
-0.3263214523567329,18.62212192146833,13.263625225289672,-2.2061396224266434,13.58049541889723,11.182389252092811,13.542723018990003,-4.0031834944041
1.251987277893235,16.97226471964007,16.869705833518726,-0.7414410657952872,13.880866848683718,13.431197623819749,12.874291896517045,-3.7090528490255856
3.04853690237732,19.69077751146134,22.57779039979306,0.439770408361239,15.362329187144951,15.02515838974763,13.046118690324942,-2.4097517190507647
4.244356942319312,26.897509852350677,28.31530825733325,0.3472669830951097,17.310935800684042,15.366504203290425,13.305120645412073,-0.9373610358013346
3.461353079553815,34.85653990375885,29.684725171424155,-2.1432144863409444,17.682954388940225,13.463447058445775,12.230159034400288,-0.3821321587738167
-0.4267722027834594,36.90393005680672,21.829681793607097,-7.486141712830484,14.00999704780567,8.42654904184265,8.451937619020871,-1.5267964574042627
-7.48725232014649,26.672206667106323,2.2107741933631404,-14.941602528270298,4.808578918289945,0.11053701386662754,1.4656799747446643,-4.422090327319565
-16.45018552614263,1.9842315140481894,-27.327137663934746,-22.730372409703747,-9.305620676296233,-10.4876155660918,-7.920505049342907,-8.34266281399394
-25.173927394959605,-33.087081244702524,-60.64210108094151,-28.820914478718127,-25.54008747946977,-21.386704868761395,-17.79810721925995,-12.14436973628085
-31.603580743683512,-69.59489685259057,-89.75646221037135,-31.879893316070003,-40.04772618117931,-30.342748882045946,-25.963522815944557,-14.813065772963087
-34.66813238048979,-97.95651243043764,-108.41611772648405,-31.81798826544071,-49.66852896594777,-35.78291169111627,-30.89151835901163,-15.895916255310611
-34.6189281817731,-112.5389924495087,-114.72565002828374,-29.643987167409257,-53.29771015502625,-37.43380031223036,-32.339542097556965,-15.599085101620796
-32.68326914421945,-113.80833815990043,-111.39604868057195,-26.79686380786918,-52.11088619127498,-36.2895043581925,-31.27042307740505,-14.553097713810253
-30.32784810986443,-106.9626307029345,-103.67994709512573,-24.42566742108203,-48.61841112685817,-33.974071463664764,-29.20675438373514,-13.437305612805053
-28.604010153803134,-98.40213403105285,-96.50238216391313,-23.023289755754202,-45.25915067415928,-31.924990314574174,-27.460235687328904,-12.692552235801964
-27.886179674700365,-92.60038239000828,-92.55131569946751,-22.49082049913065,-43.42034830883683,-30.878363409494423,-26.67715366137042,-12.436303809524658
-27.9942889293418,-91.0407839353639,-92.07105154573851,-22.42367168560324,-43.290738480578334,-30.847679321660888,-26.841441827723198,-12.543474973255508
-28.484445669467807,-92.9626312337538,-93.81063554292359,-22.38048075294237,-44.30189496105818,-31.42797570670435,-27.558881653609788,-12.786590067655105
-28.91052777762097,-96.60645678045726,-96.11958784191482,-22.046054721918384,-45.65870002548216,-32.12846305244823,-28.35997153809737,-12.956295716996774
-28.98663473259708,-100.10608564611272,-97.65267657693276,-21.311007478265356,-46.683921893914906,-32.572950116160605,-28.890697006084178,-12.936205639098084
-28.653500414628716,-102.07655873023924,-97.72982261225506,-20.27686122493767,-47.001571283430884,-32.58508950984179,-29.001224652802474,-12.726959438548768
-28.048709758439024,-102.09209742003807,-96.46765884004101,-19.16494889252085,-46.622947728025544,-32.2086008027057,-28.75913314913516,-12.416030146173616
-27.390959820684394,-100.79057312703539,-94.59012973275325,-18.164041129763238,-45.882241164992216,-31.652090097747212,-28.375816325923072,-12.109457800717152
-26.847105456808066,-99.30587375468241,-92.90323783212214,-17.33027776770365,-45.193239613220555,-31.152612693480616,-28.06404352745903,-11.871574790802423
-26.47729858581399,-98.39449466492367,-91.78430043634779,-16.61973812535339,-44.78675664987782,-30.8397836206923,-27.921464481863115,-11.714586107354465
-26.28077131368399,-98.07791842453034,-91.12667669978363,-15.996261290617797,-44.65568953949572,-30.711164275853378,-27.931495349940494,-11.631137837567906
-26.258622195177686,-98.09671505674038,-90.73069627671565,-15.477633128801408,-44.7236180703342,-30.720518148794408,-28.055656160413776,-11.620498731547372
-26.40017597392847,-98.51980526243042,-90.63576246087206,-15.067387213335273,-44.99780902590818,-30.85369320373374,-28.2926791071137,-11.674013611906437
-26.606601021101692,-99.69055977696553,-90.98452518461144,-14.66691592662685,-45.501358829583666,-31.09095225514501,-28.62967668998656,-11.741257112992377
-26.662042487262497,-101.56230757893798,-91.60634184318813,-14.091619248561033,-46.07634990777244,-31.311219822572735,-28.955257753228658,-11.727771705551048
-26.32963898311592,-103.28098545247397,-91.86872294706409,-13.195725694452348,-46.338798099499506,-31.287414331358377,-29.065246356171745,-11.544383978471075
-25.524503811946623,-103.60635935601368,-91.04012409501648,-11.995830969523853,-45.908396174396515,-30.830671274164313,-28.793474628053758,-11.175452520822196
-24.437744012354223,-101.81107926829532,-88.84622776690075,-10.700910960457504,-44.7304836938041,-29.97350117476305,-28.16381144129059,-10.716868882087182
-23.521566002679286,-98.26237550347888,-85.76096849219822,-9.651352072533964,-43.21775327759935,-29.033008470171296,-27.439932713046588,-10.36005776076419
-23.32731298016618,-94.37781307026613,-82.91116040620696,-9.203842505930044,-42.124302393052695,-28.500426047790185,-27.04208541213148,-10.324577989729253
-24.233059723137576,-92.21997970408394,-81.74128817925634,-9.558845107880861,-42.24792395174485,-28.817764214820862,-27.37429599129503,-10.747900408790526
-26.124092258265886,-93.87433795766518,-83.47009676200504,-10.535699618042445,-44.04476182963902,-30.117835224140492,-28.600174150140507,-11.553279307693746
-28.159849666451446,-100.36338485648096,-88.24846637159746,-11.41483079966084,-47.186242327506854,-31.9855733492945,-30.404808644828904,-12.357870825112043
-28.834219273274964,-110.16449102784216,-94.26277900791627,-11.05262335037707,-50.219394054031696,-33.352045166161865,-31.859945653019533,-12.515591921685344
-26.469344229502266,-118.37684008268457,-97.56197099051633,-8.355582946560316,-50.69948165516899,-32.700479417073,-31.58068679861459,-11.345045099405343
-20.01643612991945,-117.93114211732284,-93.31637379847513,-2.907718745643365,-46.069207536129866,-28.66692330639688,-28.257086170549165,-8.466553457891239
-9.737811044734856,-103.00520529037313,-78.23437129811866,4.661828697239701,-35.029605600306375,-20.81939291659727,-21.35966902537083,-4.057141445312906
2.7034838820171485,-72.80356469571838,-52.72675569096737,12.87550327210561,-18.591456898890094,-10.135787779327691,-11.589414080174702,1.1572447009516125
14.896453046765108,-32.99036301332831,-21.248552729138552,20.0934824565038,0.0053031168345291195,1.2287023814599425,-0.7221793123255414,6.1966863241491925
24.73115381121287,6.630351327632549,9.613851932379832,25.252207953656743,16.6313084431932,10.861347660521332,9.122469927102332,10.238366735224039
31.205089863386455,36.995219324254705,34.14821549551788,28.161920966623228,28.11429540515285,17.189687791689842,16.3606575806353,12.887827476681581
34.50286505739549,54.128548847527796,49.66369758609132,29.183442299780914,33.45373631642874,20.088930799823103,20.439560420855834,14.151950017444685
35.374368742454976,60.13365698662971,56.491558713141536,28.57343609371239,33.68878248397144,20.634175876232263,21.68902010437585,14.171644926368366
34.33183545144122,60.348131638021314,56.19155000967562,26.056445225202697,30.649768096291883,20.196404860689956,20.724492097632602,12.952271716283114
31.294059201952265,58.9130702970464,49.66010321907098,21.019731188387194,25.59458335161001,19.50895710491006,17.89997269409109,10.335034659655905
25.938994452518482,56.03825649581304,36.78154364526865,13.234734208136086,18.735219003394526,18.315619541431957,13.230345402610213,6.265052023640363
18.462927871407217,48.77864740016455,17.84139112818938,3.5654383004569774,9.895644445623267,15.774292318835048,6.802521990937476,1.1612784969762955
10.117546874396798,34.4130935148977,-4.66262262597953,-5.922185072045739,-0.3657342626938197,11.274257808878946,-0.7031244520855556,-3.926838880136277
3.04610698740996,13.716807765140505,-25.590020728170085,-12.647418421252546,-10.166792596837384,5.1031576593791215,-7.842978346408628,-7.574730189768832
-0.5620241468757109,-8.238403199293277,-38.829433618233494,-14.6574680620228,-16.788524758021943,-1.4293440285068826,-12.784643355953373,-8.56945095191925
0.49568221253056716,-24.21009440093104,-40.168023410017994,-11.565154524840308,-17.957462762140416,-6.43887916491456,-14.031629416317315,-6.504942164360085
5.835232185926492,-28.37743892082329,-29.523019684873503,-4.726499094800148,-13.08626877166079,-8.221765414076463,-11.084582628347732,-2.0305242650995896
13.659047104869858,-19.241630815216283,-11.1027625387555,3.443083684161003,-3.698331531770006,-5.967501912934084,-4.689735935816817,3.4041550108646894
21.571068089952366,-0.326581436645607,8.593138199033652,10.60767312863265,7.189687671103385,-0.1468815032966511,3.424010851730099,8.172113846511131
27.563748220770396,21.53561263581085,23.754054077349174,15.457370501270574,16.35625491813719,7.577496760165947,11.171713848862078,11.128723431307618
30.681991027774764,39.38225243249142,31.62178138347069,17.978987955702706,21.668974891424018,14.917214655765097,16.829971284631142,11.986012314890464
31.11546486765567,49.159576657433774,33.14373314187847,19.011590903258924,22.790733065412677,19.80767891939794,19.566116592595428,11.258206683962586
29.799150677218154,51.10359815688039,31.806431210749437,19.47349981026247,21.026693806386334,21.182034130274534,19.581005461336428,9.859958429129147
27.82171599567402,48.847408088636485,31.46754256573592,19.780761783777677,18.465897919575877,19.30833664257445,17.830698565065966,8.59360560562705
25.95685993038386,46.955838570656496,34.415663140451436,19.757398795258304,16.908584412444256,15.545757531407169,15.489830029237316,7.785736532436016
24.48129260808624,48.385963742660294,40.553170674117574,18.96397043555525,17.11511472722588,11.674706918962242,13.432213409467579,7.228122034265908
23.25990623378203,53.09050485939073,47.78675589366425,17.135940082869958,18.641951253907834,9.135193368922241,11.953538577139826,6.409625915049114
21.986010446468015,58.10887145896212,53.09791024816152,14.458702384324212,20.193080904284695,8.496310483353614,10.808304658025905,4.891583984615331
20.469023536960965,58.94755538449065,53.79002396706456,11.590384531875161,20.28038995103292,9.35589231339121,9.504294388368116,2.637020416858737
18.879122942287083,51.99603174220407,48.7654755879018,9.473035099682345,18.030200594958504,10.711219542943262,7.732943048114654,0.1404264234873547
17.840088321720764,37.45279048943056,39.70344983105606,8.993101267350246,13.946875697758696,11.650816486065139,5.761761738971269,-1.7148034013844469
18.266228461262404,21.39748085482322,31.544239330843848,10.57129584708317,10.263693945119547,12.019214762919098,4.568439287319861,-2.0302313898813322
20.94552897396606,15.092074661626725,31.40475451314678,13.849056050308864,10.437489042814395,12.636778704712174,5.545729271883298,-0.33066756285430887
26.046486588646562,30.547464601467816,45.66156712260973,17.693802478980285,17.678614600913427,14.85297535872279,9.815498510244034,3.1631611916033533
32.82941904099731,73.81228406999233,76.26705757527571,20.626099609525856,33.06658039614666,19.62208607010554,17.466069567933616,7.585607209278083
39.767019067972925,139.63284713180676,118.36970100227786,21.505074875718545,54.29573993108659,26.650181089817313,27.16413191352049,11.777348821418338
45.05930825736815,211.17144865052654,161.02596848818408,20.097334409838684,75.96050232774924,34.192284986808964,36.45122774680533,14.744995011195089
47.30677356719092,265.9344432969588,191.19591001975806,17.180700730992267,91.50451676611678,39.71775765882111,42.667364640330945,15.993320433509888
46.01660428725489,285.41782192066506,199.25876922592153,14.097661326489604,95.97942560931727,41.12468519009112,44.06810184707502,15.590483787227592
41.70955993112354,263.5200272570565,183.22187029841413,12.010413712070742,88.20583563803208,37.81825357077046,40.55782066103054,13.989782845661706
35.61348340484657,209.13779783185055,149.3666467961324,11.30578036940468,71.18495041989273,31.024380085544664,33.65803681409663,11.759010247750016
29.14217637121212,141.5050363445198,109.01921349919412,11.512809243680527,50.56360059936566,23.167480351402588,25.756726576139506,9.385435781934452
23.43927621351576,80.95172152602035,73.30322509561051,11.763660544445345,32.04523316951735,16.706818847332105,19.07767768869121,7.229841643212597
19.181635745717177,40.32836424465551,48.804050315503346,11.466593769654958,19.195042475673084,13.128129102871075,14.924025862756594,5.575752665626228
16.651790951611652,21.722725491622146,36.37337691620827,10.718038267716889,12.76059596682943,12.631861281943603,13.52680437373042,4.658951256460255
15.9172544285667,19.6217135508853,33.242619232732935,10.156011395799622,11.619059384895314,14.560788749551117,14.422816489652282,4.605658810346139
16.906834220499885,27.547875028629417,36.50750452510896,10.340894828427313,14.422177398681017,18.12062485389941,16.97151557762723,5.309790890750419
19.302855069184055,43.208361705595955,45.35056648221846,11.102227111719825,20.66075824990454,22.822313233834546,20.618128479525417,6.3577896756338115
22.387431032597537,68.7598520428979,60.60622957972454,11.364562921994771,30.469820414141534,28.394494346235003,24.810377645948332,7.104945535564081
25.089335042969573,106.72687683935195,82.47593151456329,9.664064426320074,43.56868523193295,34.39767979657638,28.815797639233203,6.917681529795711
26.343155103595198,155.37048760753567,108.6056883272387,5.0659588412613825,58.41133847324871,40.00747923813233,31.76532542955994,5.4760874661067565
25.592464442626028,207.43733253589588,134.28168167118676,-2.1369196842293454,72.38818653752818,44.24771452548345,33.008255696236674,2.9619279594187016
23.09569516377397,253.32683759695303,154.67556561387974,-10.446748125577573,83.01613505861673,46.53639197897099,32.534608902662214,-0.0010765826192156366
19.791061685318493,286.19072167181577,167.39709468428168,-17.910308048098553,89.22945090967549,47.10969882949766,31.09375649429861,-2.646501427280157
16.77654198155183,305.0166114265677,173.36063792885432,-23.09423157850186,91.76849218062331,46.933531096894654,29.816626964659672,-4.441128562661228
14.734187916354731,313.38359004686697,175.2876988493762,-25.642895565334115,92.33103210775151,47.065722345723174,29.50396603181496,-5.314212199871143
13.669126697572777,315.02498822034636,175.02937151751843,-26.10089012941432,92.1006888953904,47.853353736995714,30.025767874004256,-5.601241688435915
13.105763019260488,309.8845445331035,171.84113671003266,-25.226698794603294,90.76833340995582,48.53089463617772,30.27105470970485,-5.744707763243637
12.55313682604081,293.9242355141298,162.9895872614606,-23.371830833342848,86.79949163187132,47.56205820574116,28.75752561440852,-5.951716207602735
11.874553911814035,262.8692895743615,146.2140103303656,-20.38446234368227,78.74727715076267,43.57619399442482,24.566739802269538,-6.030358086065864
11.311208680668573,216.92158014893684,122.13657926977008,-16.03017436535695,66.63421856654836,36.34398703706093,18.034577947572433,-5.498555611664809
11.207702440257885,162.79260625021863,94.83788752933091,-10.503992861308788,52.42574172102877,27.20267168217121,10.773049180809679,-3.877123381139309
11.712090975025141,111.56581236214325,70.26623982201482,-4.574736051634258,39.32437379481319,18.67313453742302,5.013906170018868,-0.9725839995609854
12.698621133618794,73.96966274587328,53.67804717279304,0.7524581645968607,30.41969673459763,13.462507452787571,2.6531300894971612,3.0119186360015573
13.931795738620659,56.20636295124728,47.75227538595852,4.759203077043801,27.535593689567435,13.339636840835475,4.4930415083546835,7.56517590387091
15.263755701963557,58.53386948286325,52.191187594558095,7.288452011090119,30.78039596851139,18.374687028820258,9.986993808424891,12.050244161842443
16.633190137278156,76.3985626015044,64.3520485178699,8.572637887566078,38.69949352106412,26.80834531974539,17.467884569779166,15.841975065562488
17.843675135684858,102.2418661037597,79.90558140467066,8.822057571527685,48.61476282477279,35.54332971605904,24.639910785784945,18.37269659637115
18.3583980441282,126.5605016315747,93.12826203928944,7.996585099143756,56.95625641145208,41.07874300510247,29.145013413238484,19.165662288797403
17.398143212397297,138.66806328543552,97.46043408464566,6.003087740036672,59.82130621469241,40.63189721244024,29.14875592843673,17.960147830774513
14.385812253058472,128.70091139575072,87.17000465457483,3.135286254964509,54.05640534642201,33.125357638717375,23.907149112767335,14.911647679842487
9.446710541825967,91.35028597091058,59.94658605215327,0.30199126706427726,38.66247991041547,19.66631189767849,14.140658707984326,10.704896339525193
3.5618515727423374,29.53252652089373,18.941890143169374,-1.2596709068919236,15.735430945751535,3.2407384334033167,1.951246793007635,6.413197094931029
-1.8016098721705978,-44.91843666002971,-27.47213367495059,-0.6487501525056175,-9.87790489962129,-12.345594453803947,-9.836796216032559,3.107301564239962
-5.380292676635545,-115.06394419514619,-68.70019944420872,2.1303324021135883,-32.33410743109443,-23.863495812341082,-18.701687422012167,1.4177068885459996
-6.69653006692706,-165.72223795495847,-96.29447684157596,6.1165185444567465,-47.15282184584804,-29.773528124746854,-23.34015534147779,1.309570988303229
-6.188908611182213,-189.66950129275222,-107.29306422720173,9.905255201752274,-52.9186397872698,-30.56003121946574,-24.017126650661456,2.1942351215402556
-4.85861645632744,-189.71439096963513,-104.71448086902068,12.378636379899223,-51.431686313273715,-28.185561308271836,-22.197577679404112,3.2864399669649136
-3.7014823787344575,-175.78712215359977,-95.1910143784434,13.18573745088424,-46.36147910705894,-25.013498289912494,-19.71103387182175,3.981094262065369
-3.2823550758298197,-159.2544847003053,-85.41847332557751,12.72668074906159,-41.32108729193837,-22.78888429247816,-17.934631645514326,4.05077752671667
-3.6441734469970677,-147.9821590113823,-79.50490021132282,11.757116122806345,-38.46349971250131,-22.154645239665257,-17.396202778086064,3.6116137542963416
-4.488693722862141,-144.45561080791484,-78.28866355689519,10.942445881580177,-38.15450694387565,-22.797645982768696,-17.87653094969951,2.9486404842871634
-5.4297723974219165,-146.85411957065065,-80.26653068691276,10.618584302221432,-39.51385700283475,-23.952449046154275,-18.790983722096357,2.3356258333578235
-6.1708794752076805,-151.4196222881381,-83.06972865176796,10.789848204192792,-41.23845076598971,-24.892712647754,-19.56413076281207,1.9306202058185107
-6.582178999915449,-154.61263427224893,-84.68773685590338,11.248662630188736,-42.26330298616148,-25.206724359632343,-19.85025985624791,1.7541028072772082
-6.709089410472233,-154.49546525404546,-84.19505172257784,11.71977235112064,-42.129609533093316,-24.86262802515237,-19.604423732662223,1.7228698764049188
-6.7231421533649085,-151.28320587234762,-81.955518738267,11.999821802761108,-41.06665641932783,-24.139646954317996,-19.044958300997706,1.7141599765565683
-6.817472359587063,-146.9410037235541,-79.24864718999801,12.06138055567826,-39.77955070692018,-23.465185584780816,-18.521391457509303,1.6342223493730599
-7.094155327679464,-143.85616634769286,-77.42102358432442,12.053107183138655,-38.99941457808499,-23.192549307204356,-18.321050895536793,1.4577183856938496
-7.521832880984108,-143.25375046848134,-77.03270555661125,12.167034244918536,-39.0307602351333,-23.41353051387031,-18.51069352564982,1.2159507163027845
-7.991585281532035,-144.42533260024462,-77.5735061989382,12.461940959302373,-39.59243093766407,-23.919978428669538,-18.913867380610576,0.9504904920106534
-8.40932202478664,-145.30866308615896,-77.90460368861106,12.794416242864523,-40.04471761277408,-24.33746907877376,-19.23018695581236,0.6781944535528908
-8.740227320613112,-143.9050248812783,-77.02394126956185,12.923426291257691,-39.80560595437876,-24.33313165322554,-19.202683416500275,0.39745216125716276
-8.991238233806202,-139.52691782120667,-74.63316424793229,12.70189542208975,-38.67952910222021,-23.77787883432984,-18.739176179533416,0.11893899269851091
-9.188052436635903,-133.2955116652216,-71.3200835107474,12.209447893262423,-36.98210382546325,-22.821184135619923,-17.967599938117598,-0.12030713113642286
-9.384786396091975,-127.90923871970429,-68.44422997595926,11.752851153473706,-35.488579977911385,-21.889280485872202,-17.2373153770097,-0.2778337727755285
-9.67153784999952,-126.74529390407997,-67.71464438890136,11.752057711075196,-35.19479139612667,-21.579044454262885,-17.03220131787154,-0.3415689859528348
-10.126734433756848,-132.1586719875418,-70.31534802823705,12.545881680880758,-36.81818635330499,-22.38665831652819,-17.739461343612824,-0.3504843086690373
-10.729933912894285,-143.2614165256918,-75.73699078885497,14.142653943311517,-40.12885328419534,-24.308189686081146,-19.31795381381607,-0.3902579611397875
-11.316401177358099,-154.4647387104698,-81.05172494480584,16.004331660780945,-43.514275060444845,-26.53324169393551,-21.065654366826177,-0.569150748082386
-11.625798949171964,-156.44307253470635,-81.4913078434438,17.049426954417893,-44.2646348121454,-27.51853643108678,-21.718114599792433,-0.9739550764780884
-11.405075643487049,-139.96197501270316,-72.44651719811752,16.02571612300348,-39.67986358892912,-25.54366958224321,-19.93368102053124,-1.6062791487585775
-10.483076665582576,-100.84491941784354,-51.907039138180544,12.162880169014018,-28.487839996949713,-19.52602091933574,-14.956672520306375,-2.328685449686205
-8.788041916993125,-43.06799188181461,-21.864776784714532,5.7330981595789,-11.740246585936259,-9.661016028344996,-7.103933273799164,-2.8811161656407616
-6.3544218412452125,22.19255232818263,12.235904278599191,-1.900335889949836,7.394877001713909,2.480174451802509,2.204435023959111,-3.0062087999375176
-3.3692854943402595,81.26676171914535,43.71977725585392,-8.874932211799782,24.873050764660523,14.469672141433293,10.913067080193322,-2.6378030660039933
-0.23993134149704312,123.79317545563414,67.30460639962588,-13.749590771029133,37.370952771739034,23.901053013775485,17.086136277634402,-2.025140088296276
2.401724091919426,146.338899544349,80.71856705295575,-16.187077835770335,43.399415374254005,29.198284309889175,19.600017500298936,-1.6710349516430745
3.840045937038606,152.12440295602647,84.67535932867428,-16.970076855401093,43.45717393666794,30.01557066098157,18.47956330799042,-2.075633764608229
3.560275575421013,147.74906355322653,81.67293752124947,-17.368346058095103,39.379176134042766,27.158491029250992,14.789280863763036,-3.4217101278140207
1.5533715988248427,139.48588264184588,74.65700366486433,-18.302331570851845,33.44309408833343,22.195673560349483,10.201575883492803,-5.396921241026204
-1.5514077974014329,131.28902728858895,66.26846120692191,-19.84271497230518,27.71749119448068,16.97826976761424,6.45285975465097,-7.270475772510325
-4.654525891125038,124.87835156793726,58.6681540872905,-21.301660331634025,23.76200787668027,13.18824106280993,4.865747051143475,-8.18822745652378
-6.609350638790433,120.89318168583583,53.56654227546586,-21.767199767766023,22.53689948140101,11.962232595150866,6.047219808040065,-7.537470092034152
-6.703274412594776,120.00652611917239,52.23067570422368,-20.714761731061266,24.396249621602188,13.651955358113758,9.81306674254821,-5.221709083108611
-4.9813987623845,123.40925412854423,55.416684878446446,-18.382100267948793,29.12336659565057,17.790935755345345,15.318490367865069,-1.7451629040520618
-2.2923904740031107,132.3414113347696,63.09264647352544,-15.76555517897237,35.939740028538544,23.25698617931895,21.299252724074638,1.924017707126836
-0.04136386386398506,146.53226839607206,73.8128984633929,-14.234957583097565,43.40057922675364,28.522556044327832,26.314464919069497,4.682518625085143
0.2954286259758111,162.17828350387302,84.05612641952624,-14.879662287587465,49.27081133118764,31.905962477926487,28.96499305939781,5.714068435253397
-2.2375875679488675,171.15098987243866,88.39548268242102,-17.851271763494236,50.731647096857145,31.86100657512449,28.154073756657947,4.836083807628355
-7.606509973997256,163.13088965985358,81.20410478594627,-22.082530408403514,45.22142274882332,27.39013154001795,23.42928648232643,2.5905650805786937
-14.698878673919031,130.543635276026,59.480555037326525,-25.65237257336073,31.72434626562801,18.520451307512317,15.292390956175865,0.002126574450469581
-21.728087504204534,73.68514239862161,25.17076087317642,-26.696443143278994,11.764137351808241,6.569605394511916,5.242968274543729,-1.8911668751096196
-26.97550819458855,2.495241401601065,-14.752777689754328,-24.372450186526905,-10.700864542693829,-6.097041315201578,-4.607252860706648,-2.489958303031879
-29.501275783570144,-66.80460870512158,-50.918976652311805,-19.303973429302903,-30.680789034154913,-16.85504548121606,-12.26250171684779,-1.8368938735101892
-29.458466261160073,-118.69161535854295,-75.58735192681846,-13.237136221087507,-44.20024245257356,-23.81881372138164,-16.578646268479567,-0.49205733484957126
-27.87037143448841,-144.99742112037606,-85.81307004405951,-8.13177473892001,-49.86369305257052,-26.522087277388515,-17.61983995364344,0.8148726278311204
-26.03384596379154,-147.5081600134878,-84.02953202490808,-5.236154030185856,-49.090452431565815,-25.914050540672783,-16.451277192940594,1.5481489743764616
-24.905927427976156,-135.44552271125465,-75.9903580515494,-4.656804206307983,-45.0030113586189,-23.716781182505997,-14.51467469469159,1.5600531638357202
-24.796449429708584,-119.94496440528438,-67.59439374530558,-5.5795701917495055,-40.75449734237874,-21.562642618800943,-12.965906292675148,1.0511106292267947
-25.456885098444747,-109.07103848527787,-62.508506478222344,-6.8849436499309755,-38.28473041330915,-20.396976237563226,-12.32173400375618,0.3724891801625446
-26.401936477909086,-105.77044896385235,-61.56561772343293,-7.722500769692371,-38.01531897814305,-20.371376431974667,-12.506272270773565,-0.18195339993078247
-27.21275543877026,-108.74646781145562,-63.583891511147115,-7.758547868112362,-39.29951907068009,-21.1078381168979,-13.130164885981781,-0.4824725621690425
-27.678863794242133,-114.63907046928813,-66.61831522615904,-7.105656609710811,-41.099790305107256,-22.05797358642006,-13.770789401453504,-0.5544900926255917
-27.796239805525488,-120.01525940227204,-68.94320456556247,-6.1150743081219945,-42.51073621565767,-22.76682637103907,-14.137113681431982,-0.509715890689328
-27.701658480136384,-122.64360836725297,-69.61539305924047,-5.176490508779171,-43.04543444407072,-23.00611418397051,-14.129562596260886,-0.4740782691506593
-27.5857092384701,-122.0691390311913,-68.6618784502599,-4.5623446526746365,-42.721806272438094,-22.802895712240094,-13.829936577456932,-0.5338593390952767
-27.594833178905755,-119.43691694115805,-66.85841768129428,-4.327174622781846,-41.94620107024711,-22.371455910307585,-13.427231091842062,-0.7039882998520396
-27.758498995696854,-116.57587625851555,-65.1582914448615,-4.307685466454356,-41.22328267924685,-21.96951936022351,-13.100116366747224,-0.9298012064486019
-27.99754455460767,-114.86023504971347,-64.12839103809026,-4.246972146589788,-40.8643571607957,-21.76188741147642,-12.92834424660932,-1.1299433135845414
-28.215388644709865,-114.6619238816634,-63.81121035956578,-3.96708607273271,-40.90548093949446,-21.784733845758126,-12.898715837494162,-1.2575995892982528
-28.389508671062806,-115.67944621023236,-64.0280551101532,-3.459238613820745,-41.252608988649406,-22.008585215041453,-12.979652440620194,-1.3333049062546636
-28.574376219320776,-117.54455196568077,-64.68531254294695,-2.8391595422705938,-41.83856266427757,-22.396051074252053,-13.164190642767311,-1.4224887750783344
-28.820503539197148,-119.93367500193865,-65.7066003899852,-2.244261713663706,-42.596568601603074,-22.874132190683223,-13.425755634977426,-1.5799365771134144
-29.10169160284933,-122.18665455533193,-66.73496419219363,-1.775440483562214,-43.316615889766965,-23.271083304063556,-13.649384326161009,-1.8085252463164663
-29.32325879332537,-123.17979218244828,-67.08355692448015,-1.4903556488402983,-43.62895761879201,-23.34189587565631,-13.647703758407117,-2.0568456735960905
-29.39113480841621,-121.9527377823393,-66.14367857046113,-1.3794275170894414,-43.22685189702344,-22.92345552277684,-13.28464390520831,-2.243877936418392
-29.273167788239498,-118.65478408114848,-63.92945543230405,-1.3090668623348027,-42.16063351783016,-22.11200121679845,-12.611828555656388,-2.292520773693144
-29.02379632139952,-114.91189978498235,-61.28457948607663,-1.0207911051937761,-40.941604668769514,-21.309532796793828,-11.904799473861104,-2.171458186185197
-28.79148011570454,-113.22353708457818,-59.60680672843594,-0.26841601057545766,-40.36510338332259,-21.079692823629028,-11.568796410501564,-1.9436640877726528
-28.80631908558341,-115.7636590471876,-60.27643834690509,0.9631405681844597,-41.1564429847808,-21.87044606638657,-11.957172399755631,-1.7879126820986504
-29.296763003073245,-123.12988641700908,-63.961886126596355,2.3265390054189776,-43.563889935053275,-23.703083895897745,-13.153347715364994,-1.9426948326958209
-30.31579364599022,-133.3150140872479,-69.88026155950249,3.186347487455267,-46.9765416552212,-25.932588437895056,-14.77253554679617,-2.5656655928504777
-31.574050523314156,-141.23296488510084,-75.30857634195283,2.8589065623655627,-49.73067695050544,-27.223071597553595,-15.899739179135258,-3.5831306489227774
-32.446625063959104,-139.55368541198672,-75.97388818064904,0.8806158561018068,-49.40561980693399,-25.897063425806966,-15.318618705425072,-4.644813596450535
-32.2254841001866,-121.43106213172939,-67.73248315012722,-2.801844738532563,-43.77964188548979,-20.670718897747857,-12.065848177036834,-5.249657083591239
-30.488120584864266,-84.35739521169388,-48.97300440681565,-7.758238548189116,-32.11805875956363,-11.482205984236337,-6.079438699473855,-5.000629563896599
-27.331198339655835,-32.81509928273752,-22.215655484209766,-13.142013408682075,-15.988773254650264,0.10203388214946144,1.483515186146082,-3.8583239689537803
-23.298029981974608,22.621339787836856,6.50655527626439,-17.9235247111512,1.1172446518685486,11.292019624124633,8.57782148149463,-2.2490536347231544
-19.051609237777527,69.97021517617893,30.504551183813902,-21.25546481659053,15.349381291490499,19.208508302191145,13.174901574292562,-0.9478339345806475
-15.031896203129627,101.73647144729333,45.855321871374414,-22.829245949302585,24.361979165494418,22.16782509576094,14.255786498087614,-0.768480085335668
-11.338728870580299,118.1506191128659,53.08098429276368,-23.01856082291751,28.2761308727335,20.382875089969048,12.289092597855182,-2.1963107929592245
-7.894775667128937,125.33036315177122,55.82136628510864,-22.662370950973813,29.066174349089003,15.666938602814586,8.878673042910334,-5.132440577522513
-4.716284115703789,129.35621764826962,57.340636101809515,-22.521528289992524,28.764944875041035,10.329791103527516,5.789233705331761,-8.86160976119575
-2.045797527718974,130.33811149667943,57.372206473514986,-22.68079506991723,27.742335304945378,5.946297657874795,3.9647795687744916,-12.253783101723583
-0.2405340267537367,120.9528072439528,51.7178881774154,-22.301807814084295,24.312396579651207,2.729457090136468,3.151978685703134,-14.128959520502075
0.47632031664221636,91.06358555836287,35.12839995419155,-19.99709695086816,16.017387877205802,-0.17196318792565615,2.325136978035961,-13.672508601731801
0.2039573592124027,35.78039861802953,5.653659271242976,-14.70333271883285,1.7639773651531996,-3.721227010561747,0.5789821959299979,-10.763800899393106
-0.6168166151128474,-38.29049249986546,-32.44555408917617,-6.543430226761729,-16.618897228790345,-8.047082644922627,-2.1255114314286923,-6.08001755696856
-1.312512111161449,-112.98835976251159,-69.26870029352013,2.905790840490289,-34.480636587262104,-12.127561562053257,-4.843354228187934,-0.8990486553059379
-1.1062073178917993,-165.39204430442408,-93.21819044471701,11.194732849565922,-46.161705782891495,-14.307198998049772,-6.207113035339724,3.3481399281327153
0.7890186549079401,-177.99487235894304,-96.18561711303107,16.1643873209804,-47.54379871814862,-13.310174385962728,-5.283689159186313,5.601546882608662
5.071839920655792,-146.77932543263265,-77.18468242034155,17.047436443230236,-37.94812876035985,-9.093693687608136,-2.173796772651806,5.553920975808086
12.173251347017267,-82.93542405463471,-42.613400151227246,14.867369689406779,-20.400029695388238,-2.992480904226607,2.009533243041156,3.7305981100927985
21.999654918873134,-7.55068320065073,-3.238938909466384,11.89515111877956,-0.2092071605718916,2.9439833506860995,5.7477489828116815,1.2416381675040113
33.740099601047184,57.67231210802716,30.354581640508577,10.480773832217029,17.315225277898225,7.02779445059656,7.934109884374662,-0.6699611727123097
45.9317359629759,98.84126655691571,51.59103559085387,11.937036158141584,28.857223263788352,8.797571856237287,8.441906970382137,-1.0692740433677568
56.856861184998635,113.57937786321845,59.42364266586251,16.081145402374766,33.929152298540515,9.191123122115448,8.160048682830235,0.4305737186982721
65.12663456840185,109.0714205603156,57.33875422033187,21.598493894191943,34.37231851668294,9.956897610186466,8.513029025035335,3.6853045052932174
70.15884545047872,96.5710006582495,50.86487884153625,26.889153238445722,33.01839961357113,12.66129053799343,10.73218723070753,8.187434899736026
72.28807694451997,85.84869504807524,45.05314346853694,30.82345348908967,32.29739625701321,17.833045950697763,15.224531409211433,13.209207038095252
72.44324389277477,82.11208525365033,42.93447134614845,33.003942246390686,33.38574245331475,24.646385372965383,21.29441057396612,17.832485097692057
71.58269187491433,85.7859450154545,45.138853617464136,33.549851595007304,36.06146286677193,31.230293885485235,27.31303595006147,20.959458003766173
70.23140984113434,94.00252629875109,50.35364817120729,32.74596921095866,39.11420561819404,35.42310061239772,31.28774975760953,21.499204377829344
68.39209027656112,102.52685402045343,56.24855465953263,30.88485656953602,41.05505177621606,35.65916033101022,31.65387895822105,18.810687003278655
65.83247866975492,107.47685829618396,60.557872297171556,28.347379062355525,40.8519755089992,31.64019991414708,27.98183350700462,13.211044199781632
62.48979458633151,106.60233435444881,61.95406176001734,25.711871074227854,38.3951622912446,24.49556126139489,21.24451499830883,6.166785506730145
58.68585958551503,99.89959538573204,60.36447970369765,23.68080856304808,34.47616214900375,16.326361619536428,13.450988220363863,-0.11272892557243668
55.027194121606826,89.44671265170341,56.69623973089001,22.811903252437368,30.331529443735352,9.337680783373589,6.799012675716116,-3.5895855073954155
52.09254252753122,78.68600712843345,52.318379035950706,23.21658426538273,27.083222518921925,5.005323311364426,2.7959828510779667,-3.3566293448468287
50.107997301672285,71.49527035916911,48.65229684237876,24.40938052334703,25.410809316186217,3.689034175018,1.7955653098508373,-0.09226036677357063
48.76468144692222,71.04145397378176,46.817414404470924,25.40659971224504,25.485043163050868,4.789479892038894,3.0928357817809657,4.267285956948337
47.253919697002914,78.16809309135272,47.024926622944825,25.081781840406794,26.920404827477437,7.2012821735005055,5.375612207146593,7.471081922249178
44.54226793087951,89.6122497021773,47.765638633707496,22.699152943244208,28.60015578836892,9.717571310795211,7.214412191433723,8.010402230835824
39.839608476943,97.35100696383205,45.487231972985455,18.429250845222164,28.595222680678283,11.234072842861405,7.414826057883774,5.7522001368537286
33.08805045913668,90.57038049025093,35.571197860322016,13.552124677487626,24.58096158244812,10.85458588985083,5.248280010008118,1.8695504429636454
25.19382582793257,60.33732480763229,14.601006173418137,10.106071574278412,14.848682560607822,8.056809797465284,0.6212436254345457,-1.831643527345311
17.778029109360574,4.860312337412062,-17.253646418824236,10.005501915693177,-0.5687295470076766,2.9111683726301125,-5.8549641630321725,-3.80669977933915
12.474163268708384,-67.88601288655737,-55.358661520359256,14.003623885428667,-19.434783299512794,-3.830641269294695,-13.002886848250096,-3.446605135484338
10.110399806280505,-142.2391219771126,-92.06492855726785,21.069523842614505,-37.965770588706185,-10.932268487152957,-19.454086910947005,-1.2510367137398632
10.256802180075931,-200.88808456250948,-119.77447968088063,28.61259772407099,-52.31683394984296,-17.085220307953513,-24.106802392088124,1.5203902853588107
11.455977851725109,-231.62454010967096,-133.7974348278303,33.55492761833803,-60.01775919326499,-21.267837171533582,-26.40675867088579,3.5059325779214925
12.05224778956219,-231.1638205918228,-133.3615963708179,33.756781450318925,-60.52454548559724,-22.824313006490602,-26.297153510303335,3.8789429967721785
11.135599514704682,-204.43594994680322,-120.52957772732638,29.04623003308012,-54.73027853358897,-21.319327911745606,-23.94759236367573,2.6666776165988995
9.008180495419714,-160.69537573028097,-98.27687475969023,21.279599982948344,-44.04622781769768,-16.481746745509522,-19.563871914642952,0.6188734722880144
6.873278577270274,-109.42066518455185,-69.35458808866788,13.387658695715949,-29.872773653438422,-8.49224595246533,-13.494972767150228,-1.2737970766619628
5.955182674158806,-58.23509282901411,-36.5663605363079,7.926141537099808,-13.774576582004698,1.5110121779774688,-6.53842904338351,-2.3303349596429235
6.626778692141511,-12.9824066815223,-3.7103573515425237,5.908907842740046,2.0508692976077523,11.197878651851706,-0.09114338512087033,-2.4954963922756206
8.099628121160157,21.48640370464132,24.13618235170982,6.516151950645302,14.722809834625746,17.541208425966552,4.148222858954736,-2.271777049477122
8.85127913883186,41.3261289153732,41.74749459484484,7.7588792794601,21.423955140419014,18.024160886345143,4.879212250589411,-2.352656025812187
7.493140782582763,44.90786732739274,45.911158022534025,7.647215580017179,20.66274898716477,11.958620601450836,1.9071263916934496,-3.209450089245247
3.5283946481152832,34.30245631038055,37.33566973363854,5.175504008551787,13.272921040865524,1.0831414071115717,-3.619477746601354,-4.880566626905482
-2.433381894661754,15.545245678447115,20.950308659610045,0.6344837142172558,2.401204856858399,-11.032857105861535,-9.654778281525433,-7.049047296441078
-9.055668129540571,-3.13533735928893,4.121115822240964,-4.77719460595582,-7.685280205015665,-20.511559110732048,-14.157001286565219,-9.29068734058761
-14.941243574552402,-14.494472945932937,-6.418513494124484,-9.681483527734189,-13.394314874411853,-24.76720332676823,-15.920914176777657,-11.278259279183194
-19.184384756457078,-15.203851931892144,-7.366195033156212,-13.14212218387782,-13.270049535330834,-23.353903229417273,-14.89879375552844,-12.805715288555085
-21.577176031150785,-7.102484325595347,-0.06894011912030447,-14.909771841011558,-8.445076741409286,-17.78637151407683,-11.947214838098718,-13.676826973002443
-22.473326052070583,3.6548483819962363,10.262446382128427,-15.274276102160865,-1.9922078744388103,-10.656270422573689,-8.283601613372406,-13.624662521979891
-22.447970718968826,9.154283006368196,16.954559446227336,-14.6908331927768,2.4714464372135185,-4.570486884037362,-4.986971045247646,-12.38668476708845
-21.924008134707957,3.3022306491088753,15.032782514356857,-13.434368107531087,2.4209951588201397,-1.2638910707336635,-2.685633288760705,-9.90606757393976
-20.936259277094113,-14.543186539332286,3.9800821915763036,-11.520263191114973,-2.2510675395169324,-1.0283983007586845,-1.40669349847193,-6.512771813674915
-19.173286487869568,-37.46467377374465,-11.23139282002145,-8.973096435900679,-8.808974277776548,-2.5756759937223763,-0.5751213400048379,-2.9507620942339554
-16.311673252969875,-52.20907348807878,-21.770281933240934,-6.2580936061061365,-12.574276991116774,-3.492820714708846,0.7624292980825549,-0.21911102937890747
-12.458358082472884,-44.41635945015222,-18.975255558927707,-4.4910665260039835,-9.0329311398276,-1.306330588006052,3.4512643322202643,0.7149187069345874
-8.391722489333555,-6.1482726905153795,0.9668151389251973,-5.1208870189426445,3.7132785353508075,5.193234948785393,7.636715783022919,-0.7624852118972968
-5.380452535224075,58.07874873808266,34.17624877209051,-9.144067927595549,23.428965293329444,15.02736851881389,12.401068565640267,-4.6538497840319435
-4.628140818208598,130.60195000809932,69.85313448974672,-16.30775344796982,44.133178234293545,25.117624311864056,15.933331243994653,-10.253428302503918
-6.649373559873506,186.65931490809413,94.61427054449864,-24.864499019404498,58.42734865436745,31.518386455429365,16.272481676876424,-16.28086925844245
-10.945080940118114,204.86845455505252,98.40376600913267,-32.146837920915274,60.74160891829401,31.27528201371251,12.317198533836033,-21.239433455991094
-16.174009736049708,177.0411744546773,79.05000894102373,-35.71895050217472,49.9085072547489,23.96253137779304,4.5747743561607965,-23.890743882208287
-20.73079845629007,112.17327921478588,43.17374631553978,-34.4831188735534,29.74451600801321,12.03865708301049,-4.815546896023724,-23.668758150407662
-23.42072390425712,32.39153968336124,3.0524194598008383,-29.130897000773416,7.327070226970854,-0.24315282381373643,-12.89716955125657,-20.86383303017077
-23.893705977752067,-37.032269479740464,-28.857225370257535,-21.724097731587477,-10.150051628940886,-8.840720594001683,-17.19318048526476,-16.494303978079987
-22.658425129002453,-78.3692439752902,-44.94878106516019,-14.694282793576422,-18.356643881888115,-11.782050988552507,-16.821257696298492,-11.910896807162453
-20.72271131356411,-87.52056304213076,-44.735142458995824,-9.829729116079404,-17.22567057774054,-9.874861608449763,-12.820647375139552,-8.294457979478901
-19.071105011565237,-73.0911312273916,-33.69128689686145,-7.731826489219846,-10.270135005228791,-5.9184052498714665,-7.513778012117547,-6.257116024531821
-18.23191254243872,-50.00684541300762,-19.805662162517038,-7.883586682140038,-2.4257508003148187,-2.9501799073464574,-3.2828103313563624,-5.70895718648512
-18.107926957588624,-31.83218952858978,-9.901051643546554,-9.130956443403951,2.306544579030272,-2.6082266796533453,-1.4680714830772148,-6.02210721970195
-18.099854958291576,-25.7461936373491,-7.413560169651214,-10.236048869992736,2.27552334398352,-4.534253695448929,-1.9641932185789701,-6.382245145500709
-17.420944551712775,-31.71373409633033,-12.112393892066095,-10.256792846396458,-1.7511556398750447,-7.0054865573709995,-3.6061712130999997,-6.144976651224653
-15.447670870164451,-44.78485366516307,-21.173000010889297,-8.705995039106075,-7.4972959464145195,-8.20640859982863,-4.965920016761852,-5.041177807228146
-11.974154994101896,-58.391961970273286,-30.71399260910541,-5.56609816949514,-12.382697694984978,-7.267238863435771,-5.038028947954485,-3.17082721489893
-7.29462539106528,-67.06733393349091,-37.2060474271438,-1.2241415078843656,-14.490213460560028,-4.517537108464265,-3.506081183144218,-0.835655189186781
-2.102261150575582,-68.01432077886409,-38.49568847409243,3.663333810853076,-13.076972124353208,-1.0003756469640857,-0.6161224541080214,1.6623266660292109
2.735627662503237,-61.531302148392555,-34.308871216591584,8.35655024453689,-8.631981181171621,2.2777027271739763,3.1072936305837375,4.125866855150245
6.408989485554373,-50.476335641055144,-26.188824525626437,12.196550939079383,-2.5960040063827816,4.8410572858504874,7.068389997484426,6.41979416029944
8.301928746640206,-39.155415736867624,-17.002529530959013,14.68169909017793,3.0797100218835918,6.732790199418841,10.640171114402571,8.347511024110712
8.041015625865644,-32.12074004890562,-10.220913628032784,15.491346817268493,6.3916342036360465,8.115945481042079,13.119576921388111,9.588011571940804
5.563923754985965,-33.06791208270576,-8.993767130174092,14.563396329470873,5.758768562351821,8.865857292866247,13.778960059273375,9.800709744948872
1.2814417463097252,-43.58558634980624,-14.902370915504243,12.250833849187043,0.6033276832833975,8.523050700754602,12.137676943650623,8.872088149355585
-3.7712169672350857,-61.675359556404835,-26.60661486659221,9.406140433314237,-8.041671614848237,6.686871641643775,8.367807187641562,7.138162231953586
-8.032544058537248,-80.85911137830118,-39.249430227949944,7.1876252841286865,-17.31093362441644,3.5523621625788957,3.5376987185629267,5.386960939319694
-9.901163674980802,-91.30706312456668,-45.631336987570705,6.570414826600016,-23.171124497124406,0.12970317519361307,-0.6014531201843645,4.5703141789081005
-8.445032455327507,-83.58794055349802,-39.24597303756396,7.830299707614332,-22.015490887140473,-2.107386055441945,-2.306610980615177,5.354691634197685
-3.9177255606366335,-53.58112987670404,-17.76974798177642,10.368019863001992,-12.481601484667063,-1.972991132812596,-0.6734111850435184,7.769523687051302
2.287305648209614,-5.531019514214191,15.189107219948356,13.03429929532453,3.620682644338285,0.7613773686851496,3.89038065083446,11.172246328323007
8.275850889298217,49.18864495600797,51.476662925219124,14.764800399977442,21.99606982936287,5.224376415196881,9.8642262392141,14.565227777105779
12.530857238064263,97.37514084126154,82.32032517529505,15.1195611658417,37.89334423417689,9.924705380051826,15.390767751571115,17.087513233443183
14.518108126534262,130.258909605451,102.43215740728729,14.401421743400943,48.29181830981585,13.531020131691442,19.16223463534921,18.399504219238157
14.694571002954742,146.72347437034173,111.71524445271032,13.336016826427318,52.91139708750533,15.44048014519665,20.884186401795883,18.752304213634734
13.994647764570491,151.44745290741352,113.62367990881867,12.597821484132632,53.49653051784924,15.808483255817396,21.084825484781238,18.735368940840186
13.194228476059202,149.55266819103835,111.58696867040842,12.525102605648584,52.01846289684655,15.133033645755555,20.497399078312945,18.882661740804156
12.563321135078835,141.92775532420526,106.2388968943003,13.141793020662101,49.16050138065464,13.801402736250498,19.50860945197869,19.367114035050086
11.93437170424913,124.80599609927135,95.42711501081882,14.31761409769547,44.133564695914146,11.954174707771365,18.0380739469788,19.92368763861851
10.99792724135076,93.77055157237552,76.74014556148782,15.828784291423506,35.78234764277583,9.678440128708967,15.83062806996723,20.007146395839737
9.544441502874337,48.89794223204871,50.399181731155146,17.27432956471049,23.98205773173744,7.245432855062682,12.84460165208249,19.095329837243696
7.51733680560921,-3.0051601337575113,20.261647342599307,18.022974585305857,10.223443393501574,5.114702832517559,9.421897207992307,17.003426126956345
4.939677445099474,-50.776162041835896,-7.743156087941676,17.36983591042886,-2.9934649197329626,3.678234029129486,6.154313421777674,14.060105165591258
1.8515649438297577,-84.2158963166868,-28.547696984510434,14.877312466810364,-13.446413253258294,2.951661025993214,3.5821991208780233,11.026139948370334
-1.6695042448542468,-98.84845053825222,-40.2507452072881,10.677292368401664,-20.25252803433427,2.4512494051115263,1.9244793566527407,8.74281639861417
-5.440634088121979,-97.39245364886794,-44.481523893216306,5.507676579262542,-24.085847912560553,1.3483523549248395,0.9626415025203883,7.660374075942131
-9.143273745088374,-87.66639031907407,-44.97704755992733,0.44192960313576185,-26.579655079746903,-1.1864102000446441,0.0961262309659102,7.516799202322934
-12.375232703241947,-78.75417283005147,-45.57223248199236,-3.514579599870236,-29.41819569481007,-5.6217565950585255,-1.4618870544897746,7.403519220860598
-14.748121504085892,-77.56734550741325,-48.728211857745364,-5.7227344920863885,-33.61555817112501,-11.820168981659405,-4.37627222715254,6.243983121916308
-15.962903003642078,-86.755606654686,-54.89978220532558,-5.9993552890241455,-39.14660385029984,-18.95275073386558,-8.820419149936845,3.4349173232314976
-15.851503986798697,-103.81932780942512,-62.45327447144437,-4.592670314034899,-44.86110011683231,-25.58650688647668,-14.191145694875106,-0.7493791326617195
-14.43806366384864,-121.34694561215767,-67.99549369608197,-2.185884901039313,-48.683771350412904,-29.988127629598626,-19.13523877057667,-5.273327275911486
-12.046282693329472,-128.93207089236566,-67.3729212519091,0.08482614613313727,-48.24094521604814,-30.668941121849553,-22.025956045036796,-8.924968170518094
-9.36838445142338,-117.08044864458672,-57.44936709767343,0.7845425923342827,-41.9050254880464,-27.03652635346613,-21.740325759114537,-10.994824185978624
-7.351103069528114,-81.92644925188954,-38.00942668613554,-1.3541490826894138,-29.83311463709152,-19.824891358233852,-18.3073337395558,-11.612311965664881
-6.852589216119433,-28.183215869123952,-12.571369049375537,-6.79095234312736,-14.324517408901388,-10.974930257468293,-12.994871593691803,-11.552500167658385
-8.221517971628082,31.906773703921807,12.71851467242601,-14.75714835576762,0.907768836133801,-2.916866521644476,-7.7337142701441275,-11.690059398529195
-11.066421420142545,83.61140987274587,31.739984715974664,-23.412088738363,12.285899210353554,2.4164661453978886,-4.201798421049771,-12.484017484753704
-14.399457003213096,116.14023697941009,41.13365694429222,-30.59048885468194,17.89946495729478,4.327804614763462,-3.098182599010055,-13.800397065285864
-17.10366182336674,126.86840423789265,41.51619828257672,-34.75245320620062,18.151989822034945,3.464552006772073,-3.9923736900676707,-15.115021183478655
-18.455104335600172,121.14723272671995,36.55460098500611,-35.593712028433785,15.205832580323776,1.2893734216227615,-5.759624754899697,-15.895303760839873
-18.391329005158685,108.33828737264301,30.68320825951454,-33.98902884787308,11.6713655834285,-0.7306418314943222,-7.265025174143786,-15.894787000011982
-17.393600136613447,96.92667945470696,27.022535205169998,-31.375590451609796,9.403294777292906,-1.7374400394339773,-7.867328768435417,-15.214634660384753
-16.116252990111935,91.5539250276171,26.622503710793666,-29.01418796635169,9.036426734938926,-1.620761789407206,-7.518816619733926,-14.169682340835243
-15.04194211989889,92.83938328689905,28.97126356651971,-27.55478358477816,10.2548302427236,-0.7600390699523063,-6.551075281080502,-13.099969546050877
-14.357071435103332,98.84615745977638,32.890000225041994,-27.03167382182909,12.323184572999955,0.33524481596042,-5.3975114538411,-12.242371139872514
-14.03008588915226,106.62169544416047,37.0960617553893,-27.112283951635664,14.463187914464658,1.2534051149419976,-4.423105710231373,-11.687591096426186
-13.943998509535295,113.20218894028564,40.41359079659937,-27.35897583010651,16.020027387424484,1.75101520954628,-3.8595870750422363,-11.39168691684162
-13.9737903860253,116.3476498795501,41.97031211618514,-27.39865553010706,16.576795894098783,1.7593264193120528,-3.773920289961015,-11.21574544062979
-14.008461036540496,115.2076130234732,41.48778958700251,-27.019156097231626,16.080402102250346,1.3790183123753554,-4.053161032137581,-10.986691202938086
-13.957901238143009,110.65071806907356,39.459392807915485,-26.21069437814406,14.88711051624998,0.8418679479464293,-4.441074941065357,-10.566393032899006
-13.750210553920196,105.0048540820759,37.067603186453795,-25.12995489361842,13.662974617696431,0.4297150485987673,-4.629987130904097,-9.901211783585403
-13.312723125274603,101.37748158034884,35.92248877766408,-23.997119975659125,13.199910676238003,0.3945605910698307,-4.359737327624134,-9.034478678625812
-12.574702177314155,102.81110873130716,37.67170100054113,-23.006116855453243,14.204603526590036,0.90920646287332,-3.494409643689164,-8.092726840516166
-11.546437333665795,111.1478681478296,43.31351762201573,-22.312034521731665,17.000057300328013,2.0064614463618966,-2.10302260230311,-7.2617726904713775
-10.446864148238006,125.44008066028486,52.16428763865213,-22.048564018899246,21.107351109630468,3.463941868761576,-0.5515903992073321,-6.741538983874227
-9.743151587763283,140.5729155430349,61.036055454380694,-22.268599130344096,24.942316542346646,4.708621190179862,0.4877216518117169,-6.655221290692212
-9.979872391200043,147.63852183144945,64.6145007025216,-22.79872012232108,26.065411965671906,4.912636049614571,0.2461099702595479,-6.930657833558144
-11.44356845695443,137.11413696445268,57.530125488520696,-23.153996148492766,22.18810306473147,3.3615154517118744,-1.716039746012876,-7.238633615306407
-13.881019117675823,103.87172527182383,37.32780587716493,-22.672780231981054,12.527420106181028,-0.06969479625839661,-5.101220306543967,-7.082271954621099
-16.4927515082147,51.10199108381978,6.54132573515688,-20.8511143560388,-1.355707863202814,-4.664415050365252,-8.812076410671684,-6.044008577315675
-18.245098110292073,-9.714698670205141,-27.65263764130459,-17.65733532585791,-15.918982899413509,-9.068793627614818,-11.38136490033212,-4.0685933854188425
-18.333111912380563,-63.32387152164517,-56.27069576496615,-13.594063490837334,-27.133451380109182,-11.876427302866794,-11.702719336884378,-1.5971662270135392
-16.53873973059622,-97.27934163862336,-72.32746503084896,-9.46353118108227,-32.27361897770403,-12.25052825381761,-9.633220850653771,0.5694429050386529
-13.308114751389736,-106.82284611806104,-73.51344456250756,-6.013071661509918,-30.967481888881462,-10.224818821658376,-6.093086483683068,1.6386067387706742
-9.54740866065694,-95.56891173693506,-62.4892111255259,-3.70521074379331,-24.99788485830097,-6.565962886264616,-2.6074181264878096,1.227394617688044
-6.279437671018005,-72.41761822868492,-45.123997412694195,-2.717756193494099,-17.196551474109366,-2.3833432681694067,-0.5925291464397577,-0.4379255385505483
-4.315723963052515,-47.36172053281829,-28.08745101324689,-3.0513101522124764,-10.271407755885022,1.2110802769878921,-0.8146354446256536,-2.6342336798589425
-4.007462158628233,-28.71068020866099,-17.011472934419288,-4.520800512907378,-6.182042007413311,3.2480940996147147,-3.2536019372111875,-4.474626659796882
-5.077943624375377,-22.199528916995565,-15.432859258085234,-6.562626094857584,-6.025307621482856,2.967096692762643,-7.282321570471916,-5.254358672902868
-6.5886865938368375,-30.70009577142663,-24.093399943843263,-8.072311121330088,-9.99810076428501,-0.0022778847159877075,-11.919557446708179,-4.647159520814759
-7.159179271786206,-53.463026276811526,-40.50059460755205,-7.593839171270631,-17.2186853949637,-5.342620897154286,-16.02688626037319,-2.723219679349658
-5.486185206714174,-85.40719673555179,-59.307225057215284,-3.943535977091144,-25.672899809877077,-11.893514941337616,-18.510396502907067,0.14517233529786625
-0.9840111415025034,-117.92732154255339,-74.0240919168233,3.052459023131426,-32.69557150765497,-17.916753475246516,-18.61556856337267,3.4181187147783496
5.815243261159561,-141.8482771830822,-79.65843189054128,12.228082961093378,-36.00259124405215,-21.774266712344026,-16.247414778006465,6.528987026550928
13.398528733941264,-151.31858642398893,-74.93207455621479,21.46681975353148,-34.747157066670106,-22.663252963641288,-12.103021761160068,9.021767793449603
19.933037363680405,-146.3472108939087,-62.72139827445099,28.648118998840594,-29.91443816812463,-20.954385992923896,-7.44964982791935,10.666064941275078
24.099503957034457,-132.33375364519694,-48.38661783355743,32.60346810681534,-23.75367679963004,-17.919712154155395,-3.6016353932932397,11.51031672986892
25.625640272090024,-116.86521223174557,-36.98430498183109,33.52392333643672,-18.5824016459921,-15.031684797579263,-1.3675541181737927,11.835689114916697
25.23822962585166,-105.83271751491313,-31.030480409606824,32.629161026368905,-15.70689035941646,-13.272521532404431,-0.7803180859040584,12.015411757232654
24.122443367067866,-101.21355846163618,-30.010115010244345,31.382342755409645,-15.076859776819534,-12.835529780047791,-1.2438306396920984,12.345240516861073
23.26569406840768,-101.4529876278411,-31.56549677807379,30.769557832736446,-15.73186112410334,-13.291321851268759,-1.9570984689567892,12.93642106474291
23.07273478419281,-103.48876084351122,-33.236880669518,31.017136651304078,-16.566082560578906,-13.990156915087347,-2.3218610427297435,13.720400921107345
23.394559015365004,-104.69158311927818,-33.58024375481963,31.769266388775502,-16.863086895867635,-14.406068383501868,-2.1180269325331356,14.53776058461747
23.836524568740415,-103.74701608099257,-32.302327928387456,32.49468136950894,-16.407235648227246,-14.28988001522534,-1.4451601055222374,15.2419412708642
24.102574228581886,-100.66709207770087,-29.833480317097873,32.87030443068276,-15.343173603203127,-13.6761926957817,-0.5689438466217243,15.769263733088414
24.199660885883496,-96.468458231418,-26.857371914108768,32.99230958358653,-14.001462148128812,-12.82121080274573,0.2171529663470361,16.16826357129856
24.435526192380188,-92.63383724796903,-23.96049388380706,33.339491948277285,-12.738076487886723,-12.082752432665469,0.7024532304567871,16.59093428992425
25.2102228352442,-90.26223320413084,-21.377738097871426,34.46414368334978,-11.760790534005876,-11.741006756742292,0.8524686876304413,17.232157198618488
26.668456945470872,-89.23802126102966,-18.94428226833083,36.50923621039448,-11.016649420989665,-11.831093394441087,0.842043783560822,18.21189291046886
28.38814894602668,-88.1122331717238,-16.396565677864732,38.8262156511391,-10.266908110471153,-12.098572214287056,0.9722042519077314,19.44489915729055
29.348172183382676,-84.93668384154664,-13.834672385826783,40.01230670299174,-9.317356396267595,-12.110672320850522,1.497625140749534,20.584731039776322
28.31037596903946,-78.38449987837444,-11.842433796601213,38.46846703838036,-8.17502502911015,-11.437027563969364,2.4785128849483566,21.103530473364422
24.473625263996265,-68.22106687977298,-10.992563029281293,33.217789364302895,-6.954190388136819,-9.793292951553596,3.748439744325275,20.484804390001567
18.013648444892617,-54.942197156593956,-11.136609954360592,24.507416918635432,-5.647038513452283,-7.1287859054544365,4.981630746206046,18.43429183608889
10.136411893914136,-39.3095000716596,-11.260543690916556,13.828426319190227,-4.071973635482727,-3.704067127305438,5.779193929998869,15.01144428547627
2.5704119705141064,-22.533269041952362,-10.265524332372307,3.3460543254678763,-2.156133954698159,-0.153981901114672,5.738924751352418,10.64000385546643
-3.2033177686646868,-6.952945535336035,-8.13455982847432,-4.921434399187003,-0.32828529601173334,2.5683841220156283,4.552653722002768,6.014821056332986
-6.5119969432258,3.826194856213392,-6.398916168792696,-9.736496856080995,0.4315993446978241,3.4859069658980806,2.1805066574779945,1.9429804033537508
-7.53388318915046,6.345495757594949,-7.174424317509119,-10.847780956058413,-0.8311007943846425,2.1208416231547,-0.9346905090815694,-0.8528346658031862
-6.897037180051541,0.09919834557074508,-11.138987894927853,-8.85021850731561,-4.061328349391739,-0.9721981236896954,-3.7561332160984278,-1.944878643954844
-5.2134959595294035,-9.998178696107091,-15.891284961205226,-4.953280928984523,-7.501162174364826,-4.035361638963604,-4.820955797343823,-1.3747928257129676
-2.90672065160194,-13.852605354925611,-16.23456762915741,-0.7947131565537618,-8.011433646606488,-4.595847329905527,-2.7533801690938464,0.29371691231600144
-0.3702182943430082,-0.18572130175133983,-6.726799590640818,1.801528225620941,-2.5267124549645805,-0.5485203985289029,3.0468606098592073,2.1221164830619546
1.8219830390565266,37.38084845243592,14.901896686976896,1.284340707163841,10.10818829650405,8.687505054822477,11.9189218383414,3.1390109458293303
2.955654161599327,95.81253727041346,45.7295350044969,-3.0087262972679927,28.102624621130136,21.639712174431367,22.013112472867512,2.746568900118865
2.5013528009207517,162.84136798191494,78.48658600944599,-10.419840888617262,47.24388474592648,35.27570560752034,30.97441171577741,0.9852741160169834
0.47060942678782874,222.10808075294887,104.8558214661917,-19.089679610395624,62.74872580817365,46.30072243209398,36.90736120126015,-1.4996085002748079
-2.4970357205544365,260.4415729111172,119.27704153642607,-26.684428272296238,71.38656508630102,52.55488311751241,39.110030580844274,-3.784655256360081
-5.406873557634669,273.25879226847627,121.13153675117294,-31.378954312729714,72.71525129866352,53.78002034899341,38.212110783983576,-5.111616432228234
-7.363500301745388,265.45602475027255,114.35259363856451,-32.55872613791632,68.89320760071351,51.44636965117841,35.71692109576895,-5.206018861416906
-7.918703365727767,248.01375633521093,105.10746735335537,-30.8883369355453,63.40047944936503,47.8809255494924,33.27424614196855,-4.314242450054299
-7.144247701958815,232.79727533626723,99.09639337296039,-27.80703836678725,59.51109290867382,45.24809775102744,32.08486691716525,-2.9788352750728953
-5.487170306214848,228.24323893494065,99.70739591449407,-24.83249162589553,59.22096284696644,44.84047080273968,32.63977894535339,-1.719757974428475
-3.5877383040488633,237.11079677756712,107.27770693574487,-23.05188970052888,62.80737179022235,46.809537338002315,34.727080014701066,-0.8112834015989475
-2.1617788557549007,255.99436567286645,119.08840757056612,-22.91823261556526,68.83115716611726,50.22564338240862,37.539265400067364,-0.24329471225943206
-1.8879636476782578,276.15769954080326,129.92816348330143,-24.23768576427187,74.46829682656193,53.36278918048299,39.829025998004546,0.17125228299381745
-3.20131281081251,285.9501524273474,133.51674406535375,-26.238081224008873,76.29396267073844,54.215296969390415,40.2012052732213,0.6378794898635545
-6.031883487297126,275.03399965192807,124.88926606915014,-27.759275157797934,71.56755324203883,51.22604790926152,37.58712411840058,1.2451146671926725
-9.68185313333481,239.29095584884132,102.94494780184375,-27.649371238886026,59.61432869285237,44.00240832961986,31.744955828821816,1.8892104196795354
-13.012140981887953,183.84172970358122,71.67337085548729,-25.285062741175924,42.523036659304495,33.638993299899276,23.48970468078274,2.28591402670848
-14.900992581957626,121.87502346649605,38.980864804567815,-20.93141149883423,24.56324320706259,22.386321031904973,14.45754362639791,2.087767252434306
-14.721431220863398,69.26764854436486,13.448886459446529,-15.661272278312808,10.456113486756568,12.776143448000651,6.497216431927755,1.080324624557865
-12.551102300561253,37.71836371745294,0.7305112765956867,-10.81731852769562,3.384904668806858,6.662582121331128,1.0233247895994213,-0.6350168136695968
-9.009239781500318,30.20355384665836,1.563075014967024,-7.325244199798583,3.827294897037544,4.681049105593063,-1.335571600805643,-2.5884691068374006
-4.8711267361474,41.0830709855899,12.304516716190967,-5.29171298811312,9.76365902591942,6.319747753662938,-0.7029368247297578,-4.081531143548758
-0.7413479229098141,60.183778605690186,27.277347604638543,-4.130748770844969,17.94598608636988,10.382982720501268,2.281915364795646,-4.472588615493915
3.027961094500149,77.90922836012815,41.26134490496114,-3.0901398958990756,25.350455858598337,15.43987559076035,6.649632956127916,-3.4712917900316356
6.218742364984983,88.49044025968107,50.864266973126455,-1.7826466252134612,30.064628618321933,20.03455831081083,11.169593093738307,-1.2942733530932138
8.62748074522901,90.48595686037093,54.68023416023969,-0.3718932136461124,31.452685334742146,22.7782204838393,14.467079422833933,1.3873775526231868
10.086486774199384,85.56645034236907,52.93633309085806,0.6412478230412659,29.90781654326743,22.585383091134954,15.366032149787323,3.6702690866045415
10.581829215454993,76.96960997211296,47.143447082825574,0.8064412558331031,26.499841048929405,19.106651648986848,13.388545190514336,4.708768783199449
10.314121231905778,68.16726770439945,39.659172759039,0.008589415472744465,22.577088475171433,13.080725566989907,9.090936438944782,3.979199981115839
9.617406547572326,61.69995435661574,32.93503530701653,-1.4799222721954008,19.305677371143975,6.248619316487554,3.9396709537714547,1.4627432662430921
8.79811634637582,58.39961809606634,28.66984819436364,-3.1446141292021905,17.29559468332133,0.7454826866758647,-0.27001198148798283,-2.2945129617797115
8.014686457308692,57.51668234313345,27.406145291396435,-4.473717882184884,16.545310329032215,-1.7501357707310206,-2.149677212479523,-6.296222873152979
7.253395053323084,57.74671619462507,28.767959712096328,-5.2034637741709115,16.713959876806992,-0.6877437620909898,-1.2473564101987704,-9.408939535350212
6.374273186519686,58.27666430930058,31.94142744946141,-5.455210039024124,17.43189438294023,3.152405929689952,1.8268911017974931,-10.790934229072908
5.190345769691152,58.92107764551834,35.90547794811496,-5.664949001130378,18.370760965819546,7.981974586027928,5.684734972720347,-10.237361825535146
3.5687142556140095,59.41910173326675,39.41647257291816,-6.307852940391511,19.11910658036231,11.719007044072159,8.733274824164122,-8.246744261792117
1.5292723044487881,58.87347592720607,41.15285349022986,-7.578514600774597,19.15025322605252,12.826321008760287,9.828950554715108,-5.772101317055411
-0.7185038206407984,56.08029739213897,40.218643158368266,-9.245366483339044,18.0426591263181,10.932655097196164,8.740304546818537,-3.8052354775163564
-2.839920559966598,50.48814758208206,36.705013646149006,-10.770620562332084,15.802591296657956,6.957908057977291,6.202346623357432,-3.0044535229512865
-4.497630310025553,42.95748687557107,31.87000668656791,-11.591026324688976,13.021330153128353,2.693907479049474,3.549736254368655,-3.5019166159216244
-5.442007716919935,35.83028540353185,27.813860033051547,-11.377012927907758,10.755365947610477,0.06218879540184792,2.1384662938577996,-4.920504889918943
-5.5348191041606825,32.337008207143725,26.803662723253705,-10.163688148065267,10.190075930907637,0.381117209357082,2.8244007875267085,-6.567600023784121
-4.763643677431484,35.3753573133921,30.343233946827056,-8.344267201904449,12.14907245246466,3.871247111001533,5.644005623554791,-7.739765623091047
-3.3058129419936586,45.59766533869899,38.03815325691703,-6.5324011596146425,16.489322766846346,9.46937912001764,9.709641523361622,-8.030530351813882
-1.5940254638867761,59.34787822074776,46.676441621782224,-5.290411903759312,21.595273490869655,14.986369577216552,13.335534781426437,-7.501117132941307
-0.25299090551379994,68.0207005550527,50.42449922995366,-4.790431117217163,24.43235074315411,17.68774515905855,14.477354376517356,-6.610641854221835
0.1543385908928211,60.45305645914202,42.81160343280401,-4.597694746054371,21.530642494430356,15.280357848332144,11.492048590880039,-5.928617895804344
-0.5500902686724104,28.15891278647894,19.9852621845166,-3.7834354688493073,10.672926976843678,6.981016161207685,3.958645073222397,-5.79720842249051
-2.0034679967428035,-29.283613638123533,-16.567890577636867,-1.3947999809205103,-7.627400645105179,-5.915559762113553,-6.914887818080297,-6.154952042250422
-3.4658615735870373,-102.31488212160167,-59.772039944241484,2.960503570796114,-29.890118871578434,-20.41895846864247,-18.65207644119419,-6.624815212147655
-4.22707417835829,-174.76870651352803,-99.73310948166875,8.789714555525343,-51.018849540137715,-33.08662635721672,-28.537936916769397,-6.784756660809307
-3.994012344624092,-230.9829327388473,-128.12051719693167,14.889821142047605,-66.5569383470699,-41.48083846686565,-34.772521629072195,-6.423074969858683
-3.004609859661018,-262.5982106441458,-141.65762510039315,19.938889144062337,-74.55922692444297,-45.042101288781446,-37.10701733146165,-5.617545471965524
-1.8120016555173764,-271.1917900166735,-142.789043296688,23.14057240421618,-76.04312997887887,-44.95262916733243,-36.651528977109955,-4.62432025447532
-0.9152834265455189,-265.62487126890693,-137.41861141988164,24.525722009563424,-73.90976697914677,-43.188457686318316,-35.06053562052747,-3.6958462897359743
-0.49866769829547614,-256.31620051173326,-131.40145237665425,24.76469323358592,-71.1678956960965,-41.41525937435077,-33.649366955458895,-2.966469707710573
-0.42156440595453804,-250.24457547844236,-127.99041631550709,24.68959781668261,-69.59642625715576,-40.381858613317014,-32.95160907173856,-2.454191964791942
-0.39998043627465163,-249.34114639163442,-127.44431401429831,24.888627551919868,-69.49375979340974,-40.04538690734935,-32.8614326895441,-2.12402414675924
-0.21482874530826393,-252.21879377739967,-128.4214430940186,25.59406973177045,-70.3410373532066,-40.153416138141544,-33.11050132876051,-1.9333181798732648
0.16948779884462778,-257.12620359954093,-129.8210948031424,26.804370163254518,-71.69214690997656,-40.76649571769479,-33.67687888110578,-1.831118698377313
0.5955106416507342,-263.8843045798235,-131.8530688698274,28.43254982700498,-73.66126700336235,-42.33575632611771,-34.85310379357731,-1.73878687892673
0.7943119411029949,-273.81349943733767,-135.8387950358978,30.35217425723156,-76.77489570430079,-45.28764789359661,-36.9524831533668,-1.5468247544032956
0.546535139518682,-287.96744364484846,-142.93347160150785,32.3640829284235,-81.33086123470319,-49.378983764438466,-39.84205672686298,-1.1418476473856956
-0.12567456148965445,-304.73870759235865,-152.43494178270902,34.153925534078176,-86.63797578235786,-53.24863856585623,-42.60169953423745,-0.4674269636423691
-0.863994704024168,-318.3082673901739,-160.70706530687184,35.26160322797149,-90.64203345371676,-54.57394443584029,-43.609628722212065,0.3819648953660721
-1.1119097699406937,-319.48304130002975,-161.79282765313076,35.07202593109093,-90.40833888603754,-51.00152594062887,-41.194811780403555,1.0675500054640672
-0.4759664803171547,-299.59861142724463,-150.08317120507843,32.897889601236926,-83.54382515074714,-41.56706605254334,-34.656980275308364,1.0005184120251578
0.9083979356612372,-256.1364045402645,-123.98279492256555,28.241027341638834,-69.94569880396269,-27.8410608303476,-25.088831251989042,-0.4820317377787033
2.3069884349574536,-196.68932493636723,-88.30164023390942,21.194687163572905,-52.72687228041298,-13.916611688346643,-15.347425274425929,-3.7585606464722
2.758618012735121,-137.82748166393515,-53.27438326195272,12.764058599605402,-37.360116227131755,-4.860461180015331,-8.913901641125507,-8.536461547968639
1.72366211179099,-98.04866575266524,-29.95686385448552,4.812847768304832,-29.093903823818206,-4.202549184831378,-8.094371421897227,-13.69360444606383
-0.405182356385896,-87.9403054745563,-24.214610389236267,-0.5109850548033494,-29.925860999145698,-11.820858712707858,-12.569341175912472,-17.54556447032051
