FZ,C3,CZ,C4,PZ,PO7,OZ,PO8
8.720851511592668,-43.34160621182735,-15.158524141316791,13.829727336329082,-13.969958583992623,-2.5473623471181357,-0.39632738241427173,6.3807568889979684
7.875227375219379,-34.644604676479595,-12.427641916177311,11.890006888959281,-10.857019901347174,-0.9936588161312894,0.5585281697569862,5.707572939562061
7.348034291627754,-28.29707010212188,-10.317433113212138,10.597213701059504,-8.539540355319776,0.21318034357221446,1.3322232122004876,5.276925005465318
7.323783556970108,-25.588531059698077,-9.144186140379214,10.319769671182572,-7.447258236085294,0.8849039730289741,1.831631408491829,5.228722902429902
7.789011862871981,-26.323981821453483,-8.825446449194061,11.022674019133737,-7.505443054576189,1.0549320831628057,2.080924680060953,5.551915295934102
8.567919741068042,-29.223458141310804,-9.030640046298481,12.350856135904161,-8.283365287399349,0.9136980035043669,2.1785119781362874,6.113078736454237
9.431303396035062,-32.731572065208255,-9.395398088837043,13.850509394854265,-9.268072602224647,0.6874831302152641,2.2332137129251945,6.73914547504696
10.207895035971672,-35.68317776565906,-9.643850524670194,15.182189755061575,-10.073457605368715,0.5444758311205005,2.325570150817795,7.30012531622765
10.834615376804848,-37.56123857765624,-9.61900293808463,16.21362233755995,-10.516674415367719,0.560614488102126,2.4977748890454263,7.746268630930628
11.3359379022456,-38.43711272770416,-9.299949212376971,16.98556198825854,-10.608991027343794,0.7263899725643413,2.751568301907933,8.09423687675787
11.7734811681514,-38.77701682775912,-8.813275345011116,17.62423410020912,-10.510268268075745,0.9711570315451821,3.049597692792849,8.391702457295866
12.210101976026325,-39.186204828316356,-8.370070504720353,18.269218513986008,-10.444009013412469,1.2023023245839817,3.33548925863614,8.690312294679764
12.696701867341973,-40.11339519318426,-8.120360138134647,19.030283380715993,-10.575781485316694,1.3561113323765528,3.5732076217379136,9.03242376595963
13.263399159629834,-41.63281516366925,-8.040788534601687,19.956654620700185,-10.920576984976103,1.4333843426470558,3.7747732435422,9.440960417490357
13.907002721560525,-43.46205707264517,-7.971724985428953,21.020313979916974,-11.356148795211347,1.4890689769312138,3.9861834911319507,9.909650902137432
14.589141910972561,-45.20953390062853,-7.766720169673547,22.13351399690999,-11.731020357455098,1.582412099030507,4.24313593100178,10.404127198809444
15.256320033522963,-46.633023677357244,-7.397918721402637,23.198893937705403,-11.964716837897976,1.733171308853704,4.541201568503409,10.87952048973214
15.867854504880425,-47.70444757291187,-6.93124707842484,24.155399505454394,-12.06153323253847,1.920096182009226,4.846454801680376,11.302833250596773
16.408251848704374,-48.5149905416525,-6.449380019086883,24.98900284275005,-12.068826916270494,2.1096505865052366,5.125961254774596,11.663965220170859
16.88303341687308,-49.2135906762429,-6.036190427300477,25.722030957826117,-12.060864162818927,2.276355601167083,5.363100043928631,11.9750765510471
17.319147646654425,-50.04535408022677,-5.802664678870923,26.41620742579401,-12.155471493814192,2.402140123354415,5.555075226756211,12.270702800230511
17.777200453127197,-51.33246303583565,-5.835421907232845,27.18684074182528,-12.484719309827208,2.479252022328038,5.718095080147389,12.610049286008337
18.34848151666197,-53.25706409449742,-6.050475004351845,28.178800925496528,-13.080173124561998,2.5330800491369696,5.905364516356491,13.062968112565322
19.107053345806037,-55.581694966157045,-6.116649501161343,29.474156376674475,-13.76449160599944,2.6371146955462117,6.202782410082298,13.66598148418591
20.033576854117207,-57.623580397376124,-5.613651714721919,30.98230043566616,-14.190513752195113,2.8786024478068435,6.672540494971492,14.369612226935333
20.97515525812004,-58.61809762306219,-4.36261421425672,32.41573231773818,-14.050731755448735,3.2819293089523867,7.27492388325264,15.026063543985858
21.695707780655294,-58.24625441025401,-2.6639791341162447,33.40984627373245,-13.31700735170227,3.75471895017625,7.844400108326796,15.449777054157643
22.00700030527472,-56.960095945451656,-1.233439168807194,33.74025442229184,-12.33951757079991,4.116068394187398,8.165207678252742,15.53128037937512
21.911003518528428,-55.92258539775531,-0.8640437088422346,33.52068701500547,-11.744663601823724,4.198730863758137,8.10996251198182,15.341886724593872
21.6737098062855,-56.60301390052664,-1.9957548128763192,33.268969015509285,-12.177684666053214,3.960763367291846,7.754596441382052,15.163471013923568
21.776168233018154,-60.109348053444364,-4.350022514388311,33.77143520906947,-13.954333839458968,3.5466120423189174,7.401368234256964,15.404903569718078
22.721476400865626,-66.35112686743435,-6.752966029392606,35.727959598154065,-16.704547018161158,3.2717389444319696,7.487203209195117,16.405471719154125
24.72523505207042,-73.36261376665801,-7.341729836979346,39.250990995782495,-19.197458026776385,3.5168644967338496,8.382301413456364,18.176918716036333
27.403808171220934,-77.41597883100587,-4.343823941728055,43.43910027720349,-19.61841568242359,4.5215239843371045,10.11435285062261,20.201620097655127
29.66172286130058,-74.39573117646151,2.7103042487548126,46.35103306905537,-16.40214763248748,6.121728271432035,12.127184039328034,21.445125902081312
29.961567501789183,-62.07461901046287,12.011432139602569,45.604625764897044,-9.297718783626571,7.580101706844211,13.260015468268191,20.686069647199037
26.970537659932397,-41.98682195091677,19.60491775361725,39.47175151551659,0.020574716654192058,7.701268066771779,12.098582599252053,17.09327857838642
20.300940681883585,-19.454770354873745,20.9756741402731,27.934779781847475,8.378867089262739,5.305369868205041,7.644300133956619,10.77879117275642
10.904923209734541,-1.358906082646378,13.396714646872288,13.039231230237675,12.526364561416614,-0.11506336684935918,-0.01745606471833916,2.984356544216794
0.8127067192187664,7.1820332868955035,-2.4016886113724047,-1.7971588645423822,10.779413174654298,-7.92753461457032,-9.48034297100079,-4.287435079779848
-7.7141056168807705,5.123732352873352,-22.462602437197546,-13.229199029743796,3.8378954915370564,-16.426171391380272,-18.46370195704618,-9.07399222740675
-13.149102881379912,-4.704442087666195,-41.719513310003535,-19.379649013787702,-5.777766333162496,-23.48942708498592,-24.78998155462746,-10.287405150206071
-15.212581602743201,-17.936838572791622,-56.539219768589554,-20.383488727973397,-15.217468117460253,-27.488195256267716,-27.350380564009335,-8.139488060270217
-14.647275766163627,-31.03392631717781,-65.7677427670413,-17.84574991800039,-22.53656538848284,-27.87750308684585,-26.44172204045071,-3.9470996347683047
-12.487485958768973,-41.6327157995463,-69.51362493700144,-13.706936722745745,-26.746147999118214,-25.084847346486498,-23.24153622022706,0.5253858293607429
-9.386395224337361,-46.92510345421794,-66.90950921805708,-9.332412268446449,-26.884407266253497,-19.832655444191904,-18.814975519343054,3.784395745136774
-5.457078987654649,-42.29569642809735,-55.156097589726656,-5.320164260371588,-21.304595877113112,-12.489513838977208,-13.41598040806546,5.029393385865112
-0.6330275537772488,-22.46899384404331,-31.127509034322443,-1.8821676329451626,-8.211410988635631,-3.007392318748378,-6.603550622446957,4.186570401115987
4.845503169209253,14.957445606852342,5.492986838036999,0.7306536048391012,12.74432705470622,8.527909136606526,1.9775917094204918,1.7028427748772588
10.248991628910938,66.24045326316904,50.08923645536593,2.1561068702540527,39.12331231554363,21.256891877908267,11.82752785396483,-1.7041060638717678
14.610629661614905,121.37723701806182,93.91815606020376,2.1774670845564312,65.88570543737016,33.42506655922237,21.46129179974301,-5.247165108356137
17.199593959042975,167.81271401573036,127.61241384881988,0.9972150438932254,87.26221420281801,42.96250022914722,29.023440506058588,-8.227213567486155
17.877934135271026,195.88892052953827,145.2792609231792,-0.743405737098336,99.23910840461268,48.40616471407697,33.21345797647487,-10.1624471388591
17.1396724093787,202.86236962262257,146.84806659589208,-2.2178458280530533,101.21211143963437,49.58273842375539,33.92603157508445,-10.870029898220617
15.869568154321026,193.44611832984347,137.61619109675098,-2.746118390427085,95.98797922828388,47.67342900049555,32.265196460753664,-10.467074225822302
15.002252878165322,177.06972311022636,125.62784089617234,-2.0001767163570343,88.34240641414364,44.68953094739445,30.00465637422097,-9.289318641853743
15.23109593704914,163.69959976647158,118.40547617801272,-0.03879770839562475,83.01441587113861,42.67652302442824,28.829556812854314,-7.7743104549507365
16.799976547615447,160.18833104882324,120.31329017107443,2.7254121216835765,82.99470528729336,42.9826431921889,29.688524491814352,-6.371031259703812
19.362935909189144,168.14709112813946,131.09934948294895,5.548112158213534,88.52930816850237,45.77846445727696,32.43170778008058,-5.492197505591398
21.96166897731113,183.4484515748268,145.75753528192843,7.433551617071389,96.93744966375029,49.905143662132005,35.80243742583936,-5.457533981397965
23.234488762031077,197.33895234108184,155.89760644046947,7.4063150381722345,103.32566836814853,53.131454785991295,37.82695194502208,-6.3703717182061315
21.895198053250265,199.28407107441035,152.69805780306012,4.960480921100308,102.25721716534075,52.877535597160715,36.578035719175666,-7.962009312364198
17.319117653676543,181.17712426020972,130.75262490507976,0.4353686698376043,90.04322418473878,47.26684492752448,31.08152645235167,-9.550320406088883
9.918525540871961,141.37299845034966,91.1098242572664,-5.001997710751393,66.69785962035309,36.0687366822088,21.91354814094307,-10.257581089618135
1.0473772171395679,86.25733834196885,41.589064425859135,-9.866684831421663,36.363554351520406,20.974534546833794,11.058899573665835,-9.467046685924108
-7.555103110260994,27.883552923613742,-6.3249004336675165,-13.091394983793487,5.649686865087126,4.9307122215419685,0.983676493615391,-7.2740407839343035
-14.470622945547564,-21.491667540592967,-42.59852658876653,-14.505345198399434,-19.388095223139498,-9.168266239045348,-6.585470711760307,-4.5957588016617406
-19.045091263709512,-54.890522712260555,-62.851694714544756,-14.717273262960111,-35.86606431975825,-19.655507095525493,-11.399662902763811,-2.7665105640634087
-21.35960223013364,-72.66539216987518,-69.11730761241573,-14.509971173218787,-44.635917404834125,-26.40873472555681,-14.433385482031408,-2.7958412894693807
-21.88381280516439,-79.84155474427205,-66.91718996929227,-14.264809493996031,-48.5052984128907,-30.180961343251376,-16.823411320421794,-4.757562894884103
-21.176678610632926,-80.83707602842013,-60.978281479280675,-13.921226338043692,-49.51548616635389,-31.543184306175505,-18.801840081981535,-7.746049542957842
-19.85828258712225,-75.61976378310828,-52.71378254494738,-13.48509263339969,-47.35218022741486,-30.30488162726753,-19.44077185347129,-10.452041224902812
-18.730662923853618,-60.209272186658005,-40.9593265391062,-13.55705393319179,-40.02458664546747,-25.849160381726513,-17.396760114354638,-11.959793184724425
-18.73832995972901,-30.972724467701788,-24.799168011415322,-15.289527058208934,-26.139386813901766,-18.050131788836474,-12.07285170016591,-12.221709471200707
-20.62471517517309,10.774154023400833,-5.874900949483054,-19.68425550233812,-6.904720169404362,-7.977764095369791,-4.324581178342474,-11.934107330794763
-24.480148070236627,57.436615017581595,11.651602971200612,-26.74573021906502,13.676955498724427,2.205737172998171,3.7852675825878133,-11.975049014871525
-29.545068584654874,98.07184079979902,23.261495323809633,-35.16534051813101,30.53853527659472,10.118251062563383,9.985644332735475,-12.826763955008017
-34.474796151216694,123.54954031993547,26.616381848119914,-42.81637766342241,39.98054949541902,14.223356802621995,12.883419149307606,-14.33969792163184
-37.94129984594438,130.65914327467982,22.71958709933567,-47.752985440197726,41.27622268037593,14.445489795152335,12.507264920074011,-15.913416797123306
-39.21861794638284,122.96630707591203,15.166764426071026,-49.08909000766962,36.65910138361671,12.05187261250649,10.1048977073705,-16.901220097045652
-38.43188697965033,108.50069080692127,8.272519644963769,-47.27930271751702,29.9955779333221,8.98402114729624,7.44787741226721,-16.959662500822237
-36.39177887421102,96.06110439683904,5.321523881812899,-43.76004770501191,25.081059899846373,7.060168551026669,6.0812652233488205,-16.173214051244507
-34.184889364892584,92.02539477983976,7.658016214745913,-40.273937494147134,24.3553595391656,7.379151483630697,6.814551072844054,-14.962263985336731
-32.763568967932976,98.48750930689691,14.511163141478393,-38.24619318353634,28.26521444260625,10.013209766050766,9.501705148610588,-13.883341196583853
-32.66612205682059,112.63570811652961,23.186705120574675,-38.3742930212258,35.14221779990843,13.94797854971916,13.055048353926201,-13.413365749561354
-33.860711116890464,127.30816530655213,29.621988631954135,-40.411113451874286,41.56184824600462,17.290739291310707,15.710439304166506,-13.75615023903763
-35.69414191177222,133.0623464198765,29.602886794834145,-43.14548996291945,43.346123656034,17.84021001077002,15.608219730343613,-14.70897125692887
-37.0109551477467,121.78681299749569,20.578732174762862,-44.69742162363667,37.18620577030351,13.980615221583488,11.603016365060718,-15.666957315553274
-36.52350809681346,90.68965461066176,3.251054730939122,-43.19969256067902,22.30916508696823,5.5646792343211455,3.9536940049039377,-15.831278822590816
-33.36831039189406,44.50647411303899,-18.18970519267586,-37.67189388617729,1.2408162270250163,-5.733630048573509,-5.551791032900147,-14.578096909605728
-27.586136670526503,-5.789224328991496,-37.659489341986664,-28.632164529547346,-20.98442455017156,-16.938364100608503,-14.239916491458143,-11.81058486332356
-20.21697640177326,-47.56667776814493,-49.89944461389203,-18.021349708447396,-38.93012812798592,-25.01219738211318,-19.70480904682578,-8.078588728524128
-12.894419093182897,-72.06812793655484,-52.789433630930155,-8.38763147230371,-49.08266883986415,-28.188062725266203,-20.85622502603259,-4.362925477290038
-7.138834065363942,-77.79744320721697,-47.92623739047397,-1.754819923205648,-51.10666516282718,-26.65690767861399,-18.277250535445823,-1.6200197849418057
-3.752070183940031,-69.99687056909151,-39.26722569958619,1.1789893058893128,-47.41897391481141,-22.261496855743875,-13.736417927880499,-0.33528535374250695
-2.6438017911730785,-56.97777558995535,-30.897962164307764,1.0857908699654777,-41.55346265401314,-17.4651680544414,-9.231334719744382,-0.33083566977217915
-3.1132730236372397,-45.919780378920784,-25.385805899343453,-0.6128135340101056,-36.46021300214461,-14.257265963691925,-6.172695022942524,-0.9104835445803554
-4.309169630020442,-40.51294381433883,-23.429278383636685,-2.5260829930535875,-33.63941048672268,-13.544334547975044,-5.088755752056068,-1.2230737394932445
-5.539689910468774,-40.94232543530487,-24.375148426109018,-3.7486567765143572,-33.17719581752211,-15.126421048635965,-5.789544335162467,-0.6361936035145582
-6.32313924506839,-45.08535299833655,-26.765573425686174,-3.8853790983986647,-34.16924880305342,-18.01187355103465,-7.6857847661672825,1.024274443204477
-6.3228837779362586,-49.73368729539717,-28.6376402054052,-2.8922236100016363,-35.14146322342924,-20.828360811871228,-10.054135758364845,3.402439629733824
-5.356663834073645,-51.61914761784792,-27.959957296977816,-0.9906597670960443,-34.51916127951462,-22.27072347404289,-12.247797402316426,5.699791493609649
-3.5089231731485775,-48.533152431651985,-23.486536282063124,1.3261821728388181,-31.289922712506304,-21.573824010202618,-13.891664511307914,6.928620323445481
-1.2164828865037074,-40.37130929137491,-15.631327518929478,3.344846870263084,-25.654657782362673,-18.86229916943771,-14.987539262170628,6.308071301775204
0.7971957570690112,-29.422644100235942,-6.643231383958934,4.326275208142929,-19.19957591332238,-15.14999759652935,-15.822212565642348,3.6643551991663057
1.7446488421612503,-19.55396086239788,0.18299863016441917,3.774736617333127,-14.355976781990904,-11.918786999741661,-16.719193279727577,-0.39454799495933013
1.069376752712536,-14.744570789060633,1.845062160027165,1.6582323326158823,-13.403372953099137,-10.473499706546956,-17.82177055048324,-4.682628118335566
-1.2874478778203202,-17.67845769090062,-3.0853623554618648,-1.4977551111649152,-17.489605302643895,-11.38493209724975,-19.036904255808366,-7.9362792475266515
-4.753735976343608,-28.624845522845966,-13.591603414760216,-4.702534434850208,-25.97761601758564,-14.224801997531955,-20.07747538452986,-9.33016850701882
-8.245038086286826,-44.544789572772494,-25.980166481972248,-6.848032015006488,-36.24972257268856,-17.636153519890712,-20.474489826683946,-8.74076923870398
-10.590600971960434,-58.857747517325215,-34.6580104624196,-7.283434963944651,-44.148269800078424,-19.72056005811895,-19.579459174041357,-6.683940478003074
-11.130119132901784,-62.84947142453462,-34.14717424985408,-6.351396563587247,-45.23969990575441,-18.69801313888504,-16.722851493413696,-4.0390689564360756
-10.14237855353163,-49.0911572444342,-21.761013897898977,-5.46809806667306,-36.68807043383825,-13.67198816489334,-11.597207651653521,-1.7222578125647414
-8.775769119645586,-15.523186720975847,0.5322900582873087,-6.517127839211571,-18.881934176800126,-5.15687320041724,-4.657084111946147,-0.4162496130184845
-8.444379523468273,32.37529829375325,26.483620853334063,-10.804244056635762,4.2606926249663095,4.983683651591299,2.8173477162374563,-0.40254450872516084
-10.032671741118225,83.19765956629718,48.3102085472537,-18.20686309807047,26.76058906692288,14.261700722405939,9.16352415792265,-1.5174058633370284
-13.406910419148943,124.50550834307754,60.3457452089127,-27.0943077574268,43.16121659691225,20.622293759136664,13.081541838033365,-3.245985119568876
-17.529725830093984,148.3018939333542,61.476022370864335,-35.10483404592573,50.816717034888285,23.273665014951543,14.228766367043626,-4.938701867305956
-21.071320442070345,153.98614006003592,55.04085361896328,-40.306079353504565,50.64624176071883,22.85502384151522,13.29615921191912,-6.075068934672373
-23.105358737983646,147.36304696223354,46.50881118952619,-42.04041869682548,46.08647444357119,20.907412254020244,11.546395594204313,-6.454143718804832
-23.474264852133643,136.76508609342065,40.53267269240147,-41.00812112097809,41.05248220094438,19.017360172783118,10.140384058117306,-6.214600630604093
-22.680562125950996,128.89499764635255,39.115097675625684,-38.66422689335586,38.17055924199741,18.142675189804375,9.669162295752397,-5.688325607837335
-21.48352976247634,126.6294038043808,41.59090313250196,-36.40812612663863,38.12694619629028,18.426238819332355,10.097205455275294,-5.197326451740265
-20.512378615777504,129.2905811209574,45.86127143134435,-35.054518873119086,40.108474893236995,19.44303470077473,11.01409616703886,-4.922448927075765
-20.089299512968598,134.33566025114612,49.78454576910457,-34.755665763355175,42.71297948294321,20.598934424344865,11.945141869288634,-4.8907566723079166
-20.246234150698356,139.1071692172098,52.0268249948539,-35.21782490790747,44.730630455424716,21.436631532624094,12.555496876378399,-5.0323885807753435
-20.81649974707017,141.95627740613236,52.334336087860834,-35.97100644831594,45.57286439313978,21.776763851549358,12.735811549377908,-5.23708326188175
-21.526705295679044,142.67493109688576,51.42997596914805,-36.57261283263738,45.378206744741675,21.727717412741356,12.608083125544352,-5.390346882109056
-22.0884518090281,142.28117819949753,50.59366152494254,-36.74074738938418,44.82761172340463,21.58949156044569,12.449062935688142,-5.409301859669016
-22.293002044002492,142.20324473203604,50.95989623387096,-36.416183209310326,44.7021522100111,21.667577949729907,12.526713782572688,-5.281558667137335
-22.07643856393611,143.23310247693883,52.83035924449971,-35.72948509120803,45.37723807925901,22.074990111999696,12.924968506407296,-5.07658857704426
-21.53039021057714,144.9698488103936,55.46744229557818,-34.89932248763258,46.584471257827424,22.655193471664216,13.484107439965067,-4.908383569745061
-20.880731256215288,146.23505015508624,57.55277444804467,-34.154107063352534,47.62707885787532,23.09557444042761,13.910005183480155,-4.873885502337593
-20.461423607576233,146.1481230966856,57.991102755342816,-33.730294855374936,47.883657531872274,23.152643064990016,13.968229544962464,-5.011798334104782
-20.649116985106676,144.98018226931066,56.54809756789035,-33.87364077497357,47.23280497331045,22.827248871621045,13.62750399200625,-5.294648198193872
-21.690845194817104,144.14418983843032,54.06278809196226,-34.72174317527164,46.16233759935124,22.38864558663992,13.090551657727412,-5.631228694513624
-23.44370643610566,145.3960533810265,52.26207903397649,-36.076006382541124,45.58192200363579,22.261253070099276,12.735420219003267,-5.869348697361275
-25.19361958510158,149.74311345959265,53.19453037930195,-37.251553037873116,46.44433231665733,22.832450813761813,12.988985775611566,-5.827726910992486
-25.759355962691092,156.467564771799,58.22683331791728,-37.20513881725997,49.22368838045231,24.221256908706554,14.122460826257562,-5.3803081014950696
-23.92951757046967,162.55773017713986,66.83980305825261,-34.93842685958544,53.36460243831925,26.072984674417174,16.014487750190586,-4.5493217828769845
-19.033956213196788,163.01892067710088,76.00877353792005,-29.947350869410734,57.05697619798872,27.531561183907176,18.05218163007611,-3.5101804433229313
-11.323406508418925,152.5681949309393,81.05043117380423,-22.449125658588272,57.77168730456265,27.549464766832074,19.359134101695236,-2.454533450331934
-1.929343577568148,128.50424690971826,77.98902811568324,-13.284220717744493,53.58987063915621,25.501066128341034,19.333419578848968,-1.3833398732915612
7.569734947526517,93.33961010172189,66.20315516610113,-3.605541074826729,44.651715779527336,21.76270625266052,18.171415411931097,-0.0013598924565906764
15.715249372482655,55.19387694585388,49.465597407992874,5.43103067064869,33.655317221783136,17.786524073399317,16.92912644824045,2.1441243809551467
21.557632401848682,24.82216736233091,34.22792756413608,12.833879360292741,24.72782548430362,15.421847181292957,16.909668109434346,5.3015503650379365
24.730642683687595,10.190117998062284,25.811554617420942,17.84539868235392,21.037910407405256,15.741244464861634,18.652516497230977,9.149391220265196
25.32909804936639,11.44021973617244,24.82348048829726,20.07997398754564,22.532898992794664,18.071215831016943,21.191348516746004,12.720889483078578
23.807683131828078,19.52706959142727,26.311110004696154,19.79088159588835,25.382454155512253,19.9516060518703,22.203730525719294,14.76522712055298
20.97344297428889,20.064651817118083,22.519573578836305,18.06446971289124,23.781098360673685,18.243147760532697,19.140719631745547,14.388352127606312
17.93419230974479,0.764353515590885,7.652056843979022,16.621670532416314,13.213627550873674,10.847136763466002,10.73136664368428,11.584733918607526
15.841622187346989,-41.705455623039924,-18.417119171474553,17.138651467329034,-6.787279250855253,-1.9782820160987478,-2.077576392437632,7.308035582877448
15.466470038735187,-99.56182550389012,-49.834905489735,20.41396190345636,-32.119926143547914,-17.53819450151257,-16.37730443850168,3.020909507299679
16.853283221676566,-157.75619129110473,-77.93257872973756,25.919304030746655,-56.13664807317925,-31.934995035766015,-28.626121282989523,-0.0031437741763823725
19.30929503839571,-201.4586619179878,-95.73723520779778,32.06299224077709,-72.93527793195094,-41.887115049045214,-36.267022451242234,-1.215156022492615
21.772549390004787,-222.77883011248966,-101.09090330199915,37.02588263566223,-79.97032138267191,-46.09398975597777,-38.72043574931535,-0.8893796973294753
23.347916801704677,-223.1725950396691,-96.81650973159576,39.65717967883792,-78.63610949123782,-45.469023279501094,-37.29097829069881,0.19453963675416286
23.691065020577938,-210.92102508493787,-88.3687214101284,39.90697120167967,-72.8370144316091,-42.295929807750504,-34.211363455694304,1.2282041009316633
23.03878799350411,-195.98068774356238,-80.80650034380439,38.615039912818986,-66.71527112127866,-38.95621191471525,-31.493842018366465,1.721548739812502
21.935848211871082,-185.4941796902579,-76.8715525671445,36.90447889173272,-62.92242747864419,-36.96804184391985,-30.21374792332576,1.588732188093698
20.892796158416058,-181.99019401294748,-76.77337610665373,35.620631982732775,-62.12251691038218,-36.70546823636143,-30.435857224203364,1.0304994849043798
20.188557787928268,-184.1648046325046,-79.1002733834751,35.10103291052624,-63.503469595365665,-37.68792650626174,-31.58106713038626,0.3507450493633799
19.861388497876852,-188.84815457201256,-81.95347247238725,35.25542217631753,-65.64915311308765,-39.090751250511225,-32.89576213334106,-0.1944538864915624
19.794243272632478,-192.8761928571276,-83.80436614350404,35.76509525879364,-67.28487081941857,-40.18772735997039,-33.80397823817066,-0.48386839507401536
19.8030603466158,-194.31741125794895,-83.98409286867427,36.26347953510127,-67.73037158019754,-40.605886619409354,-34.079414848094814,-0.5485691505769726
19.71237424442336,-192.93244452130733,-82.76949575426099,36.47651779132353,-67.02786258724743,-40.37565231203502,-33.84012071349556,-0.5187977200900699
19.427754751416018,-189.83070411906766,-81.01669825446382,36.320415659497364,-65.73159893657949,-39.80031666953197,-33.39396363898558,-0.527555909813263
18.974277859476672,-186.52491736360682,-79.53089453352875,35.90809804128706,-64.47279797161515,-39.228736293058965,-33.025239484946255,-0.6351109857700034
18.458237029662673,-184.00432283010102,-78.63271999887365,35.43952114137176,-63.596340040326865,-38.87655493378218,-32.863745589996995,-0.8269140602042296
17.9743245979016,-182.48127265230218,-78.23937989080488,35.057030987749854,-63.12754123061266,-38.80358837364208,-32.91453085632239,-1.0694963579492718
17.545105035436492,-181.83583681986363,-78.25731289033018,34.793497117672246,-63.00890060158968,-39.00880850524557,-33.17317709290691,-1.3550050500219215
17.147205248737194,-182.08905325605963,-78.76956355161174,34.63939537563537,-63.277091544029616,-39.49419008314991,-33.67072629189983,-1.6886982126043528
16.777358789675134,-183.29577765321488,-79.79384071127316,34.61642933035519,-63.95704877188996,-40.20717455056697,-34.38710299518473,-2.046164667062843
16.467680167299513,-185.01772650548827,-80.94115390595663,34.746997217936084,-64.81661328640594,-40.93841095665218,-35.13913123422205,-2.360557986565623
16.230548624241973,-186.0993812188388,-81.4464155677715,34.954528958633546,-65.3139428536447,-41.332006753563896,-35.59616214475157,-2.559633602967408
16.00737749010234,-185.17276849233156,-80.62647196205351,35.03461437804445,-64.86880869069871,-41.06607068790173,-35.45514997435825,-2.616187253875528
15.691890440070452,-181.56790050920495,-78.38627360963207,34.76685114339539,-63.26219225084541,-40.09734715860757,-34.66233666281707,-2.5723480641730245
15.207339619812952,-175.97696370603893,-75.42425052350345,34.08227006084792,-60.88625809633304,-38.804804660023756,-33.543033240810466,-2.536454875443836
14.560361480405433,-170.51899635722424,-73.10454887548612,33.14942904300452,-58.732508393427786,-37.934295105969966,-32.76856577741597,-2.6650981167904786
13.837460739198372,-168.19060487953348,-73.0688682443094,32.332416170367054,-58.12494096470952,-38.32998245531542,-33.13692705179623,-3.114951253582788
13.17813298047314,-171.6713488301706,-76.51134312059135,32.063759006856166,-60.16464850370875,-40.4851761829057,-35.16229448984993,-3.9400304533093085
12.750263777983472,-181.49779214038747,-83.11579395358231,32.6605698027057,-64.90002453053101,-44.02822988565184,-38.56341871886061,-4.967777965541341
12.692116315275536,-194.2556396418331,-90.17992256061306,34.077880327441385,-70.56831022865138,-47.4152323397167,-41.92838565993694,-5.760493138183829
12.988061051220296,-202.2418001038863,-92.87350375735942,35.672384130859285,-73.58870378956712,-48.18042609779213,-42.92316993785498,-5.754323756354329
13.347317664891792,-195.84538721622258,-86.1396279094729,36.18974893530993,-69.79270805459997,-43.88419937665979,-39.18841534584761,-4.543193856537864
13.235104441649241,-168.21211134569575,-67.51042377990134,34.170254918407544,-56.55103501861345,-33.41629911316222,-29.587788549900964,-2.1420319925685227
12.129843694501524,-119.71785130652476,-39.10173546617542,28.691247013705834,-34.60536640041603,-17.906389897206683,-15.093030341192158,0.9526491005514969
9.883068924456094,-59.228945071573044,-7.280915260184847,20.033372712256682,-8.328324020809983,-0.563920095807752,1.3256977594579884,3.965949584351338
6.924616826955149,-0.8407204158530457,20.06381356344828,9.795402382900505,15.98083179934594,14.627674116196378,15.875061752465694,6.206974857309616
4.123650966676437,42.334046267731885,37.12806995556629,0.29463716130272366,32.8975228000949,24.69009176277334,25.57978306341138,7.3868834454198575
2.3456988463631547,63.789531965579506,42.55533530779922,-6.446827455984204,40.17197071109898,28.885418805592153,29.481160982130607,7.712317164274621
1.9673698960460415,65.52246166449652,39.28892925807722,-9.557161043389033,39.259791596391146,28.722007353651342,28.76279470250163,7.705681836225102
2.6613318347296055,55.54254085760679,32.31518485913128,-9.544493482104956,33.97791199298108,26.831478233240244,25.848782368814334,7.869348490957931
3.595212380985164,43.08257261475734,25.968356743665392,-7.838718317246512,28.327868377194054,25.494123230589064,23.111253438306424,8.402422780737565
3.907776965640706,34.58478429913839,22.402396412143343,-5.998219754952362,24.829891574714672,25.68615729644722,21.92936605965986,9.130887535689727
3.146034950922827,32.28083081020338,21.65419136327717,-5.066305176017089,24.05921694634567,27.03593338481979,22.46348361986246,9.66742573881006
1.4124063096500354,35.06698556371466,22.583097447020123,-5.347604961354448,25.15717869078723,28.452482624721846,24.018745732558276,9.68683572762094
-0.78938834057754,40.24466809177908,23.784664985601236,-6.543966723706583,26.672483510343255,28.898604323676857,25.635531635585004,9.157549521715495
-2.830198396425467,45.046016419818216,24.147090889451796,-8.032714031617603,27.28859170759641,27.91364648023354,26.603472073680468,8.402177816341128
-4.174796679588085,47.68474505465891,23.18365315105608,-9.142980086712573,26.328988557763356,25.776740903550362,26.74766563248526,7.940935038841451
-4.493791016819568,47.928502308125914,21.20689257919331,-9.401155376832612,24.00700025776952,23.364334388021142,26.43090963755612,8.185690784157726
-3.7092076933493865,46.99227972463298,19.189399863642517,-8.716810386091408,21.311159840903084,21.779712801192716,26.28696448808161,9.1593114930909
-2.007662482797047,46.66450774699873,18.266386096563803,-7.424289060957482,19.507276259606478,21.86144100495344,26.813177127898,10.4304013905156
0.18404270970163844,48.14289615325599,19.16386296161617,-6.131558051830379,19.500518708537964,23.758851793436154,28.044851517864696,11.325693683053116
2.2675188131757404,51.37216900310186,21.900944209279395,-5.460648348114353,21.42088723921818,26.78374445685029,29.489291994008266,11.28656251821055
3.575761671793443,55.2340321560422,25.80923610360316,-5.837295033616264,24.60368391978745,29.624204677624796,30.325592780988334,10.138405663123134
3.5131796631291485,58.20967373218505,29.66967879212781,-7.405144425790905,27.860294601917655,30.824547550806553,29.73616774931808,8.131034848136458
1.7511138333117253,58.95478120126001,31.913843994177423,-10.0092650529623,29.876924288670267,29.34276972794184,27.237291348914656,5.789680767545311
-1.5516993502929326,56.67225731410336,31.08518975740931,-13.18442624274326,29.694744651157546,25.01465120258323,22.943090492052775,3.7138382133736574
-5.632234981135932,51.49147277420776,26.60591885841686,-16.19089255762782,27.216184074111016,18.782701105453025,17.696377154375387,2.4167116672876015
-9.262728786539446,44.78393727157068,19.405860913225077,-18.18771891625565,23.480199752581857,12.549383378406134,12.945754403599347,2.2138294449310467
-11.167829110079648,38.94401769323582,11.783511749691707,-18.52275309490437,20.372047383457605,8.581949502053513,10.291584800706461,3.1530126134385648
-10.539845659290766,36.391701552141704,6.375983023674696,-16.977754299943292,19.749673003839437,8.60696881721658,10.823416818590438,5.011188242412386
-7.384187964623657,38.31803426168428,4.865942946184008,-13.821250260500864,22.46081276741413,12.980266084850237,14.574023737913821,7.380195243943617
-2.527726128151753,44.08607687241978,7.258005784305819,-9.680602287919891,27.879797815627317,20.379608537230983,20.40829918779034,9.805988336495455
2.689724080065347,51.68395566683951,12.040716165888895,-5.356396018578558,34.22122278304902,28.237747290841533,26.424718356180318,11.905216937833021
6.894917575370877,58.76182635420504,16.92789813356326,-1.6525704362635367,39.358818913376716,33.748300729254645,30.666939986284778,13.415514807374802
9.15991888638688,63.51081666613793,19.73225819131001,0.8054231069468955,41.67067122303771,34.98822834529941,31.82381839406699,14.204367058619052
9.321715787165902,65.09509673472714,19.144739175367324,1.7754958766149063,40.59630095432375,31.660193475709956,29.659127956540935,14.28638363363329
8.009755612462898,63.79471662300188,15.27792590768806,1.5197243845249733,36.8035561378912,25.144857716052943,25.045617575473127,13.855459943781526
6.335725932955076,60.92674381981767,9.695641319702146,0.7000363234102669,31.925416598489853,17.858912517977917,19.604363465763115,13.2813253882168
5.367738124281328,58.34984449893658,4.717853016543403,0.05481612431679403,27.88728014867903,12.223215539918948,15.078824640084346,13.016818903742232
5.654987224430269,57.555441474602844,2.2787830751040086,0.050011113042039215,26.069632640132575,9.729405986995149,12.6957801530147,13.42079455924883
7.047658016857843,58.894687973216,3.0756998222489,0.717431554479525,26.767629011738727,10.532305279798539,12.791913559707531,14.569401281278825
8.866003800376788,61.60162801370411,6.570982163743469,1.7295635676366934,29.285410786034234,13.683577481683688,14.840564458841982,16.15244878648554
10.272329340219303,64.60004071565326,11.677824746659796,2.602681860816629,32.53554562458039,17.748124835245296,17.77709084545477,17.523546076521544
10.644042279817073,67.30934145979832,17.427967866131088,2.911621126538357,35.636278262904646,21.384380195035813,20.390947670414334,17.916918977181496
9.823116084592089,69.71119459356986,23.127294433552077,2.4748791214372536,38.099549389019984,23.635859665376802,21.633031454818056,16.778415015398462
8.196323347579572,71.76941589661584,28.13204771822849,1.480456260512764,39.649481469821524,23.988356068937446,20.853097225863063,14.088977613388614
6.574268219815984,72.94460649082467,31.689055668148303,0.46480017979757304,40.01052999886571,22.385780320813605,18.01791349444638,10.510815529365711
5.8582495482394314,72.32947198852972,33.04677935540884,0.07027598208350316,38.89820490923861,19.26839493394589,13.831179527948489,7.2158378221281305
6.5938222779313564,69.25221754211714,31.716936979256428,0.6604123826385752,36.1732039469127,15.513094484910763,9.582411538804829,5.397850918722395
8.641637647744805,63.88651892616004,27.75974796621865,2.029774890518951,32.02878431108888,12.169763930527072,6.6742806968313415,5.667329599078726
11.183863416010418,57.599070424673,22.0775570149866,3.4148825113166197,27.15143240600258,10.078989206535686,6.0271566226942594,7.64180720615807
13.080058114159884,52.88007823604791,16.53221627774182,3.8005259137446323,22.756829199459947,9.574342551389647,7.6720472719724615,9.975099238529614
13.356308263693759,52.50792444700162,13.417691925743345,2.3371991254698097,20.25040020403807,10.378231118354597,10.706641186104537,10.856520335479596
11.563734901987784,57.70384194268957,14.057153969290953,-1.3017627424806026,20.354908338480953,11.641148831886513,13.5714045589124,8.795068174816857
7.891513363309693,65.95049750484174,17.19701780658789,-6.68222842898527,22.069931450742963,12.0656452484346,14.514448926088855,3.374543102717762
3.085222783516108,70.21494545674537,18.594048101081732,-12.531647943840829,22.340556935827685,10.177920439470967,12.145570996386443,-4.367446672297502
-1.7467344181146387,61.125700029158956,12.726443388802855,-16.94674718227299,17.12813011007893,4.830009970403006,5.970858998543536,-12.195181237607057
-5.417446561122586,31.73909432700975,-4.01299445825798,-17.9926903620057,3.5972061259143153,-4.1864079203435525,-3.291429982711424,-17.55925136223347
-7.026348403345309,-17.752639073043444,-30.66478056399951,-14.555651725124356,-17.880547233711567,-15.774190296788989,-13.837002180191401,-18.733663911053032
-6.30622026777668,-78.61667947518198,-61.520108434195514,-7.015806627347697,-43.324349324156216,-27.75764935292456,-23.39692602959973,-15.60963474807216
-3.770527866636638,-136.861688991544,-88.73183282386687,2.7252655062885487,-66.78848199524523,-37.70953597971201,-30.118608312459845,-9.701242335789134
-0.5257966555414526,-179.53638788120918,-106.14636057861861,11.991176660306909,-83.13715002555348,-43.970046721455276,-33.27544330195257,-3.3722839239302163
2.204900647641241,-200.37155516850947,-112.0041702776663,18.491487268037766,-90.29436189642446,-46.28562138238156,-33.43293925068523,1.2650285920589963
3.6078243014947327,-201.59511340204858,-109.02729516038164,21.255105028263205,-89.71611341860861,-45.72134038284379,-32.00157655163841,3.1865941969322504
3.5614132774512046,-191.35661979038053,-102.2352830290101,20.832938680155404,-85.05428455358742,-43.96359820694455,-30.470287959473204,2.647056848863517
2.534516062100612,-178.94616875813512,-96.20616753206805,18.738372809742334,-80.09681648923184,-42.4913760024779,-29.784331826811012,0.7439827354724227
1.2148499249982656,-170.87728296921628,-93.4405319799866,16.56145456800061,-77.271658432244,-42.08927656168121,-30.172069132240853,-1.2914666897927933
0.1405013022265338,-169.5380653563705,-94.27680381735308,15.310721014027333,-77.28340217585739,-42.84282174590781,-31.37037200575287,-2.65095028671969
-0.45988758370898075,-174.00088873201065,-97.6726353896871,15.25152453982184,-79.56646735611623,-44.41120954315802,-32.95584038262799,-3.1215091413697884
-0.6187363240045747,-181.55805935388292,-102.01244014475661,16.114447485157754,-82.92946802576544,-46.296172154771206,-34.54056058393292,-2.9283629091788166
-0.5096483209989294,-189.02301340091853,-105.66950265471253,17.38655990999918,-86.05939298382505,-47.9965993482515,-35.81595774589398,-2.461289128616704
-0.35754080276841493,-193.7082173216883,-107.46116582604402,18.525013235639967,-87.90578461860964,-49.10828494232209,-36.56554157865605,-2.0630016190356253
-0.3735074794860377,-194.21062362183363,-107.0161275329619,19.10956517390506,-87.98994462084876,-49.43052568288579,-36.717030060828776,-1.9339283256355326
-0.6806166984473419,-190.8380118902208,-104.85774167066731,18.972150462102668,-86.54274659391068,-49.05111567046727,-36.39750388971125,-2.127500552966988
-1.256029601553263,-185.4593875899483,-102.14732912009374,18.258670774345223,-84.39774117819897,-48.353961253934564,-35.938447818744784,-2.598634022839233
-1.945898325377358,-180.91166316751216,-100.31961678461376,17.366341535800544,-82.73569776096842,-47.94222512732981,-35.82532342346125,-3.2677745063043435
-2.551182440764732,-180.2471541630508,-100.78538950712884,16.789988972790667,-82.79785092212006,-48.486261708641564,-36.585779362448385,-4.050335853050138
-2.914529032092045,-185.7748030474222,-104.51689091523367,16.96272710495315,-85.49824367635695,-50.46410080161281,-38.56675165340336,-4.820703448513471
-2.9595057601748707,-197.64752353353182,-111.27606115010812,18.111420177804014,-90.80601009667907,-53.78466134010815,-41.59520078855122,-5.353000438320118
-2.712117152182786,-212.34188999348592,-118.7909506251118,20.0829628893793,-97.09000774465166,-57.44836867115177,-44.6930360180304,-5.338747989719154
-2.349046709975517,-222.31751257097162,-122.75482369909524,22.17753476058807,-101.03081138221985,-59.562299787053675,-46.14844174643013,-4.5350471204157055
-2.233491795625577,-218.1370056745214,-118.27647135356915,23.1788974214347,-98.62456302172454,-57.938975834189044,-44.11284411501355,-2.962297909686756
-2.8349789795389744,-192.79549635995758,-102.3229802130127,21.761299521199494,-87.07338495723913,-51.125414104308035,-37.516527531305314,-0.9790838272279544
-4.502403204847363,-146.03383579241336,-75.72036659877804,17.180083798635753,-66.54367710893165,-39.31158964765797,-26.777946481518136,0.8759399644168974
-7.22086329893802,-85.80977316038586,-43.365394083989656,9.835829582928474,-40.636121467690934,-24.51854964868998,-13.82452915118578,2.2040107158517737
-10.556563267866624,-25.633734627504356,-12.438999213133597,1.2698165517320288,-15.149452540002406,-9.865037961713421,-1.3557009931997839,3.0081371411333926
-13.876636939615148,20.909039226604296,10.319021132871017,-6.505199687511358,4.207304033651015,1.711136829448517,8.236499444241131,3.6907445502512517
-16.706945012578075,45.38129839977347,20.77909597081164,-11.9604081078963,13.892135128685156,8.56523752182789,13.678180892954712,4.758780559058646
-18.951922100607618,46.797094859284535,18.19387313463327,-14.685882178245215,13.41575024247324,10.730407252159834,14.98015857126285,6.423533063587254
-20.77994164916925,30.520603541487546,4.85549815810004,-15.312987709786295,4.955107683286404,9.527833413548018,13.057910621079097,8.37097032667907
-22.24368424815168,5.445807034976174,-14.500344887178459,-14.851063873621754,-7.623909073024689,6.82486405162288,9.225377506899035,9.862286545413932
-22.95970527929439,-18.442718808694156,-33.1527410586198,-13.990513419065582,-19.64162562621442,4.434563636135178,4.904858563242224,10.091558982992044
-22.179580501225217,-31.47246492904857,-43.25428400715317,-12.897621006390205,-26.300247690620093,3.834072995254819,1.5423071576740577,8.568272372817887
-19.288738806930137,-25.604434568802102,-37.83661753963665,-11.561781923565405,-23.608828894079647,6.032403948084844,0.4664845061237063,5.319997967058306
-14.392192309474675,3.3673900241109833,-13.718695718504087,-10.269826086594975,-9.709851354510382,11.374053523110264,2.5235876662104717,0.8588167390107263
-8.521933022158121,53.35392187127923,26.24255284191934,-9.710241302036165,13.948480845940638,19.307795560688653,7.635389131825599,-4.0197131359723235
-3.2552786670417264,115.23288235511025,73.36588982074358,-10.585510494737196,42.55249622931588,28.37480821766535,14.638076090006154,-8.496796706454969
0.038526158405548724,175.3641837844734,116.32064779483746,-13.061802097171949,69.47112750032801,36.61965987651396,21.647409384283304,-11.956056025676512
0.8457068820692935,220.7719720054133,145.81335688569905,-16.522570650841875,88.86073581093437,42.33103357194243,26.84041487572946,-14.114229707973807
-0.33975289404375486,244.35580237221004,158.24328556311758,-19.842015025144402,97.97163337295717,44.73320316714409,29.22673498026815,-15.03951314067372
-2.4031944026274585,247.19983765267136,156.37801762647592,-21.991425954738812,97.89139317065312,44.22319681412946,28.961957698868897,-15.075120949741244
-4.239764522474908,236.81386473809374,146.96703457770087,-22.55385633408865,92.41682792413698,42.02504515446125,27.059677678209166,-14.697245582606866
-5.2296505572513095,222.6849121157161,137.01806345730273,-21.820246675598657,85.88758131612191,39.50923381661425,24.7535051544953,-14.343099760399818
-5.338327978619198,211.96401537576875,130.94706769463195,-20.476719087838386,81.31217151382927,37.607953072465904,22.934471910024918,-14.266752492006871
-4.909352218089207,207.48072713795906,129.78649901016283,-19.175715591999214,79.6651775304461,36.61248980898801,21.93444072724705,-14.490898108550153
-4.375755414842045,208.32525590104092,132.1105109343275,-18.283285832160434,80.30837344047197,36.32473903096645,21.627855951182944,-14.87801007570719
-4.0618907072758486,211.7076257161447,135.54778839234373,-17.86688761047926,81.88388669813256,36.33684750660795,21.657586286456223,-15.262787671454216
-4.104171051831276,214.71822070370058,138.01642121762538,-17.796367000951005,83.09152272409779,36.25496787518189,21.638499009990255,-15.548996688298258
-4.44933600155803,215.44444241565805,138.43842761834446,-17.840978365757227,83.156834369745,35.830498932737406,21.30672384006045,-15.722363623067855
-4.912225781642193,213.4793406620404,136.95805380957242,-17.759882207259253,82.01613273368987,35.024691993978706,20.609479793619677,-15.813178057821446
-5.2896535680538905,209.82367481823684,134.63903264843472,-17.412036150851716,80.21149069055278,33.99424713278049,19.695105468414468,-15.867815949831858
-5.480198050784093,206.13359966305393,132.7253205592773,-16.83289892604977,78.5000984638566,32.97679688980153,18.788038950195947,-15.942713510926476
-5.5240084336917725,203.65404338248658,131.88813207383328,-16.192999884704648,77.37827797585432,32.134570725028624,18.031898636047334,-16.09033322580949
-5.532883311532262,202.56594480176878,131.98171827530422,-15.65393751773552,76.85220088892298,31.476837039247894,17.42776150573181,-16.32390259764343
-5.584522583207036,202.19397943126964,132.4068386384894,-15.25344040316133,76.5962746189701,30.91561551439335,16.901700354263856,-16.594702801549076
-5.682265890871114,201.7312506109804,132.6401394563475,-14.921337443189508,76.28284546428505,30.373296084561588,16.40278405754929,-16.818801006643703
-5.796811758419367,200.73687312325453,132.45086988820725,-14.57898630446662,75.75554233552208,29.820857934683175,15.920808984525292,-16.93823130715497
-5.915803838012039,199.1086081773055,131.80055502212434,-14.194651147875287,74.97483215324955,29.231374685278556,15.43203350118376,-16.961758774635364
-6.040951269844296,196.90591895388272,130.77277515881792,-13.7537074101945,73.94353549365795,28.54585256657842,14.873503227009556,-16.95454131574218
-6.159281382032413,194.4222572359536,129.67812572596796,-13.228429356904387,72.7667376763023,27.721360536325427,14.195885493184248,-16.99998695649346
-6.2497679634195915,192.32419885943563,129.0667634497838,-12.621363695425336,71.7226128104613,26.807111279831755,13.428614179866955,-17.16973400370939
-6.323693334009294,191.37724903013319,129.3887736503744,-12.027217966380155,71.13280639115358,25.943301401302172,12.670250836284193,-17.50099499793184
-6.4324504169989485,191.7566026221446,130.50952433408912,-11.59887485413125,71.06943821159373,25.267375614238333,12.014888449577224,-17.95950645104398
-6.610262650105015,192.59317535490098,131.59270782953683,-11.410208370565392,71.19292508844336,24.81983286581107,11.501722065632444,-18.403181153075312
-6.812191668554257,192.33623906042132,131.56858495456598,-11.348781692126018,70.92526277644403,24.527273655848173,11.125603979148037,-18.607961950962807
-6.931265627390586,189.74734838855196,129.84580670155404,-11.159496896088617,69.82734516966237,24.239113306220975,10.850505418802692,-18.393632109864516
-6.892037156774435,184.7808871723555,126.75538051920078,-10.607627919148156,67.88047093315193,23.758188080721787,10.573568447045595,-17.79317163285795
-6.72820335792273,178.82846167672713,123.53853718512023,-9.626254746308577,65.53622757232044,22.8802025588419,10.095851438599071,-17.137079227426007
-6.571089783556989,174.3471070810696,121.98734159500154,-8.367839675455832,63.61137504948254,21.51116598012495,9.20745646543355,-16.95359969413948
-6.572033406663903,174.01739620799262,123.77321806668996,-7.183155896020831,63.06820916506261,19.845807733315635,7.887643103356039,-17.695245302466933
-6.828469538091681,179.37752661422388,129.39490426971483,-6.548540195868172,64.57201874094133,18.44516099115758,6.464053598907593,-19.40446008354545
-7.336456122440393,189.10591863431767,137.0301068952371,-6.889138082092171,67.82797374145697,18.048697053894365,5.56188548688934,-21.47471744991225
-7.945333497814623,197.93716137398573,142.16311626531868,-8.278652506086289,71.09080758705917,19.15411693084895,5.834469713203263,-22.656826775563403
-8.330825126273657,197.61806748612244,138.8463454056573,-10.178461552262608,71.43632438109974,21.616914575745252,7.632222507890986,-21.408414868271226
-8.072013950426445,180.3390038626003,122.43756721030228,-11.502443145755114,65.97846780367051,24.54526750200399,10.782354810509593,-16.55383810761887
-6.879670951262705,143.1241486429907,92.361430175618,-11.13308432640838,53.4482618104518,26.578907485666996,14.551067366383533,-8.015066213393562
-4.862844215440965,90.4366731416389,53.09565045662705,-8.63418362688451,35.12982320454685,26.418476890862884,17.783099598037854,2.7875651796611036
-2.598118146926916,33.05426608066663,12.633700955380583,-4.646188454832,14.511499483379637,23.369824590048815,19.208922013454693,13.207503547950871
-0.8485333632314949,-16.35556536471183,-20.67182958339247,-0.5945338098923677,-4.123888375557181,17.695694516573692,17.897781809278232,20.334599946235702
-0.048065551245287545,-48.399388039871134,-41.04037821003666,2.1698594902342756,-17.28757854823108,10.651621444742144,13.744190410305254,22.246030204510134
0.08420917196732527,-60.01195600134075,-46.58229200930794,3.211053033404235,-23.218182848128883,4.167324294776145,7.747437177423176,18.90439167153392
0.435586641499318,-54.23352731851988,-38.99611528166652,3.183776285087909,-21.972994304522153,0.21035450060402766,1.8054062729260636,12.182416742924593
1.842112374696583,-37.79966865132255,-22.6985752312938,3.1540595306312555,-15.132257529387324,-0.03496743815230492,-2.083317103132299,4.944275385810111
4.266189732142167,-18.65878528570209,-4.264643735744015,3.5431893043210883,-5.618253532773678,3.1059603852090683,-2.933830643613733,-0.34014401215875767
6.427322612840645,-4.632859309471055,8.090000256768995,3.5299236581551607,2.431908701431845,7.576484282946919,-1.5624384607235948,-2.669107429238143
6.292862198845755,-2.6925567030059527,6.063762085718772,1.4613372581136268,4.332272199029088,10.211207515911596,-0.40074635013551174,-2.671743747485165
2.268022906599512,-17.577768956531266,-15.644741518935461,-3.921657067374955,-3.5453244300011564,8.140975713920119,-2.213443112129922,-1.8409199945868382
-5.605948451496457,-49.515228592232106,-55.87519171618102,-12.273240787773936,-21.716142085869638,0.36344131328247004,-8.362894656164038,-1.4038542936014398
-15.230749995770294,-92.46279516885826,-105.51751154750747,-21.3190004112777,-46.36863526815465,-11.417273318849709,-17.693604962975364,-1.5759932083734236
-23.16315606041567,-134.84569157843464,-149.79148233495752,-27.726332318121873,-70.14973461928639,-23.276012162750764,-26.815890777954618,-1.6121154603692232
-26.142731661123985,-163.4370122412871,-173.9302475562916,-28.709616949256816,-84.9828270294243,-30.72618838798157,-31.707825090291838,-0.497248395011432
-22.62861185737005,-168.85123735648907,-169.6192030128138,-23.449613770026396,-85.61245200298733,-30.711689671580285,-29.720651735266614,2.282094774503748
-13.52899207972958,-149.7791941616477,-138.77721436351882,-13.522757074540703,-71.99195689257384,-22.913230966635016,-20.84176519545438,6.422928060195953
-1.7667670934941908,-113.62367210251895,-92.62168205262032,-2.1321648622288345,-49.23834234445197,-9.778384482281524,-7.579408690383869,11.087535931931141
9.039084480214107,-73.199427317139,-46.563349553595366,7.378564228527293,-25.248987261476056,4.604957428930758,6.304715527675155,15.465312085679834
16.065399619431627,-41.250699912801025,-13.657332498222038,12.890790360075698,-7.295493162576719,16.141222985533336,17.38385543233569,19.130245938429372
18.236182642789025,-25.490247058713386,0.1546350887890937,14.0857306296758,0.7150341976773109,22.121850975673365,23.650262946875273,21.94824531682464
16.292922310579197,-26.370593372182036,-2.9818534807820454,12.100928542616746,-0.8463147658560732,21.90202369419409,24.751959887169374,23.714210821291413
12.133191358028649,-38.29700924976492,-15.519904898416959,8.67523056215685,-8.376976548776462,16.758043635831115,21.577208076016607,23.9408960713025
7.880859795312199,-53.23551781702873,-28.93143623466385,5.369689176404962,-17.22466270725855,9.13398615017478,15.635389139559727,22.078754233140664
5.142559062799485,-64.56153628573263,-37.38892631585967,3.2117624818508546,-23.7544127560527,1.6519832248596902,8.584664477325191,18.04840069814412
4.660021825165771,-69.22580856383763,-39.1528076936266,2.709031950893965,-26.36985933661799,-3.73599240560669,1.9741397045823206,12.653217223782677
6.3195708981398155,-67.69061983928466,-35.734594932465605,3.9685798683016102,-25.352088336013665,-6.202241907859201,-2.9385799434156072,7.47593845046605
9.390435071924573,-62.48204829591653,-30.03860527719183,6.759017538735887,-22.03809778907159,-6.024652723099178,-5.402376373703776,4.231913714915614
12.891786740719438,-56.575076812968284,-24.69657362939555,10.56323603676822,-17.960499019026624,-4.174553860149789,-5.339599254006973,3.95917630903469
15.993808546741853,-52.254475819912805,-21.125696135068775,14.72323772287832,-14.256930348377299,-1.7214565631831689,-3.290742971762284,6.54435832207555
18.304323393389875,-50.50236787855842,-19.305974020459857,18.644555840137464,-11.391467409121578,0.6478382841003897,-0.10730308127058133,10.83828179438039
19.890300169070702,-50.915078711833786,-18.180054502567398,21.91624685282905,-9.206943438150743,2.735291561538264,3.401595199745826,15.231806643789026
21.02355815441694,-52.26453958432326,-16.542874225722585,24.274573839148648,-7.3201952925712455,4.528901893496425,6.618176420123555,18.335394481912555
21.83951075341492,-53.521091945034456,-14.004651710601708,25.506151846138135,-5.665987105171762,5.771485653245361,9.031245538861215,19.44166246830299
22.167994864064358,-54.64298752764277,-11.383715483003602,25.440564618755065,-4.773208014831895,5.8187787601042436,10.140164593532377,18.639721977727987
21.654777181498016,-56.46573621306252,-10.19033404997822,24.063837559255077,-5.481073305165733,3.984663951329171,9.567286258510721,16.628145650612016
20.065535700280318,-59.79893587252248,-11.579385167169393,21.642110348518386,-8.276410127836694,0.1364025141703656,7.336538622257833,14.361229104257566
17.54616373503953,-64.58956297063209,-15.580531313099625,18.733371310779717,-12.799068201475565,-4.961427116166112,4.042114905255443,12.67698004008352
14.671817633945967,-69.89071076540318,-21.111125277645513,16.06291048247041,-17.922156935829832,-9.88903327337756,0.684058966982194,12.031569710051254
12.260944155822754,-74.52858490427353,-26.591184750014424,14.316400043463261,-22.309843624037413,-13.273172229661004,-1.7665498524285814,12.414306173130006
11.04554998173586,-77.75485591802085,-30.622231160903358,13.912929564846378,-25.005498611014847,-14.471415648623733,-2.7831099745746957,13.443979127604823
11.343759867729203,-79.40316612909267,-32.394512452699324,14.821769492626109,-25.70197282446537,-13.804045899737886,-2.427238119803291,14.579470557196021
12.889682071220891,-79.69966938897788,-31.835880025437117,16.51746320733028,-24.68185780282035,-12.250070307684483,-1.1937887321536969,15.348796028963497
14.925307295615537,-79.1016814832732,-29.58392011456375,18.157289181654182,-22.6034412203761,-10.866326489659764,0.28280643531212757,15.514212030395337
16.53123001934521,-78.22657015280177,-26.742419911273338,18.945316196387,-20.256166104432584,-10.292568459414975,1.4766000584194394,15.122626977205384
17.02399678433847,-77.67641522043446,-24.429742436370045,18.492010834211822,-18.328514681034786,-10.58206221057875,2.075949109268466,14.428628473141638
16.199673091990096,-77.75668333196091,-23.359921684586467,16.95161403020832,-17.257465540829244,-11.383666963923938,1.9523415828848287,13.72925988277489
14.31521039835393,-78.37886621811346,-23.74930351569514,14.875005884720583,-17.23947410820622,-12.30801289316036,1.0718814439170974,13.2004029020807
11.879163618771457,-79.30254372299264,-25.529693735148108,12.910852050356093,-18.350299024985446,-13.212604940355897,-0.5434962354657285,12.826826820311412
9.413597103800122,-80.43436291597412,-28.522107992903543,11.54240926831776,-20.58032865357068,-14.208521237748238,-2.753051573926751,12.450787208392295
7.297802541785692,-81.79348643272601,-32.33041412993905,10.951143343414348,-23.681778920808206,-15.415428265452665,-5.20576003361201,11.878283763840132
5.706193038592552,-83.19927151220784,-36.15493201864334,10.996513615598138,-27.0039690614433,-16.710850561893473,-7.375076670723238,10.955359835087133
4.6132264171124735,-84.16886324543718,-38.932284853537304,11.290264573383315,-29.61849858435402,-17.730592287513964,-8.793333510481839,9.581343722834733
3.852970290159714,-84.31037565104383,-39.875378522323295,11.363125905897018,-30.790307653380303,-18.150488361755126,-9.354609655366465,7.704237866426316
3.219729548606323,-83.86045318507087,-38.9992950428561,10.879920852069036,-30.4662555997608,-18.017371407623433,-9.429698760500603,5.363175539642441
2.564793359713706,-83.74750926613662,-37.16655584390396,9.78987301998799,-29.365778933907315,-17.83858029313046,-9.647783690394274,2.7789077774085014
1.8399565991954743,-85.02852430195767,-35.621699718918144,8.31761126754719,-28.58145872910471,-18.327212664493818,-10.467616463577935,0.4102009334273381
1.0878512343007292,-88.19026883614742,-35.391224881909636,6.822759667660262,-28.98811998118475,-19.958139642751572,-11.838644580779237,-1.1170293659957626
0.4233194004250855,-92.87273440293099,-36.89630481634413,5.6516820968145725,-30.838252520626448,-22.61031440054998,-13.181331816558197,-1.2215435611189194
0.025009112992528615,-98.07464609137878,-39.84024976646698,5.064885346276027,-33.69748458239647,-25.498498567402795,-13.67916969773305,0.3675705520891458
0.0960013200305897,-102.52424466404089,-43.30780004534065,5.212240692179707,-36.65113961155164,-27.43046914841922,-12.68432543989997,3.426904650047595
0.7566123964315535,-105.03448191228267,-46.09477628860929,6.099469033565313,-38.666915885969146,-27.280708117600692,-10.015372318732643,7.249499526625877
1.924953005355662,-104.92378950547365,-47.25232927081005,7.570798538903764,-39.01236636726528,-24.48915973933944,-6.026524438870433,10.882314529654419
3.308897310518831,-102.45768422850006,-46.570576269406054,9.38128187233556,-37.564962251218454,-19.372296152949094,-1.4540877135063137,13.500031712982045
4.561454931146015,-98.92197814778373,-44.60114666704028,11.34188260366083,-34.81903397386697,-13.091479470901024,2.8563273454580953,14.719500089592813
5.490377143608919,-96.00588491476363,-42.150824538768454,13.396559429508885,-31.55971391055001,-7.270563401129762,6.192851208659013,14.669051122223113
6.142670066231761,-94.78925746784505,-39.69977696866026,15.52389974604052,-28.451993310487406,-3.426820228088602,8.080788299876142,13.78577096807815
6.697379485014785,-95.12072473669562,-37.291161825912695,17.548401812116794,-25.870246244741875,-2.4639268386606448,8.257562184017702,12.508967364828262
7.277613129723436,-95.89679721858909,-34.93616812291265,19.076509507681465,-24.037098918542025,-4.421947414001208,6.642050551313451,11.098763810752875
7.847145186365399,-95.96386237402805,-33.03708421880394,19.66895711392517,-23.22269347650385,-8.54802167349348,3.403485349728924,9.680332102253532
8.251251835052177,-94.93013574465259,-32.36571573050345,19.128854995442094,-23.744238743866813,-13.635149937313782,-0.9185685974091883,8.414295620998809
8.335322962984705,-93.46118148819936,-33.64841154727437,17.68076190103712,-25.789903720908836,-18.49831947716084,-5.422692958328736,7.598019739328516
8.056502699727442,-93.0963424444366,-37.141666772342774,15.933469553123645,-29.283020947337086,-22.39096129721382,-9.096800306239057,7.584342557088953
7.56000144530812,-95.65057657356562,-42.39193653031833,14.68964522391943,-33.857130808646176,-25.13935694364323,-11.193928059156338,8.574357081069433
7.2043562157668175,-102.08285869371134,-48.06844746505084,14.69407700655635,-38.7769113278829,-26.885450956318774,-11.45934828612759,10.440380290841771
7.471627785382717,-111.02397251729433,-51.8791445771765,16.33270211041601,-42.72525363216011,-27.59792846421112,-10.053103255574868,12.693864035864774
8.707679946152195,-117.95688200440301,-50.97057759293742,19.302259271407653,-43.75166330247568,-26.751713351295816,-7.300151209096233,14.603046426764386
10.781940233084052,-116.31133973530609,-43.158595908889104,22.42459711994162,-39.82239742424131,-23.52139398072274,-3.5487170496317426,15.398835508553486
12.920414611770894,-100.6477086716572,-28.56993513136158,23.879049721220255,-29.970219796116503,-17.441334372553523,0.7410454662790679,14.509785174458743
13.93990829263681,-70.2882568131053,-10.503461187000797,21.944461568535825,-15.349091584266777,-9.058256528173613,4.846649424686632,11.776181885538563
12.84314259490235,-30.87689496022109,5.500168034885857,15.941847513671016,0.7125294467671707,-0.03170601761446821,7.843478009143229,7.5694593567046615
9.428558671520575,7.577979346562039,14.189096167236649,6.795290527913114,13.97642562845352,7.4869561937998865,8.95539570979107,2.7304564995043665
4.499167760346386,35.29784273817581,13.281904064069439,-3.22593477148646,21.245822721097813,11.84595943401032,7.9835572805086015,-1.6999020776465852
-0.49856573688601347,47.268209345835174,4.598083446753338,-11.515258741283807,21.830118054803094,12.641557537206397,5.484668256149886,-4.865382435940875
-4.19340169007293,45.03957878248521,-7.08847147930273,-16.31755514895532,17.63535185989971,10.780913732853733,2.527422409127112,-6.412037237698806
-5.9201079954183555,34.9542457033494,-16.701747919760244,-17.40735706298529,11.896371891487918,7.874759797652708,0.15914544747783566,-6.57146268704049
-5.899670329944814,24.27204392099751,-21.308719687444544,-15.915714023805352,7.435908757246917,5.388978880239504,-1.0734686520920527,-5.969783970139912
-4.933690525729866,17.778559435028363,-20.94323395505003,-13.527542141484794,5.534099033788838,4.06971404499117,-1.2566131243315586,-5.2848684029568185
-3.8908001025977557,16.630863148692836,-17.671888267826315,-11.622029984082426,5.903047679161426,3.8837173666930815,-0.875237400646806,-4.956486445865623
-3.3263751645290673,19.317211396679152,-13.94533260926722,-10.82895650705614,7.427272543567945,4.337185749427559,-0.4498520204389089,-5.091710240548206
-3.3866409590034943,23.362170252548193,-11.424151952956468,-11.078313234674216,8.96288451567186,4.860832814023606,-0.30319978220623156,-5.556119184158384
-3.9182465190537354,26.610720208265413,-10.686049519385021,-11.907280203864293,9.768101110379101,5.053023905017856,-0.5278074642416796,-6.1321517009082545
-4.631907841604622,27.854115169354017,-11.458154418036575,-12.771824361243624,9.603384775736826,4.765936393818746,-1.0535746429649089,-6.636689191405653
-5.24327691739605,27.040336767714546,-12.949794791647223,-13.26838421229367,8.688096304805873,4.095665126267412,-1.7151904190408485,-6.972163777877604
-5.583953304232028,25.11697433157013,-14.21857967489361,-13.2645140364004,7.548841547798867,3.297210060228164,-2.3178397894734157,-7.137142598789025
-5.661920283893584,23.406217231249045,-14.618590041927465,-12.912081598137913,6.722688324626564,2.631451419076375,-2.7282203978406767,-7.2103715253823895
-5.627018035123222,22.76444654063092,-14.131984842270853,-12.51287456158492,6.440272943713966,2.215847912346675,-2.949062445638932,-7.302002835875846
-5.649606761322816,23.14844665433457,-13.275567315237527,-12.306263804835059,6.539988879346039,1.9871554784783516,-3.099567400932645,-7.48624142672292
-5.805545148238909,23.930946915467324,-12.617028725356526,-12.337876913254917,6.691525610656306,1.8002990717994625,-3.30462126861056,-7.762300338340171
-6.061017496302386,24.57562191369167,-12.352344800827607,-12.502899838604685,6.695641266358945,1.5588485601938284,-3.599028757867525,-8.076275779617486
-6.34777132733594,24.971247147880607,-12.322684755332704,-12.68662587665012,6.567619930903569,1.2550122526896554,-3.937167425544832,-8.378346815457697
-6.631857972946785,25.219022140904748,-12.340808108314134,-12.846200551632874,6.387939524101187,0.9138362101209113,-4.274627325779046,-8.656422021114523
-6.910367034887124,25.3210774878985,-12.386095414296188,-12.97942909781102,6.164290845434771,0.5402476027870163,-4.613194607431041,-8.921502133542974
-7.1717931319742005,25.213357252712377,-12.48477725324501,-13.069473888535011,5.87383335445604,0.1343397030929917,-4.966138837409251,-9.177984863825767
-7.392472924848211,25.00971562128477,-12.53779358132892,-13.097480619509568,5.575745985790117,-0.270056723881817,-5.312077311463535,-9.420986647597097
-7.574482582244135,25.00829129687757,-12.391815350034284,-13.094121029322837,5.392108806865471,-0.6200408083069002,-5.612454742538166,-9.656862186897447
-7.761717768477443,25.376628132941253,-12.059925223689397,-13.134983141548782,5.362356237098218,-0.9032650961524459,-5.868401619689695,-9.908860136916555
-7.99876602605002,25.93242467294455,-11.756197158537363,-13.265295008594434,5.376606183888055,-1.1694893411514045,-6.131165385540922,-10.193445403348223
-8.280628599400321,26.346875800584016,-11.65785832758786,-13.44813589968114,5.2976544674418395,-1.4760269909461998,-6.443410604789243,-10.498301444749506
-8.5605043417359,26.529979701662974,-11.69698695019545,-13.609014013290249,5.121581397638483,-1.8229708801048907,-6.787190027670892,-10.794564912882231
-8.807802250242727,26.700910805518692,-11.660939992875875,-13.723348694564919,4.966956283254218,-2.1613323166282057,-7.109148481431891,-11.070096015552405
-9.041542350505276,27.064946262204064,-11.469358830584595,-13.835559704863584,4.910543901273786,-2.461169494145572,-7.389916987803865,-11.341104122269918
-9.297860164536566,27.54208107251642,-11.260094796783937,-13.990084765916233,4.8917773671902385,-2.7479363457023647,-7.665221507993736,-11.627892090965393
-9.5788538119382,27.906268263945844,-11.180556657388141,-14.171216065508323,4.809338558346429,-3.0611664015724704,-7.972902118129841,-11.928359222161989
-9.852616130127304,28.123708107090838,-11.18044303604082,-14.331721715625983,4.669121003892243,-3.396266569621807,-8.300749369752477,-12.22460437122627
-10.101419124780154,28.411988850750575,-11.08902699698301,-14.46540170092977,4.57720457985254,-3.7109098832556566,-8.606402799625869,-12.511509830264036
-10.348420894790642,28.93982810617931,-10.859756086353523,-14.61912718995826,4.590926664750128,-3.9854384825120945,-8.87904300491036,-12.805931587546471
-10.624745527166645,29.59022281781213,-10.635008297155595,-14.826642145671048,4.6385473327869935,-4.25096330742427,-9.15482443774481,-13.122773151504411
-10.92352520546596,30.119338964740866,-10.540780340009388,-15.057496845594137,4.620038263306529,-4.544813273644129,-9.463893553683768,-13.451205175957469
-11.20690571883274,30.489428549778815,-10.503208626627304,-15.25487148630547,4.546771715380261,-4.856030523253412,-9.784056655817173,-13.765230537551808
-11.458536614721842,30.91029391188199,-10.351266695429315,-15.412607439004892,4.522549222490677,-5.139230024201477,-10.06855825654009,-14.056031106851355
-11.709539102442376,31.53114043111891,-10.068730797225315,-15.585858127091754,4.590614293146516,-5.380223636919967,-10.312456687566451,-14.343477451986717
-12.00050913282104,32.21665851548992,-9.841683974666577,-15.819614471481033,4.661939907858826,-5.622666938734581,-10.566314577623244,-14.652205701061758
-12.32902732226031,32.73027009589933,-9.821452790990515,-16.09137741911491,4.631756553230921,-5.9156702390574205,-10.87563123914027,-14.984917144325063
-12.652018265931563,33.08143032728798,-9.914047478182503,-16.34397475824033,4.530693097738028,-6.249639784603844,-11.224664723807084,-15.32696707218576
-12.938057525692676,33.55542910186667,-9.877506121203815,-16.560496451827667,4.503740798909142,-6.564448064996701,-11.556708172753906,-15.670967157878955
-13.19893984802216,34.3682035384019,-9.598202707677933,-16.777578139758702,4.639793116548558,-6.817476129138478,-11.839625771508999,-16.022458980464965
-13.462473719323363,35.39606671866283,-9.189026222887048,-17.022588585319184,4.8726930974453575,-7.022080436353901,-12.088610748858889,-16.377359270955527
-13.73216455120311,36.326234094073406,-8.812575040382823,-17.26914168169633,5.072021712325389,-7.214026446665567,-12.324685115688828,-16.707304896538158
-13.995659421354157,37.0078912439796,-8.508502374391115,-17.480002911847365,5.185336782028113,-7.4054947860014115,-12.54109371637919,-16.984278414733275
-14.268910614957948,37.538920100130674,-8.267090216675022,-17.67991528837214,5.240499616447412,-7.597963160793756,-12.735651735486103,-17.223036674955853
-14.603114090536778,38.02804534425973,-8.198747395995598,-17.949758093279765,5.235557617166621,-7.829511020166653,-12.96254781194715,-17.488884961907456
-15.025673508205447,38.441860358112656,-8.471164502952368,-18.333816604312492,5.11720231736973,-8.167070213149858,-13.311259257635632,-17.85291885019647
-15.480303061817379,38.803355402395525,-9.005459582919368,-18.771159527595653,4.919036848039471,-8.621122880263433,-13.807436349702378,-18.334721233275577
-15.847588851444211,39.44262929945341,-9.320313381304995,-19.13853401923052,4.869073734458481,-9.077235226414368,-14.342010143195457,-18.882330298470006
-16.038800863494107,40.82463812736245,-8.82440436639113,-19.35646726007729,5.257114559878784,-9.345722690233368,-14.721308595541512,-19.3957144037727
-16.073746448988793,42.9994618817188,-7.350292133469175,-19.44284557979468,6.136045583987379,-9.306997269556796,-14.804319978672552,-19.76591421061948
-16.077787192880656,45.27987699974605,-5.424265233390874,-19.48115123020252,7.16267855205451,-9.025523081682929,-14.60961540541256,-19.916828044784744
-16.220661967414344,46.59468471237051,-4.032411738904234,-19.57757399512319,7.764014686687628,-8.74159724165958,-14.324352755717209,-19.86081098700234
-16.651629877669688,46.26082463359658,-4.105657308779693,-19.85961136109252,7.494661521655255,-8.765161599144962,-14.242615481465897,-19.75579589325381
-17.436666118708576,44.52469191949911,-6.0497964644670965,-20.45867680000456,6.317505094121711,-9.341737597099213,-14.67016724731356,-19.89896973424075
-18.474307202693506,42.54701813109621,-9.406824765046393,-21.400052671107726,4.694047117934703,-10.51380151321126,-15.7769780102049,-20.59323230118832
-19.428669909059806,42.00294238975354,-12.653267820902023,-22.454588022255134,3.5264498459154883,-11.983976263101377,-17.394346522941095,-21.914957864934568
-19.791558419772993,44.48409591196093,-13.4014987148051,-23.123268508146506,3.9265309634516345,-13.067955399930629,-18.876985720957272,-23.521475672486442
-19.1330634616909,50.612402216988585,-9.378165775383764,-22.848311630719078,6.688313575542768,-12.886332457402556,-19.226362311614157,-24.652637453259032
-17.422787987265572,58.93283497929903,-0.016734346117152243,-21.326158650322164,11.539237079780353,-10.823006526299572,-17.537233083682167,-24.376276285765922
-15.175246169701756,65.33386365217196,12.346335555138158,-18.676942868965078,16.66365621002245,-7.014974313846694,-13.550252382610973,-21.983502756416893
-13.250402871511813,64.04665876352773,22.877319905232657,-15.338087973118611,19.116268956327286,-2.491687850949418,-7.932720793248102,-17.353222615982286
-12.383962900517233,50.401802226306486,26.505510968351313,-11.777970428606068,16.226884476247353,1.2457332146300681,-2.0498481620976627,-11.108511019339817
-12.734114183199186,23.964112441609664,20.835155681668947,-8.252329577573258,7.265093324689531,3.0161425419300185,2.66396118460523,-4.46511523789449
-13.74568900383258,-10.130049172266382,7.781925114044394,-4.767152800507408,-5.77337329900956,2.6245298159389443,5.34769361621093,1.196496202201707
-14.438131544509625,-42.927705203073465,-7.299154821750404,-1.2454246787618184,-18.94073994057819,0.9510100270920872,5.988501331890486,4.861074135063136
-13.949833744347124,-65.780556537445,-18.55353181137625,2.2532073465694458,-28.316085495908748,-0.6074130380490766,5.219203441091637,6.263723264929697
-12.00456989424855,-74.43427969280404,-22.753706823177673,5.4424714047775655,-31.97545804552151,-0.9695950549102607,3.855746939987285,5.945320174362271
-9.031280525515323,-70.61750785231575,-20.623007747122802,7.914667485211295,-30.72031162404627,0.06433506177045675,2.517937836195856,4.956444593982408
-5.916079953908929,-60.32308350097163,-15.7116582639809,9.332984372390774,-27.205608914122585,1.8216912513974934,1.5141655105897291,4.350052326098247
-3.5876268218488208,-50.18720350142173,-11.915141352237226,9.545648341165759,-24.22129172093581,3.2139201002953417,0.8977165369289053,4.689138524020357
-2.6656708970740146,-44.427821716057665,-11.441602136047827,8.575643507048712,-23.342052327235336,3.2615884887934743,0.5019337238994731,5.791160768786063
-3.2772226655990284,-43.923762182519674,-14.280820805086904,6.5847454490495,-24.643520037824914,1.4165543004296015,-0.08332823664935606,6.840144099863893
-5.03653205326672,-47.16224555635117,-18.90920748808497,3.9007421634045043,-27.25493041158289,-2.313024173259203,-1.4386825046665168,6.83299331643431
-7.174182097209984,-51.69979525699985,-23.324229070116893,1.0588214763405543,-30.049107361267424,-7.315150776055813,-4.02163960977852,5.151479514419373
-8.804774830019987,-55.17500472531853,-25.822607205706472,-1.2616209289506082,-32.033633361606945,-12.410081988731513,-7.771722415770149,1.9718553626678301
-9.25629792980054,-55.87352821700327,-25.48433913234881,-2.4278851397448213,-32.5025663715088,-16.102546148435923,-11.914553841998119,-1.6997597563789013
-8.30471434385609,-53.15380936098133,-22.424234442324334,-2.0616329070125046,-31.15394662583793,-17.084971310100947,-15.171011731403029,-4.395038178843153
-6.18787264478911,-47.62565690076296,-17.676075573439963,-0.14661851606731763,-28.16788757822844,-14.786622602569288,-16.29310101214856,-4.800818563169565
-3.4199794775949757,-40.74667400298821,-12.632520953159762,2.9736379490615414,-24.10251687758895,-9.6585117068198,-14.639142940411345,-2.366554354072635
-0.5537175943107857,-33.96121029021619,-8.345707934319098,6.654371158692006,-19.623458670731768,-3.0390281650290696,-10.513683680591573,2.3673034400036435
1.9757922292479786,-28.048260371208503,-5.188680374209071,10.055785300479702,-15.285874844170102,3.3025966443797974,-5.145131703714513,7.896896943760549
3.9017534904499187,-23.162032723703526,-3.0527279258953284,12.337248648302229,-11.51937996281167,7.726223806231684,-0.30793274176056074,12.326596551153479
5.12199588620603,-19.30251661736699,-1.7597772366877422,12.920408866914562,-8.707997128499118,9.204895499468533,2.307045431124679,14.14697647142448
5.6749035281594615,-16.571705018634628,-1.2731941933295972,11.693817545586644,-7.161368970290936,7.622913652240787,1.7603093292996423,12.848239746117748
5.694754116505115,-14.987822840609983,-1.6261332851540333,9.032872436683496,-6.952718817996072,3.8080047368626007,-1.721761663476966,9.074128684132353
5.3630761235874695,-14.23024973675481,-2.761447823308746,5.64697961049019,-7.787560918799655,-0.7291780895089554,-6.799972898517909,4.280914795973312
4.895998254393435,-13.69537820457639,-4.4037401058808925,2.3771898679314494,-9.024538106998833,-4.263139403920097,-11.522185939313578,0.12305987515867871
4.561181818649193,-12.764025924118032,-5.940000606125522,0.017505123349615265,-9.813019048407282,-5.361341364384348,-14.034689964719425,-2.140069615655955
4.639900805528007,-10.963554860379459,-6.403053147469739,-0.8847710724643265,-9.296999991738137,-3.2968939547082776,-13.232370111392276,-2.0279999181476724
5.26836443202902,-8.025591498879127,-4.833232840126848,-0.2779561704225795,-6.93758936150802,1.681948426105805,-9.167303482895942,0.04831014499333955
6.240753164558941,-4.109749550907608,-1.0643014305763037,1.2345399577653449,-2.9497054281999198,8.271991787849624,-3.1052140195207167,2.959230292914286
6.983330910830675,-0.1488534402142928,3.6220925003796482,2.553575521271271,1.4345262096862614,14.356604474999415,2.859216125434176,5.300752317572761
6.834553681939288,2.2371692374939793,6.788903739464498,2.617284955117211,4.310745768646232,17.686831258640158,6.615046219367837,6.0013379434804355
5.5103119264012825,1.660985178506123,6.271331954006127,1.0384422126540567,4.13749611327667,16.869598163093407,7.015721282816171,4.856710766012935
3.4275800308304327,-1.760943164998775,1.8544052456851448,-1.578766014093525,0.8831171291920793,12.190669987036596,4.539350895361577,2.7256577327500104
1.6092314921828184,-5.906613769333224,-4.125840655279902,-3.8880395387532922,-3.598904366701527,5.716919091723202,1.1878678427794376,1.238893541066099
1.1666446169568048,-7.570457381210101,-7.8694092522786345,-4.502807569880904,-6.39464143896406,0.47119070848707484,-0.4324010713069749,2.081889477196938
2.636375948434902,-4.2767931492779905,-6.260236136402969,-2.7800225054315058,-5.1174331216924305,-0.9627673276026446,1.57363218833971,6.113664601928116
5.5461561044276335,4.238730007005829,1.2392547334645845,0.7148625553780255,0.7038372373398697,2.312681835199271,7.345798673144375,12.712554692563959
8.479666942272807,15.699199488131196,11.990294323417155,4.328233449623393,9.209663572589639,9.044619911344041,15.03449374055036,19.73978284165129
9.68106228472667,26.062162750981713,21.1674339679945,6.066141872961588,16.935522778896992,16.36165040817297,21.52732176836063,24.30978659794735
7.97527673927694,30.956735822437867,23.97778260402009,4.709905100792638,20.33050746301774,21.04746659359217,23.856154569567266,24.148480242761767
3.564441363624524,27.455406579088216,18.293522296205687,0.7411254958421828,17.472859971892515,20.997270419933077,20.682360897651385,18.888002346687905
-1.7799747218180615,15.807394873250425,6.500288477804945,-3.5456148705442407,9.281100983060558,16.222147775820286,13.147443676940656,10.516975280968945
-5.3668209239687386,0.3088908694775646,-4.676807802218576,-4.998586646220102,-0.447117700486066,8.921254780262187,4.57787622068952,2.5924057212924
-4.845872718644379,-11.680879341365074,-6.834810275210332,-1.2274731558985976,-6.453452611382769,2.522379935259722,-0.9401930261964397,-1.445285286627439
0.5697542537265194,-12.739863062459172,5.9693812619460225,8.022372814769126,-4.415840873765494,0.09727269455573499,-0.46722666044945693,0.0719642486962231
9.620058979584877,0.9003176948060603,33.81912648704073,20.57580402201247,6.863105155952882,2.9309980020841833,6.392773959367045,6.338048532221035
19.55363924935,27.07848089509223,70.35719639110054,32.813895166705265,24.72035725738268,9.990137356126336,17.361078811677267,14.658792290013608
27.416068935841004,58.404917578834876,105.53504450271917,41.37126685465542,43.83201410824498,18.5527634544688,28.66717158834978,21.898251505162683
31.353930817492063,85.69919543148694,130.21480368690754,44.59006661409923,58.710881219110725,25.61272325816644,36.85688886077262,25.925420474128355
31.262034254712827,102.21075063317912,140.0815648074064,43.00415787689898,66.12027322406693,29.261834858236032,40.23712081077146,26.327892547033727
28.543016493071512,106.22859457878121,136.87621796763315,38.769926536410466,66.14224299699654,29.33793321933769,39.271851416496254,24.186214866852747
25.261060697824572,100.87337812689118,126.70286569171725,34.54080611826805,61.538357987560104,27.127918233346083,35.91733630052167,21.241686150595385
23.20981020960481,91.78851747839593,116.82441150727023,32.415606938867214,56.076055595747256,24.47597813578403,32.4617718823117,19.010676841308474
23.284551979058342,84.54851052971024,112.77560622477114,33.298728497158905,52.90575597876064,22.8849706091587,30.552567430611397,18.24736368168536
25.261495733426607,83.06971305086013,116.75671624783062,36.67104773504335,53.651206292616294,23.011600933064322,30.76603649692002,18.84650441154749
27.922060384213783,88.9556819373616,127.20925868198043,40.701709563805785,58.16809361473194,24.597567841480274,32.656812218332334,20.06328190902611
29.47574807210299,101.09765509298529,139.23742082457295,42.75745814357378,64.65846835128094,26.684249982191844,35.06047045835656,20.888489249177283
28.25053514395993,115.49549504157285,145.97086188866967,40.35565339640181,70.10419052967745,27.9998128612196,36.52048141531641,20.454954236015787
23.48229380649876,126.08031475431521,141.0494261852373,32.31489248998938,71.22807336930573,27.47566912092649,35.80921207675989,18.360009571008042
15.841143483016916,127.01571476484318,121.62987411363684,19.535500746517965,65.91601725680916,24.766835462144904,32.43867114226037,14.785868207667052
7.332393495960948,115.63512007065668,90.38102167047384,4.872322428055231,54.459137186062044,20.512324748527522,26.925838477179614,10.36567823395452
0.5123890804170914,94.21419755312509,55.00417357810092,-7.966049238668635,39.77667005164753,16.113588799932977,20.618105580136405,5.881087830747727
-2.6155571023357327,69.2628807021173,25.16739774968403,-15.958665208967833,26.30017892399489,13.09271388509429,15.134434285271578,1.9794854409236897
-1.437161727310484,48.64247589195273,8.41617621881072,-17.942692136244858,18.071297163973636,12.39934142173505,11.730382929045716,-0.939696113250238
3.1283399778586296,38.255407413068255,7.3032067364177164,-14.853726228382477,17.124998122377924,14.083811776826748,10.923213132009352,-2.6787672970343426
9.161651874017222,40.175909388544774,19.11985363255368,-9.065821277243682,22.983020741131902,17.476569827148403,12.493281132379321,-3.1801957656427815
14.560291352481485,52.81694731127438,37.86208127743604,-3.3392500852910563,33.2660391730324,21.62995391436852,15.702154068154506,-2.5750088018866726
17.693157740154465,72.16001133596876,56.777339607441895,0.07825738193576598,44.7118441714638,25.61698702422487,19.47571346119114,-1.3041789146124805
17.709666499693412,92.6336803283798,69.98888609091378,-0.022207659113115202,53.86285717883609,28.495612025854477,22.469748209216203,-0.12648633222886807
14.611185473840832,107.31111216611602,72.99590607252307,-3.5720624309433715,57.33662013913175,29.14561593041448,23.189578353793024,0.14404180021282914
9.240786179476196,108.50983386274825,62.96744384727952,-9.193710680076661,52.21842001806491,26.376009473682167,20.38324031458536,-0.8966452628085418
3.170242110033987,89.95543442324755,39.59548930887496,-14.493776821686064,37.013516408302344,19.46454815944791,13.664791166317952,-2.8817418079988353
-1.6693233861968744,50.104656715522246,6.117725312359003,-16.832152350105858,12.829487593455553,8.8295874385111,3.985740072858037,-4.739407879657096
-3.6458492418670385,-5.490057540815857,-30.716429511896273,-14.423275538874506,-16.169199609082753,-3.712519977030154,-6.479068679451722,-5.234144495250959
-2.1233591758360593,-64.96422652072148,-62.524762062563184,-7.248940788956206,-43.77465365306913,-15.43768763918157,-15.122657335165641,-3.6741221133625968
2.20827404418636,-114.40436963525251,-82.43949662510772,2.795902973243184,-64.00115182459862,-23.780263648624036,-19.997590136199598,-0.3315002481258858
7.6224904190101315,-143.5534045566164,-87.85959916664184,12.705832294332428,-73.46991306353797,-27.403736474719587,-20.61219427937547,3.687309466614417
12.148443086550094,-149.854003445583,-81.24470387490045,19.714407990827798,-72.62022332947525,-26.690543736211357,-18.015897723895563,7.019343618653966
14.441713911260326,-138.7359061201736,-68.59269213532743,22.451732395691433,-65.15890731801512,-23.42269294261254,-14.188554858211045,8.703222129456714
14.277096299483816,-120.37796514415489,-56.63654209363234,21.324232123093367,-56.20504900914211,-19.89427271499683,-11.128622824043882,8.55194251703037
12.464651969260528,-105.09297718851488,-50.337918988859535,18.046386378860166,-50.21695410651804,-17.959725738485176,-10.120717416152331,7.102593264733258
10.33561453880381,-99.6645017843055,-51.62716868611135,14.735323344824245,-49.60366000743292,-18.42888697517932,-11.432994242322424,5.2684781269961265
9.12427385673598,-105.63677741298662,-59.2689154709991,13.08396896077685,-54.23511955004195,-20.91681160655724,-14.37961555839286,3.9319458495369775
9.498718127255996,-119.24272877827298,-69.2925506826664,13.869860285984489,-61.59512802414326,-24.042820439273616,-17.565939749612383,3.6433426886087505
11.316539855432026,-132.51241265697107,-75.87405052753567,16.768357935630313,-67.4289267138203,-25.886990642260745,-19.25877311500659,4.4590562381073156
13.605319159859189,-135.68230099919734,-73.04283335127235,20.401522818220506,-67.02928342826033,-24.69035072193333,-17.948467656350324,5.902361406495644
14.811705459280953,-120.9460881569896,-57.205429880146866,22.690830001101546,-57.14116028253897,-19.689200083567222,-13.055574841587305,7.072334427063912
13.357964643616725,-86.3902783934424,-29.422618408154744,21.58670530695863,-37.79822204617031,-11.723476361102422,-5.455135140771233,6.942542715702621
8.37323761765861,-37.83711078037528,4.180021763186772,15.989326064700618,-12.928307378461728,-3.1540575472297214,2.621895726864174,4.79963658417455
0.24668185610367535,13.164644248577842,34.68485800600756,6.3852159096178385,11.0241953660335,3.0884925334464945,8.471609746150897,0.6336735965596249
-9.37185130294749,54.668738997561526,54.403106796494356,-5.250361279289898,28.001723559019776,4.937934487522281,10.21865973778771,-4.749462113683397
-18.218468968574758,79.99829386149456,60.3549357998874,-16.316103755533312,35.1691266542142,2.306418595262562,7.80083864758297,-9.996527324913542
-24.393017243579326,90.17130182974756,55.08772472716507,-24.722323570114806,33.95135896215759,-2.8305220941037446,3.0091126168962514,-13.739908990706692
-27.112731271442488,91.49214298994121,44.404563781254836,-29.603922518743765,28.627839398732256,-7.489859598240498,-1.4867230913911882,-15.120941084047816
-26.812407130182365,90.04918291657195,33.633713539637796,-31.203821324005144,23.445052259961,-9.273908920475328,-3.5529711501232915,-14.040481606465741
-24.586251179629144,87.09665005009987,24.972367802706124,-30.125196096058872,20.183357995430242,-7.552906216092661,-2.5944027166195918,-11.042403468046185
-21.39790165129185,78.63018214444662,17.482564038204753,-26.60483396355532,17.71197322100084,-3.565794829723538,0.41524051557098335,-6.949813757381442
-17.6072467796669,59.29815072435432,9.270646258625588,-20.399120991119975,13.588287415291223,0.5252522962082111,3.776068411164574,-2.4967880856793903
-13.084696695165551,27.57500011884506,-0.12188214264762692,-11.343221218004855,6.342957627352258,2.9490291421159123,6.1394869359853645,1.8440689960426666
-7.728937606211281,-11.67680791126108,-8.95448239530195,-0.07875818652256689,-3.2240092395015667,3.185430137202964,7.129922965607265,5.8057300237828775
-1.9277406576411045,-49.05795244445844,-14.518292098796445,11.698517016865118,-12.514235306149674,1.9476220187840627,7.233241529195083,9.173491587214947
3.4077829293148256,-75.49364100627652,-15.187036434957491,21.74812653837626,-18.822659086118627,0.471942325543015,7.198312109057948,11.704644741727273
7.2550146321217905,-86.74619895143772,-11.631036436725113,28.256258808085395,-20.934788402839153,-0.3079979802722941,7.460095555690695,13.19211837186495
9.029852208294859,-84.7742834017181,-6.341634756539065,30.641554129285172,-19.571581549144152,-0.17784514191175516,7.959285891148031,13.601939239275197
8.892598110060534,-75.57321252901042,-1.9781342407826152,29.70459238638491,-16.59775180760107,0.4883995659507598,8.366792527632661,13.151991118194452
7.632240829378786,-65.49020010309125,0.13767846606026998,27.103963373712944,-13.782745764248164,1.1546167688029536,8.433237842557569,12.258782837660558
6.253136591829206,-58.536578587387304,0.39176596202389175,24.56755946655659,-12.016695411262575,1.4857578959564626,8.180359713105245,11.39088804227162
5.5439260579620715,-55.832952732951675,0.1593244233556816,23.303199131903927,-11.296081656860679,1.4692280234772013,7.861129945764971,10.921809279453717
5.828453200647122,-56.55960096479546,0.7509602394982119,23.781560775969083,-11.166608064804313,1.3369108892704302,7.791792392598457,11.034164017578425
6.918509473191298,-59.16420682642188,2.6601157188547315,25.76036715834855,-11.176960726748293,1.3933830833935676,8.164875877406994,11.664029215585748
8.205348855651547,-62.14600106879456,5.2717160912247065,28.38550782967481,-11.149056186478466,1.8070581730410216,8.886850422174044,12.476862977493237
8.872608409432472,-64.39731049497615,7.0297199538773185,30.38022476176153,-11.250426417818323,2.42457762588533,9.498328594093206,12.922115621058218
8.241296864091963,-65.15381435123052,6.185266116508752,30.42357125957432,-11.81025643224441,2.7426962786241473,9.296216658607136,12.422569568709381
6.15888245970805,-63.503300938303894,2.079659570357865,27.67418401632541,-12.839870980821942,2.156677335041548,7.715406102474817,10.661147282988981
3.2097666870747616,-57.7384014476155,-3.697446609013805,22.1817522976849,-13.505115898568109,0.40791744609572367,4.801656081915953,7.806322643535529
0.5424885557829602,-45.32539304950926,-7.32047730141013,14.909314025144743,-12.06933548649328,-2.069916805721083,1.4243084903201293,4.499636994026701
-0.6674973500867192,-24.057336994320774,-4.402255820445485,7.316008383555522,-6.633582487519315,-4.206686738048675,-1.0232479480817838,1.5633449047479437
0.16650610277436043,6.063447376974907,7.438702158001001,0.7327558165093343,3.637077327091663,-4.779948527971416,-1.3264320758632433,-0.41595145545778994
2.7243731243980855,41.56913822940068,26.774561013466904,-4.113611734191062,17.63330591276772,-3.030611625815388,0.8843427420375525,-1.3611115859269312
5.965121338119759,76.08154550423872,48.6571449747662,-7.184087302359862,32.48582353833846,0.9860537247748894,4.957064430579306,-1.6439086553896642
8.705219906862007,102.69562428486596,66.97229739828025,-8.842151020630038,44.83229805142283,6.510522818328915,9.649149688634509,-1.7302582725434705
10.23007443295776,116.94689572766427,77.4476329198154,-9.459750614484756,52.42630775574638,12.510990182208433,13.848640035554334,-1.7992537058144003
10.579657676151674,118.66256698914864,79.49415163980828,-9.20055251183568,55.09298105739977,18.09128073988326,17.07043165491318,-1.6336546351532537
10.39339419041123,111.68799535252242,75.9283317809079,-8.067327746742702,54.49260544198555,22.623187611434837,19.423431485236975,-0.8621031099730002
10.48759551708652,101.88076696277018,71.09030667415298,-6.0791823023406995,53.00114312747468,25.66369762786597,21.19574311188488,0.6535666985254902
11.44498962080965,94.78544658912996,68.75995060955685,-3.409241042502176,52.56834025951694,26.93299234388918,22.49217315863448,2.5983774747482498
13.382898148338063,94.15553598789103,70.9163409171193,-0.43973802447546667,54.19290450861299,26.49894474229347,23.215936159764155,4.309572752730666
15.90323652873014,101.31787196076938,77.34314427312003,2.223755095116278,57.92667839397475,24.96357347103583,23.278847985001786,5.1063763436570575
18.180339646267882,114.66363259881615,85.5498648718925,3.7959377953439364,62.8889964110618,23.294797225064677,22.693429840737533,4.6012532231583405
19.192414086817898,129.1587947643336,90.94106448874479,3.505907166851095,67.10049257859502,22.23645076308385,21.389836642470037,2.811936996637202
18.102384007910462,136.88826884032446,87.83584716755173,0.9590469932862842,67.5935618978482,21.70448028398157,18.98487764514603,0.06950545015624834
14.678864670472876,129.6579819365229,71.71856789498398,-3.512174120034521,61.36467010106252,20.7241549512581,14.86649828114727,-3.1523539493904416
9.527029430526161,103.09613710977216,41.936216256677554,-8.793191899483174,47.023685914134084,18.07395585686621,8.673488198323206,-6.3679556851979315
3.931065559938248,59.90165063607624,3.095594358385565,-13.376248972719063,26.12827452675101,13.209794010378513,0.8258448518244635,-9.15006198849943
-0.6759011539204679,9.74417949349503,-36.205194818628534,-16.036536303474108,3.080698050577112,6.7828943035571,-7.376139721954402,-11.191393225031288
-3.3440384122013103,-34.732122517244456,-67.01167994421586,-16.401280735854517,-16.657415304901082,0.3599358479400495,-14.265822246588865,-12.381034215628738
-3.9752201489976566,-63.708021129893176,-84.01329399780316,-15.048016961647129,-29.074071164866098,-4.451010513473826,-18.633415611229463,-12.84393882411815
-3.2204703811766935,-74.37542500170251,-87.53197584009224,-13.074460711439427,-33.31372829598144,-6.849489164699435,-20.297115820586686,-12.87611227623482
-2.0119151976351692,-71.12511664556942,-82.43274571006049,-11.448239621340358,-31.586283843295753,-7.117507321602588,-20.047562172177138,-12.78685256446132
-1.0622479814880659,-62.01777380786954,-74.92548719939045,-10.575766854524034,-27.512444256969868,-6.235189065425295,-19.061539882610916,-12.749461000446114
-0.6292567087641933,-54.139084632365055,-69.43922790930992,-10.313915232790412,-24.116758045755663,-5.212510732098603,-18.23884855198785,-12.761248073658603
-0.599418597554514,-50.709591098269875,-67.29922840264746,-10.289969274711869,-22.684980524124423,-4.613680121096596,-17.88586757835675,-12.722658127191833
-0.7260958364314186,-51.087197702301296,-67.41324614878589,-10.221527258471662,-22.87315296593155,-4.487869388766487,-17.83877493044459,-12.560310099424049
-0.8317806881158656,-52.75185549359588,-67.94929829203419,-10.045695158631576,-23.59947653280578,-4.596752127283344,-17.817581959361725,-12.313021305729976
-0.8960326212099881,-53.59166702414359,-67.84040711852333,-9.877189087641193,-24.004105118002407,-4.712798960655581,-17.74464017644997,-12.14661358310193
-1.0372087435684714,-53.34422089450784,-67.48744764521653,-9.88760563450964,-24.031025981862815,-4.833781744202074,-17.873819187656267,-12.293473643616055
-1.4009635218351661,-53.782594858162696,-68.47521827642893,-10.145004647452001,-24.47050631375986,-5.234474844036594,-18.676571393345807,-12.917626426536632
-1.980626389576098,-57.54770336337897,-72.3355392980265,-10.449930367801302,-26.40789496334019,-6.294858823219996,-20.488425577040275,-13.937348622742505
-2.47332123471335,-65.88011897031755,-78.80248517093275,-10.295299221600146,-30.209258197799723,-8.12021284283779,-23.039603465100246,-14.907770179964869
-2.3285467241654842,-76.351654466218,-84.63272095642544,-9.091732001821166,-34.579300802759015,-10.157999670980574,-25.172836229632185,-15.09726278712392
-1.0443275004558987,-82.38425746857885,-84.1898599886878,-6.604812675444605,-36.48246950559269,-11.149959963243656,-25.085154376785784,-13.80008334797327
1.452335179544242,-75.70111112598066,-72.02410355367134,-3.2929939417638585,-32.33527627725324,-9.613633256640073,-21.14866807216821,-10.747317170854352
4.631745626575768,-50.8355302039339,-46.12894035181189,-0.21216247727498436,-19.95916572443835,-4.659309056610334,-12.909127632903006,-6.357111216916655
7.568785848465229,-8.986362397843225,-9.759232283746494,1.541582052545489,-0.08415890867186748,3.363428451747147,-1.6170461254020927,-1.6279493446995486
9.423208964776155,41.43637686380259,29.522303943740464,1.4943590605576749,23.618257861815543,12.837128884569193,10.12504302457207,2.2987301169666323
9.874695648924602,88.16365394813823,63.0822753177608,0.08598223113124731,46.02747462093855,21.51498677379896,19.451198561866878,4.656647708814173
9.226072699877609,120.40100178942282,84.80109184132886,-1.6296773515375873,62.67060158763416,27.451929243558865,24.433661196509764,5.347055593036133
8.13033640896032,133.12360411088164,93.03800883772426,-2.6661553813857672,71.24326189398258,29.714265991238623,24.741030270258637,4.857795680389145
7.161449531402313,128.26049982984466,90.2869623080905,-2.686115874777748,71.93449353338306,28.562241770006857,21.50302203996943,3.9182760268216894
6.533469475655677,112.80247570692994,81.32809207182497,-2.096337278839465,66.78648504597494,25.15649935294524,16.63730989465506,3.1515749973692837
6.113932201635565,95.48386556531327,71.23743902444704,-1.6590694846750091,58.7576317484053,21.058146586145824,12.107503827688102,2.9149551786607506
5.619207037858737,83.75421550432091,64.00031771422616,-1.987301472538266,50.91447687954427,17.74226000852901,9.400056424479557,3.3120089549624074
4.763219512019131,81.69625723022031,61.560489215754785,-3.316456981561491,45.673054891126625,16.167176529034073,9.199092159433805,4.223722153063567
3.2588244088186866,88.7515454155045,62.99538361511069,-5.625554433034041,43.91219724972073,16.39320402768163,11.152328589950114,5.268764438731859
0.7870275517831475,99.37673755021609,64.20218162053993,-8.844430895807113,44.24483032263183,17.390490666325547,13.809611181092297,5.778197778911523
-2.896148295519755,104.37907609785314,58.97918000713294,-12.860653441025997,43.16749019722842,17.291405350502743,14.978501416079766,4.947946999293654
-7.714831652026391,94.38018778108474,41.77068336033849,-17.322405563780077,36.5292501798803,14.176919687870038,12.584341904094611,2.2048731856712913
-13.094339315233048,64.38893794240954,10.933984692375736,-21.504828230502692,21.8109250179213,7.092537869341085,5.712654694212719,-2.4027828635777086
-18.066041919506024,17.068979866472056,-29.504661097605112,-24.488621867124007,-0.11220305857190949,-3.2898031434168256,-4.771325457976899,-8.080937565015299
-21.669718223284242,-37.551219063507624,-71.02770571171695,-25.61592058132097,-24.947946268979454,-14.822617385189288,-16.47926563136613,-13.577589164365769
-23.419707678025024,-86.23090728683877,-104.34023770715373,-24.906128480368153,-46.87620536977878,-24.82264467825673,-26.559010333955843,-17.739307219390767
-23.520709125568068,-118.39306297044011,-123.51554914265357,-23.089799038597462,-61.26876896006747,-31.274571527978107,-32.96126685380197,-19.994234721464725
-22.683460502642333,-130.42624382685753,-128.16934187025785,-21.19237906864165,-66.63189176122575,-33.615480487941824,-35.19440800715466,-20.481036713141805
-21.682217231473274,-126.16556824508265,-122.63614320038488,-19.95537578769015,-64.75419113643223,-32.718464338736695,-34.21929090468981,-19.808822070964318
-20.977606248929945,-113.85336157551058,-113.13511456407412,-19.508077597178577,-59.29211963053027,-30.232328935587155,-31.715763017361155,-18.675395219382562
-20.642051171163676,-101.97314235661243,-104.9836704854717,-19.479259835369813,-53.94568218902284,-27.79617391284443,-29.287600221197483,-17.60309828466854
-20.555585567136763,-96.38691736231907,-101.29117826186875,-19.382324874538206,-51.28314471635041,-26.56728695311964,-28.03050853917445,-16.889257207784862
-20.642812706458248,-99.46219678438398,-103.0340695002678,-18.95551297370004,-52.4237926502216,-27.11202388692112,-28.46896780798135,-16.68664366375994
-20.956876106828087,-110.25744762269984,-109.50183261291227,-18.28023322219862,-57.10542483446125,-29.418108097198726,-30.59677595012366,-17.073353554034618
-21.592748517306358,-124.83638135943481,-118.47693396334748,-17.70793552257566,-63.74634257819331,-32.84990406091983,-33.845101380861955,-18.03606177074178
-22.52911596055297,-136.9065941858321,-126.40507305790032,-17.673139987595032,-69.63707379493763,-36.13742216369117,-37.063387126745226,-19.379720634331026
-23.49008171364987,-139.51635710363405,-129.09050193949454,-18.4122309326647,-71.60609319847201,-37.61580692322958,-38.70698265751002,-20.632072965581983
-23.88667686991696,-127.71469103257874,-122.93482380073478,-19.650916796662596,-67.13540068728638,-35.77164674188495,-37.287491872866184,-21.040232477756735
-22.916462364710323,-100.88253439046075,-106.1892506209901,-20.480227047814346,-55.42295291284081,-29.89058724450032,-31.9382218346924,-19.75485934934289
-19.885740469725764,-63.29349442648809,-79.69174409148961,-19.666259078990006,-37.83342184086837,-20.489532301421324,-22.861848323612072,-16.216441275508455
-14.6727847230709,-22.53065843819577,-46.886328801806066,-16.36161236522642,-17.536806063686864,-9.309090727966451,-11.463326221684971,-10.590950645790153
-8.054326710022012,13.35838458224467,-13.111217561201654,-10.796658264363328,1.4792222874114451,1.1728326434436913,-0.055082037083603014,-3.9653614030222855
-1.59319083860042,38.566915360076415,15.789027849322945,-4.417384148292182,15.650633512520553,8.55771210617305,8.844520566014596,1.9297677230891526
2.968817895527372,51.008892944364334,35.24151853765636,0.7322855246368658,22.92383753193478,11.372066781125026,13.400861983635117,5.428710602976762
4.519905482257666,52.243728730714125,43.48952631711083,3.057339739343918,23.334028155792492,9.591217852287532,13.165994808062123,5.720190439798618
3.123560848447934,46.253660954157645,42.190233048463924,2.2499083397141617,18.882068202263014,4.6128062236193825,9.256340187854072,3.2713614385894205
-0.027062596847384768,37.8095607891912,35.68019445808976,-0.5882874718817817,12.749780109390247,-1.2980664655822827,3.9076381169042484,-0.36206070911922744
-3.2209737105904845,30.994450315242975,29.117197802410068,-3.582996383699479,8.111394953041335,-5.840137680253244,-0.395276720407518,-3.234475267275137
-5.053515582565457,28.14403003356022,26.296405026890366,-5.064939785189762,6.96077694152446,-7.441624343436871,-1.834535865823184,-3.8455453443368715
-5.013959875081154,29.379080028627627,28.208544968849157,-4.319030553598498,9.436592099578046,-5.686437317144095,0.15053426745548276,-1.7135316622857997
-3.571562435981558,32.93433417964992,33.081484730218776,-1.7636000427066303,13.977238395316885,-1.2983498048843942,4.7959021783688165,2.520656517041195
-1.8055918812535858,36.25321736129342,37.790429736333,1.399820937800483,18.235651192895673,4.233337469590934,10.420584923091631,7.41544524279873
-0.8417734931493955,37.32707050039776,39.69884671504702,3.7814650951783833,20.247721224081236,9.190695882581752,15.081571505161918,11.279617081557605
-1.3753457809069374,35.52277650496982,37.84376857117936,4.358267745773571,19.224363703996193,12.136331851960982,17.218564274653183,12.746519232738628
-3.4421728015217394,31.5233718662119,32.988537643717,2.828553597509167,15.643916768188044,12.289426295773346,16.122640523131906,11.231494141882141
-6.467877563304979,26.674294099816585,26.857081323732178,-0.299522769199815,10.788418844313973,9.731798924063796,12.156476786111742,7.174950547041032
-9.539566314047836,22.31854922539369,21.200998327127746,-3.90825734127529,6.1084582297767565,5.402563842604495,6.674210187884488,1.9744648759541108
-11.787322224254966,19.419581521938277,17.15029805175836,-6.711488974739751,2.7098480030736707,0.8171056133065736,1.5941166923855339,-2.4536181325381405
-12.719271530493677,18.377707740744498,14.963766840516248,-7.772255214314361,1.054497932636486,-2.484702718129035,-1.3199425860605476,-4.402125451872229
-12.361766121638249,18.922672833390273,14.147126003036075,-6.863918806189983,0.8875676531974694,-3.579050266626337,-1.2140141503149888,-3.118515028624275
-11.150374471973393,20.195219543558757,13.87278127998952,-4.510388425021402,1.4175380074876884,-2.563796366100554,1.445505450842165,0.7953369851960419
-9.656198191918982,21.146116379744754,13.51818380853272,-1.7113676089207064,1.718366098494222,-0.4716783545846463,5.074615734462417,5.575146879886582
-8.314204297954536,21.068886721351785,13.002722620187775,0.4961244694042926,1.173684666086087,1.2875320323723156,7.72430859796303,9.039475438950895
-7.287087381657809,19.85852514045788,12.6881748947622,1.4472965707964272,-0.2844484999085479,1.6415774833230063,7.996997093022853,9.55903744537981
-6.494002229191617,17.808652836639304,12.938584077888558,1.0758006747241822,-2.2565125907658,0.32823187714449703,5.655782034295575,6.790723223072638
-5.748526779596233,15.204138070374322,13.703853751236556,-0.12822020862563838,-4.171129596506188,-2.0999968443382158,1.6469225251442463,1.8202385873403024
-4.9235541627608175,12.115087224655161,14.425193977808718,-1.4132091013412382,-5.591557224557298,-4.6785667905790955,-2.4265766104184303,-3.355643948637674
-4.06619331932529,8.509008523399169,14.267889621013314,-2.168490264927459,-6.395474300745645,-6.571634661121739,-5.084317305973307,-6.746692798023457
-3.3996078943200456,4.4627754875209344,12.496772822023653,-2.1999897966866246,-6.788384718350721,-7.446247826197641,-5.608547716686778,-7.222620685528883
-3.189943015077661,0.2550709864328593,8.841545299159838,-1.7071260544475002,-7.148893143559279,-7.4978102764806325,-4.239873650623852,-4.879618919960305
-3.539845923363527,-3.653630762053319,3.7641991502876797,-0.9995685074648953,-7.745885796137415,-7.153524998993493,-1.8675725101490348,-0.7801897478407757
-4.246522848782184,-6.66380076433723,-1.5119313229047255,-0.19318596775212707,-8.478074928953237,-6.67920223026513,0.5514590136388305,3.708028056276491
-4.846705391067649,-8.150367463636918,-5.378032702926634,0.8689157333983364,-8.860270226100491,-5.9825928709810245,2.455302544990524,7.54049073952738
-4.844671413825889,-7.751091981227191,-6.572608213115593,2.4244443269783296,-8.351666732705835,-4.7644490396115105,3.754670345323512,10.249589734804799
-3.9803500557050584,-5.720616547649674,-4.875673905047006,4.505184416500067,-6.829962253825547,-2.89309550910898,4.578670009038018,11.791571535726732
-2.3684400594823116,-3.0196101804569184,-1.2772309661566648,6.782913350627749,-4.840104724940043,-0.691109416152123,4.984623753871835,12.232876584186814
-0.4431564079740704,-0.9475241669805942,2.515218427386001,8.647043734817625,-3.398373384430896,1.1066929153285872,4.889062287462789,11.572065333054903
1.2303782872117797,-0.5503974629624051,4.875077810867949,9.452841194966723,-3.484983788530209,1.7007946770958182,4.222834400580355,9.812656320335751
2.170491061633345,-2.25651901774069,4.852597843588174,8.806307108825335,-5.57509994738844,0.6359460894418587,3.0997533193611337,7.159191633539676
2.139084630781574,-5.939157949589315,2.3387541260436344,6.759298755991144,-9.466831207180231,-1.9834537290690435,1.797791556690631,4.097907060383933
1.20143149272884,-11.18628242993666,-2.0858196053728517,3.823077555387976,-14.418909788435288,-5.570058019055189,0.5401207301159193,1.2256033872685579
-0.34047451521872496,-17.46523676604657,-7.42846352595513,0.7705939607451381,-19.46149620383257,-9.350316634469412,-0.7527710119046567,-1.079204664995091
-2.121159809780631,-24.144822760827612,-12.626348237476314,-1.6919346629758099,-23.74392443414482,-12.714657330869764,-2.524083136188039,-2.8799841022407633
-3.8942267287811245,-30.552269772148357,-16.907825648497464,-3.1990474560595485,-26.803780586508353,-15.434428892222407,-5.34286153965426,-4.582340659777751
-5.59458697137686,-36.12080159805274,-19.990459876211574,-3.773960387811822,-28.62761806219819,-17.614396429408263,-9.443122219653544,-6.534831875051101
-7.233262219968707,-40.46611912184192,-21.92659168105397,-3.6416738252895695,-29.43776217853157,-19.401966450116298,-14.299084767330514,-8.607916399910636
-8.725314523780163,-43.294097428799645,-22.702514037361837,-2.9830485427116114,-29.34674562741968,-20.66788495779774,-18.56075854688887,-10.078810889936655
-9.821615700002841,-44.325209845236884,-22.012688147255144,-1.8366021827987786,-28.19601951261947,-20.945494892336047,-20.524183894509463,-9.946106728047596
-10.225540203676331,-43.485246262675446,-19.535512557952103,-0.20113602909214073,-25.787959971722252,-19.745263579125535,-18.979126478656337,-7.501272443865023
-9.804802350975896,-41.272289739202414,-15.532289396719626,1.7930822356177687,-22.349933233101765,-17.040558621649474,-13.972374982920543,-2.8187563695874664
-8.719309160031333,-38.856326992414594,-11.18640414137402,3.8209581711730785,-18.785524541316963,-13.523789793856693,-6.994283745916234,3.1137456050781096
-7.356326935928297,-37.59954861026007,-8.249130009642142,5.468910285788677,-16.389453442586248,-10.364130692418902,-0.40705810422311983,8.698014079939629
-6.11865043968288,-38.24748957071753,-8.139695768863394,6.429349622313946,-16.150681235659942,-8.576739746012027,3.6106727047321177,12.326808495614051
-5.2140083289106895,-40.435140271355664,-11.108708566544927,6.649773386594886,-18.13300422067617,-8.428068099410579,4.038501070030674,13.029872656016352
-4.5790061259792445,-42.93068624025743,-16.028193067900766,6.35004964141065,-21.381914980700472,-9.295461212524915,1.4025259524670959,10.89335188398535
-3.9723643423958515,-44.425032451395076,-20.930284871243437,5.904608044664823,-24.42400921656694,-10.08417835167966,-2.5855450718681388,7.058382637622648
-3.1647721094671035,-44.28084438487853,-23.969974082085738,5.656628591417932,-26.035585639113076,-9.926185916560271,-5.905202714420755,3.2643182542629092
-2.097580662759164,-42.79048922459624,-24.296706147494493,5.768741259513007,-25.828541839491045,-8.710110549809103,-7.156707561453038,1.1062335123119014
-0.9092512317049131,-40.905863495355405,-22.395725305835814,6.198434067947293,-24.350868906667387,-7.121919244629166,-6.104959163567998,1.3370966884033588
0.17603418212701605,-39.684754085598435,-19.72194464051358,6.805626060637331,-22.680481893765073,-6.2009520375927725,-3.6282947301094115,3.5583532600254197
1.0014617664164012,-39.74171897605787,-17.822338620999112,7.498530349657002,-21.75814564786214,-6.7108862017504185,-1.1656064005437932,6.466665578438553
1.5498228878332072,-40.94728169435949,-17.47008431075067,8.291478898637035,-21.84974916042776,-8.707700556730952,0.01756962592967678,8.536324048845616
1.8900718930604734,-42.54689419718422,-18.358221441912775,9.229634417458913,-22.460320517342065,-11.529418327802192,-0.6219910834340427,8.781213676973845
2.068071887558195,-43.670621923699905,-19.509571364811066,10.261083620783696,-22.73562920726508,-14.162225162724189,-2.7653031829736046,7.199546698673989
2.0544916493091727,-43.90526192129039,-20.02081106307128,11.182779985264082,-22.05171926074151,-15.734262442901397,-5.496774680157753,4.683327077942156
1.7957525439029853,-43.49064741204081,-19.550202084070957,11.711335811668514,-20.37596866117996,-15.863541561651388,-7.791127221528297,2.4709794117649087
1.31009890712373,-42.997237943132504,-18.275149402595265,11.619174352308661,-18.197403252810297,-14.722532085738813,-8.976506541392066,1.471496424277358
0.7344224828065335,-42.8165295456644,-16.552919846637643,10.841350958868563,-16.174929793683194,-12.860986801937571,-8.976863656895947,1.8503804102734607
0.2830670946244762,-42.94968898262444,-14.701605083021544,9.509157852995841,-14.815729241970226,-10.927533743569516,-8.247012825662669,3.0975593845582967
0.1584606260684986,-43.22733351740601,-13.049856028549538,7.922231836296661,-14.357330120772067,-9.417193023617896,-7.449315787541477,4.4863636286033115
0.47917412449825275,-43.6270894008491,-12.0475116346142,6.474678758041445,-14.788313513992813,-8.51242326564587,-7.048576266124955,5.576714399899612
1.2589055316483684,-44.3001154462509,-12.184343460144149,5.537350981278418,-15.869946789951873,-8.050656397062339,-7.059744313197723,6.403751461303219
2.429596277934834,-45.302730573803295,-13.720303053029612,5.324610900096935,-17.141657294246965,-7.635959830102007,-7.104146603791535,7.2528663589036935
3.8858953010207706,-46.37282607388887,-16.45301817130567,5.818147414879206,-18.006792160508173,-6.869551963483746,-6.73055141152396,8.255341939858242
5.52552953678919,-47.00845187037783,-19.71449816049431,6.805449869781431,-17.947524041534862,-5.604836852335655,-5.773484362677255,9.166163804462034
7.257948076403885,-46.757751097847354,-22.603677608136223,8.003891899955587,-16.77678179728914,-4.096271064503739,-4.502300842044921,9.505708480497658
8.967087483753954,-45.456078526576945,-24.33947950379349,9.172799745573972,-14.773223276670736,-2.950765304322124,-3.47629185253171,8.934312910181232
10.455559324861918,-43.28906723076048,-24.601175009605726,10.146068705179976,-12.61781031274459,-2.88468584308711,-3.226663757067538,7.554310592387573
11.437922138925224,-40.741568023722095,-23.709225708400922,10.811197779121136,-11.15766817010761,-4.379414621918315,-3.9747441080849373,5.915665316161529
11.638347788483152,-38.468147329025946,-22.492043524613504,11.108053723296612,-11.074232556254717,-7.371582977386982,-5.524455479094607,4.734973858550043
10.968768262204556,-37.03074365853637,-21.817897387124372,11.072669328631612,-12.55878886743325,-11.112269664304854,-7.332873385228554,4.52835460186251
9.673757320961355,-36.55480166392233,-22.05110021014484,10.872517270029002,-15.14746180230011,-14.297982826392538,-8.688437835731621,5.385404842604053
8.31531094145694,-36.57283744744614,-22.844423728906055,10.76669366708608,-17.86631948681237,-15.499140658724963,-8.935313601004134,6.990436440096621
7.56583156935247,-36.28837144022059,-23.447783715929248,10.991896287220186,-19.676735817642086,-13.76794036540419,-7.702496387892214,8.833820814181921
7.910739789479347,-35.113098428089856,-23.254838674853445,11.644385469427267,-19.966320795477912,-9.154952989845327,-5.077622066597173,10.456805032090283
9.422036442849008,-33.021102592096106,-22.106081903182126,12.627265104078015,-18.755942218797966,-2.839278960617397,-1.6455989522432821,11.586930471540525
11.710847602330123,-30.439820696296717,-20.15909502663919,13.678301980178787,-16.520103620092797,3.2454959535078,1.6520099147849372,12.124836253760161
14.064079005509575,-27.88583401287346,-17.59656547954495,14.454789760861754,-13.841933399759776,7.133008485253765,3.8023152625034298,12.056929402855452
15.699666666193002,-25.76874559033714,-14.552212980821366,14.65211101728941,-11.209437175668512,7.565247417336773,4.058274946895878,11.406336806974974
16.05010412646794,-24.479398413294906,-11.30694605578832,14.131056302402422,-9.035314998400338,4.451609814300492,2.223290948181172,10.272257062867517
14.973136321597893,-24.468817334549115,-8.46606795731958,13.000791181675753,-7.7256147175044845,-1.1065796638621141,-1.2157988053365485,8.905591086773958
12.79369652860772,-26.05198284829988,-6.8626041759108345,11.592386786733734,-7.618243324047954,-7.227015770168788,-5.1977061393257635,7.7163407880397825
10.14124184101227,-29.086402009746724,-7.240587767865252,10.311469420366459,-8.821333767355144,-11.967322252962054,-8.468255378135646,7.146863683095833
7.658211196820568,-32.91078850212541,-9.953674110772132,9.447649490337792,-11.120555429496083,-14.099068481823725,-10.11742327096884,7.443836728798826
5.738855483380664,-36.6582923204869,-14.804673463398021,9.054146870002436,-14.03729016176793,-13.585829288366314,-9.999108247277963,8.451554353717576
4.435249431784237,-39.63331791981272,-20.98907444284784,8.955023362670898,-16.954491062014085,-11.491368274133373,-8.761521824861891,9.568316187817297
3.5545631431754914,-41.41326395333533,-27.140917475713692,8.851043558715265,-19.20942508964153,-9.334619029216386,-7.439523676770981,9.937160323441224
2.8616049482883685,-41.71958781488171,-31.605043042777826,8.459828350292158,-20.176487646443224,-8.252528491252363,-6.8568841583146085,8.818612659548124
2.263396279676951,-40.37054415015349,-32.98752136147859,7.643314303179826,-19.42154250501992,-8.462185348389859,-7.210050604524042,5.984925425390677
1.8820075474121722,-37.44102330807381,-30.757100083377665,6.485460034476917,-16.90205693978818,-9.308555074731695,-8.056669567201462,1.9379899986674176
1.9790582086399198,-33.40760427502069,-25.519812417282782,5.269051814197792,-13.066263017984378,-9.797563130511277,-8.654157077136526,-2.1943458111052516
2.763519613149334,-29.045716308238557,-18.797286091230646,4.32222717191182,-8.752211003056136,-9.238372649927053,-8.410586082272742,-5.09516642740332
4.1869949108773925,-25.17116812840886,-12.496363216196544,3.800714571752921,-4.952574516661531,-7.622357312401274,-7.210550191945667,-5.861155263408291
5.868051525865088,-22.49399398697511,-8.370067163082386,3.5647203046903275,-2.577711613715947,-5.578241965268274,-5.483523288017674,-4.465655913272081
7.233020367607832,-21.609528005055424,-7.575413063515671,3.2754575848118557,-2.2461086995181274,-3.9776902695618856,-3.9944414332521014,-1.7976223887057077
7.817904602863333,-22.848491297278166,-10.269728066500704,2.6652130619703454,-4.040373972079465,-3.4113283195970943,-3.441979092423898,0.7858693564246076
7.543518149126658,-25.846184906736667,-15.315135737840851,1.776828271642249,-7.26690696121111,-3.8039619365606394,-4.0543152970475855,2.154224939927013
6.772444738168536,-29.179860494401918,-20.388960622090895,0.981503225401033,-10.444957479438036,-4.389044066871837,-5.41216533273183,1.9421316392426862
6.098823507160073,-30.63044537603818,-22.72834488820289,0.7571083730083412,-11.743437128127486,-4.096902331957522,-6.62754470302064,0.6310355455498918
5.99852440377705,-28.19558900256227,-20.31679696620166,1.3793953021634728,-9.79298227652173,-2.1770604900008252,-6.798525510370986,-0.8373313731478836
6.544291910385238,-21.3314105416834,-12.947316437615335,2.7134869283490994,-4.480110550958896,1.281592704236125,-5.495268420392792,-1.6511519979570461
7.334358681329395,-11.696353890445312,-2.6302315082214416,4.21231357601106,2.714591477260928,5.2251168289735785,-3.0292108244119187,-1.5662352429697481
7.665300810891159,-2.9975742974131494,6.8555072307138625,5.130366961230933,9.038967992679193,7.986065764378638,-0.3835983477567285,-0.9531624697996693
6.878952691553676,0.09568581034110205,11.200968546739093,4.884534914189745,11.396881938208328,7.977775341429418,1.1798613632295718,-0.4565155320526643
4.745300499252479,-6.122996342578462,7.392082051386946,3.4113906990895058,7.674345795956167,4.481224537384094,0.7277603492265478,-0.5019304050961467
1.6989376654203165,-21.977142602462205,-4.3648706062835485,1.3005189637476284,-1.909042073552609,-1.765788274726975,-1.735296491947465,-0.986419046185306
-1.2399221415857629,-42.50949589961466,-19.575670887031198,-0.4677783629365369,-14.056729736864847,-8.477319861674887,-4.9690495281370195,-1.3773803675370757
-2.89934959691148,-57.68460834399595,-30.33308146690828,-1.1202717776206248,-22.973155690721605,-12.435121042276746,-6.803282676866865,-1.1669235607188024
-2.56174708564039,-55.6971630166713,-28.410059042201883,-0.674828704373147,-22.488061386233788,-10.727501547126408,-5.062942462042472,-0.3585456853470767
-0.3945402795164501,-28.49358636011897,-9.345205117103584,-0.07428251338449793,-8.969619782053567,-2.1168416059724544,1.292616202029545,0.38868587008451183
2.587299716610906,23.343332090528826,24.76618493019313,-0.6899802598119894,16.516428402396745,12.185161465465297,11.468682327716742,0.10293884315045951
5.041376105434174,89.48884397211671,65.64840645460048,-3.4613418109297442,48.1930764805669,28.84477233308253,23.046533029233476,-1.8811113342629568
5.99814292595375,153.74964291280423,102.45526607645002,-8.233824219808069,77.94110229209448,43.76120301942352,33.0507010267751,-5.44837630498496
5.314300807433926,201.11332993477473,126.67653341823014,-13.760047331990894,98.85818980456503,53.77823344146207,39.28989312372841,-9.701903922408247
3.6184237024228905,224.13330536668136,135.59314749645853,-18.38622937815531,108.07710435268497,57.8668820683937,41.227410400985576,-13.434437758074687
1.8341224519112655,225.16638853078055,132.49490109099486,-20.96739883591039,107.37737003404929,57.20815349610582,39.945955015610934,-15.758122248772205
0.6401963891569985,213.57256989807107,123.95357271636249,-21.39835175123676,101.49723895297565,54.25385787108233,37.34015130131752,-16.49372257157385
0.2195143949013497,200.05986209111003,116.1622454306999,-20.44941628287435,95.39783500721309,51.40570923759727,35.10635393040318,-16.113395225458472
0.37742489165431403,191.74274475877868,112.50881907123919,-19.12221954169066,92.12868322598604,50.06129669570291,34.11010379242312,-15.345737906845633
0.8253812875675688,190.33206808132056,113.24503689056816,-18.050628978486227,92.22034403187476,50.401358708225246,34.34193629306408,-14.750425610811854
1.3700029277858103,193.4162576554678,116.61626237536377,-17.326960220069278,94.40171031937282,51.77549110970159,35.265461184739685,-14.520010741344668
1.9188363643369972,197.1226692103654,120.3074893469385,-16.730088810161995,96.81680683144991,53.281062502890606,36.22946772268673,-14.551226020331564
2.394896576297959,198.494587906468,122.53030175266422,-16.07001162823083,98.0544119985587,54.220801474651225,36.75528967568304,-14.650866491192438
2.6773142126131435,196.84178805073395,122.637009041764,-15.408220846250174,97.72644937736035,54.34224410636728,36.67968534645781,-14.718962883400108
2.6053175771291954,193.88575934978334,121.23533426201668,-15.081630403474952,96.53389395136583,53.86848582236076,36.16814592041663,-14.827458078744355
2.0391855889557426,192.60345148227762,119.6958190048205,-15.530362323646715,95.7779843835898,53.32668637937518,35.58553400774664,-15.173181798123343
0.9850090317583966,195.0385672821236,119.19670558038564,-16.9410323215965,96.44816485164631,53.218852369645596,35.25904859969653,-15.911691147042674
-0.24300976960382187,200.20573364075898,119.89236242449856,-18.835054824018496,98.36916470061831,53.692635574825836,35.27084947982624,-16.935341880851123
