Time,FZ,C3,CZ,C4,PZ,PO7,OZ,PO8,AccX,AccY,AccZ,Gyro1,Gyro2,Gyro3,Battery,Counter,Validation
15173.5097767,296064.0625,294375.875,322055.46875,314668.59375,284973.59375,255243.875,220650.4375,246149.84375,0.049560546875,0.99560546875,0.1669921875,0.1831054538488388,-1.0986326932907104,-1.2512205839157104,73.33333587646484,260238.0,1.0
15173.509778,296216.96875,294644.09375,322215.25,314878.0625,285128.4375,255355.453125,220817.09375,246274.21875,0.048828125,0.9951171875,0.16650390625,0.2136230319738388,-1.1291502714157104,-1.3427733182907104,73.33333587646484,260239.0,1.0
15173.5097792,296419.8125,295525.40625,323495.75,315171.15625,285863.71875,255533.921875,221104.265625,246424.421875,0.048828125,0.99609375,0.166015625,0.0610351525247097,-1.2207030057907104,-1.2207030057907104,73.33333587646484,260240.0,1.0
15173.5097805,296391.125,295788.4375,324106.125,315139.125,286151.4375,255542.234375,221116.703125,246395.625,0.047607421875,0.994384765625,0.163330078125,0.2746581733226776,-1.2817381620407104,-1.2207030057907104,73.33333587646484,260241.0,1.0
15173.5097817,296176.375,295083.28125,323219.03125,314838.71875,285605.96875,255371.828125,220846.421875,246241.578125,0.043701171875,0.994140625,0.1650390625,0.3967284858226776,-1.4038084745407104,-1.2512205839157104,73.33333587646484,260242.0,1.0
15173.5097829,296071.9375,294384.03125,322068.90625,314685.3125,284983.9375,255255.0625,220666.09375,246177.203125,0.045166015625,0.9921875,0.1689453125,0.3662109076976776,-1.4343260526657104,-1.3427733182907104,73.33333587646484,260243.0,1.0
15173.5097841,296216.78125,294633.28125,322213.71875,314880.03125,285122.96875,255332.296875,220808.25,246286.828125,0.04931640625,0.99267578125,0.1689453125,0.4272460639476776,-1.4038084745407104,-1.4343260526657104,73.33333587646484,260244.0,1.0
15173.5097853,296424.46875,295520.125,323495.90625,315173.28125,285862.1875,255525.6875,221101.140625,246432.734375,0.052001953125,0.991943359375,0.16943359375,0.4882812201976776,-1.6174315214157104,-1.3732908964157104,73.33333587646484,260245.0,1.0
15173.5097865,296396.125,295779.125,324104.5,315142.0,286149.09375,255539.28125,221114.109375,246401.984375,0.053466796875,0.993408203125,0.169189453125,0.4882812201976776,-1.5258787870407104,-1.0681151151657104,73.33333587646484,260246.0,1.0
15173.5097877,296176.8125,295074.25,323210.4375,314832.21875,285596.21875,255351.96875,220835.515625,246235.40625,0.051513671875,0.99560546875,0.1669921875,0.4577636420726776,-1.3732908964157104,-1.0070799589157104,73.33333587646484,260247.0,1.0
15173.5097889,296076.59375,294383.5,322064.875,314674.03125,284975.375,255235.390625,220648.65625,246139.75,0.04833984375,0.994873046875,0.16552734375,0.5187987685203552,-1.4038084745407104,-0.7934569716453552,73.33333587646484,260248.0,1.0
15173.512017,296228.84375,294643.84375,322224.65625,314879.21875,285129.9375,255341.609375,220811.90625,246267.328125,0.04736328125,0.994873046875,0.163818359375,0.5493163466453552,-1.4343260526657104,-0.7934569716453552,73.33333587646484,260249.0,1.0
15173.5120225,296435.375,295527.34375,323507.0,315175.4375,285869.875,255531.5,221110.625,246430.046875,0.048583984375,0.99462890625,0.164306640625,0.5187987685203552,-1.5258787870407104,-0.7934569716453552,73.33333587646484,260250.0,1.0
15173.5139186,296410.96875,295795.59375,324116.40625,315150.21875,286164.125,255571.109375,221139.671875,246407.96875,0.047607421875,0.993408203125,0.165283203125,0.7019042372703552,-1.6479490995407104,-0.7324218153953552,73.33333587646484,260251.0,1.0
15173.5163925,296192.1875,295086.5,323218.75,314839.34375,285607.75,255398.734375,220852.046875,246232.8125,0.04931640625,0.992431640625,0.16357421875,0.7324218153953552,-1.5258787870407104,-0.7629393935203552,73.33333587646484,260252.0,1.0
15173.5188878,296078.03125,294373.75,322061.84375,314676.1875,284971.4375,255223.578125,220641.328125,246159.421875,0.049560546875,0.993896484375,0.163818359375,0.7934569716453552,-1.5869139432907104,-0.7324218153953552,73.33333587646484,260253.0,1.0
15173.5239585,296227.15625,294633.75,322217.84375,314879.21875,285120.9375,255311.65625,220800.203125,246277.078125,0.04833984375,0.993408203125,0.168701171875,0.9155272841453552,-1.5563963651657104,-0.9765624403953552,73.33333587646484,260254.0,1.0
15173.5512149,296428.40625,295521.0,323498.5,315168.8125,285859.96875,255513.359375,221093.984375,246417.09375,0.046875,0.994140625,0.16455078125,1.0070799589157104,-1.4953612089157104,-1.0070799589157104,73.33333587646484,260255.0,1.0
15173.5512306,296399.34375,295781.8125,324104.875,315139.3125,286149.71875,255537.765625,221117.859375,246399.109375,0.0478515625,0.99560546875,0.166259765625,0.8544921278953552,-1.5258787870407104,-1.0986326932907104,73.33333587646484,260256.0,1.0
15173.5512326,296179.59375,295076.9375,323214.28125,314826.46875,285599.6875,255366.09375,220839.171875,246230.578125,0.044677734375,0.995361328125,0.1640625,0.7629393935203552,-1.5258787870407104,-1.1291502714157104,73.33333587646484,260257.0,1.0
15173.5512344,296077.375,294377.59375,322065.75,314671.71875,284977.6875,255238.25,220653.578125,246162.984375,0.046142578125,0.998291015625,0.162841796875,0.7324218153953552,-1.6174315214157104,-1.2512205839157104,73.33333587646484,260258.0,1.0
15173.5512363,296221.34375,294624.25,322212.40625,314873.875,285123.6875,255337.40625,220809.046875,246278.328125,0.048828125,0.9970703125,0.162353515625,0.7934569716453552,-1.7700194120407104,-1.3122557401657104,73.33333587646484,260259.0,1.0
15173.5512381,296419.5625,295493.84375,323482.15625,315163.71875,285853.875,255527.03125,221092.46875,246422.890625,0.0498046875,0.998046875,0.162841796875,0.6103515028953552,-1.8615721464157104,-1.3427733182907104,73.33333587646484,260260.0,1.0
15173.5512399,296390.5,295767.15625,324097.71875,315134.9375,286145.96875,255541.34375,221109.375,246398.765625,0.048583984375,0.997314453125,0.166259765625,0.4882812201976776,-1.8310545682907104,-1.4038084745407104,73.33333587646484,260261.0,1.0
15173.551242,296164.03125,295059.40625,323204.71875,314821.5625,285593.96875,255363.328125,220835.328125,246230.671875,0.04833984375,0.99462890625,0.16748046875,0.4577636420726776,-1.8310545682907104,-1.4038084745407104,73.33333587646484,260262.0,1.0
15173.5532641,296059.25,294362.9375,322055.9375,314666.625,284971.25,255242.625,220654.015625,246151.453125,0.048828125,0.99462890625,0.165283203125,0.4882812201976776,-1.8005369901657104,-1.4648436307907104,73.33333587646484,260263.0,1.0
15173.5532745,296059.25,294362.9375,322055.9375,314666.625,284971.25,255242.625,220654.015625,246151.453125,0.048828125,0.99462890625,0.165283203125,0.4882812201976776,-1.8005369901657104,-1.4648436307907104,73.33333587646484,260264.0,0.0
15173.5532748,296059.25,294362.9375,322055.9375,314666.625,284971.25,255242.625,220654.015625,246151.453125,0.048828125,0.99462890625,0.165283203125,0.4882812201976776,-1.8005369901657104,-1.4648436307907104,73.33333587646484,260265.0,0.0
15173.5532752,296059.25,294362.9375,322055.9375,314666.625,284971.25,255242.625,220654.015625,246151.453125,0.048828125,0.99462890625,0.165283203125,0.4882812201976776,-1.8005369901657104,-1.4648436307907104,73.33333587646484,260266.0,0.0
15173.5532755,296059.25,294362.9375,322055.9375,314666.625,284971.25,255242.625,220654.015625,246151.453125,0.048828125,0.99462890625,0.165283203125,0.4882812201976776,-1.8005369901657104,-1.4648436307907104,73.33333587646484,260267.0,0.0
15173.5532758,296059.25,294362.9375,322055.9375,314666.625,284971.25,255242.625,220654.015625,246151.453125,0.048828125,0.99462890625,0.165283203125,0.4882812201976776,-1.8005369901657104,-1.4648436307907104,73.33333587646484,260268.0,0.0
15173.5532761,296059.25,294362.9375,322055.9375,314666.625,284971.25,255242.625,220654.015625,246151.453125,0.048828125,0.99462890625,0.165283203125,0.4882812201976776,-1.8005369901657104,-1.4648436307907104,73.33333587646484,260269.0,0.0
15173.5532764,296059.25,294362.9375,322055.9375,314666.625,284971.25,255242.625,220654.015625,246151.453125,0.048828125,0.99462890625,0.165283203125,0.4882812201976776,-1.8005369901657104,-1.4648436307907104,73.33333587646484,260270.0,0.0
15173.5532768,296059.25,294362.9375,322055.9375,314666.625,284971.25,255242.625,220654.015625,246151.453125,0.048828125,0.99462890625,0.165283203125,0.4882812201976776,-1.8005369901657104,-1.4648436307907104,73.33333587646484,260271.0,0.0
15173.5532771,296059.25,294362.9375,322055.9375,314666.625,284971.25,255242.625,220654.015625,246151.453125,0.048828125,0.99462890625,0.165283203125,0.4882812201976776,-1.8005369901657104,-1.4648436307907104,73.33333587646484,260272.0,0.0
15173.5532774,296059.25,294362.9375,322055.9375,314666.625,284971.25,255242.625,220654.015625,246151.453125,0.048828125,0.99462890625,0.165283203125,0.4882812201976776,-1.8005369901657104,-1.4648436307907104,73.33333587646484,260273.0,0.0
15173.5532778,296059.25,294362.9375,322055.9375,314666.625,284971.25,255242.625,220654.015625,246151.453125,0.048828125,0.99462890625,0.165283203125,0.4882812201976776,-1.8005369901657104,-1.4648436307907104,73.33333587646484,260274.0,0.0
15173.5532781,296059.25,294362.9375,322055.9375,314666.625,284971.25,255242.625,220654.015625,246151.453125,0.048828125,0.99462890625,0.165283203125,0.4882812201976776,-1.8005369901657104,-1.4648436307907104,73.33333587646484,260275.0,0.0
15173.5532784,296059.25,294362.9375,322055.9375,314666.625,284971.25,255242.625,220654.015625,246151.453125,0.048828125,0.99462890625,0.165283203125,0.4882812201976776,-1.8005369901657104,-1.4648436307907104,73.33333587646484,260276.0,0.0
15173.5532788,296059.25,294362.9375,322055.9375,314666.625,284971.25,255242.625,220654.015625,246151.453125,0.048828125,0.99462890625,0.165283203125,0.4882812201976776,-1.8005369901657104,-1.4648436307907104,73.33333587646484,260277.0,0.0
15173.5532791,296059.25,294362.9375,322055.9375,314666.625,284971.25,255242.625,220654.015625,246151.453125,0.048828125,0.99462890625,0.165283203125,0.4882812201976776,-1.8005369901657104,-1.4648436307907104,73.33333587646484,260278.0,0.0
15173.5532794,296059.25,294362.9375,322055.9375,314666.625,284971.25,255242.625,220654.015625,246151.453125,0.048828125,0.99462890625,0.165283203125,0.4882812201976776,-1.8005369901657104,-1.4648436307907104,73.33333587646484,260279.0,0.0
15173.5532797,296059.25,294362.9375,322055.9375,314666.625,284971.25,255242.625,220654.015625,246151.453125,0.048828125,0.99462890625,0.165283203125,0.4882812201976776,-1.8005369901657104,-1.4648436307907104,73.33333587646484,260280.0,0.0
15173.5532801,296059.25,294362.9375,322055.9375,314666.625,284971.25,255242.625,220654.015625,246151.453125,0.048828125,0.99462890625,0.165283203125,0.4882812201976776,-1.8005369901657104,-1.4648436307907104,73.33333587646484,260281.0,0.0
15173.5532804,296059.25,294362.9375,322055.9375,314666.625,284971.25,255242.625,220654.015625,246151.453125,0.048828125,0.99462890625,0.165283203125,0.4882812201976776,-1.8005369901657104,-1.4648436307907104,73.33333587646484,260282.0,0.0
15173.5532807,296059.25,294362.9375,322055.9375,314666.625,284971.25,255242.625,220654.015625,246151.453125,0.048828125,0.99462890625,0.165283203125,0.4882812201976776,-1.8005369901657104,-1.4648436307907104,73.33333587646484,260283.0,0.0
15173.5532811,296059.25,294362.9375,322055.9375,314666.625,284971.25,255242.625,220654.015625,246151.453125,0.048828125,0.99462890625,0.165283203125,0.4882812201976776,-1.8005369901657104,-1.4648436307907104,73.33333587646484,260284.0,0.0
15173.5532814,296059.25,294362.9375,322055.9375,314666.625,284971.25,255242.625,220654.015625,246151.453125,0.048828125,0.99462890625,0.165283203125,0.4882812201976776,-1.8005369901657104,-1.4648436307907104,73.33333587646484,260285.0,0.0
15173.5532817,296059.25,294362.9375,322055.9375,314666.625,284971.25,255242.625,220654.015625,246151.453125,0.048828125,0.99462890625,0.165283203125,0.4882812201976776,-1.8005369901657104,-1.4648436307907104,73.33333587646484,260286.0,0.0
15173.5532821,296059.25,294362.9375,322055.9375,314666.625,284971.25,255242.625,220654.015625,246151.453125,0.048828125,0.99462890625,0.165283203125,0.4882812201976776,-1.8005369901657104,-1.4648436307907104,73.33333587646484,260287.0,0.0
15173.5532824,296059.25,294362.9375,322055.9375,314666.625,284971.25,255242.625,220654.015625,246151.453125,0.048828125,0.99462890625,0.165283203125,0.4882812201976776,-1.8005369901657104,-1.4648436307907104,73.33333587646484,260288.0,0.0
15173.5532827,296059.25,294362.9375,322055.9375,314666.625,284971.25,255242.625,220654.015625,246151.453125,0.048828125,0.99462890625,0.165283203125,0.4882812201976776,-1.8005369901657104,-1.4648436307907104,73.33333587646484,260289.0,0.0
15173.5532831,296059.25,294362.9375,322055.9375,314666.625,284971.25,255242.625,220654.015625,246151.453125,0.048828125,0.99462890625,0.165283203125,0.4882812201976776,-1.8005369901657104,-1.4648436307907104,73.33333587646484,260290.0,0.0
15173.5532834,296059.25,294362.9375,322055.9375,314666.625,284971.25,255242.625,220654.015625,246151.453125,0.048828125,0.99462890625,0.165283203125,0.4882812201976776,-1.8005369901657104,-1.4648436307907104,73.33333587646484,260291.0,0.0
15173.5532837,296059.25,294362.9375,322055.9375,314666.625,284971.25,255242.625,220654.015625,246151.453125,0.048828125,0.99462890625,0.165283203125,0.4882812201976776,-1.8005369901657104,-1.4648436307907104,73.33333587646484,260292.0,0.0
15173.5532841,296059.25,294362.9375,322055.9375,314666.625,284971.25,255242.625,220654.015625,246151.453125,0.048828125,0.99462890625,0.165283203125,0.4882812201976776,-1.8005369901657104,-1.4648436307907104,73.33333587646484,260293.0,0.0
15173.5532844,296059.25,294362.9375,322055.9375,314666.625,284971.25,255242.625,220654.015625,246151.453125,0.048828125,0.99462890625,0.165283203125,0.4882812201976776,-1.8005369901657104,-1.4648436307907104,73.33333587646484,260294.0,0.0
15173.5532847,296059.25,294362.9375,322055.9375,314666.625,284971.25,255242.625,220654.015625,246151.453125,0.048828125,0.99462890625,0.165283203125,0.4882812201976776,-1.8005369901657104,-1.4648436307907104,73.33333587646484,260295.0,0.0
15173.553285,296059.25,294362.9375,322055.9375,314666.625,284971.25,255242.625,220654.015625,246151.453125,0.048828125,0.99462890625,0.165283203125,0.4882812201976776,-1.8005369901657104,-1.4648436307907104,73.33333587646484,260296.0,0.0
15173.5532853,296059.25,294362.9375,322055.9375,314666.625,284971.25,255242.625,220654.015625,246151.453125,0.048828125,0.99462890625,0.165283203125,0.4882812201976776,-1.8005369901657104,-1.4648436307907104,73.33333587646484,260297.0,0.0
15173.5532856,296059.25,294362.9375,322055.9375,314666.625,284971.25,255242.625,220654.015625,246151.453125,0.048828125,0.99462890625,0.165283203125,0.4882812201976776,-1.8005369901657104,-1.4648436307907104,73.33333587646484,260298.0,0.0
15173.553286,296059.25,294362.9375,322055.9375,314666.625,284971.25,255242.625,220654.015625,246151.453125,0.048828125,0.99462890625,0.165283203125,0.4882812201976776,-1.8005369901657104,-1.4648436307907104,73.33333587646484,260299.0,0.0
15173.5532863,296059.25,294362.9375,322055.9375,314666.625,284971.25,255242.625,220654.015625,246151.453125,0.048828125,0.99462890625,0.165283203125,0.4882812201976776,-1.8005369901657104,-1.4648436307907104,73.33333587646484,260300.0,0.0
15173.5532866,296059.25,294362.9375,322055.9375,314666.625,284971.25,255242.625,220654.015625,246151.453125,0.048828125,0.99462890625,0.165283203125,0.4882812201976776,-1.8005369901657104,-1.4648436307907104,73.33333587646484,260301.0,0.0
15173.5532869,296059.25,294362.9375,322055.9375,314666.625,284971.25,255242.625,220654.015625,246151.453125,0.048828125,0.99462890625,0.165283203125,0.4882812201976776,-1.8005369901657104,-1.4648436307907104,73.33333587646484,260302.0,0.0
15173.5532873,296086.25,294381.53125,322075.78125,314676.09375,284983.6875,255250.9375,220662.515625,246154.046875,0.046142578125,0.993896484375,0.16259765625,0.3356933295726776,-1.2817381620407104,-1.1291502714157104,73.33333587646484,260303.0,1.0
15173.5777161,296229.375,294629.90625,322216.875,314876.28125,285125.65625,255338.828125,220809.9375,246274.125,0.04638671875,0.994140625,0.164306640625,0.4272460639476776,-1.4038084745407104,-1.1596678495407104,73.33333587646484,260304.0,1.0
15173.6044639,296425.375,295501.0625,323475.28125,315163.53125,285851.09375,255519.171875,221100.6875,246425.84375,0.04833984375,0.99462890625,0.167724609375,0.3967284858226776,-1.3732908964157104,-1.1291502714157104,73.33333587646484,260305.0,1.0
15173.6044709,296393.8125,295769.84375,324085.1875,315129.5625,286139.8125,255531.5,221113.390625,246388.203125,0.04833984375,0.995361328125,0.16357421875,0.3662109076976776,-1.4038084745407104,-1.0681151151657104,73.33333587646484,260306.0,1.0
15173.6044724,296173.875,295072.90625,323206.6875,314821.75,285599.4375,255371.640625,220845.890625,246224.59375,0.048583984375,0.9951171875,0.166015625,0.3356933295726776,-1.3732908964157104,-0.9460448622703552,73.33333587646484,260307.0,1.0
15173.6143749,296069.96875,294377.40625,322059.6875,314667.96875,284977.0625,255252.828125,220666.984375,246162.640625,0.049560546875,0.994140625,0.163818359375,0.3356933295726776,-1.4343260526657104,-1.0986326932907104,73.33333587646484,260308.0,1.0
15173.6143808,296220.625,294631.15625,322209.96875,314872.875,285124.3125,255353.765625,220819.328125,246273.3125,0.048583984375,0.995361328125,0.16455078125,0.3356933295726776,-1.4343260526657104,-1.2207030057907104,73.33333587646484,260309.0,1.0
15173.6143821,296421.25,295505.375,323474.375,315161.5,285850.84375,255531.5,221099.4375,246414.140625,0.04638671875,0.99560546875,0.16455078125,0.3967284858226776,-1.4648436307907104,-1.0986326932907104,73.33333587646484,260310.0,1.0
15173.6143834,296384.25,295764.65625,324076.875,315124.90625,286130.875,255515.953125,221096.578125,246384.984375,0.048583984375,0.996826171875,0.16357421875,0.3356933295726776,-1.4343260526657104,-1.0375975370407104,73.33333587646484,260311.0,1.0
15173.6163604,296162.6875,295064.78125,323198.46875,314814.15625,285585.5625,255339.453125,220819.6875,246208.328125,0.047119140625,0.994140625,0.164794921875,0.2746581733226776,-1.4953612089157104,-1.0681151151657104,73.33333587646484,260312.0,1.0
15173.6189024,296058.625,294371.15625,322058.625,314658.5,284967.15625,255222.0625,220643.734375,246140.28125,0.048828125,0.992431640625,0.162353515625,0.3051757514476776,-1.3732908964157104,-1.0986326932907104,73.33333587646484,260313.0,1.0
15173.6251057,296217.9375,294629.625,322209.625,314872.25,285121.46875,255339.90625,220814.6875,246274.03125,0.048095703125,0.99267578125,0.1650390625,0.4577636420726776,-1.3122557401657104,-1.0375975370407104,73.33333587646484,260314.0,1.0
15173.6276643,296421.96875,295500.4375,323468.75,315161.5,285847.34375,255516.75,221093.90625,246417.796875,0.046875,0.994384765625,0.16357421875,0.4577636420726776,-1.3732908964157104,-0.9460448622703552,73.33333587646484,260315.0,1.0
15173.6301331,296391.125,295770.375,324085.8125,315128.125,286139.53125,255529.625,221109.09375,246382.75,0.046142578125,0.995361328125,0.164306640625,0.4272460639476776,-1.4648436307907104,-1.0070799589157104,73.33333587646484,260316.0,1.0
15173.6332047,296173.78125,295075.59375,323216.4375,314822.375,285601.125,255353.578125,220833.71875,246221.015625,0.04931640625,0.996337890625,0.165283203125,0.3662109076976776,-1.4953612089157104,-0.9460448622703552,73.33333587646484,260317.0,1.0
15173.6332074,296075.59375,294386.96875,322071.125,314668.84375,284982.6875,255241.640625,220648.921875,246147.609375,0.05029296875,0.995361328125,0.1650390625,0.3967284858226776,-1.4343260526657104,-0.7934569716453552,73.33333587646484,260318.0,1.0
15173.6332087,296228.21875,294641.78125,322214.09375,314873.15625,285131.75,255348.125,220808.328125,246263.484375,0.050537109375,0.996337890625,0.166259765625,0.3967284858226776,-1.4648436307907104,-0.8544921278953552,73.33333587646484,260319.0,1.0
15173.6594379,296434.5625,295519.65625,323480.625,315170.96875,285867.28125,255556.53125,221105.4375,246422.890625,0.0498046875,0.996337890625,0.16650390625,0.3662109076976776,-1.3427733182907104,-0.8544921278953552,73.33333587646484,260320.0,1.0
15173.6594482,296401.59375,295787.4375,324089.9375,315136.71875,286154.46875,255556.8125,221120.625,246394.5625,0.0498046875,0.9970703125,0.1669921875,0.2746581733226776,-1.3122557401657104,-0.7934569716453552,73.33333587646484,260321.0,1.0
15173.6594495,296177.71875,295083.53125,323210.25,314822.1875,285605.78125,255367.625,220841.140625,246222.984375,0.048583984375,0.99658203125,0.166259765625,0.2746581733226776,-1.2512205839157104,-0.7934569716453552,73.33333587646484,260322.0,1.0
15173.6594529,296177.71875,295083.53125,323210.25,314822.1875,285605.78125,255367.625,220841.140625,246222.984375,0.048583984375,0.99658203125,0.166259765625,0.2746581733226776,-1.2512205839157104,-0.7934569716453552,73.33333587646484,260323.0,0.0
15173.6594531,296177.71875,295083.53125,323210.25,314822.1875,285605.78125,255367.625,220841.140625,246222.984375,0.048583984375,0.99658203125,0.166259765625,0.2746581733226776,-1.2512205839157104,-0.7934569716453552,73.33333587646484,260324.0,0.0
15173.6594533,296177.71875,295083.53125,323210.25,314822.1875,285605.78125,255367.625,220841.140625,246222.984375,0.048583984375,0.99658203125,0.166259765625,0.2746581733226776,-1.2512205839157104,-0.7934569716453552,73.33333587646484,260325.0,0.0
15173.6594535,296177.71875,295083.53125,323210.25,314822.1875,285605.78125,255367.625,220841.140625,246222.984375,0.048583984375,0.99658203125,0.166259765625,0.2746581733226776,-1.2512205839157104,-0.7934569716453552,73.33333587646484,260326.0,0.0
15173.6594537,296177.71875,295083.53125,323210.25,314822.1875,285605.78125,255367.625,220841.140625,246222.984375,0.048583984375,0.99658203125,0.166259765625,0.2746581733226776,-1.2512205839157104,-0.7934569716453552,73.33333587646484,260327.0,0.0
15173.6594539,296177.71875,295083.53125,323210.25,314822.1875,285605.78125,255367.625,220841.140625,246222.984375,0.048583984375,0.99658203125,0.166259765625,0.2746581733226776,-1.2512205839157104,-0.7934569716453552,73.33333587646484,260328.0,0.0
15173.6594541,296177.71875,295083.53125,323210.25,314822.1875,285605.78125,255367.625,220841.140625,246222.984375,0.048583984375,0.99658203125,0.166259765625,0.2746581733226776,-1.2512205839157104,-0.7934569716453552,73.33333587646484,260329.0,0.0
15173.6594542,296177.71875,295083.53125,323210.25,314822.1875,285605.78125,255367.625,220841.140625,246222.984375,0.048583984375,0.99658203125,0.166259765625,0.2746581733226776,-1.2512205839157104,-0.7934569716453552,73.33333587646484,260330.0,0.0
15173.6594544,296177.71875,295083.53125,323210.25,314822.1875,285605.78125,255367.625,220841.140625,246222.984375,0.048583984375,0.99658203125,0.166259765625,0.2746581733226776,-1.2512205839157104,-0.7934569716453552,73.33333587646484,260331.0,0.0
15173.6594546,296177.71875,295083.53125,323210.25,314822.1875,285605.78125,255367.625,220841.140625,246222.984375,0.048583984375,0.99658203125,0.166259765625,0.2746581733226776,-1.2512205839157104,-0.7934569716453552,73.33333587646484,260332.0,0.0
15173.6594547,296177.71875,295083.53125,323210.25,314822.1875,285605.78125,255367.625,220841.140625,246222.984375,0.048583984375,0.99658203125,0.166259765625,0.2746581733226776,-1.2512205839157104,-0.7934569716453552,73.33333587646484,260333.0,0.0
15173.6594549,296177.71875,295083.53125,323210.25,314822.1875,285605.78125,255367.625,220841.140625,246222.984375,0.048583984375,0.99658203125,0.166259765625,0.2746581733226776,-1.2512205839157104,-0.7934569716453552,73.33333587646484,260334.0,0.0
15173.6594551,296177.71875,295083.53125,323210.25,314822.1875,285605.78125,255367.625,220841.140625,246222.984375,0.048583984375,0.99658203125,0.166259765625,0.2746581733226776,-1.2512205839157104,-0.7934569716453552,73.33333587646484,260335.0,0.0
15173.6594553,296177.71875,295083.53125,323210.25,314822.1875,285605.78125,255367.625,220841.140625,246222.984375,0.048583984375,0.99658203125,0.166259765625,0.2746581733226776,-1.2512205839157104,-0.7934569716453552,73.33333587646484,260336.0,0.0
15173.6594554,296177.71875,295083.53125,323210.25,314822.1875,285605.78125,255367.625,220841.140625,246222.984375,0.048583984375,0.99658203125,0.166259765625,0.2746581733226776,-1.2512205839157104,-0.7934569716453552,73.33333587646484,260337.0,0.0
15173.6594556,296177.71875,295083.53125,323210.25,314822.1875,285605.78125,255367.625,220841.140625,246222.984375,0.048583984375,0.99658203125,0.166259765625,0.2746581733226776,-1.2512205839157104,-0.7934569716453552,73.33333587646484,260338.0,0.0
15173.6594558,296177.71875,295083.53125,323210.25,314822.1875,285605.78125,255367.625,220841.140625,246222.984375,0.048583984375,0.99658203125,0.166259765625,0.2746581733226776,-1.2512205839157104,-0.7934569716453552,73.33333587646484,260339.0,0.0
15173.659456,296177.71875,295083.53125,323210.25,314822.1875,285605.78125,255367.625,220841.140625,246222.984375,0.048583984375,0.99658203125,0.166259765625,0.2746581733226776,-1.2512205839157104,-0.7934569716453552,73.33333587646484,260340.0,0.0
15173.6594561,296177.71875,295083.53125,323210.25,314822.1875,285605.78125,255367.625,220841.140625,246222.984375,0.048583984375,0.99658203125,0.166259765625,0.2746581733226776,-1.2512205839157104,-0.7934569716453552,73.33333587646484,260341.0,0.0
15173.6594563,296177.71875,295083.53125,323210.25,314822.1875,285605.78125,255367.625,220841.140625,246222.984375,0.048583984375,0.99658203125,0.166259765625,0.2746581733226776,-1.2512205839157104,-0.7934569716453552,73.33333587646484,260342.0,0.0
15173.6594565,296177.71875,295083.53125,323210.25,314822.1875,285605.78125,255367.625,220841.140625,246222.984375,0.048583984375,0.99658203125,0.166259765625,0.2746581733226776,-1.2512205839157104,-0.7934569716453552,73.33333587646484,260343.0,0.0
15173.6594566,296177.71875,295083.53125,323210.25,314822.1875,285605.78125,255367.625,220841.140625,246222.984375,0.048583984375,0.99658203125,0.166259765625,0.2746581733226776,-1.2512205839157104,-0.7934569716453552,73.33333587646484,260344.0,0.0
15173.6594568,296177.71875,295083.53125,323210.25,314822.1875,285605.78125,255367.625,220841.140625,246222.984375,0.048583984375,0.99658203125,0.166259765625,0.2746581733226776,-1.2512205839157104,-0.7934569716453552,73.33333587646484,260345.0,0.0
15173.659457,296177.71875,295083.53125,323210.25,314822.1875,285605.78125,255367.625,220841.140625,246222.984375,0.048583984375,0.99658203125,0.166259765625,0.2746581733226776,-1.2512205839157104,-0.7934569716453552,73.33333587646484,260346.0,0.0
15173.6594572,296177.71875,295083.53125,323210.25,314822.1875,285605.78125,255367.625,220841.140625,246222.984375,0.048583984375,0.99658203125,0.166259765625,0.2746581733226776,-1.2512205839157104,-0.7934569716453552,73.33333587646484,260347.0,0.0
15173.6594573,296177.71875,295083.53125,323210.25,314822.1875,285605.78125,255367.625,220841.140625,246222.984375,0.048583984375,0.99658203125,0.166259765625,0.2746581733226776,-1.2512205839157104,-0.7934569716453552,73.33333587646484,260348.0,0.0
15173.6594575,296177.71875,295083.53125,323210.25,314822.1875,285605.78125,255367.625,220841.140625,246222.984375,0.048583984375,0.99658203125,0.166259765625,0.2746581733226776,-1.2512205839157104,-0.7934569716453552,73.33333587646484,260349.0,0.0
15173.6594576,296177.71875,295083.53125,323210.25,314822.1875,285605.78125,255367.625,220841.140625,246222.984375,0.048583984375,0.99658203125,0.166259765625,0.2746581733226776,-1.2512205839157104,-0.7934569716453552,73.33333587646484,260350.0,0.0
15173.6594578,296177.71875,295083.53125,323210.25,314822.1875,285605.78125,255367.625,220841.140625,246222.984375,0.048583984375,0.99658203125,0.166259765625,0.2746581733226776,-1.2512205839157104,-0.7934569716453552,73.33333587646484,260351.0,0.0
15173.6594581,296177.71875,295083.53125,323210.25,314822.1875,285605.78125,255367.625,220841.140625,246222.984375,0.048583984375,0.99658203125,0.166259765625,0.2746581733226776,-1.2512205839157104,-0.7934569716453552,73.33333587646484,260352.0,0.0
15173.6594583,296177.71875,295083.53125,323210.25,314822.1875,285605.78125,255367.625,220841.140625,246222.984375,0.048583984375,0.99658203125,0.166259765625,0.2746581733226776,-1.2512205839157104,-0.7934569716453552,73.33333587646484,260353.0,0.0
15173.6594585,296177.71875,295083.53125,323210.25,314822.1875,285605.78125,255367.625,220841.140625,246222.984375,0.048583984375,0.99658203125,0.166259765625,0.2746581733226776,-1.2512205839157104,-0.7934569716453552,73.33333587646484,260354.0,0.0
15173.6594587,296177.71875,295083.53125,323210.25,314822.1875,285605.78125,255367.625,220841.140625,246222.984375,0.048583984375,0.99658203125,0.166259765625,0.2746581733226776,-1.2512205839157104,-0.7934569716453552,73.33333587646484,260355.0,0.0
15173.6594589,296177.71875,295083.53125,323210.25,314822.1875,285605.78125,255367.625,220841.140625,246222.984375,0.048583984375,0.99658203125,0.166259765625,0.2746581733226776,-1.2512205839157104,-0.7934569716453552,73.33333587646484,260356.0,0.0
15173.659459,296177.71875,295083.53125,323210.25,314822.1875,285605.78125,255367.625,220841.140625,246222.984375,0.048583984375,0.99658203125,0.166259765625,0.2746581733226776,-1.2512205839157104,-0.7934569716453552,73.33333587646484,260357.0,0.0
15173.6594592,296177.71875,295083.53125,323210.25,314822.1875,285605.78125,255367.625,220841.140625,246222.984375,0.048583984375,0.99658203125,0.166259765625,0.2746581733226776,-1.2512205839157104,-0.7934569716453552,73.33333587646484,260358.0,0.0
15173.6594594,296177.71875,295083.53125,323210.25,314822.1875,285605.78125,255367.625,220841.140625,246222.984375,0.048583984375,0.99658203125,0.166259765625,0.2746581733226776,-1.2512205839157104,-0.7934569716453552,73.33333587646484,260359.0,0.0
15173.6594595,296177.71875,295083.53125,323210.25,314822.1875,285605.78125,255367.625,220841.140625,246222.984375,0.048583984375,0.99658203125,0.166259765625,0.2746581733226776,-1.2512205839157104,-0.7934569716453552,73.33333587646484,260360.0,0.0
15173.6594597,296177.71875,295083.53125,323210.25,314822.1875,285605.78125,255367.625,220841.140625,246222.984375,0.048583984375,0.99658203125,0.166259765625,0.2746581733226776,-1.2512205839157104,-0.7934569716453552,73.33333587646484,260361.0,0.0
15173.6594599,296177.71875,295083.53125,323210.25,314822.1875,285605.78125,255367.625,220841.140625,246222.984375,0.048583984375,0.99658203125,0.166259765625,0.2746581733226776,-1.2512205839157104,-0.7934569716453552,73.33333587646484,260362.0,0.0
15173.65946,296177.71875,295083.53125,323210.25,314822.1875,285605.78125,255367.625,220841.140625,246222.984375,0.048583984375,0.99658203125,0.166259765625,0.2746581733226776,-1.2512205839157104,-0.7934569716453552,73.33333587646484,260363.0,0.0
15173.6594602,296216.78125,294620.5,322200.15625,314860.8125,285115.46875,255315.40625,220787.328125,246257.9375,0.0478515625,0.994873046875,0.169189453125,-0.0610351525247097,-1.4648436307907104,-1.0070799589157104,73.33333587646484,260364.0,1.0
15173.683298,296423.40625,295492.75,323453.375,315155.40625,285841.09375,255520.78125,221088.0,246421.828125,0.047607421875,0.99560546875,0.17236328125,0.1220703050494194,-1.3122557401657104,-1.0070799589157104,73.33333587646484,260365.0,1.0
15173.6833218,296396.75,295776.34375,324075.625,315127.0625,286140.15625,255553.140625,221109.8125,246382.3125,0.04833984375,0.99462890625,0.171875,0.0915527269244194,-1.3122557401657104,-0.9460448622703552,73.33333587646484,260366.0,1.0
15173.7077177,296176.0,295094.0,323217.6875,314823.09375,285609.625,255378.078125,220841.328125,246222.265625,0.051513671875,0.994873046875,0.17236328125,0.0,-1.3122557401657104,-0.8239745497703552,73.33333587646484,260367.0,1.0
15173.7577127,296077.3125,294400.46875,322085.15625,314665.28125,284991.8125,255234.765625,220639.984375,246134.203125,0.05224609375,0.992431640625,0.171142578125,0.1525878757238388,-1.4343260526657104,-0.7324218153953552,73.33333587646484,260368.0,1.0
15173.7826147,296218.5625,294629.25,322206.40625,314860.8125,285122.71875,255323.625,220792.78125,246259.546875,0.052490234375,0.992919921875,0.167236328125,0.1831054538488388,-1.3427733182907104,-0.8544921278953552,73.33333587646484,260369.0,1.0
15173.8324617,296412.03125,295483.0,323443.0,315139.75,285835.09375,255501.734375,221077.890625,246400.1875,0.0546875,0.993408203125,0.169189453125,0.2136230319738388,-1.3732908964157104,-0.7629393935203552,73.33333587646484,260370.0,1.0
15173.8324693,296384.78125,295759.0,324064.8125,315113.3125,286132.84375,255521.671875,221097.5625,246372.5625,0.054931640625,0.993896484375,0.167724609375,0.1220703050494194,-1.2207030057907104,-0.6713866591453552,73.33333587646484,260371.0,1.0
15173.8324708,296165.1875,295077.46875,323212.9375,314812.625,285606.65625,255360.015625,220829.34375,246212.4375,0.05615234375,0.993408203125,0.166015625,0.1525878757238388,-1.1596678495407104,-0.6103515028953552,73.33333587646484,260372.0,1.0
15173.832472,296062.5625,294390.46875,322080.25,314661.53125,284996.1875,255245.84375,220655.890625,246146.09375,0.0537109375,0.992919921875,0.166259765625,0.3051757514476776,-1.0986326932907104,-0.6103515028953552,73.33333587646484,260373.0,1.0
15173.8324732,296203.90625,294616.03125,322199.875,314854.09375,285122.34375,255316.84375,220794.5625,246259.8125,0.05322265625,0.99365234375,0.164794921875,0.3662109076976776,-1.0375975370407104,-0.3967284858226776,73.33333587646484,260374.0,1.0
15173.8324744,296406.6875,295476.9375,323451.3125,315140.3125,285844.03125,255504.859375,221080.84375,246404.125,0.0546875,0.994384765625,0.16796875,0.4272460639476776,-0.9765624403953552,-0.4577636420726776,73.33333587646484,260375.0,1.0
15173.8324756,296386.90625,295765.4375,324077.6875,315117.84375,286150.25,255547.421875,221113.125,246383.65625,0.0556640625,0.99169921875,0.166259765625,0.4577636420726776,-0.8239745497703552,-0.4882812201976776,73.33333587646484,260376.0,1.0
15173.8324768,296167.5,295082.8125,323216.4375,314810.125,285619.0,255379.953125,220845.34375,246216.8125,0.0556640625,0.992919921875,0.167236328125,0.4882812201976776,-0.7629393935203552,-0.3967284858226776,73.33333587646484,260377.0,1.0
15173.8527786,296066.125,294391.53125,322080.34375,314654.28125,285003.1875,255250.859375,220661.4375,246143.5,0.052001953125,0.992431640625,0.166015625,0.4577636420726776,-0.7324218153953552,-0.3967284858226776,73.33333587646484,260378.0,1.0
15173.8586798,296210.53125,294624.53125,322203.09375,314849.28125,285132.28125,255341.609375,220807.796875,246265.1875,0.051513671875,0.992431640625,0.16748046875,0.4882812201976776,-0.6713866591453552,-0.4577636420726776,73.33333587646484,260379.0,1.0
15173.8586844,296416.15625,295496.15625,323452.90625,315144.9375,285856.84375,255536.234375,221098.8125,246421.109375,0.05029296875,0.991943359375,0.16650390625,0.5798339247703552,-0.7324218153953552,-0.3967284858226776,73.33333587646484,260380.0,1.0
15173.8586856,296386.03125,295769.84375,324071.34375,315116.53125,286149.625,255545.984375,221113.03125,246384.453125,0.051513671875,0.992919921875,0.1669921875,0.6713866591453552,-0.7019042372703552,-0.5187987685203552,73.33333587646484,260381.0,1.0
15173.8586868,296170.71875,295088.09375,323217.78125,314816.375,285619.90625,255378.796875,220847.21875,246223.78125,0.05224609375,0.993408203125,0.16748046875,0.6408690810203552,-0.6713866591453552,-0.5493163466453552,73.33333587646484,260382.0,1.0
15173.858688,296072.46875,294397.0,322084.28125,314663.9375,285003.25,255252.828125,220665.109375,246150.296875,0.052001953125,0.9921875,0.166015625,0.7934569716453552,-0.7629393935203552,-0.5798339247703552,73.33333587646484,260383.0,1.0
15173.8586892,296217.03125,294626.75,322204.78125,314859.90625,285130.125,255340.703125,220812.359375,246260.453125,0.04833984375,0.995849609375,0.16552734375,0.8544921278953552,-0.8544921278953552,-0.7324218153953552,73.33333587646484,260384.0,1.0
15173.8586904,296419.09375,295492.59375,323451.3125,315150.21875,285847.0,255535.25,221098.8125,246412.96875,0.048095703125,0.9990234375,0.163818359375,0.7324218153953552,-0.8544921278953552,-0.8239745497703552,73.33333587646484,260385.0,1.0
15173.8586916,296392.375,295769.46875,324067.59375,315119.28125,286139.53125,255557.25,221116.078125,246381.234375,0.04833984375,0.996337890625,0.16796875,0.7019042372703552,-1.0070799589157104,-0.9765624403953552,73.33333587646484,260386.0,1.0
15173.8607531,296177.25,295086.21875,323211.6875,314814.84375,285608.8125,255364.9375,220834.703125,246214.578125,0.0478515625,0.997802734375,0.167236328125,0.6408690810203552,-1.0986326932907104,-1.0681151151657104,73.33333587646484,260387.0,1.0
15173.86076,296078.71875,294403.4375,322087.59375,314664.75,285000.5,255232.609375,220651.15625,246151.28125,0.047607421875,0.9970703125,0.169189453125,0.5798339247703552,-1.1596678495407104,-1.2817381620407104,73.33333587646484,260388.0,1.0
15173.8626856,296213.375,294630.25,322204.0625,314849.625,285124.15625,255317.1875,220788.03125,246248.640625,0.048095703125,0.99755859375,0.165283203125,0.5493163466453552,-1.1901854276657104,-1.4038084745407104,73.33333587646484,260389.0,1.0
15173.8657604,296413.03125,295491.96875,323443.09375,315142.28125,285844.125,255514.78125,221086.125,246417.796875,0.04833984375,0.999755859375,0.163818359375,0.3356933295726776,-1.3122557401657104,-1.4648436307907104,73.33333587646484,260390.0,1.0
15173.8657828,296413.03125,295491.96875,323443.09375,315142.28125,285844.125,255514.78125,221086.125,246417.796875,0.04833984375,0.999755859375,0.163818359375,0.3356933295726776,-1.3122557401657104,-1.4648436307907104,73.33333587646484,260391.0,0.0
15173.865783,296413.03125,295491.96875,323443.09375,315142.28125,285844.125,255514.78125,221086.125,246417.796875,0.04833984375,0.999755859375,0.163818359375,0.3356933295726776,-1.3122557401657104,-1.4648436307907104,73.33333587646484,260392.0,0.0
15173.8657832,296413.03125,295491.96875,323443.09375,315142.28125,285844.125,255514.78125,221086.125,246417.796875,0.04833984375,0.999755859375,0.163818359375,0.3356933295726776,-1.3122557401657104,-1.4648436307907104,73.33333587646484,260393.0,0.0
15173.8657834,296413.03125,295491.96875,323443.09375,315142.28125,285844.125,255514.78125,221086.125,246417.796875,0.04833984375,0.999755859375,0.163818359375,0.3356933295726776,-1.3122557401657104,-1.4648436307907104,73.33333587646484,260394.0,0.0
15173.8657836,296413.03125,295491.96875,323443.09375,315142.28125,285844.125,255514.78125,221086.125,246417.796875,0.04833984375,0.999755859375,0.163818359375,0.3356933295726776,-1.3122557401657104,-1.4648436307907104,73.33333587646484,260395.0,0.0
15173.8657838,296413.03125,295491.96875,323443.09375,315142.28125,285844.125,255514.78125,221086.125,246417.796875,0.04833984375,0.999755859375,0.163818359375,0.3356933295726776,-1.3122557401657104,-1.4648436307907104,73.33333587646484,260396.0,0.0
15173.865784,296413.03125,295491.96875,323443.09375,315142.28125,285844.125,255514.78125,221086.125,246417.796875,0.04833984375,0.999755859375,0.163818359375,0.3356933295726776,-1.3122557401657104,-1.4648436307907104,73.33333587646484,260397.0,0.0
15173.8657842,296413.03125,295491.96875,323443.09375,315142.28125,285844.125,255514.78125,221086.125,246417.796875,0.04833984375,0.999755859375,0.163818359375,0.3356933295726776,-1.3122557401657104,-1.4648436307907104,73.33333587646484,260398.0,0.0
15173.8657843,296413.03125,295491.96875,323443.09375,315142.28125,285844.125,255514.78125,221086.125,246417.796875,0.04833984375,0.999755859375,0.163818359375,0.3356933295726776,-1.3122557401657104,-1.4648436307907104,73.33333587646484,260399.0,0.0
15173.8657845,296413.03125,295491.96875,323443.09375,315142.28125,285844.125,255514.78125,221086.125,246417.796875,0.04833984375,0.999755859375,0.163818359375,0.3356933295726776,-1.3122557401657104,-1.4648436307907104,73.33333587646484,260400.0,0.0
15173.8657847,296413.03125,295491.96875,323443.09375,315142.28125,285844.125,255514.78125,221086.125,246417.796875,0.04833984375,0.999755859375,0.163818359375,0.3356933295726776,-1.3122557401657104,-1.4648436307907104,73.33333587646484,260401.0,0.0
15173.8657849,296413.03125,295491.96875,323443.09375,315142.28125,285844.125,255514.78125,221086.125,246417.796875,0.04833984375,0.999755859375,0.163818359375,0.3356933295726776,-1.3122557401657104,-1.4648436307907104,73.33333587646484,260402.0,0.0
15173.8657851,296413.03125,295491.96875,323443.09375,315142.28125,285844.125,255514.78125,221086.125,246417.796875,0.04833984375,0.999755859375,0.163818359375,0.3356933295726776,-1.3122557401657104,-1.4648436307907104,73.33333587646484,260403.0,0.0
15173.8657853,296413.03125,295491.96875,323443.09375,315142.28125,285844.125,255514.78125,221086.125,246417.796875,0.04833984375,0.999755859375,0.163818359375,0.3356933295726776,-1.3122557401657104,-1.4648436307907104,73.33333587646484,260404.0,0.0
15173.8657855,296413.03125,295491.96875,323443.09375,315142.28125,285844.125,255514.78125,221086.125,246417.796875,0.04833984375,0.999755859375,0.163818359375,0.3356933295726776,-1.3122557401657104,-1.4648436307907104,73.33333587646484,260405.0,0.0
15173.8657856,296413.03125,295491.96875,323443.09375,315142.28125,285844.125,255514.78125,221086.125,246417.796875,0.04833984375,0.999755859375,0.163818359375,0.3356933295726776,-1.3122557401657104,-1.4648436307907104,73.33333587646484,260406.0,0.0
15173.8657858,296413.03125,295491.96875,323443.09375,315142.28125,285844.125,255514.78125,221086.125,246417.796875,0.04833984375,0.999755859375,0.163818359375,0.3356933295726776,-1.3122557401657104,-1.4648436307907104,73.33333587646484,260407.0,0.0
15173.865786,296413.03125,295491.96875,323443.09375,315142.28125,285844.125,255514.78125,221086.125,246417.796875,0.04833984375,0.999755859375,0.163818359375,0.3356933295726776,-1.3122557401657104,-1.4648436307907104,73.33333587646484,260408.0,0.0
15173.8657862,296413.03125,295491.96875,323443.09375,315142.28125,285844.125,255514.78125,221086.125,246417.796875,0.04833984375,0.999755859375,0.163818359375,0.3356933295726776,-1.3122557401657104,-1.4648436307907104,73.33333587646484,260409.0,0.0
15173.8657865,296414.375,295500.90625,323448.34375,315142.28125,285843.15625,255529.796875,221095.234375,246417.625,0.047607421875,0.995849609375,0.17333984375,0.1831054538488388,-1.9531248807907104,-0.8544921278953552,73.33333587646484,260410.0,1.0
15173.865788,296384.0625,295765.09375,324059.28125,315110.0,286130.3125,255532.484375,221099.359375,246374.0,0.04736328125,0.9951171875,0.17236328125,0.1831054538488388,-1.9531248807907104,-0.8850097060203552,73.33333587646484,260411.0,1.0
15173.8681916,296173.15625,295096.5,323217.875,314813.53125,285614.09375,255378.171875,220841.6875,246224.6875,0.046875,0.994140625,0.168212890625,0.1220703050494194,-1.8615721464157104,-0.9460448622703552,73.33333587646484,260412.0,1.0
15173.8682151,296069.0,294407.0,322088.03125,314653.375,284998.0,255240.578125,220646.953125,246138.21875,0.04833984375,0.99169921875,0.167724609375,0.1525878757238388,-1.8615721464157104,-1.0375975370407104,73.33333587646484,260413.0,1.0
15173.8682311,296211.9375,294633.1875,322208.625,314849.5625,285124.0625,255320.234375,220789.640625,246250.4375,0.051025390625,0.993408203125,0.169921875,0.2136230319738388,-1.9836424589157104,-0.9765624403953552,73.33333587646484,260414.0,1.0
15173.8707116,296405.96875,295484.25,323440.5625,315134.03125,285832.4375,255499.9375,221071.09375,246402.78125,0.051025390625,0.9912109375,0.1689453125,0.2136230319738388,-1.8920897245407104,-0.8850097060203552,73.33333587646484,260415.0,1.0
15173.8707177,296377.8125,295763.21875,324057.5625,315110.625,286128.53125,255527.296875,221100.421875,246385.078125,0.052001953125,0.990478515625,0.16943359375,0.3051757514476776,-1.7700194120407104,-0.8239745497703552,73.33333587646484,260416.0,1.0
15173.8726032,296159.5625,295086.40625,323205.53125,314805.375,285598.28125,255359.84375,220828.8125,246210.375,0.052734375,0.990966796875,0.1669921875,0.3356933295726776,-1.8005369901657104,-0.7934569716453552,73.33333587646484,260417.0,1.0
15173.9007959,296052.90625,294399.65625,322070.9375,314645.34375,284979.9375,255235.828125,220636.765625,246128.125,0.0537109375,0.993896484375,0.16748046875,0.3967284858226776,-1.7089842557907104,-0.7934569716453552,73.33333587646484,260418.0,1.0
15173.9008254,296199.4375,294636.96875,322200.21875,314849.375,285119.21875,255325.59375,220795.8125,246254.8125,0.05419921875,0.99462890625,0.16796875,0.4882812201976776,-1.6174315214157104,-0.7629393935203552,73.33333587646484,260419.0,1.0
15173.9252293,296400.40625,295492.125,323441.65625,315133.5,285832.59375,255515.59375,221081.03125,246397.234375,0.052734375,0.9921875,0.166748046875,0.5187987685203552,-1.5258787870407104,-0.7629393935203552,73.33333587646484,260420.0,1.0
15173.9525104,296374.65625,295765.90625,324057.21875,315106.9375,286127.65625,255544.28125,221106.15625,246374.078125,0.0517578125,0.993408203125,0.163818359375,0.5493163466453552,-1.5258787870407104,-0.7629393935203552,73.33333587646484,260421.0,1.0
15173.9525257,296164.46875,295097.3125,323215.71875,314812.90625,285610.25,255384.25,220845.265625,246215.734375,0.0517578125,0.993408203125,0.161865234375,0.5187987685203552,-1.4038084745407104,-0.7019042372703552,73.33333587646484,260422.0,1.0
15173.952527,296064.25,294406.09375,322085.0,314658.125,284995.125,255249.515625,220656.875,246142.609375,0.0517578125,0.9931640625,0.168212890625,0.6408690810203552,-1.3732908964157104,-0.6408690810203552,73.33333587646484,260423.0,1.0
15173.9525282,296207.46875,294637.21875,322203.71875,314850.625,285120.03125,255325.6875,220797.78125,246258.203125,0.052978515625,0.994140625,0.168701171875,0.6713866591453552,-1.3427733182907104,-0.7934569716453552,73.33333587646484,260424.0,1.0
15173.9525294,296404.625,295493.65625,323438.34375,315136.71875,285834.65625,255514.78125,221086.390625,246410.109375,0.05126953125,0.994140625,0.16796875,0.6713866591453552,-1.1901854276657104,-0.7324218153953552,73.33333587646484,260425.0,1.0
15173.9525306,296381.375,295774.125,324059.0,315111.15625,286130.15625,255538.5625,221108.921875,246387.671875,0.051513671875,0.994873046875,0.16650390625,0.7019042372703552,-1.2512205839157104,-0.7019042372703552,73.33333587646484,260426.0,1.0
15173.9525318,296164.90625,295095.875,323214.65625,314807.4375,285606.21875,255372.09375,220841.859375,246226.734375,0.052734375,0.995361328125,0.165771484375,0.6408690810203552,-1.1901854276657104,-0.7629393935203552,73.33333587646484,260427.0,1.0
15173.9758089,296065.5,294406.8125,322088.375,314653.21875,284993.15625,255246.03125,220654.203125,246138.578125,0.052490234375,0.993896484375,0.169677734375,0.6408690810203552,-1.0681151151657104,-0.7324218153953552,73.33333587646484,260428.0,1.0
15173.9758243,296203.28125,294625.15625,322200.78125,314841.3125,285113.5,255322.5625,220784.8125,246238.09375,0.05078125,0.99267578125,0.1650390625,0.6713866591453552,-1.0070799589157104,-0.8239745497703552,73.33333587646484,260429.0,1.0
15173.9758256,296400.6875,295477.5625,323430.5625,315128.0625,285823.21875,255507.1875,221070.46875,246395.890625,0.04931640625,0.993408203125,0.167724609375,0.8239745497703552,-0.9765624403953552,-0.8544921278953552,73.33333587646484,260430.0,1.0
15174.0007918,296377.96875,295763.9375,324048.53125,315106.78125,286122.90625,255540.796875,221107.21875,246378.015625,0.048095703125,0.99462890625,0.16845703125,0.7629393935203552,-0.9765624403953552,-0.8544921278953552,73.33333587646484,260431.0,1.0
15174.0008075,296168.75,295096.5,323211.875,314811.8125,285605.6875,255391.671875,220850.984375,246226.46875,0.0478515625,0.99462890625,0.166259765625,0.7019042372703552,-1.0070799589157104,-0.8850097060203552,73.33333587646484,260432.0,1.0
15174.0269247,296168.75,295096.5,323211.875,314811.8125,285605.6875,255391.671875,220850.984375,246226.46875,0.0478515625,0.99462890625,0.166259765625,0.7019042372703552,-1.0070799589157104,-0.8850097060203552,73.33333587646484,260433.0,0.0
15174.0269295,296168.75,295096.5,323211.875,314811.8125,285605.6875,255391.671875,220850.984375,246226.46875,0.0478515625,0.99462890625,0.166259765625,0.7019042372703552,-1.0070799589157104,-0.8850097060203552,73.33333587646484,260434.0,0.0
15174.0269306,296168.75,295096.5,323211.875,314811.8125,285605.6875,255391.671875,220850.984375,246226.46875,0.0478515625,0.99462890625,0.166259765625,0.7019042372703552,-1.0070799589157104,-0.8850097060203552,73.33333587646484,260435.0,0.0
15174.0269318,296168.75,295096.5,323211.875,314811.8125,285605.6875,255391.671875,220850.984375,246226.46875,0.0478515625,0.99462890625,0.166259765625,0.7019042372703552,-1.0070799589157104,-0.8850097060203552,73.33333587646484,260436.0,0.0
15174.026933,296162.5,295087.21875,323212.59375,314801.09375,285599.6875,255344.90625,220820.40625,246200.359375,0.048828125,0.990234375,0.16943359375,0.5187987685203552,-1.4038084745407104,-1.0986326932907104,73.33333587646484,260437.0,1.0
15174.0269418,296053.4375,294382.15625,322073.71875,314644.0,284979.84375,255216.96875,220637.125,246132.859375,0.051513671875,0.98974609375,0.165283203125,0.5798339247703552,-1.3732908964157104,-1.0070799589157104,73.33333587646484,260438.0,1.0
15174.0269431,296203.09375,294612.625,322189.59375,314842.03125,285105.53125,255311.734375,220783.921875,246252.84375,0.05517578125,0.991943359375,0.16455078125,0.6408690810203552,-1.5258787870407104,-0.9460448622703552,73.33333587646484,260439.0,1.0
15174.0269444,296414.46875,295485.4375,323439.25,315142.53125,285829.46875,255520.78125,221083.34375,246407.78125,0.05322265625,0.9931640625,0.16552734375,0.6103515028953552,-1.4343260526657104,-0.7934569716453552,73.33333587646484,260440.0,1.0
15174.0507978,296389.96875,295771.4375,324066.0625,315114.71875,286131.75,255550.28125,221103.5625,246371.125,0.0517578125,0.996337890625,0.162841796875,0.7019042372703552,-1.4038084745407104,-0.6103515028953552,73.33333587646484,260441.0,1.0
15174.0508039,296170.5625,295095.0625,323225.09375,314807.78125,285609.0,255359.84375,220827.109375,246210.375,0.0498046875,0.99755859375,0.163330078125,0.7019042372703552,-1.3427733182907104,-0.6713866591453552,73.33333587646484,260442.0,1.0
15174.0752275,296068.1875,294403.875,322092.59375,314656.59375,284997.0,255231.90625,220644.1875,246152.4375,0.04736328125,0.998046875,0.16552734375,0.6713866591453552,-1.4038084745407104,-0.6408690810203552,73.33333587646484,260443.0,1.0
15174.1164817,296208.375,294632.46875,322204.96875,314852.21875,285120.65625,255319.34375,220794.390625,246271.265625,0.04736328125,0.997314453125,0.167236328125,0.6103515028953552,-1.5869139432907104,-0.6713866591453552,73.33333587646484,260444.0,1.0
15174.1414812,296408.46875,295491.59375,323441.46875,315139.84375,285836.28125,255517.828125,221082.359375,246409.21875,0.04833984375,0.993408203125,0.168701171875,0.6103515028953552,-1.6784666776657104,-0.7019042372703552,73.33333587646484,260445.0,1.0
15174.1844331,296389.78125,295781.375,324070.09375,315118.9375,286142.5,255560.203125,221116.96875,246380.875,0.0498046875,0.990966796875,0.16455078125,0.5493163466453552,-1.6479490995407104,-0.6713866591453552,73.33333587646484,260446.0,1.0
15174.1844477,296176.4375,295111.09375,323231.53125,314817.28125,285620.34375,255383.359375,220844.984375,246215.734375,0.04931640625,0.9912109375,0.166259765625,0.5187987685203552,-1.6174315214157104,-0.7629393935203552,73.33333587646484,260447.0,1.0
15174.1864379,296072.21875,294414.78125,322097.15625,314660.53125,284999.25,255242.1875,220648.296875,246145.296875,0.0478515625,0.9912109375,0.16552734375,0.6408690810203552,-1.6479490995407104,-0.7629393935203552,73.33333587646484,260448.0,1.0
15174.1889451,296213.1875,294632.5625,322206.84375,314855.53125,285120.46875,255332.296875,220798.953125,246269.828125,0.047607421875,0.99169921875,0.168212890625,0.6408690810203552,-1.5869139432907104,-1.0070799589157104,73.33333587646484,260449.0,1.0
15174.1932897,296409.8125,295482.375,323429.5,315138.0625,285823.84375,255513.625,221079.140625,246410.5625,0.0478515625,0.99462890625,0.16552734375,0.7019042372703552,-1.7089842557907104,-0.9460448622703552,73.33333587646484,260450.0,1.0
15174.1932982,296385.125,295767.0625,324054.09375,315112.59375,286122.28125,255523.640625,221089.25,246377.484375,0.04736328125,0.99755859375,0.167236328125,0.8239745497703552,-1.7700194120407104,-1.0070799589157104,73.33333587646484,260451.0,1.0
15174.1933001,296173.6875,295100.96875,323219.75,314812.8125,285607.46875,255367.078125,220829.703125,246217.984375,0.04638671875,0.998779296875,0.165283203125,0.7629393935203552,-1.8615721464157104,-1.1291502714157104,73.33333587646484,260452.0,1.0
15174.1933019,296072.46875,294414.96875,322092.59375,314657.5,284998.0625,255248.4375,220654.828125,246150.125,0.046875,0.99658203125,0.168701171875,0.7629393935203552,-1.9531248807907104,-1.1901854276657104,73.33333587646484,260453.0,1.0
15174.1933037,296216.96875,294641.6875,322206.59375,314852.84375,285126.03125,255342.765625,220807.34375,246267.59375,0.04931640625,0.99609375,0.168212890625,0.7324218153953552,-1.9531248807907104,-1.1596678495407104,73.33333587646484,260454.0,1.0
15174.1933057,296414.8125,295491.25,323432.96875,315137.09375,285832.4375,255530.4375,221083.171875,246404.5625,0.049560546875,0.996826171875,0.166748046875,0.7629393935203552,-1.9531248807907104,-1.2207030057907104,73.33333587646484,260455.0,1.0
15174.1964475,296389.59375,295774.125,324059.71875,315113.03125,286132.21875,255547.328125,221100.78125,246378.46875,0.05029296875,0.996337890625,0.165771484375,0.7019042372703552,-2.014159917831421,-1.3122557401657104,73.33333587646484,260456.0,1.0
15174.1995131,296183.34375,295119.40625,323238.78125,314820.40625,285624.28125,255388.71875,220843.921875,246223.609375,0.05029296875,0.996337890625,0.16748046875,0.6103515028953552,-2.075195074081421,-1.4038084745407104,73.33333587646484,260457.0,1.0
15174.1995194,296076.59375,294421.75,322102.59375,314660.625,285003.53125,255247.28125,220649.453125,246145.734375,0.04931640625,0.996337890625,0.165771484375,0.7019042372703552,-2.044677495956421,-1.3732908964157104,73.33333587646484,260458.0,1.0
15174.1995212,296224.1875,294646.875,322216.59375,314856.875,285129.15625,255335.796875,220791.078125,246260.171875,0.05029296875,0.995361328125,0.164794921875,0.7019042372703552,-2.014159917831421,-1.3732908964157104,73.33333587646484,260459.0,1.0
15174.2027891,296426.25,295496.6875,323444.34375,315143.15625,285838.6875,255525.0625,221075.21875,246404.125,0.04931640625,0.99560546875,0.166259765625,0.6103515028953552,-1.9836424589157104,-1.3732908964157104,73.33333587646484,260460.0,1.0
15174.2027952,296405.59375,295782.09375,324070.0,315121.625,286140.0625,255545.625,221098.1875,246373.71875,0.05029296875,0.9970703125,0.166015625,0.5493163466453552,-1.9226073026657104,-1.4038084745407104,73.33333587646484,260461.0,1.0
15174.2027973,296187.09375,295111.71875,323236.46875,314822.1875,285622.0625,255360.375,220825.234375,246215.828125,0.050048828125,0.9970703125,0.166015625,0.4882812201976776,-1.9531248807907104,-1.3732908964157104,73.33333587646484,260462.0,1.0
15174.2027991,296080.0625,294420.15625,322105.28125,314663.21875,285005.40625,255231.546875,220632.828125,246146.265625,0.048095703125,0.99755859375,0.168701171875,0.4882812201976776,-2.014159917831421,-1.4038084745407104,73.33333587646484,260463.0,1.0
15174.2028009,296228.40625,294648.40625,322218.5625,314859.75,285130.9375,255335.703125,220786.15625,246266.34375,0.050048828125,0.998046875,0.168212890625,0.3967284858226776,-2.014159917831421,-1.3122557401657104,73.33333587646484,260464.0,1.0
15174.2051427,296425.53125,295496.78125,323443.09375,315139.0625,285834.65625,255518.71875,221062.875,246390.53125,0.0498046875,0.996826171875,0.167724609375,0.3967284858226776,-1.8920897245407104,-1.2207030057907104,73.33333587646484,260465.0,1.0
15174.2095343,296400.15625,295783.40625,324072.25,315114.375,286137.125,255529.359375,221079.859375,246361.203125,0.04638671875,0.995849609375,0.16845703125,0.2136230319738388,-1.9226073026657104,-1.0375975370407104,73.33333587646484,260466.0,1.0
15174.2095414,296186.46875,295117.6875,323240.75,314817.0,285625.90625,255366.453125,220826.578125,246212.609375,0.047607421875,0.995361328125,0.165771484375,0.1220703050494194,-1.9531248807907104,-1.0375975370407104,73.33333587646484,260467.0,1.0
15174.219397,296083.125,294428.625,322111.28125,314663.59375,285014.09375,255256.671875,220651.0625,246146.0,0.048095703125,0.993896484375,0.162353515625,0.03051757626235485,-1.8615721464157104,-0.9765624403953552,73.33333587646484,260468.0,1.0
15174.2194041,296226.4375,294653.3125,322225.96875,314857.0625,285137.28125,255346.078125,220787.953125,246250.15625,0.046142578125,0.993896484375,0.162841796875,0.1220703050494194,-1.9226073026657104,-0.9765624403953552,73.33333587646484,260469.0,1.0
15174.219409,296226.4375,294653.3125,322225.96875,314857.0625,285137.28125,255346.078125,220787.953125,246250.15625,0.046142578125,0.993896484375,0.162841796875,0.1220703050494194,-1.9226073026657104,-0.9765624403953552,73.33333587646484,260470.0,0.0
15174.2194094,296226.4375,294653.3125,322225.96875,314857.0625,285137.28125,255346.078125,220787.953125,246250.15625,0.046142578125,0.993896484375,0.162841796875,0.1220703050494194,-1.9226073026657104,-0.9765624403953552,73.33333587646484,260471.0,0.0
15174.2194097,296226.4375,294653.3125,322225.96875,314857.0625,285137.28125,255346.078125,220787.953125,246250.15625,0.046142578125,0.993896484375,0.162841796875,0.1220703050494194,-1.9226073026657104,-0.9765624403953552,73.33333587646484,260472.0,0.0
15174.21941,296226.4375,294653.3125,322225.96875,314857.0625,285137.28125,255346.078125,220787.953125,246250.15625,0.046142578125,0.993896484375,0.162841796875,0.1220703050494194,-1.9226073026657104,-0.9765624403953552,73.33333587646484,260473.0,0.0
15174.2194103,296226.4375,294653.3125,322225.96875,314857.0625,285137.28125,255346.078125,220787.953125,246250.15625,0.046142578125,0.993896484375,0.162841796875,0.1220703050494194,-1.9226073026657104,-0.9765624403953552,73.33333587646484,260474.0,0.0
15174.2194106,296226.4375,294653.3125,322225.96875,314857.0625,285137.28125,255346.078125,220787.953125,246250.15625,0.046142578125,0.993896484375,0.162841796875,0.1220703050494194,-1.9226073026657104,-0.9765624403953552,73.33333587646484,260475.0,0.0
15174.2194109,296226.4375,294653.3125,322225.96875,314857.0625,285137.28125,255346.078125,220787.953125,246250.15625,0.046142578125,0.993896484375,0.162841796875,0.1220703050494194,-1.9226073026657104,-0.9765624403953552,73.33333587646484,260476.0,0.0
15174.2194113,296226.4375,294653.3125,322225.96875,314857.0625,285137.28125,255346.078125,220787.953125,246250.15625,0.046142578125,0.993896484375,0.162841796875,0.1220703050494194,-1.9226073026657104,-0.9765624403953552,73.33333587646484,260477.0,0.0
15174.2194117,296226.4375,294653.3125,322225.96875,314857.0625,285137.28125,255346.078125,220787.953125,246250.15625,0.046142578125,0.993896484375,0.162841796875,0.1220703050494194,-1.9226073026657104,-0.9765624403953552,73.33333587646484,260478.0,0.0
15174.219412,296226.4375,294653.3125,322225.96875,314857.0625,285137.28125,255346.078125,220787.953125,246250.15625,0.046142578125,0.993896484375,0.162841796875,0.1220703050494194,-1.9226073026657104,-0.9765624403953552,73.33333587646484,260479.0,0.0
15174.2194124,296226.4375,294653.3125,322225.96875,314857.0625,285137.28125,255346.078125,220787.953125,246250.15625,0.046142578125,0.993896484375,0.162841796875,0.1220703050494194,-1.9226073026657104,-0.9765624403953552,73.33333587646484,260480.0,0.0
15174.2194128,296226.4375,294653.3125,322225.96875,314857.0625,285137.28125,255346.078125,220787.953125,246250.15625,0.046142578125,0.993896484375,0.162841796875,0.1220703050494194,-1.9226073026657104,-0.9765624403953552,73.33333587646484,260481.0,0.0
15174.2194131,296226.4375,294653.3125,322225.96875,314857.0625,285137.28125,255346.078125,220787.953125,246250.15625,0.046142578125,0.993896484375,0.162841796875,0.1220703050494194,-1.9226073026657104,-0.9765624403953552,73.33333587646484,260482.0,0.0
15174.2194134,296226.4375,294653.3125,322225.96875,314857.0625,285137.28125,255346.078125,220787.953125,246250.15625,0.046142578125,0.993896484375,0.162841796875,0.1220703050494194,-1.9226073026657104,-0.9765624403953552,73.33333587646484,260483.0,0.0
15174.2194137,296226.4375,294653.3125,322225.96875,314857.0625,285137.28125,255346.078125,220787.953125,246250.15625,0.046142578125,0.993896484375,0.162841796875,0.1220703050494194,-1.9226073026657104,-0.9765624403953552,73.33333587646484,260484.0,0.0
15174.2194141,296226.4375,294653.3125,322225.96875,314857.0625,285137.28125,255346.078125,220787.953125,246250.15625,0.046142578125,0.993896484375,0.162841796875,0.1220703050494194,-1.9226073026657104,-0.9765624403953552,73.33333587646484,260485.0,0.0
15174.2194144,296226.4375,294653.3125,322225.96875,314857.0625,285137.28125,255346.078125,220787.953125,246250.15625,0.046142578125,0.993896484375,0.162841796875,0.1220703050494194,-1.9226073026657104,-0.9765624403953552,73.33333587646484,260486.0,0.0
15174.2194147,296226.4375,294653.3125,322225.96875,314857.0625,285137.28125,255346.078125,220787.953125,246250.15625,0.046142578125,0.993896484375,0.162841796875,0.1220703050494194,-1.9226073026657104,-0.9765624403953552,73.33333587646484,260487.0,0.0
15174.219415,296226.4375,294653.3125,322225.96875,314857.0625,285137.28125,255346.078125,220787.953125,246250.15625,0.046142578125,0.993896484375,0.162841796875,0.1220703050494194,-1.9226073026657104,-0.9765624403953552,73.33333587646484,260488.0,0.0
15174.2194152,296226.4375,294653.3125,322225.96875,314857.0625,285137.28125,255346.078125,220787.953125,246250.15625,0.046142578125,0.993896484375,0.162841796875,0.1220703050494194,-1.9226073026657104,-0.9765624403953552,73.33333587646484,260489.0,0.0
15174.2194155,296226.4375,294653.3125,322225.96875,314857.0625,285137.28125,255346.078125,220787.953125,246250.15625,0.046142578125,0.993896484375,0.162841796875,0.1220703050494194,-1.9226073026657104,-0.9765624403953552,73.33333587646484,260490.0,0.0
15174.2194158,296226.4375,294653.3125,322225.96875,314857.0625,285137.28125,255346.078125,220787.953125,246250.15625,0.046142578125,0.993896484375,0.162841796875,0.1220703050494194,-1.9226073026657104,-0.9765624403953552,73.33333587646484,260491.0,0.0
15174.2194161,296226.4375,294653.3125,322225.96875,314857.0625,285137.28125,255346.078125,220787.953125,246250.15625,0.046142578125,0.993896484375,0.162841796875,0.1220703050494194,-1.9226073026657104,-0.9765624403953552,73.33333587646484,260492.0,0.0
15174.2194165,296226.4375,294653.3125,322225.96875,314857.0625,285137.28125,255346.078125,220787.953125,246250.15625,0.046142578125,0.993896484375,0.162841796875,0.1220703050494194,-1.9226073026657104,-0.9765624403953552,73.33333587646484,260493.0,0.0
15174.2194168,296226.4375,294653.3125,322225.96875,314857.0625,285137.28125,255346.078125,220787.953125,246250.15625,0.046142578125,0.993896484375,0.162841796875,0.1220703050494194,-1.9226073026657104,-0.9765624403953552,73.33333587646484,260494.0,0.0
15174.2194171,296226.4375,294653.3125,322225.96875,314857.0625,285137.28125,255346.078125,220787.953125,246250.15625,0.046142578125,0.993896484375,0.162841796875,0.1220703050494194,-1.9226073026657104,-0.9765624403953552,73.33333587646484,260495.0,0.0
15174.2194174,296226.4375,294653.3125,322225.96875,314857.0625,285137.28125,255346.078125,220787.953125,246250.15625,0.046142578125,0.993896484375,0.162841796875,0.1220703050494194,-1.9226073026657104,-0.9765624403953552,73.33333587646484,260496.0,0.0
15174.2194177,296226.4375,294653.3125,322225.96875,314857.0625,285137.28125,255346.078125,220787.953125,246250.15625,0.046142578125,0.993896484375,0.162841796875,0.1220703050494194,-1.9226073026657104,-0.9765624403953552,73.33333587646484,260497.0,0.0
15174.2194181,296075.4375,294423.8125,322103.0625,314656.78125,285010.5,255252.109375,220645.875,246150.03125,0.048828125,0.99462890625,0.163818359375,0.4577636420726776,-1.7700194120407104,-1.0681151151657104,73.33333587646484,260498.0,1.0
15174.2194203,296212.125,294633.1875,322200.5,314845.0,285127.4375,255341.515625,220792.421875,246270.28125,0.048583984375,0.993896484375,0.162353515625,0.4882812201976776,-1.7700194120407104,-0.9765624403953552,73.33333587646484,260499.0,1.0
15174.2194221,296409.09375,295479.25,323417.40625,315122.5,285827.40625,255507.1875,221058.859375,246397.5,0.046630859375,0.9951171875,0.16015625,0.4882812201976776,-1.7089842557907104,-0.9765624403953552,73.33333587646484,260500.0,1.0
15174.219424,296389.34375,295775.03125,324050.78125,315102.3125,286136.3125,255540.078125,221086.21875,246366.578125,0.048828125,0.995361328125,0.164306640625,0.4882812201976776,-1.7395018339157104,-0.9155272841453552,73.33333587646484,260501.0,1.0
15174.2194259,296176.4375,295118.0625,323235.9375,314807.15625,285629.03125,255372.8125,220823.984375,246206.984375,0.0498046875,0.993408203125,0.16455078125,0.3967284858226776,-1.7089842557907104,-0.9155272841453552,73.33333587646484,260502.0,1.0
15174.2194276,296066.75,294421.5625,322107.34375,314646.78125,285007.90625,255223.9375,220630.421875,246135.1875,0.04931640625,0.99462890625,0.16552734375,0.4272460639476776,-1.7395018339157104,-0.8850097060203552,73.33333587646484,260503.0,1.0
15174.2194294,296210.96875,294636.25,322204.71875,314838.46875,285121.46875,255314.0625,220771.140625,246245.515625,0.0478515625,0.9951171875,0.163818359375,0.4272460639476776,-1.6784666776657104,-0.8850097060203552,73.33333587646484,260504.0,1.0
15174.2194313,296407.75,295476.125,323414.125,315121.53125,285820.625,255502.265625,221054.65625,246398.765625,0.047607421875,0.992431640625,0.16650390625,0.3967284858226776,-1.5869139432907104,-0.8850097060203552,73.33333587646484,260505.0,1.0
15174.2194331,296389.78125,295773.125,324051.21875,315102.65625,286134.34375,255539.734375,221090.765625,246379.796875,0.048095703125,0.9931640625,0.165771484375,0.3662109076976776,-1.6174315214157104,-0.7629393935203552,73.33333587646484,260506.0,1.0
15174.2194349,296177.25,295121.53125,323236.46875,314805.65625,285630.09375,255374.421875,220827.734375,246213.0625,0.047119140625,0.99365234375,0.162109375,0.4882812201976776,-1.5869139432907104,-0.8239745497703552,73.33333587646484,260507.0,1.0
15174.2194367,296078.71875,294434.625,322112.875,314653.5625,285021.78125,255257.015625,220644.890625,246141.53125,0.04736328125,0.996826171875,0.163818359375,0.6103515028953552,-1.6174315214157104,-0.8850097060203552,73.33333587646484,260508.0,1.0
15174.2194385,296215.4375,294641.4375,322202.28125,314842.75,285133.53125,255345.53125,220784.8125,246250.875,0.047607421875,0.99560546875,0.16259765625,0.6713866591453552,-1.6174315214157104,-0.7934569716453552,73.33333587646484,260509.0,1.0
15174.2194416,296414.53125,295486.84375,323418.5,315130.46875,285838.25,255533.015625,221066.90625,246401.078125,0.049560546875,0.994873046875,0.16455078125,0.6103515028953552,-1.6174315214157104,-0.8850097060203552,73.33333587646484,260510.0,1.0
15174.2194433,296397.65625,295789.40625,324056.84375,315112.84375,286151.15625,255558.765625,221099.796875,246379.359375,0.048583984375,0.9970703125,0.16455078125,0.6408690810203552,-1.5563963651657104,-0.8850097060203552,73.33333587646484,260511.0,1.0
15174.219445,296190.125,295138.4375,323241.375,314818.625,285648.875,255399.984375,220847.046875,246229.25,0.048828125,0.997314453125,0.1630859375,0.6713866591453552,-1.6174315214157104,-0.8239745497703552,73.33333587646484,260512.0,1.0
15174.2194471,296081.875,294439.53125,322110.46875,314655.1875,285030.0,255251.03125,220649.28125,246150.5625,0.050048828125,0.99609375,0.1640625,0.7019042372703552,-1.6174315214157104,-0.8544921278953552,73.33333587646484,260513.0,1.0
15174.2214911,296215.875,294640.34375,322197.8125,314842.3125,285136.375,255333.015625,220782.765625,246258.296875,0.049072265625,0.99609375,0.163818359375,0.7324218153953552,-1.5869139432907104,-0.7934569716453552,73.33333587646484,260514.0,1.0
15174.2239649,296412.84375,295477.90625,323406.59375,315127.25,285833.21875,255514.0625,221056.796875,246403.234375,0.05029296875,0.99609375,0.165771484375,0.6713866591453552,-1.5258787870407104,-0.8544921278953552,73.33333587646484,260515.0,1.0
15174.2264532,296396.3125,295777.6875,324048.375,315110.96875,286143.8125,255537.9375,221078.25,246381.859375,0.05126953125,0.995361328125,0.16552734375,0.6103515028953552,-1.4953612089157104,-0.7934569716453552,73.33333587646484,260516.0,1.0
15174.2289583,296185.75,295127.875,323235.21875,314813.25,285638.59375,255379.0625,220823.890625,246227.359375,0.051025390625,0.99462890625,0.167236328125,0.5798339247703552,-1.4648436307907104,-0.8850097060203552,73.33333587646484,260517.0,1.0
15174.2344601,296073.46875,294429.8125,322106.53125,314650.71875,285022.65625,255251.390625,220637.5625,246153.0625,0.053466796875,0.99365234375,0.165771484375,0.4577636420726776,-1.4648436307907104,-0.8850097060203552,73.33333587646484,260518.0,1.0
15174.2344657,296217.75,294641.4375,322208.375,314841.78125,285140.21875,255337.046875,220778.65625,246257.671875,0.053466796875,0.993896484375,0.16357421875,0.3967284858226776,-1.4343260526657104,-0.7629393935203552,73.33333587646484,260519.0,1.0
15174.2344671,296415.78125,295481.5,323415.8125,315124.375,285835.09375,255517.203125,221052.0625,246396.875,0.053466796875,0.993408203125,0.163818359375,0.4577636420726776,-1.3122557401657104,-0.7934569716453552,73.33333587646484,260520.0,1.0
15174.2364568,296395.9375,295774.03125,324046.75,315101.9375,286136.59375,255539.8125,221069.140625,246362.09375,0.052001953125,0.995361328125,0.164306640625,0.3356933295726776,-1.2207030057907104,-0.7934569716453552,73.33333587646484,260521.0,1.0
15174.2407065,296180.9375,295113.125,323229.5,314804.5625,285627.6875,255373.4375,220810.21875,246205.640625,0.052490234375,0.997802734375,0.16259765625,0.2441406100988388,-1.2512205839157104,-0.8544921278953552,73.33333587646484,260522.0,1.0
15174.2407132,296075.34375,294416.21875,322103.40625,314644.90625,285013.8125,255237.984375,220618.875,246129.28125,0.05224609375,0.994873046875,0.162353515625,0.0915527269244194,-1.2817381620407104,-0.7629393935203552,73.33333587646484,260523.0,1.0
15174.2407152,296215.78125,294627.3125,322197.8125,314828.625,285119.59375,255313.265625,220744.3125,246225.75,0.050537109375,0.99462890625,0.166015625,0.1525878757238388,-1.2207030057907104,-0.8239745497703552,73.33333587646484,260524.0,1.0
15174.2407172,296413.90625,295468.78125,323408.375,315117.15625,285819.1875,255505.390625,221037.03125,246386.859375,0.050537109375,0.993896484375,0.164794921875,0.0610351525247097,-1.1901854276657104,-0.7934569716453552,73.33333587646484,260525.0,1.0
15174.2407192,296388.4375,295763.75,324039.15625,315094.875,286125.21875,255524.171875,221065.109375,246364.875,0.05078125,0.99462890625,0.1669921875,0.1525878757238388,-1.1291502714157104,-0.7629393935203552,73.33333587646484,260526.0,1.0
15174.2407209,296179.21875,295118.59375,323234.84375,314798.84375,285623.75,255349.46875,220792.234375,246189.359375,0.050048828125,0.9912109375,0.164794921875,0.1831054538488388,-1.1291502714157104,-0.8239745497703552,73.33333587646484,260527.0,1.0
15174.2439509,296074.71875,294421.21875,322106.8125,314643.03125,285010.3125,255235.75,220612.53125,246123.921875,0.050048828125,0.99169921875,0.166015625,0.1831054538488388,-1.1596678495407104,-0.8239745497703552,73.33333587646484,260528.0,1.0
15174.2470046,296213.03125,294621.40625,322195.59375,314833.8125,285121.1875,255333.734375,220758.890625,246243.453125,0.0498046875,0.993896484375,0.16796875,0.1831054538488388,-1.1901854276657104,-0.8239745497703552,73.33333587646484,260529.0,1.0
15174.2470114,296409.71875,295463.4375,323403.03125,315116.875,285815.34375,255507.1875,221028.8125,246391.609375,0.0498046875,0.995361328125,0.168701171875,0.1525878757238388,-1.0681151151657104,-0.8239745497703552,73.33333587646484,260530.0,1.0
15174.2470134,296383.78125,295754.8125,324034.96875,315093.4375,286118.4375,255520.859375,221050.984375,246365.046875,0.049072265625,0.99658203125,0.1689453125,0.2746581733226776,-1.1291502714157104,-0.7934569716453552,73.33333587646484,260531.0,1.0
15174.250269,296175.90625,295111.15625,323230.8125,314803.25,285622.0625,255370.5625,220797.609375,246212.25,0.049072265625,0.996337890625,0.16650390625,0.3356933295726776,-1.0986326932907104,-0.8239745497703552,73.33333587646484,260532.0,1.0
15174.2502744,296084.0,294437.5,322118.25,314655.4375,285022.65625,255255.234375,220626.484375,246144.390625,0.046875,0.994384765625,0.167724609375,0.3051757514476776,-1.0681151151657104,-0.9460448622703552,73.33333587646484,260533.0,1.0
15174.2502773,296084.0,294437.5,322118.25,314655.4375,285022.65625,255255.234375,220626.484375,246144.390625,0.046875,0.994384765625,0.167724609375,0.3051757514476776,-1.0681151151657104,-0.9460448622703552,73.33333587646484,260534.0,0.0
15174.2502775,296084.0,294437.5,322118.25,314655.4375,285022.65625,255255.234375,220626.484375,246144.390625,0.046875,0.994384765625,0.167724609375,0.3051757514476776,-1.0681151151657104,-0.9460448622703552,73.33333587646484,260535.0,0.0
15174.2502777,296084.0,294437.5,322118.25,314655.4375,285022.65625,255255.234375,220626.484375,246144.390625,0.046875,0.994384765625,0.167724609375,0.3051757514476776,-1.0681151151657104,-0.9460448622703552,73.33333587646484,260536.0,0.0
15174.2502779,296084.0,294437.5,322118.25,314655.4375,285022.65625,255255.234375,220626.484375,246144.390625,0.046875,0.994384765625,0.167724609375,0.3051757514476776,-1.0681151151657104,-0.9460448622703552,73.33333587646484,260537.0,0.0
15174.2502781,296084.0,294437.5,322118.25,314655.4375,285022.65625,255255.234375,220626.484375,246144.390625,0.046875,0.994384765625,0.167724609375,0.3051757514476776,-1.0681151151657104,-0.9460448622703552,73.33333587646484,260538.0,0.0
15174.2502782,296084.0,294437.5,322118.25,314655.4375,285022.65625,255255.234375,220626.484375,246144.390625,0.046875,0.994384765625,0.167724609375,0.3051757514476776,-1.0681151151657104,-0.9460448622703552,73.33333587646484,260539.0,0.0
15174.2502784,296084.0,294437.5,322118.25,314655.4375,285022.65625,255255.234375,220626.484375,246144.390625,0.046875,0.994384765625,0.167724609375,0.3051757514476776,-1.0681151151657104,-0.9460448622703552,73.33333587646484,260540.0,0.0
15174.2502786,296084.0,294437.5,322118.25,314655.4375,285022.65625,255255.234375,220626.484375,246144.390625,0.046875,0.994384765625,0.167724609375,0.3051757514476776,-1.0681151151657104,-0.9460448622703552,73.33333587646484,260541.0,0.0
15174.2502788,296084.0,294437.5,322118.25,314655.4375,285022.65625,255255.234375,220626.484375,246144.390625,0.046875,0.994384765625,0.167724609375,0.3051757514476776,-1.0681151151657104,-0.9460448622703552,73.33333587646484,260542.0,0.0
15174.250279,296084.0,294437.5,322118.25,314655.4375,285022.65625,255255.234375,220626.484375,246144.390625,0.046875,0.994384765625,0.167724609375,0.3051757514476776,-1.0681151151657104,-0.9460448622703552,73.33333587646484,260543.0,0.0
15174.2502792,296084.0,294437.5,322118.25,314655.4375,285022.65625,255255.234375,220626.484375,246144.390625,0.046875,0.994384765625,0.167724609375,0.3051757514476776,-1.0681151151657104,-0.9460448622703552,73.33333587646484,260544.0,0.0
15174.2502793,296084.0,294437.5,322118.25,314655.4375,285022.65625,255255.234375,220626.484375,246144.390625,0.046875,0.994384765625,0.167724609375,0.3051757514476776,-1.0681151151657104,-0.9460448622703552,73.33333587646484,260545.0,0.0
15174.2502795,296084.0,294437.5,322118.25,314655.4375,285022.65625,255255.234375,220626.484375,246144.390625,0.046875,0.994384765625,0.167724609375,0.3051757514476776,-1.0681151151657104,-0.9460448622703552,73.33333587646484,260546.0,0.0
15174.2502797,296084.0,294437.5,322118.25,314655.4375,285022.65625,255255.234375,220626.484375,246144.390625,0.046875,0.994384765625,0.167724609375,0.3051757514476776,-1.0681151151657104,-0.9460448622703552,73.33333587646484,260547.0,0.0
15174.2502799,296084.0,294437.5,322118.25,314655.4375,285022.65625,255255.234375,220626.484375,246144.390625,0.046875,0.994384765625,0.167724609375,0.3051757514476776,-1.0681151151657104,-0.9460448622703552,73.33333587646484,260548.0,0.0
15174.2502801,296084.0,294437.5,322118.25,314655.4375,285022.65625,255255.234375,220626.484375,246144.390625,0.046875,0.994384765625,0.167724609375,0.3051757514476776,-1.0681151151657104,-0.9460448622703552,73.33333587646484,260549.0,0.0
15174.2502802,296084.0,294437.5,322118.25,314655.4375,285022.65625,255255.234375,220626.484375,246144.390625,0.046875,0.994384765625,0.167724609375,0.3051757514476776,-1.0681151151657104,-0.9460448622703552,73.33333587646484,260550.0,0.0
15174.2502804,296084.0,294437.5,322118.25,314655.4375,285022.65625,255255.234375,220626.484375,246144.390625,0.046875,0.994384765625,0.167724609375,0.3051757514476776,-1.0681151151657104,-0.9460448622703552,73.33333587646484,260551.0,0.0
15174.2502806,296084.0,294437.5,322118.25,314655.4375,285022.65625,255255.234375,220626.484375,246144.390625,0.046875,0.994384765625,0.167724609375,0.3051757514476776,-1.0681151151657104,-0.9460448622703552,73.33333587646484,260552.0,0.0
15174.2502808,296084.0,294437.5,322118.25,314655.4375,285022.65625,255255.234375,220626.484375,246144.390625,0.046875,0.994384765625,0.167724609375,0.3051757514476776,-1.0681151151657104,-0.9460448622703552,73.33333587646484,260553.0,0.0
15174.250281,296084.0,294437.5,322118.25,314655.4375,285022.65625,255255.234375,220626.484375,246144.390625,0.046875,0.994384765625,0.167724609375,0.3051757514476776,-1.0681151151657104,-0.9460448622703552,73.33333587646484,260554.0,0.0
15174.2502811,296084.0,294437.5,322118.25,314655.4375,285022.65625,255255.234375,220626.484375,246144.390625,0.046875,0.994384765625,0.167724609375,0.3051757514476776,-1.0681151151657104,-0.9460448622703552,73.33333587646484,260555.0,0.0
15174.2502813,296084.0,294437.5,322118.25,314655.4375,285022.65625,255255.234375,220626.484375,246144.390625,0.046875,0.994384765625,0.167724609375,0.3051757514476776,-1.0681151151657104,-0.9460448622703552,73.33333587646484,260556.0,0.0
15174.2502815,296084.0,294437.5,322118.25,314655.4375,285022.65625,255255.234375,220626.484375,246144.390625,0.046875,0.994384765625,0.167724609375,0.3051757514476776,-1.0681151151657104,-0.9460448622703552,73.33333587646484,260557.0,0.0
15174.2502817,296084.0,294437.5,322118.25,314655.4375,285022.65625,255255.234375,220626.484375,246144.390625,0.046875,0.994384765625,0.167724609375,0.3051757514476776,-1.0681151151657104,-0.9460448622703552,73.33333587646484,260558.0,0.0
15174.2502818,296084.0,294437.5,322118.25,314655.4375,285022.65625,255255.234375,220626.484375,246144.390625,0.046875,0.994384765625,0.167724609375,0.3051757514476776,-1.0681151151657104,-0.9460448622703552,73.33333587646484,260559.0,0.0
15174.250282,296084.0,294437.5,322118.25,314655.4375,285022.65625,255255.234375,220626.484375,246144.390625,0.046875,0.994384765625,0.167724609375,0.3051757514476776,-1.0681151151657104,-0.9460448622703552,73.33333587646484,260560.0,0.0
15174.2502822,296084.0,294437.5,322118.25,314655.4375,285022.65625,255255.234375,220626.484375,246144.390625,0.046875,0.994384765625,0.167724609375,0.3051757514476776,-1.0681151151657104,-0.9460448622703552,73.33333587646484,260561.0,0.0
15174.2502824,296084.0,294437.5,322118.25,314655.4375,285022.65625,255255.234375,220626.484375,246144.390625,0.046875,0.994384765625,0.167724609375,0.3051757514476776,-1.0681151151657104,-0.9460448622703552,73.33333587646484,260562.0,0.0
15174.2502826,296084.0,294437.5,322118.25,314655.4375,285022.65625,255255.234375,220626.484375,246144.390625,0.046875,0.994384765625,0.167724609375,0.3051757514476776,-1.0681151151657104,-0.9460448622703552,73.33333587646484,260563.0,0.0
15174.2502827,296204.78125,294626.03125,322189.0625,314825.3125,285121.5625,255342.859375,220745.484375,246240.328125,0.049560546875,0.997314453125,0.171875,0.5493163466453552,-1.5563963651657104,-1.0070799589157104,73.33333587646484,260564.0,1.0
15174.250284,296409.96875,295476.5,323396.21875,315116.15625,285824.28125,255539.734375,221036.953125,246396.796875,0.050048828125,0.99755859375,0.173583984375,0.5187987685203552,-1.6479490995407104,-0.9460448622703552,73.33333587646484,260565.0,1.0
15174.2502853,296390.59375,295775.5625,324037.46875,315100.59375,286134.09375,255545.71875,221057.328125,246385.609375,0.050048828125,0.99755859375,0.1689453125,0.3967284858226776,-1.6479490995407104,-0.8544921278953552,73.33333587646484,260566.0,1.0
15174.2527414,296177.96875,295128.34375,323241.8125,314799.9375,285633.125,255356.0,220782.859375,246207.0625,0.051513671875,0.9951171875,0.167236328125,0.3051757514476776,-1.6479490995407104,-0.8544921278953552,73.33333587646484,260567.0,1.0
15174.2594773,296078.90625,294435.34375,322118.0625,314644.71875,285021.5,255239.046875,220601.984375,246136.34375,0.05224609375,0.994873046875,0.172607421875,0.4882812201976776,-1.4953612089157104,-0.8239745497703552,73.33333587646484,260568.0,1.0
15174.2594849,296216.40625,294628.1875,322193.34375,314831.65625,285124.0625,255318.453125,220742.53125,246251.0625,0.051513671875,0.996826171875,0.16845703125,0.4577636420726776,-1.5258787870407104,-0.9155272841453552,73.33333587646484,260569.0,1.0
15174.2658002,296409.09375,295456.28125,323385.84375,315116.96875,285810.96875,255490.203125,221018.890625,246408.59375,0.049560546875,0.99560546875,0.166748046875,0.4882812201976776,-1.5258787870407104,-0.7629393935203552,73.33333587646484,260570.0,1.0
15174.2658069,296392.28125,295770.0,324038.875,315103.1875,286130.40625,255523.71875,221046.78125,246380.703125,0.05078125,0.99609375,0.16455078125,0.5493163466453552,-1.5258787870407104,-0.8239745497703552,73.33333587646484,260571.0,1.0
15174.265809,296181.5625,295134.6875,323253.0,314804.5625,285637.53125,255365.828125,220781.953125,246195.625,0.053955078125,0.99365234375,0.168701171875,0.4577636420726776,-1.4953612089157104,-0.7019042372703552,73.33333587646484,260572.0,1.0
15174.2658108,296072.375,294435.15625,322118.96875,314642.5625,285020.34375,255240.21875,220599.5625,246130.890625,0.05419921875,0.994140625,0.17041015625,0.4882812201976776,-1.4343260526657104,-0.6103515028953552,73.33333587646484,260573.0,1.0
15174.2658126,296211.59375,294629.90625,322194.5,314829.15625,285123.59375,255331.328125,220739.046875,246245.78125,0.05322265625,0.9931640625,0.166748046875,0.5493163466453552,-1.3732908964157104,-0.4882812201976776,73.33333587646484,260574.0,1.0
15174.2658142,296413.28125,295470.59375,323401.875,315117.0625,285820.25,255518.265625,221017.71875,246388.921875,0.05322265625,0.993896484375,0.1689453125,0.5493163466453552,-1.2512205839157104,-0.4882812201976776,73.33333587646484,260575.0,1.0
15174.265816,296390.59375,295766.4375,324044.0625,315099.8125,286130.5,255529.359375,221047.765625,246374.0,0.05126953125,0.991455078125,0.172607421875,0.6713866591453552,-1.2817381620407104,-0.4272460639476776,73.33333587646484,260576.0,1.0
15174.2658178,296178.5,295117.6875,323239.6875,314802.0625,285628.125,255353.578125,220779.546875,246214.40625,0.051025390625,0.9912109375,0.16796875,0.7019042372703552,-1.1596678495407104,-0.3662109076976776,73.33333587646484,260577.0,1.0
15174.2658197,296073.46875,294423.71875,322108.9375,314640.96875,285010.3125,255223.5,220586.96875,246131.515625,0.051513671875,0.99072265625,0.164794921875,0.7019042372703552,-1.1596678495407104,-0.4577636420726776,73.33333587646484,260578.0,1.0
15174.2670975,296214.71875,294617.28125,322182.8125,314828.0,285112.0625,255317.8125,220727.0625,246231.125,0.051513671875,0.9921875,0.1640625,0.7629393935203552,-1.2817381620407104,-0.4577636420726776,73.33333587646484,260579.0,1.0
15174.269469,296214.71875,294617.28125,322182.8125,314828.0,285112.0625,255317.8125,220727.0625,246231.125,0.051513671875,0.9921875,0.1640625,0.7629393935203552,-1.2817381620407104,-0.4577636420726776,73.33333587646484,260580.0,0.0
15174.2694703,296214.71875,294617.28125,322182.8125,314828.0,285112.0625,255317.8125,220727.0625,246231.125,0.051513671875,0.9921875,0.1640625,0.7629393935203552,-1.2817381620407104,-0.4577636420726776,73.33333587646484,260581.0,0.0
15174.2694706,296214.71875,294617.28125,322182.8125,314828.0,285112.0625,255317.8125,220727.0625,246231.125,0.051513671875,0.9921875,0.1640625,0.7629393935203552,-1.2817381620407104,-0.4577636420726776,73.33333587646484,260582.0,0.0
15174.2694709,296214.71875,294617.28125,322182.8125,314828.0,285112.0625,255317.8125,220727.0625,246231.125,0.051513671875,0.9921875,0.1640625,0.7629393935203552,-1.2817381620407104,-0.4577636420726776,73.33333587646484,260583.0,0.0
15174.2694713,296214.71875,294617.28125,322182.8125,314828.0,285112.0625,255317.8125,220727.0625,246231.125,0.051513671875,0.9921875,0.1640625,0.7629393935203552,-1.2817381620407104,-0.4577636420726776,73.33333587646484,260584.0,0.0
15174.2694716,296410.78125,295453.34375,323378.34375,315112.59375,285807.21875,255504.5,221013.796875,246389.546875,0.050048828125,0.998291015625,0.164794921875,1.0986326932907104,-1.1901854276657104,-0.9765624403953552,73.33333587646484,260585.0,1.0
15174.2694773,296391.9375,295762.3125,324027.71875,315096.65625,286124.5,255526.40625,221043.828125,246370.0625,0.049072265625,0.999267578125,0.16357421875,1.0070799589157104,-1.1901854276657104,-1.0681151151657104,73.33333587646484,260586.0,1.0
15174.2714089,296186.1875,295127.8125,323238.96875,314803.59375,285632.96875,255369.59375,220782.234375,246204.828125,0.0498046875,1.001220703125,0.163330078125,1.0375975370407104,-1.3122557401657104,-1.1291502714157104,73.33333587646484,260587.0,1.0
15174.2745378,296079.625,294430.6875,322114.40625,314643.28125,285019.4375,255234.046875,220592.140625,246134.109375,0.05078125,1.00439453125,0.1669921875,0.8850097060203552,-1.2512205839157104,-1.2207030057907104,73.33333587646484,260588.0,1.0
15174.2745434,296215.78125,294623.375,322188.15625,314829.78125,285122.09375,255312.453125,220731.890625,246252.578125,0.05126953125,1.002197265625,0.162841796875,0.7934569716453552,-1.4038084745407104,-1.2817381620407104,73.33333587646484,260589.0,1.0
15174.2782677,296414.53125,295465.125,323390.25,315111.78125,285814.28125,255500.65625,221007.71875,246382.9375,0.049560546875,1.003173828125,0.166259765625,0.7019042372703552,-1.4343260526657104,-1.3122557401657104,73.33333587646484,260590.0,1.0
15174.2782742,296399.6875,295774.46875,324037.09375,315101.40625,286129.0,255536.859375,221054.203125,246374.34375,0.05126953125,1.003662109375,0.164794921875,0.5493163466453552,-1.4648436307907104,-1.3427733182907104,73.33333587646484,260591.0,1.0
15174.2782761,296195.59375,295139.6875,323252.8125,314814.3125,285638.21875,255367.171875,220793.3125,246230.5,0.051513671875,1.0,0.164306640625,0.3356933295726776,-1.3122557401657104,-1.3122557401657104,73.33333587646484,260592.0,1.0
15174.278278,296082.21875,294440.4375,322119.78125,314642.46875,285015.25,255232.4375,220587.953125,246125.265625,0.0517578125,0.9990234375,0.167236328125,0.2441406100988388,-1.3732908964157104,-1.2817381620407104,73.33333587646484,260593.0,1.0
15174.2807628,296216.15625,294633.125,322189.5,314823.96875,285114.3125,255318.53125,220726.703125,246223.609375,0.04931640625,0.9970703125,0.161865234375,0.1525878757238388,-1.4038084745407104,-1.2817381620407104,73.33333587646484,260594.0,1.0
15174.2807695,296418.65625,295473.625,323392.28125,315118.125,285817.21875,255522.828125,221026.84375,246384.984375,0.05029296875,0.99609375,0.16455078125,0.0915527269244194,-1.3732908964157104,-1.2207030057907104,73.33333587646484,260595.0,1.0
15174.2832697,296400.40625,295783.59375,324041.125,315104.09375,286132.375,255540.890625,221044.8125,246360.140625,0.0498046875,0.9951171875,0.16357421875,0.03051757626235485,-1.4038084745407104,-1.2512205839157104,73.33333587646484,260596.0,1.0
15174.2832763,296185.9375,295137.09375,323248.25,314808.59375,285633.5,255345.359375,220769.625,246207.0625,0.0498046875,0.9931640625,0.164794921875,0.03051757626235485,-1.3427733182907104,-1.3427733182907104,73.33333587646484,260597.0,1.0
15174.2852224,296075.96875,294439.90625,322115.28125,314644.0,285015.78125,255219.46875,220578.5625,246135.0,0.048583984375,0.99267578125,0.16650390625,0.0,-1.3427733182907104,-1.3122557401657104,73.33333587646484,260598.0,1.0
15174.2883012,296210.34375,294630.53125,322183.25,314823.25,285112.875,255308.515625,220711.6875,246229.25,0.047607421875,0.990966796875,0.168701171875,0.0,-1.4343260526657104,-1.2512205839157104,73.33333587646484,260599.0,1.0
15174.2883076,296411.9375,295464.6875,323389.4375,315111.78125,285810.53125,255498.421875,220999.671875,246382.125,0.048583984375,0.991455078125,0.162841796875,-0.0915527269244194,-1.4343260526657104,-1.1596678495407104,73.33333587646484,260600.0,1.0
15174.2901945,296395.0625,295774.46875,324036.46875,315095.5,286124.34375,255526.859375,221033.90625,246364.34375,0.048095703125,0.9921875,0.163818359375,0.03051757626235485,-1.4343260526657104,-1.0070799589157104,73.33333587646484,260601.0,1.0
15174.2927038,296188.78125,295146.3125,323249.25,314805.84375,285636.1875,255374.765625,220786.875,246213.953125,0.04638671875,0.9921875,0.16455078125,0.0610351525247097,-1.5869139432907104,-1.0681151151657104,73.33333587646484,260602.0,1.0
15174.2952075,296082.3125,294454.125,322124.6875,314647.125,285024.375,255260.328125,220603.40625,246139.03125,0.04638671875,0.992919921875,0.16455078125,0.2441406100988388,-1.6784666776657104,-0.8239745497703552,73.33333587646484,260603.0,1.0
15174.2976977,296211.59375,294634.4375,322189.5,314824.96875,285115.125,255323.0,220721.34375,246231.203125,0.04638671875,0.992919921875,0.166259765625,0.3356933295726776,-1.6174315214157104,-0.8544921278953552,73.33333587646484,260604.0,1.0
15174.3369653,296407.84375,295469.78125,323386.5625,315111.15625,285809.09375,255501.90625,221004.9375,246382.75,0.0439453125,0.992919921875,0.165771484375,0.3051757514476776,-1.7089842557907104,-0.7629393935203552,73.33333587646484,260605.0,1.0
15174.3369756,296394.78125,295780.28125,324034.40625,315101.59375,286129.4375,255538.65625,221043.65625,246370.421875,0.045654296875,0.99267578125,0.165283203125,0.2746581733226776,-1.7700194120407104,-0.7019042372703552,73.33333587646484,260606.0,1.0
15174.3491834,296184.59375,295141.75,323240.46875,314803.6875,285634.84375,255374.5,220776.78125,246210.109375,0.046630859375,0.993896484375,0.164306640625,0.2746581733226776,-1.8310545682907104,-0.7629393935203552,73.33333587646484,260607.0,1.0
15174.349191,296079.0,294452.0625,322116.8125,314645.34375,285025.0625,255246.46875,220595.28125,246141.359375,0.046142578125,0.993408203125,0.165283203125,0.4272460639476776,-1.8310545682907104,-0.8239745497703552,73.33333587646484,260608.0,1.0
15174.3491924,296213.46875,294640.0,322187.71875,314830.40625,285127.4375,255331.671875,220735.015625,246254.90625,0.045166015625,0.9931640625,0.162109375,0.3662109076976776,-1.8920897245407104,-0.8850097060203552,73.33333587646484,260609.0,1.0
15174.3491938,296413.1875,295476.03125,323389.875,315112.6875,285819.90625,255508.703125,221002.34375,246387.84375,0.046630859375,0.997802734375,0.162841796875,0.2746581733226776,-1.9531248807907104,-0.8544921278953552,73.33333587646484,260610.0,1.0
15174.3491952,296395.15625,295786.8125,324044.0625,315098.71875,286139.71875,255545.0,221041.59375,246371.671875,0.04833984375,0.998291015625,0.162353515625,0.2441406100988388,-2.014159917831421,-0.8544921278953552,73.33333587646484,260611.0,1.0
15174.3491965,296188.78125,295151.21875,323256.84375,314811.09375,285650.3125,255394.890625,220792.515625,246222.890625,0.04833984375,0.997802734375,0.1669921875,0.2441406100988388,-1.9531248807907104,-0.8544921278953552,73.33333587646484,260612.0,1.0
15174.3491979,296076.0625,294447.15625,322121.28125,314643.8125,285024.375,255240.578125,220578.46875,246132.5,0.048828125,0.9951171875,0.166015625,0.2441406100988388,-2.014159917831421,-0.9765624403953552,73.33333587646484,260613.0,1.0
15174.3491993,296200.9375,294619.25,322174.75,314820.5,285108.9375,255299.84375,220703.28125,246250.34375,0.05126953125,0.9931640625,0.164794921875,0.2746581733226776,-1.9836424589157104,-1.0070799589157104,73.33333587646484,260614.0,1.0
15174.3492009,296407.21875,295465.40625,323379.34375,315111.875,285812.5625,255502.265625,220999.046875,246404.84375,0.054931640625,0.99267578125,0.1669921875,0.2746581733226776,-1.9226073026657104,-0.9460448622703552,73.33333587646484,260615.0,1.0
15174.3519518,296392.1875,295781.1875,324028.34375,315094.4375,286131.9375,255545.359375,221041.59375,246370.859375,0.05419921875,0.993408203125,0.165771484375,0.2441406100988388,-1.7395018339157104,-0.8544921278953552,73.33333587646484,260616.0,1.0
15174.3519575,296193.34375,295158.46875,323248.96875,314804.21875,285646.46875,255395.25,220777.671875,246195.625,0.05322265625,0.99169921875,0.164306640625,0.1831054538488388,-1.7395018339157104,-0.8544921278953552,73.33333587646484,260617.0,1.0
15174.3539009,296087.84375,294462.4375,322126.5625,314644.0,285032.0625,255246.921875,220574.453125,246114.53125,0.053466796875,0.993408203125,0.162841796875,0.1525878757238388,-1.6174315214157104,-0.8239745497703552,73.33333587646484,260618.0,1.0
15174.3564039,296215.34375,294633.65625,322188.25,314817.4375,285116.8125,255291.625,220689.15625,246215.921875,0.052734375,0.9912109375,0.168212890625,0.1525878757238388,-1.6479490995407104,-0.7934569716453552,73.33333587646484,260619.0,1.0
15174.358911,296412.125,295466.125,323380.59375,315101.3125,285806.75,255480.265625,220976.15625,246371.84375,0.053955078125,0.991943359375,0.167724609375,0.2136230319738388,-1.4953612089157104,-0.8239745497703552,73.33333587646484,260620.0,1.0
15174.3639086,296394.0625,295768.40625,324023.96875,315089.59375,286122.5625,255515.671875,221017.71875,246365.234375,0.052490234375,0.99267578125,0.166015625,0.2136230319738388,-1.4648436307907104,-0.8544921278953552,73.33333587646484,260621.0,1.0
15174.3682205,296189.3125,295133.4375,323234.59375,314802.78125,285632.40625,255357.25,220760.5,246211.546875,0.052978515625,0.991455078125,0.165771484375,0.3356933295726776,-1.3732908964157104,-0.8239745497703552,73.33333587646484,260622.0,1.0
15174.3682265,296084.90625,294444.71875,322115.65625,314642.65625,285020.0625,255235.296875,220567.734375,246127.765625,0.052978515625,0.991455078125,0.166015625,0.3967284858226776,-1.2512205839157104,-0.7324218153953552,73.33333587646484,260623.0,1.0
15174.3832471,296212.9375,294624.4375,322178.59375,314816.65625,285108.9375,255302.4375,220697.015625,246226.203125,0.052001953125,0.992431640625,0.16650390625,0.4882812201976776,-1.2512205839157104,-0.8239745497703552,73.33333587646484,260624.0,1.0
15174.3832538,296413.125,295464.3125,323377.1875,315103.46875,285804.875,255491.453125,220983.75,246378.28125,0.051513671875,0.991943359375,0.163818359375,0.5493163466453552,-1.2512205839157104,-0.6713866591453552,73.33333587646484,260625.0,1.0
15174.3857427,296398.4375,295778.6875,324030.40625,315091.03125,286125.6875,255524.078125,221019.515625,246362.09375,0.052001953125,0.9912109375,0.16796875,0.5493163466453552,-1.1291502714157104,-0.7019042372703552,73.33333587646484,260626.0,1.0
15174.3857494,296192.90625,295150.6875,323249.875,314801.34375,285639.5625,255365.03125,220766.046875,246206.359375,0.052978515625,0.99169921875,0.167236328125,0.7629393935203552,-1.0375975370407104,-0.7019042372703552,73.33333587646484,260627.0,1.0
15174.3876586,296087.84375,294458.21875,322124.3125,314643.65625,285025.0625,255239.859375,220579.359375,246132.953125,0.05322265625,0.99365234375,0.162109375,0.7324218153953552,-1.0375975370407104,-0.7629393935203552,73.33333587646484,260628.0,1.0
15174.3914045,296214.625,294637.65625,322187.34375,314822.09375,285117.0,255312.640625,220714.09375,246244.078125,0.052001953125,0.996337890625,0.1630859375,0.8239745497703552,-1.0070799589157104,-0.7934569716453552,73.33333587646484,260629.0,1.0
15174.4020146,296414.625,295473.34375,323382.46875,315109.375,285812.125,255501.1875,221003.328125,246397.6875,0.0517578125,0.996337890625,0.166015625,0.8850097060203552,-1.0070799589157104,-0.8850097060203552,73.33333587646484,260630.0,1.0
15174.40202,296395.9375,295773.75,324022.15625,315091.3125,286123.875,255524.34375,221034.53125,246379.0,0.04931640625,0.99951171875,0.16650390625,0.8850097060203552,-1.0986326932907104,-0.9765624403953552,73.33333587646484,260631.0,1.0
15174.4114181,296192.90625,295150.15625,323245.65625,314800.03125,285640.1875,255369.234375,220776.78125,246207.875,0.04833984375,0.999755859375,0.169189453125,0.8239745497703552,-1.1291502714157104,-1.0375975370407104,73.33333587646484,260632.0,1.0
15174.4163657,296083.1875,294459.21875,322124.9375,314639.09375,285027.5,255234.5,220580.53125,246130.8125,0.046630859375,0.998046875,0.170654296875,0.7934569716453552,-1.1901854276657104,-1.0070799589157104,73.33333587646484,260633.0,1.0
15174.4163686,296207.46875,294634.71875,322186.03125,314814.5,285114.65625,255295.5625,220698.359375,246230.578125,0.047607421875,0.995361328125,0.16796875,0.7629393935203552,-1.2207030057907104,-1.0681151151657104,73.33333587646484,260634.0,1.0
15174.41637,296413.90625,295468.96875,323385.3125,315109.28125,285812.9375,255504.328125,220988.125,246382.9375,0.049072265625,0.994140625,0.1650390625,0.5493163466453552,-1.2207030057907104,-1.1291502714157104,73.33333587646484,260635.0,1.0
15174.4402034,296401.84375,295783.25,324033.0625,315095.96875,286132.21875,255543.75,221028.8125,246365.671875,0.048583984375,0.99267578125,0.164306640625,0.5798339247703552,-1.3732908964157104,-1.0681151151657104,73.33333587646484,260636.0,1.0
15174.4658143,296188.4375,295146.125,323247.46875,314797.15625,285640.1875,255362.796875,220763.625,246198.484375,0.050048828125,0.99072265625,0.1640625,0.5493163466453552,-1.4648436307907104,-1.0986326932907104,73.33333587646484,260637.0,1.0
15174.465832,296080.53125,294445.90625,322128.09375,314637.9375,285028.125,255215.625,220569.171875,246127.859375,0.05126953125,0.993408203125,0.164306640625,0.5493163466453552,-1.5258787870407104,-1.0070799589157104,73.33333587646484,260638.0,1.0
15174.4890359,296214.375,294626.03125,322186.09375,314821.65625,285116.625,255302.171875,220704.171875,246246.859375,0.052978515625,0.993896484375,0.166015625,0.5798339247703552,-1.4648436307907104,-0.8850097060203552,73.33333587646484,260639.0,1.0
15174.4914451,296411.78125,295460.5625,323371.65625,315102.03125,285800.3125,255492.875,220980.890625,246384.1875,0.052978515625,0.9970703125,0.16650390625,0.6103515028953552,-1.4648436307907104,-0.9155272841453552,73.33333587646484,260640.0,1.0
15174.4939733,296391.9375,295767.0625,324017.6875,315085.21875,286114.21875,255518.0,221009.046875,246356.296875,0.0498046875,0.996826171875,0.166259765625,0.4882812201976776,-1.4343260526657104,-1.0070799589157104,73.33333587646484,260641.0,1.0
15174.4964057,296188.96875,295141.75,323247.09375,314800.28125,285633.59375,255348.21875,220755.046875,246204.921875,0.050537109375,0.995361328125,0.164794921875,0.4882812201976776,-1.4343260526657104,-0.8239745497703552,73.33333587646484,260642.0,1.0
15174.5014404,296078.8125,294448.5625,322127.625,314634.71875,285021.3125,255219.203125,220568.453125,246127.859375,0.050537109375,0.9931640625,0.162841796875,0.3967284858226776,-1.4038084745407104,-0.8239745497703552,73.33333587646484,260643.0,1.0
15174.5039875,296209.25,294631.6875,322190.5,314814.3125,285114.3125,255304.765625,220698.09375,246229.875,0.05224609375,0.99169921875,0.16455078125,0.3051757514476776,-1.4343260526657104,-0.7324218153953552,73.33333587646484,260644.0,1.0
15174.5064081,296408.65625,295461.46875,323379.875,315102.125,285807.375,255500.484375,220983.125,246380.703125,0.050537109375,0.990478515625,0.164306640625,0.2746581733226776,-1.4038084745407104,-0.7324218153953552,73.33333587646484,260645.0,1.0
15174.5089082,296391.5625,295770.1875,324026.46875,315089.25,286125.3125,255519.703125,221012.09375,246363.703125,0.048828125,0.992431640625,0.167236328125,0.4272460639476776,-1.3732908964157104,-0.8544921278953552,73.33333587646484,260646.0,1.0
15174.5113948,296184.84375,295139.875,323253.0,314800.5625,285640.46875,255351.703125,220751.46875,246203.671875,0.049072265625,0.991943359375,0.165771484375,0.5493163466453552,-1.3427733182907104,-0.8850097060203552,73.33333587646484,260647.0,1.0
15174.5365054,296077.375,294439.09375,322126.46875,314639.96875,285025.875,255221.703125,220564.796875,246132.953125,0.04736328125,0.9921875,0.16357421875,0.6103515028953552,-1.3732908964157104,-1.0375975370407104,73.33333587646484,260648.0,1.0
15174.5614585,296210.4375,294618.28125,322179.03125,314819.5,285114.40625,255298.515625,220696.9375,246238.8125,0.0478515625,0.994384765625,0.1650390625,0.6408690810203552,-1.5258787870407104,-0.9765624403953552,73.33333587646484,260649.0,1.0
15174.5864479,296407.5625,295446.34375,323362.96875,315103.09375,285804.4375,255490.828125,220986.875,246392.765625,0.048583984375,0.9951171875,0.165283203125,0.6408690810203552,-1.5563963651657104,-1.0070799589157104,73.33333587646484,260650.0,1.0
15174.6189674,296395.40625,295762.40625,324021.71875,315092.90625,286134.34375,255534.0,221033.640625,246384.09375,0.048095703125,0.997314453125,0.167724609375,0.6713866591453552,-1.7700194120407104,-1.0986326932907104,73.33333587646484,260651.0,1.0
15174.6439329,296191.375,295144.0625,323251.84375,314801.4375,285649.84375,255364.578125,220772.578125,246216.453125,0.046630859375,0.997314453125,0.1669921875,0.6103515028953552,-1.8005369901657104,-1.0986326932907104,73.33333587646484,260652.0,1.0
15174.6689475,296084.28125,294457.0625,322136.21875,314640.78125,285039.03125,255241.828125,220576.5,246127.046875,0.04541015625,0.99853515625,0.16650390625,0.5798339247703552,-1.8310545682907104,-1.1901854276657104,73.33333587646484,260653.0,1.0
15174.6940016,296213.28125,294632.5625,322192.1875,314818.53125,285124.6875,255309.59375,220694.96875,246225.125,0.046630859375,0.996826171875,0.165771484375,0.4882812201976776,-1.9531248807907104,-1.1291502714157104,73.33333587646484,260654.0,1.0
15174.7289435,296414.375,295465.75,323384.4375,315107.65625,285813.90625,255490.28125,220977.046875,246382.046875,0.04833984375,0.995849609375,0.1669921875,0.4577636420726776,-2.014159917831421,-1.1291502714157104,73.33333587646484,260655.0,1.0
15174.7551234,296392.46875,295770.90625,324026.46875,315089.6875,286125.5,255509.59375,221006.8125,246368.0,0.04736328125,0.994140625,0.16357421875,0.3662109076976776,-1.9836424589157104,-1.2512205839157104,73.33333587646484,260656.0,1.0
15174.7551326,296182.25,295131.46875,323241.75,314794.75,285635.46875,255347.953125,220749.140625,246210.375,0.049560546875,0.995361328125,0.160888671875,0.4882812201976776,-1.9836424589157104,-1.3427733182907104,73.33333587646484,260657.0,1.0
15174.7551347,296078.46875,294436.78125,322121.1875,314634.875,285023.03125,255225.734375,220556.109375,246123.921875,0.04931640625,0.99560546875,0.16552734375,0.4882812201976776,-1.9531248807907104,-1.4648436307907104,73.33333587646484,260658.0,1.0
15174.7796129,296211.0625,294615.3125,322178.6875,314816.1875,285114.03125,255301.28125,220688.4375,246235.6875,0.05029296875,0.99658203125,0.166259765625,0.4882812201976776,-2.014159917831421,-1.4038084745407104,73.33333587646484,260659.0,1.0
15174.779621,296408.65625,295443.6875,323364.65625,315102.65625,285802.46875,255490.640625,220978.03125,246386.78125,0.0517578125,0.9970703125,0.163330078125,0.5187987685203552,-1.9531248807907104,-1.3427733182907104,73.33333587646484,260660.0,1.0
15174.8189617,296393.4375,295759.71875,324019.3125,315093.09375,286124.5,255524.34375,221014.59375,246368.625,0.051025390625,0.99658203125,0.164306640625,0.6408690810203552,-1.9531248807907104,-1.3732908964157104,73.33333587646484,260661.0,1.0
15174.8214769,296186.8125,295134.15625,323245.03125,314803.15625,285639.3125,255357.703125,220744.859375,246204.03125,0.050537109375,0.9970703125,0.163818359375,0.5493163466453552,-1.9836424589157104,-1.2817381620407104,73.33333587646484,260662.0,1.0
15174.8239404,296075.25,294439.53125,322123.96875,314640.875,285027.40625,255220.8125,220552.8125,246128.296875,0.051025390625,0.997314453125,0.1640625,0.3356933295726776,-1.9836424589157104,-1.1901854276657104,73.33333587646484,260663.0,1.0
15174.8489584,296209.1875,294623.1875,322185.3125,314824.59375,285124.15625,255312.90625,220695.859375,246245.0625,0.048095703125,0.996337890625,0.163818359375,0.1831054538488388,-1.9226073026657104,-1.0986326932907104,73.33333587646484,260664.0,1.0
15174.8739755,296405.0625,295449.5625,323368.5,315100.6875,285805.78125,255489.578125,220970.703125,246380.4375,0.048095703125,0.9951171875,0.162353515625,0.1220703050494194,-1.8920897245407104,-1.0986326932907104,73.33333587646484,260665.0,1.0
15174.8989756,296384.875,295758.84375,324019.21875,315087.28125,286124.4375,255508.4375,221005.65625,246368.0,0.04833984375,0.994140625,0.162109375,0.1525878757238388,-1.8310545682907104,-0.9765624403953552,73.33333587646484,260666.0,1.0
15174.9077236,296179.03125,295132.71875,323247.1875,314799.5625,285646.46875,255352.875,220751.921875,246212.703125,0.048095703125,0.99462890625,0.162353515625,0.1525878757238388,-1.8310545682907104,-0.9460448622703552,73.33333587646484,260667.0,1.0
15174.9102086,296067.28125,294430.6875,322116.8125,314635.34375,285029.375,255231.453125,220564.703125,246132.5,0.047607421875,0.993896484375,0.16064453125,0.2136230319738388,-1.8615721464157104,-1.0986326932907104,73.33333587646484,260668.0,1.0
15174.9127201,296196.21875,294607.4375,322170.8125,314808.5,285112.96875,255297.4375,220679.140625,246221.640625,0.049560546875,0.994140625,0.1630859375,0.2136230319738388,-1.8310545682907104,-0.9155272841453552,73.33333587646484,260669.0,1.0
15174.9152065,296394.78125,295441.0,323358.5,315092.1875,285799.15625,255480.625,220959.875,246375.0625,0.04736328125,0.994384765625,0.16357421875,0.3356933295726776,-1.8310545682907104,-1.0375975370407104,73.33333587646484,260670.0,1.0
15174.9177262,296379.3125,295752.125,324009.65625,315081.375,286118.53125,255510.21875,221000.109375,246365.671875,0.046875,0.9931640625,0.163330078125,0.2746581733226776,-1.8310545682907104,-0.9460448622703552,73.33333587646484,260671.0,1.0
15174.9202436,296171.625,295124.40625,323236.0,314793.125,285637.25,255347.765625,220750.3125,246216.8125,0.048095703125,0.99560546875,0.1650390625,0.2441406100988388,-1.8310545682907104,-0.9765624403953552,73.33333587646484,260672.0,1.0
15174.9227224,296061.3125,294424.96875,322107.34375,314626.5625,285021.59375,255221.96875,220556.203125,246126.515625,0.047607421875,0.996337890625,0.162109375,0.1525878757238388,-1.8615721464157104,-1.0070799589157104,73.33333587646484,260673.0,1.0
15174.9251976,296201.40625,294612.0,322171.4375,314810.9375,285117.34375,255317.28125,220690.140625,246219.40625,0.048095703125,0.995849609375,0.16552734375,0.0610351525247097,-1.9226073026657104,-0.9155272841453552,73.33333587646484,260674.0,1.0
15174.9277219,296398.28125,295439.90625,323354.5625,315094.875,285804.4375,255505.390625,220972.125,246371.125,0.047607421875,0.9951171875,0.1630859375,0.0,-1.9836424589157104,-0.9155272841453552,73.33333587646484,260675.0,1.0
15174.9308308,296384.6875,295758.5625,324010.28125,315087.28125,286126.75,255528.109375,221005.921875,246362.90625,0.048828125,0.994873046875,0.162841796875,0.0,-1.8920897245407104,-0.8239745497703552,73.33333587646484,260676.0,1.0
15174.9308473,296173.5,295130.75,323237.0,314798.0625,285642.4375,255355.109375,220747.71875,246212.25,0.04736328125,0.9951171875,0.161865234375,0.0610351525247097,-1.8005369901657104,-0.8850097060203552,73.33333587646484,260677.0,1.0
15174.9563769,296053.34375,294426.84375,322109.9375,314629.53125,285021.5,255211.34375,220557.546875,246137.328125,0.046630859375,0.994873046875,0.164306640625,0.03051757626235485,-1.9531248807907104,-0.9155272841453552,73.33333587646484,260678.0,1.0
15174.9563817,296189.0625,294604.3125,322171.0,314811.0,285112.78125,255282.328125,220677.703125,246232.90625,0.047119140625,0.994384765625,0.164794921875,0.03051757626235485,-1.8615721464157104,-1.0375975370407104,73.33333587646484,260679.0,1.0
15174.9563831,296391.84375,295432.3125,323354.3125,315093.625,285796.75,255469.359375,220943.25,246364.421875,0.048828125,0.994140625,0.1650390625,0.0,-1.8615721464157104,-1.0986326932907104,73.33333587646484,260680.0,1.0
15174.9807763,296374.21875,295741.125,324004.28125,315083.4375,286115.65625,255498.6875,220988.84375,246360.046875,0.049072265625,0.98974609375,0.165283203125,-0.1525878757238388,-1.9226073026657104,-1.1291502714157104,73.33333587646484,260681.0,1.0
15174.9807817,296169.03125,295120.28125,323234.3125,314795.375,285636.875,255351.078125,220748.609375,246209.9375,0.048095703125,0.9912109375,0.161376953125,-0.0610351525247097,-1.9226073026657104,-1.0986326932907104,73.33333587646484,260682.0,1.0
15175.005185,296061.03125,294421.75,322108.6875,314628.96875,285019.96875,255213.921875,220548.25,246126.328125,0.0498046875,0.990234375,0.158203125,0.03051757626235485,-1.8310545682907104,-1.1596678495407104,73.33333587646484,260683.0,1.0
15175.0252506,296193.53125,294596.8125,322161.53125,314809.21875,285107.78125,255293.40625,220679.046875,246234.25,0.0498046875,0.991455078125,0.165771484375,0.03051757626235485,-1.8005369901657104,-1.0681151151657104,73.33333587646484,260684.0,1.0
15175.0277538,296396.3125,295435.09375,323353.9375,315098.46875,285802.65625,255493.6875,220971.0625,246385.4375,0.047119140625,0.992431640625,0.163818359375,0.1525878757238388,-1.8310545682907104,-0.9460448622703552,73.33333587646484,260685.0,1.0
15175.0302514,296381.71875,295758.125,324013.84375,315084.875,286125.84375,255512.1875,221001.09375,246360.671875,0.0478515625,0.9931640625,0.16943359375,0.2136230319738388,-1.8920897245407104,-0.9460448622703552,73.33333587646484,260686.0,1.0
15175.0383039,296178.25,295137.71875,323246.125,314797.4375,285646.53125,255340.171875,220744.3125,246206.09375,0.048583984375,0.992431640625,0.165283203125,0.2441406100988388,-1.8005369901657104,-0.9155272841453552,73.33333587646484,260687.0,1.0
15175.0383229,296077.03125,294442.5,322125.5625,314643.5625,285034.65625,255227.875,220562.203125,246149.765625,0.0478515625,0.994140625,0.1669921875,0.3356933295726776,-1.7395018339157104,-0.9765624403953552,73.33333587646484,260688.0,1.0
15175.0383959,296199.15625,294604.3125,322164.5625,314812.34375,285110.0,255297.53125,220679.671875,246242.5625,0.049560546875,0.993408203125,0.166015625,0.4272460639476776,-1.7700194120407104,-0.9765624403953552,73.33333587646484,260689.0,1.0
15175.0384039,296395.21875,295432.84375,323346.4375,315090.40625,285793.09375,255490.546875,220955.859375,246371.84375,0.048828125,0.993896484375,0.164794921875,0.2746581733226776,-1.8005369901657104,-0.8850097060203552,73.33333587646484,260690.0,1.0
15175.0384053,296383.6875,295758.21875,324006.25,315080.3125,286118.71875,255530.609375,221001.90625,246353.703125,0.048583984375,0.994384765625,0.166748046875,0.2746581733226776,-1.7700194120407104,-0.8544921278953552,73.33333587646484,260691.0,1.0
15175.0384065,296177.96875,295138.53125,323239.21875,314793.40625,285639.65625,255359.125,220745.65625,246204.828125,0.05078125,0.993896484375,0.163330078125,0.3051757514476776,-1.7395018339157104,-0.8544921278953552,73.33333587646484,260692.0,1.0
15175.0384077,296068.1875,294440.96875,322117.53125,314627.09375,285024.28125,255224.390625,220549.953125,246119.8125,0.05029296875,0.995849609375,0.16357421875,0.3967284858226776,-1.7700194120407104,-0.7934569716453552,73.33333587646484,260693.0,1.0
15175.0384089,296199.625,294612.71875,322165.1875,314803.6875,285107.25,255289.828125,220673.515625,246223.34375,0.050048828125,0.992919921875,0.165283203125,0.4577636420726776,-1.6784666776657104,-0.8850097060203552,73.33333587646484,260694.0,1.0
15175.0384103,296397.65625,295439.375,323347.6875,315088.25,285793.96875,255483.84375,220957.28125,246377.84375,0.048095703125,0.99365234375,0.162353515625,0.3967284858226776,-1.6784666776657104,-0.9765624403953552,73.33333587646484,260695.0,1.0
15175.0614974,296378.5,295751.5,324000.96875,315077.28125,286114.9375,255519.25,220999.3125,246365.671875,0.04931640625,0.994140625,0.164306640625,0.5187987685203552,-1.7089842557907104,-0.9155272841453552,73.33333587646484,260696.0,1.0
15175.0865077,296170.71875,295129.9375,323235.125,314788.46875,285634.9375,255348.578125,220736.453125,246205.28125,0.049072265625,0.995361328125,0.1669921875,0.4577636420726776,-1.5869139432907104,-0.9765624403953552,73.33333587646484,260697.0,1.0
15175.1139977,296064.15625,294437.21875,322118.78125,314625.6875,285025.875,255210.265625,220541.640625,246118.203125,0.04833984375,0.994140625,0.167724609375,0.5493163466453552,-1.5869139432907104,-0.9155272841453552,73.33333587646484,260698.0,1.0
15175.1982909,296195.21875,294606.8125,322160.4375,314804.125,285107.0625,255280.53125,220670.921875,246230.21875,0.04833984375,0.99462890625,0.166259765625,0.5798339247703552,-1.4648436307907104,-0.9155272841453552,73.33333587646484,260699.0,1.0
15175.1982978,296395.21875,295433.21875,323342.9375,315089.25,285791.5625,255465.609375,220952.28125,246377.390625,0.048095703125,0.994384765625,0.168701171875,0.6408690810203552,-1.4953612089157104,-1.0681151151657104,73.33333587646484,260700.0,1.0
15175.198299,296380.03125,295748.5625,323997.9375,315078.96875,286110.9375,255495.828125,220986.171875,246357.984375,0.049072265625,0.99072265625,0.16796875,0.5493163466453552,-1.4953612089157104,-1.0070799589157104,73.33333587646484,260701.0,1.0
15175.1983003,296173.6875,295127.8125,323234.84375,314796.4375,285633.65625,255336.421875,220736.8125,246210.828125,0.04931640625,0.991943359375,0.16748046875,0.5493163466453552,-1.5258787870407104,-1.0070799589157104,73.33333587646484,260702.0,1.0
15175.1983015,296071.125,294437.65625,322118.4375,314635.875,285021.5,255211.25,220541.453125,246128.65625,0.049072265625,0.995849609375,0.166748046875,0.5493163466453552,-1.5869139432907104,-1.0070799589157104,73.33333587646484,260703.0,1.0
15175.1983027,296204.4375,294611.84375,322168.9375,314810.46875,285109.3125,255299.3125,220674.140625,246231.203125,0.050048828125,0.995849609375,0.16552734375,0.5798339247703552,-1.5563963651657104,-1.0375975370407104,73.33333587646484,260704.0,1.0
15175.1983039,296399.78125,295434.65625,323345.53125,315091.75,285791.28125,255482.953125,220949.59375,246379.171875,0.04833984375,0.9951171875,0.16552734375,0.5493163466453552,-1.6174315214157104,-1.0681151151657104,73.33333587646484,260705.0,1.0
15175.1983052,296387.8125,295756.875,324008.03125,315082.53125,286117.625,255502.625,220979.015625,246361.921875,0.050048828125,0.993896484375,0.1630859375,0.6103515028953552,-1.6174315214157104,-0.9765624403953552,73.33333587646484,260706.0,1.0
15175.1983064,296185.03125,295135.75,323246.03125,314798.21875,285639.84375,255337.75,220729.828125,246208.328125,0.05029296875,0.9931640625,0.163330078125,0.6103515028953552,-1.5563963651657104,-1.0681151151657104,73.33333587646484,260707.0,1.0
15175.1983076,296078.1875,294435.0625,322123.0,314639.34375,285026.6875,255221.078125,220553.34375,246145.46875,0.049560546875,0.99560546875,0.161865234375,0.6408690810203552,-1.5258787870407104,-1.0681151151657104,73.33333587646484,260708.0,1.0
15175.1983088,296209.625,294610.40625,322172.25,314813.6875,285109.5625,255301.015625,220675.390625,246234.703125,0.04931640625,0.9951171875,0.159912109375,0.7324218153953552,-1.5258787870407104,-1.0375975370407104,73.33333587646484,260709.0,1.0
15175.19831,296402.5625,295433.3125,323350.90625,315094.96875,285794.96875,255485.71875,220957.734375,246380.96875,0.04931640625,0.993896484375,0.16064453125,0.5798339247703552,-1.4953612089157104,-1.0375975370407104,73.33333587646484,260710.0,1.0
15175.1983112,296387.90625,295747.84375,324007.875,315085.3125,286117.8125,255504.5,220988.484375,246365.40625,0.04931640625,0.99560546875,0.16259765625,0.6103515028953552,-1.4343260526657104,-1.0070799589157104,73.33333587646484,260711.0,1.0
15175.1983124,296183.78125,295129.5,323245.9375,314795.46875,285635.625,255342.5,220725.28125,246197.765625,0.050537109375,0.996337890625,0.163818359375,0.6713866591453552,-1.4953612089157104,-0.9460448622703552,73.33333587646484,260712.0,1.0
15175.2215081,296073.375,294429.1875,322117.4375,314629.6875,285017.65625,255210.265625,220531.171875,246117.03125,0.046875,0.996826171875,0.161865234375,0.6103515028953552,-1.4343260526657104,-1.0375975370407104,73.33333587646484,260713.0,1.0
15175.2665051,296210.34375,294605.75,322170.09375,314812.71875,285109.65625,255286.96875,220667.421875,246237.296875,0.0478515625,0.99755859375,0.165771484375,0.4882812201976776,-1.3732908964157104,-0.9765624403953552,73.33333587646484,260714.0,1.0
15175.292144,296406.3125,295432.9375,323348.5625,315093.71875,285793.1875,255482.0625,220948.25,246378.640625,0.04833984375,0.996337890625,0.166259765625,0.4577636420726776,-1.4648436307907104,-0.9460448622703552,73.33333587646484,260715.0,1.0
15175.2921489,296388.25,295754.625,324004.09375,315084.34375,286117.90625,255516.84375,220993.578125,246363.265625,0.048828125,0.995361328125,0.1669921875,0.3662109076976776,-1.3427733182907104,-0.8544921278953552,73.33333587646484,260716.0,1.0
15175.3164889,296179.59375,295132.71875,323239.78125,314797.78125,285641.4375,255356.890625,220742.796875,246211.8125,0.050048828125,0.9970703125,0.163330078125,0.2746581733226776,-1.4038084745407104,-0.8544921278953552,73.33333587646484,260717.0,1.0
15175.3752261,296072.375,294442.75,322127.09375,314638.625,285035.625,255237.625,220558.796875,246140.90625,0.050048828125,0.99609375,0.16357421875,0.3051757514476776,-1.3122557401657104,-0.8544921278953552,73.33333587646484,260718.0,1.0
15175.4002376,296203.625,294612.90625,322171.90625,314809.59375,285117.4375,255324.171875,220683.078125,246232.90625,0.049560546875,0.995361328125,0.166259765625,0.2441406100988388,-1.3732908964157104,-0.8544921278953552,73.33333587646484,260719.0,1.0
15175.4273502,296400.875,295434.28125,323346.875,315086.65625,285796.03125,255493.859375,220953.078125,246371.484375,0.05078125,0.997314453125,0.166748046875,0.2136230319738388,-1.3122557401657104,-0.8850097060203552,73.33333587646484,260720.0,1.0
15175.4273658,296386.5625,295751.40625,324004.71875,315079.78125,286120.03125,255522.03125,220991.625,246359.859375,0.0498046875,0.99365234375,0.1640625,0.1525878757238388,-1.2512205839157104,-0.8544921278953552,73.33333587646484,260721.0,1.0
15175.4273671,296181.0,295135.5625,323244.3125,314794.125,285643.3125,255361.546875,220739.40625,246208.59375,0.047119140625,0.994384765625,0.162109375,0.1220703050494194,-1.2207030057907104,-0.8544921278953552,73.33333587646484,260722.0,1.0
15175.4273698,296076.5,294443.375,322127.71875,314636.84375,285036.0625,255236.90625,220551.296875,246139.125,0.046630859375,0.9931640625,0.165771484375,0.1220703050494194,-1.2207030057907104,-0.8850097060203552,73.33333587646484,260723.0,1.0
15175.4516405,296205.875,294610.65625,322170.375,314810.84375,285115.5625,255302.890625,220671.625,246236.390625,0.049072265625,0.994384765625,0.1650390625,0.1220703050494194,-1.1596678495407104,-1.0375975370407104,73.33333587646484,260724.0,1.0
15175.4516477,296205.875,294610.65625,322170.375,314810.84375,285115.5625,255302.890625,220671.625,246236.390625,0.049072265625,0.994384765625,0.1650390625,0.1220703050494194,-1.1596678495407104,-1.0375975370407104,73.33333587646484,260725.0,0.0
15175.4516479,296205.875,294610.65625,322170.375,314810.84375,285115.5625,255302.890625,220671.625,246236.390625,0.049072265625,0.994384765625,0.1650390625,0.1220703050494194,-1.1596678495407104,-1.0375975370407104,73.33333587646484,260726.0,0.0
