Time,FZ,C3,CZ,C4,PZ,PO7,OZ,PO8,AccX,AccY,AccZ,Gyro1,Gyro2,Gyro3,Battery,Counter,Validation
14837.265065,294295.875,294775.53125,328231.0,322292.59375,284998.25,255812.953125,222055.375,246224.5,0.039794921875,0.990234375,0.06494140625,-0.1525878757238388,-1.3122557401657104,-1.3122557401657104,73.33333587646484,176233.0,1.0
14837.2650741,294295.875,294775.53125,328231.0,322292.59375,284998.25,255812.953125,222055.375,246224.5,0.039794921875,0.990234375,0.06494140625,-0.1525878757238388,-1.3122557401657104,-1.3122557401657104,73.33333587646484,176234.0,0.0
14837.2650743,294295.875,294775.53125,328231.0,322292.59375,284998.25,255812.953125,222055.375,246224.5,0.039794921875,0.990234375,0.06494140625,-0.1525878757238388,-1.3122557401657104,-1.3122557401657104,73.33333587646484,176235.0,0.0
14837.2650745,294295.875,294775.53125,328231.0,322292.59375,284998.25,255812.953125,222055.375,246224.5,0.039794921875,0.990234375,0.06494140625,-0.1525878757238388,-1.3122557401657104,-1.3122557401657104,73.33333587646484,176236.0,0.0
14837.2650747,294295.875,294775.53125,328231.0,322292.59375,284998.25,255812.953125,222055.375,246224.5,0.039794921875,0.990234375,0.06494140625,-0.1525878757238388,-1.3122557401657104,-1.3122557401657104,73.33333587646484,176237.0,0.0
14837.2650749,294295.875,294775.53125,328231.0,322292.59375,284998.25,255812.953125,222055.375,246224.5,0.039794921875,0.990234375,0.06494140625,-0.1525878757238388,-1.3122557401657104,-1.3122557401657104,73.33333587646484,176238.0,0.0
14837.2650751,294295.875,294775.53125,328231.0,322292.59375,284998.25,255812.953125,222055.375,246224.5,0.039794921875,0.990234375,0.06494140625,-0.1525878757238388,-1.3122557401657104,-1.3122557401657104,73.33333587646484,176239.0,0.0
14837.2650752,294295.875,294775.53125,328231.0,322292.59375,284998.25,255812.953125,222055.375,246224.5,0.039794921875,0.990234375,0.06494140625,-0.1525878757238388,-1.3122557401657104,-1.3122557401657104,73.33333587646484,176240.0,0.0
14837.2650754,294295.875,294775.53125,328231.0,322292.59375,284998.25,255812.953125,222055.375,246224.5,0.039794921875,0.990234375,0.06494140625,-0.1525878757238388,-1.3122557401657104,-1.3122557401657104,73.33333587646484,176241.0,0.0
14837.2650756,294295.875,294775.53125,328231.0,322292.59375,284998.25,255812.953125,222055.375,246224.5,0.039794921875,0.990234375,0.06494140625,-0.1525878757238388,-1.3122557401657104,-1.3122557401657104,73.33333587646484,176242.0,0.0
14837.2650758,294295.875,294775.53125,328231.0,322292.59375,284998.25,255812.953125,222055.375,246224.5,0.039794921875,0.990234375,0.06494140625,-0.1525878757238388,-1.3122557401657104,-1.3122557401657104,73.33333587646484,176243.0,0.0
14837.265076,294295.875,294775.53125,328231.0,322292.59375,284998.25,255812.953125,222055.375,246224.5,0.039794921875,0.990234375,0.06494140625,-0.1525878757238388,-1.3122557401657104,-1.3122557401657104,73.33333587646484,176244.0,0.0
14837.2650761,294295.875,294775.53125,328231.0,322292.59375,284998.25,255812.953125,222055.375,246224.5,0.039794921875,0.990234375,0.06494140625,-0.1525878757238388,-1.3122557401657104,-1.3122557401657104,73.33333587646484,176245.0,0.0
14837.2650763,294295.875,294775.53125,328231.0,322292.59375,284998.25,255812.953125,222055.375,246224.5,0.039794921875,0.990234375,0.06494140625,-0.1525878757238388,-1.3122557401657104,-1.3122557401657104,73.33333587646484,176246.0,0.0
14837.2650765,294295.875,294775.53125,328231.0,322292.59375,284998.25,255812.953125,222055.375,246224.5,0.039794921875,0.990234375,0.06494140625,-0.1525878757238388,-1.3122557401657104,-1.3122557401657104,73.33333587646484,176247.0,0.0
14837.2650771,294295.875,294775.53125,328231.0,322292.59375,284998.25,255812.953125,222055.375,246224.5,0.039794921875,0.990234375,0.06494140625,-0.1525878757238388,-1.3122557401657104,-1.3122557401657104,73.33333587646484,176248.0,0.0
14837.2650773,294295.875,294775.53125,328231.0,322292.59375,284998.25,255812.953125,222055.375,246224.5,0.039794921875,0.990234375,0.06494140625,-0.1525878757238388,-1.3122557401657104,-1.3122557401657104,73.33333587646484,176249.0,0.0
14837.2650779,294295.875,294775.53125,328231.0,322292.59375,284998.25,255812.953125,222055.375,246224.5,0.039794921875,0.990234375,0.06494140625,-0.1525878757238388,-1.3122557401657104,-1.3122557401657104,73.33333587646484,176250.0,0.0
14837.2650781,294295.875,294775.53125,328231.0,322292.59375,284998.25,255812.953125,222055.375,246224.5,0.039794921875,0.990234375,0.06494140625,-0.1525878757238388,-1.3122557401657104,-1.3122557401657104,73.33333587646484,176251.0,0.0
14837.2650784,294295.875,294775.53125,328231.0,322292.59375,284998.25,255812.953125,222055.375,246224.5,0.039794921875,0.990234375,0.06494140625,-0.1525878757238388,-1.3122557401657104,-1.3122557401657104,73.33333587646484,176252.0,0.0
14837.2650787,294295.875,294775.53125,328231.0,322292.59375,284998.25,255812.953125,222055.375,246224.5,0.039794921875,0.990234375,0.06494140625,-0.1525878757238388,-1.3122557401657104,-1.3122557401657104,73.33333587646484,176253.0,0.0
14837.2650789,294295.875,294775.53125,328231.0,322292.59375,284998.25,255812.953125,222055.375,246224.5,0.039794921875,0.990234375,0.06494140625,-0.1525878757238388,-1.3122557401657104,-1.3122557401657104,73.33333587646484,176254.0,0.0
14837.2650791,294295.875,294775.53125,328231.0,322292.59375,284998.25,255812.953125,222055.375,246224.5,0.039794921875,0.990234375,0.06494140625,-0.1525878757238388,-1.3122557401657104,-1.3122557401657104,73.33333587646484,176255.0,0.0
14837.2650792,294295.875,294775.53125,328231.0,322292.59375,284998.25,255812.953125,222055.375,246224.5,0.039794921875,0.990234375,0.06494140625,-0.1525878757238388,-1.3122557401657104,-1.3122557401657104,73.33333587646484,176256.0,0.0
14837.2650794,294295.875,294775.53125,328231.0,322292.59375,284998.25,255812.953125,222055.375,246224.5,0.039794921875,0.990234375,0.06494140625,-0.1525878757238388,-1.3122557401657104,-1.3122557401657104,73.33333587646484,176257.0,0.0
14837.2650796,294287.375,294760.4375,328205.15625,322288.75,284984.65625,255809.828125,222051.0,246222.890625,0.03515625,0.990234375,0.0673828125,0.03051757626235485,-1.8005369901657104,-1.1291502714157104,73.33333587646484,176258.0,1.0
14837.265081,294328.15625,295025.78125,328416.875,322316.5625,285119.5,255872.59375,222118.0625,246246.765625,0.034423828125,0.9921875,0.0654296875,0.03051757626235485,-1.8920897245407104,-1.0070799589157104,73.33333587646484,176259.0,1.0
14837.2650822,294337.71875,295321.71875,328607.21875,322295.28125,285255.5625,255925.515625,222161.953125,246243.015625,0.03564453125,0.989990234375,0.067138671875,-0.0610351525247097,-1.8005369901657104,-0.9155272841453552,73.33333587646484,176260.0,1.0
14837.3099054,294305.4375,295249.46875,328526.125,322259.25,285216.40625,255902.625,222130.578125,246226.203125,0.0380859375,0.989013671875,0.064453125,-0.0610351525247097,-1.7395018339157104,-1.0070799589157104,73.33333587646484,176261.0,1.0
14837.3099214,294278.0625,294912.59375,328284.1875,322255.9375,285058.875,255838.4375,222067.453125,246214.484375,0.03857421875,0.989501953125,0.06689453125,0.0,-1.6174315214157104,-0.9765624403953552,73.33333587646484,176262.0,1.0
14837.3099229,294297.9375,294774.71875,328215.96875,322293.03125,285001.5625,255819.03125,222060.5625,246225.125,0.035888671875,0.9892578125,0.069091796875,-0.03051757626235485,-1.6174315214157104,-0.9765624403953552,73.33333587646484,176263.0,1.0
14837.3099244,294337.71875,295043.9375,328431.09375,322321.1875,285135.84375,255884.65625,222132.90625,246250.34375,0.03564453125,0.98974609375,0.06884765625,0.03051757626235485,-1.6174315214157104,-0.9765624403953552,73.33333587646484,176264.0,1.0
14837.3099257,294335.75,295331.8125,328619.9375,322295.1875,285268.71875,255942.328125,222180.1875,246248.015625,0.03662109375,0.98876953125,0.064453125,-0.0915527269244194,-1.4953612089157104,-1.0070799589157104,73.33333587646484,176265.0,1.0
14837.3099269,294292.8125,295242.0625,328525.5,322249.5,285215.5,255916.21875,222144.515625,246229.15625,0.037109375,0.98974609375,0.06884765625,-0.0915527269244194,-1.4953612089157104,-0.8850097060203552,73.33333587646484,176266.0,1.0
14837.3099286,294253.5,294884.875,328261.03125,322233.59375,285037.40625,255828.515625,222064.40625,246208.328125,0.03759765625,0.98779296875,0.06884765625,-0.0915527269244194,-1.4953612089157104,-0.8850097060203552,73.33333587646484,176267.0,1.0
14837.3357102,294262.78125,294732.25,328174.0625,322262.90625,284963.5625,255788.453125,222039.921875,246204.390625,0.037109375,0.9892578125,0.068359375,-0.1525878757238388,-1.4953612089157104,-1.0070799589157104,73.33333587646484,176268.0,1.0
14837.3618817,294262.78125,294732.25,328174.0625,322262.90625,284963.5625,255788.453125,222039.921875,246204.390625,0.037109375,0.9892578125,0.068359375,-0.1525878757238388,-1.4953612089157104,-1.0070799589157104,73.33333587646484,176269.0,0.0
14837.3618838,294262.78125,294732.25,328174.0625,322262.90625,284963.5625,255788.453125,222039.921875,246204.390625,0.037109375,0.9892578125,0.068359375,-0.1525878757238388,-1.4953612089157104,-1.0070799589157104,73.33333587646484,176270.0,0.0
14837.361884,294262.78125,294732.25,328174.0625,322262.90625,284963.5625,255788.453125,222039.921875,246204.390625,0.037109375,0.9892578125,0.068359375,-0.1525878757238388,-1.4953612089157104,-1.0070799589157104,73.33333587646484,176271.0,0.0
14837.3618842,294262.78125,294732.25,328174.0625,322262.90625,284963.5625,255788.453125,222039.921875,246204.390625,0.037109375,0.9892578125,0.068359375,-0.1525878757238388,-1.4953612089157104,-1.0070799589157104,73.33333587646484,176272.0,0.0
14837.3618844,294262.78125,294732.25,328174.0625,322262.90625,284963.5625,255788.453125,222039.921875,246204.390625,0.037109375,0.9892578125,0.068359375,-0.1525878757238388,-1.4953612089157104,-1.0070799589157104,73.33333587646484,176273.0,0.0
14837.3618846,294262.78125,294732.25,328174.0625,322262.90625,284963.5625,255788.453125,222039.921875,246204.390625,0.037109375,0.9892578125,0.068359375,-0.1525878757238388,-1.4953612089157104,-1.0070799589157104,73.33333587646484,176274.0,0.0
14837.3618848,294262.78125,294732.25,328174.0625,322262.90625,284963.5625,255788.453125,222039.921875,246204.390625,0.037109375,0.9892578125,0.068359375,-0.1525878757238388,-1.4953612089157104,-1.0070799589157104,73.33333587646484,176275.0,0.0
14837.361885,294262.78125,294732.25,328174.0625,322262.90625,284963.5625,255788.453125,222039.921875,246204.390625,0.037109375,0.9892578125,0.068359375,-0.1525878757238388,-1.4953612089157104,-1.0070799589157104,73.33333587646484,176276.0,0.0
14837.3618852,294262.78125,294732.25,328174.0625,322262.90625,284963.5625,255788.453125,222039.921875,246204.390625,0.037109375,0.9892578125,0.068359375,-0.1525878757238388,-1.4953612089157104,-1.0070799589157104,73.33333587646484,176277.0,0.0
14837.3618853,294262.78125,294732.25,328174.0625,322262.90625,284963.5625,255788.453125,222039.921875,246204.390625,0.037109375,0.9892578125,0.068359375,-0.1525878757238388,-1.4953612089157104,-1.0070799589157104,73.33333587646484,176278.0,0.0
14837.3618855,294262.78125,294732.25,328174.0625,322262.90625,284963.5625,255788.453125,222039.921875,246204.390625,0.037109375,0.9892578125,0.068359375,-0.1525878757238388,-1.4953612089157104,-1.0070799589157104,73.33333587646484,176279.0,0.0
14837.3618857,294262.78125,294732.25,328174.0625,322262.90625,284963.5625,255788.453125,222039.921875,246204.390625,0.037109375,0.9892578125,0.068359375,-0.1525878757238388,-1.4953612089157104,-1.0070799589157104,73.33333587646484,176280.0,0.0
14837.3618859,294262.78125,294732.25,328174.0625,322262.90625,284963.5625,255788.453125,222039.921875,246204.390625,0.037109375,0.9892578125,0.068359375,-0.1525878757238388,-1.4953612089157104,-1.0070799589157104,73.33333587646484,176281.0,0.0
14837.361886,294262.78125,294732.25,328174.0625,322262.90625,284963.5625,255788.453125,222039.921875,246204.390625,0.037109375,0.9892578125,0.068359375,-0.1525878757238388,-1.4953612089157104,-1.0070799589157104,73.33333587646484,176282.0,0.0
14837.3618863,294262.78125,294732.25,328174.0625,322262.90625,284963.5625,255788.453125,222039.921875,246204.390625,0.037109375,0.9892578125,0.068359375,-0.1525878757238388,-1.4953612089157104,-1.0070799589157104,73.33333587646484,176283.0,0.0
14837.3618864,294262.78125,294732.25,328174.0625,322262.90625,284963.5625,255788.453125,222039.921875,246204.390625,0.037109375,0.9892578125,0.068359375,-0.1525878757238388,-1.4953612089157104,-1.0070799589157104,73.33333587646484,176284.0,0.0
14837.3618866,294262.78125,294732.25,328174.0625,322262.90625,284963.5625,255788.453125,222039.921875,246204.390625,0.037109375,0.9892578125,0.068359375,-0.1525878757238388,-1.4953612089157104,-1.0070799589157104,73.33333587646484,176285.0,0.0
14837.3618868,294262.78125,294732.25,328174.0625,322262.90625,284963.5625,255788.453125,222039.921875,246204.390625,0.037109375,0.9892578125,0.068359375,-0.1525878757238388,-1.4953612089157104,-1.0070799589157104,73.33333587646484,176286.0,0.0
14837.3618871,294262.78125,294732.25,328174.0625,322262.90625,284963.5625,255788.453125,222039.921875,246204.390625,0.037109375,0.9892578125,0.068359375,-0.1525878757238388,-1.4953612089157104,-1.0070799589157104,73.33333587646484,176287.0,0.0
14837.3618873,294262.78125,294732.25,328174.0625,322262.90625,284963.5625,255788.453125,222039.921875,246204.390625,0.037109375,0.9892578125,0.068359375,-0.1525878757238388,-1.4953612089157104,-1.0070799589157104,73.33333587646484,176288.0,0.0
14837.3618874,294262.78125,294732.25,328174.0625,322262.90625,284963.5625,255788.453125,222039.921875,246204.390625,0.037109375,0.9892578125,0.068359375,-0.1525878757238388,-1.4953612089157104,-1.0070799589157104,73.33333587646484,176289.0,0.0
14837.3618876,294332.4375,295308.9375,328595.15625,322289.375,285250.125,255931.234375,222162.3125,246241.484375,0.03955078125,0.98974609375,0.066650390625,-0.3356933295726776,-1.3122557401657104,-0.6713866591453552,73.33333587646484,176290.0,1.0
14837.3819088,294296.21875,295232.21875,328510.5625,322246.28125,285204.59375,255903.53125,222126.90625,246219.59375,0.03955078125,0.989501953125,0.071533203125,-0.2441406100988388,-1.2207030057907104,-0.6408690810203552,73.33333587646484,176291.0,1.0
14837.384394,294263.9375,294892.03125,328259.4375,322234.75,285036.875,255819.921875,222050.46875,246203.9375,0.038818359375,0.99169921875,0.0732421875,-0.1525878757238388,-1.2512205839157104,-0.5187987685203552,73.33333587646484,176292.0,1.0
14837.3886589,294292.65625,294771.0625,328202.84375,322285.0,284994.84375,255819.21875,222065.84375,246240.859375,0.040771484375,0.98876953125,0.07373046875,-0.1525878757238388,-1.1901854276657104,-0.6408690810203552,73.33333587646484,176293.0,1.0
14837.3886623,294333.40625,295037.78125,328418.75,322313.78125,285129.5,255885.203125,222125.390625,246247.84375,0.041015625,0.98876953125,0.07177734375,-0.0610351525247097,-1.1596678495407104,-0.4882812201976776,73.33333587646484,176294.0,1.0
14837.3886636,294336.8125,295329.9375,328613.84375,322290.34375,285267.1875,255935.359375,222167.046875,246240.0625,0.04150390625,0.98828125,0.0703125,-0.0915527269244194,-1.0681151151657104,-0.4577636420726776,73.33333587646484,176295.0,1.0
14837.3886648,294295.96875,295245.46875,328523.0,322245.03125,285215.59375,255899.6875,222125.921875,246215.921875,0.04052734375,0.987548828125,0.071533203125,0.0,-1.0375975370407104,-0.4577636420726776,73.33333587646484,176296.0,1.0
14837.3923794,294265.8125,294900.34375,328273.90625,322236.8125,285050.8125,255830.921875,222055.03125,246204.03125,0.041015625,0.987060546875,0.069580078125,0.0915527269244194,-1.0681151151657104,-0.4272460639476776,73.33333587646484,176297.0,1.0
14837.3923835,294284.5,294764.90625,328199.25,322279.625,284992.0,255816.078125,222050.90625,246223.078125,0.0419921875,0.989501953125,0.066650390625,0.0610351525247097,-1.0070799589157104,-0.4272460639476776,73.33333587646484,176298.0,1.0
14837.3923849,294325.0,295028.5625,328404.1875,322308.59375,285121.0,255877.859375,222116.625,246243.90625,0.04150390625,0.985595703125,0.068359375,0.1220703050494194,-1.0070799589157104,-0.4577636420726776,73.33333587646484,176299.0,1.0
14837.3923861,294329.84375,295321.625,328600.53125,322282.3125,285253.6875,255933.125,222163.5625,246239.703125,0.0400390625,0.98681640625,0.0712890625,0.0,-0.9460448622703552,-0.5187987685203552,73.33333587646484,176300.0,1.0
14837.3960766,294293.1875,295244.03125,328515.21875,322242.0,285208.8125,255903.53125,222128.515625,246219.765625,0.03857421875,0.986328125,0.0693359375,0.03051757626235485,-0.8850097060203552,-0.5798339247703552,73.33333587646484,176301.0,1.0
14837.3960788,294264.3125,294902.125,328262.75,322236.0,285045.71875,255832.09375,222059.3125,246207.0625,0.04052734375,0.989013671875,0.0673828125,0.0915527269244194,-0.8239745497703552,-0.7629393935203552,73.33333587646484,176302.0,1.0
14837.3960801,294283.4375,294756.75,328183.78125,322274.71875,284985.75,255820.5625,222056.09375,246225.390625,0.04052734375,0.991455078125,0.069580078125,0.1525878757238388,-0.9155272841453552,-0.9155272841453552,73.33333587646484,176303.0,1.0
14837.3960821,294283.4375,294756.75,328183.78125,322274.71875,284985.75,255820.5625,222056.09375,246225.390625,0.04052734375,0.991455078125,0.069580078125,0.1525878757238388,-0.9155272841453552,-0.9155272841453552,73.33333587646484,176304.0,0.0
14837.3960823,294283.4375,294756.75,328183.78125,322274.71875,284985.75,255820.5625,222056.09375,246225.390625,0.04052734375,0.991455078125,0.069580078125,0.1525878757238388,-0.9155272841453552,-0.9155272841453552,73.33333587646484,176305.0,0.0
14837.3960825,294283.4375,294756.75,328183.78125,322274.71875,284985.75,255820.5625,222056.09375,246225.390625,0.04052734375,0.991455078125,0.069580078125,0.1525878757238388,-0.9155272841453552,-0.9155272841453552,73.33333587646484,176306.0,0.0
14837.3960827,294283.4375,294756.75,328183.78125,322274.71875,284985.75,255820.5625,222056.09375,246225.390625,0.04052734375,0.991455078125,0.069580078125,0.1525878757238388,-0.9155272841453552,-0.9155272841453552,73.33333587646484,176307.0,0.0
14837.3960829,294283.4375,294756.75,328183.78125,322274.71875,284985.75,255820.5625,222056.09375,246225.390625,0.04052734375,0.991455078125,0.069580078125,0.1525878757238388,-0.9155272841453552,-0.9155272841453552,73.33333587646484,176308.0,0.0
14837.3960831,294283.4375,294756.75,328183.78125,322274.71875,284985.75,255820.5625,222056.09375,246225.390625,0.04052734375,0.991455078125,0.069580078125,0.1525878757238388,-0.9155272841453552,-0.9155272841453552,73.33333587646484,176309.0,0.0
14837.3960832,294283.4375,294756.75,328183.78125,322274.71875,284985.75,255820.5625,222056.09375,246225.390625,0.04052734375,0.991455078125,0.069580078125,0.1525878757238388,-0.9155272841453552,-0.9155272841453552,73.33333587646484,176310.0,0.0
14837.3960834,294283.4375,294756.75,328183.78125,322274.71875,284985.75,255820.5625,222056.09375,246225.390625,0.04052734375,0.991455078125,0.069580078125,0.1525878757238388,-0.9155272841453552,-0.9155272841453552,73.33333587646484,176311.0,0.0
14837.3960836,294283.4375,294756.75,328183.78125,322274.71875,284985.75,255820.5625,222056.09375,246225.390625,0.04052734375,0.991455078125,0.069580078125,0.1525878757238388,-0.9155272841453552,-0.9155272841453552,73.33333587646484,176312.0,0.0
14837.3960838,294283.4375,294756.75,328183.78125,322274.71875,284985.75,255820.5625,222056.09375,246225.390625,0.04052734375,0.991455078125,0.069580078125,0.1525878757238388,-0.9155272841453552,-0.9155272841453552,73.33333587646484,176313.0,0.0
14837.396084,294283.4375,294756.75,328183.78125,322274.71875,284985.75,255820.5625,222056.09375,246225.390625,0.04052734375,0.991455078125,0.069580078125,0.1525878757238388,-0.9155272841453552,-0.9155272841453552,73.33333587646484,176314.0,0.0
14837.3960842,294283.4375,294756.75,328183.78125,322274.71875,284985.75,255820.5625,222056.09375,246225.390625,0.04052734375,0.991455078125,0.069580078125,0.1525878757238388,-0.9155272841453552,-0.9155272841453552,73.33333587646484,176315.0,0.0
14837.3960844,294305.78125,295255.65625,328515.3125,322245.125,285219.4375,255898.15625,222129.953125,246223.609375,0.03857421875,0.98876953125,0.071533203125,-0.3356933295726776,-1.3122557401657104,-1.0986326932907104,73.33333587646484,176316.0,1.0
14837.3981755,294275.40625,294917.15625,328273.1875,322242.96875,285061.46875,255837.453125,222072.453125,246216.015625,0.040771484375,0.988525390625,0.073974609375,-0.2746581733226776,-1.3122557401657104,-1.0375975370407104,73.33333587646484,176317.0,1.0
14837.4006448,294297.65625,294774.28125,328194.53125,322282.125,284998.25,255818.234375,222065.671875,246230.765625,0.037353515625,0.98876953125,0.07421875,-0.2746581733226776,-1.3427733182907104,-1.0681151151657104,73.33333587646484,176318.0,1.0
14837.4031689,294342.34375,295047.78125,328410.34375,322312.625,285134.34375,255888.765625,222135.40625,246252.578125,0.036865234375,0.9892578125,0.072509765625,-0.2136230319738388,-1.4343260526657104,-0.8544921278953552,73.33333587646484,176319.0,1.0
14837.4282318,294345.125,295338.0,328598.28125,322289.71875,285265.40625,255935.625,222175.546875,246245.25,0.036865234375,0.988525390625,0.075927734375,-0.1525878757238388,-1.4343260526657104,-0.7934569716453552,73.33333587646484,176320.0,1.0
14837.4538092,294306.40625,295265.9375,328520.875,322249.6875,285222.5625,255898.78125,222138.984375,246227.09375,0.038330078125,0.989990234375,0.0732421875,-0.0610351525247097,-1.4953612089157104,-0.8544921278953552,73.33333587646484,176321.0,1.0
14837.4538145,294275.125,294920.1875,328271.3125,322245.03125,285057.25,255831.28125,222073.796875,246221.015625,0.03857421875,0.99072265625,0.0732421875,-0.03051757626235485,-1.4953612089157104,-0.8239745497703552,73.33333587646484,176322.0,1.0
14837.5144643,294297.84375,294783.84375,328201.40625,322286.15625,285000.75,255826.09375,222069.234375,246228.703125,0.03955078125,0.98974609375,0.07275390625,0.0,-1.6174315214157104,-0.6103515028953552,73.33333587646484,176323.0,1.0
14837.5144723,294337.34375,295051.71875,328417.6875,322314.21875,285136.65625,255891.453125,222135.046875,246251.0625,0.0400390625,0.990966796875,0.0712890625,-0.03051757626235485,-1.6174315214157104,-0.7019042372703552,73.33333587646484,176324.0,1.0
14837.5144737,294342.1875,295345.78125,328613.5,322293.03125,285271.84375,255941.078125,222178.046875,246252.21875,0.040283203125,0.98828125,0.06982421875,0.0610351525247097,-1.5563963651657104,-0.6713866591453552,73.33333587646484,176325.0,1.0
14837.5144749,294302.40625,295264.875,328526.21875,322250.125,285222.5,255898.875,222133.4375,246221.109375,0.0390625,0.98779296875,0.07421875,0.0610351525247097,-1.5869139432907104,-0.6408690810203552,73.33333587646484,176326.0,1.0
14837.5144761,294272.0,294922.625,328274.46875,322244.59375,285058.53125,255833.4375,222069.59375,246210.640625,0.038330078125,0.988525390625,0.0732421875,0.1831054538488388,-1.6479490995407104,-0.5798339247703552,73.33333587646484,176327.0,1.0
14837.5144773,294292.65625,294784.65625,328199.71875,322284.375,285000.9375,255831.015625,222071.921875,246231.65625,0.03857421875,0.988037109375,0.07080078125,0.0915527269244194,-1.6174315214157104,-0.6713866591453552,73.33333587646484,176328.0,1.0
14837.5144785,294330.75,295049.375,328413.21875,322309.84375,285135.125,255885.734375,222134.328125,246250.34375,0.03857421875,0.98779296875,0.072021484375,0.1220703050494194,-1.5258787870407104,-0.7019042372703552,73.33333587646484,176329.0,1.0
14837.5144798,294336.0,295339.96875,328607.6875,322289.90625,285270.5,255933.203125,222175.90625,246251.234375,0.0390625,0.98583984375,0.072021484375,0.2441406100988388,-1.6479490995407104,-0.7934569716453552,73.33333587646484,176330.0,1.0
14837.5382181,294307.3125,295273.1875,328532.03125,322258.0,285234.46875,255911.125,222149.703125,246240.953125,0.039794921875,0.988525390625,0.075439453125,0.3662109076976776,-1.6174315214157104,-0.7934569716453552,73.33333587646484,176331.0,1.0
14837.5632331,294280.21875,294939.875,328292.59375,322250.46875,285074.6875,255849.515625,222078.71875,246215.46875,0.041015625,0.988037109375,0.076904296875,0.3967284858226776,-1.6174315214157104,-0.8544921278953552,73.33333587646484,176332.0,1.0
14837.6326607,294296.84375,294789.03125,328219.1875,322287.3125,285012.28125,255824.125,222063.15625,246225.390625,0.042724609375,0.988037109375,0.074951171875,0.3967284858226776,-1.6174315214157104,-0.9460448622703552,73.33333587646484,176333.0,1.0
14837.6326721,294332.34375,295045.625,328422.5,322309.40625,285136.125,255875.890625,222120.828125,246244.890625,0.044189453125,0.989501953125,0.07470703125,0.4272460639476776,-1.5869139432907104,-0.9765624403953552,73.33333587646484,176334.0,1.0
14837.6326735,294332.78125,295332.09375,328609.8125,322282.75,285265.03125,255927.125,222166.96875,246242.296875,0.0439453125,0.989013671875,0.072265625,0.3051757514476776,-1.5563963651657104,-0.8850097060203552,73.33333587646484,176335.0,1.0
14837.6326747,294297.03125,295256.09375,328529.625,322244.40625,285219.71875,255901.640625,222132.359375,246219.3125,0.04541015625,0.989013671875,0.073486328125,0.3967284858226776,-1.4953612089157104,-0.9460448622703552,73.33333587646484,176336.0,1.0
14837.632676,294266.90625,294908.5625,328278.46875,322236.34375,285051.8125,255827.0,222057.078125,246206.09375,0.042724609375,0.98681640625,0.071533203125,0.4577636420726776,-1.4648436307907104,-1.0681151151657104,73.33333587646484,176337.0,1.0
14837.6592939,294284.875,294763.28125,328197.65625,322274.8125,284986.8125,255814.65625,222053.6875,246220.65625,0.041748046875,0.987060546875,0.07275390625,0.5493163466453552,-1.4038084745407104,-1.0681151151657104,73.33333587646484,176338.0,1.0
14837.659301,294324.9375,295024.8125,328406.5,322304.65625,285118.78125,255881.0,222124.3125,246239.796875,0.042236328125,0.98779296875,0.0703125,0.6713866591453552,-1.4038084745407104,-1.0681151151657104,73.33333587646484,176339.0,1.0
14837.6593024,294332.15625,295320.75,328595.0625,322283.90625,285253.34375,255933.5625,222172.234375,246238.984375,0.041748046875,0.989990234375,0.070556640625,0.7019042372703552,-1.3732908964157104,-1.0681151151657104,73.33333587646484,176340.0,1.0
14837.6593036,294293.375,295251.71875,328513.78125,322241.09375,285209.71875,255906.390625,222131.296875,246215.109375,0.039794921875,0.98828125,0.070556640625,0.7019042372703552,-1.4038084745407104,-0.9765624403953552,73.33333587646484,176341.0,1.0
14837.6593048,294261.28125,294906.0625,328275.09375,322235.5625,285050.28125,255828.6875,222058.875,246205.1875,0.041748046875,0.990234375,0.071044921875,0.7629393935203552,-1.4038084745407104,-0.9765624403953552,73.33333587646484,176342.0,1.0
14837.6593062,294282.0,294768.375,328213.84375,322280.0625,285001.375,255816.4375,222061.546875,246225.84375,0.040771484375,0.991943359375,0.074462890625,0.7629393935203552,-1.2512205839157104,-1.1291502714157104,73.33333587646484,176343.0,1.0
14837.6850017,294318.75,295026.84375,328418.65625,322306.1875,285129.9375,255875.8125,222127.09375,246245.25,0.041015625,0.989501953125,0.07177734375,0.7324218153953552,-1.3122557401657104,-1.1291502714157104,73.33333587646484,176344.0,1.0
14837.6850068,294319.90625,295314.03125,328597.03125,322280.25,285254.125,255919.703125,222165.890625,246236.75,0.039794921875,0.99072265625,0.070068359375,0.7934569716453552,-1.3427733182907104,-1.0681151151657104,73.33333587646484,176345.0,1.0
14837.7182684,294284.4375,295241.34375,328514.96875,322243.15625,285210.34375,255892.078125,222129.859375,246215.109375,0.037841796875,0.99169921875,0.072509765625,0.8239745497703552,-1.2817381620407104,-1.1596678495407104,73.33333587646484,176346.0,1.0
14837.7219331,294259.3125,294911.25,328278.375,322241.8125,285054.9375,255831.734375,222069.328125,246208.234375,0.0390625,0.9931640625,0.071533203125,0.8544921278953552,-1.2817381620407104,-1.2817381620407104,73.33333587646484,176347.0,1.0
14837.7244197,294279.59375,294780.28125,328216.6875,322281.25,285003.96875,255825.390625,222071.03125,246227.71875,0.03759765625,0.994140625,0.07080078125,0.9155272841453552,-1.3427733182907104,-1.2207030057907104,73.33333587646484,176348.0,1.0
14837.728653,294318.5625,295043.75,328423.21875,322304.65625,285129.875,255875.625,222128.78125,246245.421875,0.035400390625,0.99462890625,0.0703125,0.9765624403953552,-1.4343260526657104,-1.2207030057907104,73.33333587646484,176349.0,1.0
14837.7286557,294316.0625,295325.84375,328607.75,322274.09375,285257.34375,255916.484375,222164.640625,246233.71875,0.037109375,0.991455078125,0.068115234375,0.8239745497703552,-1.4953612089157104,-1.2512205839157104,73.33333587646484,176350.0,1.0
14837.7286569,294285.40625,295249.5625,328520.21875,322236.875,285215.34375,255898.875,222136.03125,246217.078125,0.03955078125,0.98779296875,0.06884765625,0.8850097060203552,-1.5869139432907104,-1.1596678495407104,73.33333587646484,176351.0,1.0
14837.7286582,294263.9375,294915.53125,328276.15625,322237.78125,285057.53125,255845.859375,222078.09375,246214.9375,0.040771484375,0.987548828125,0.0712890625,0.8544921278953552,-1.6479490995407104,-1.0681151151657104,73.33333587646484,176352.0,1.0
14837.7324544,294281.84375,294782.78125,328209.53125,322277.21875,285003.0,255831.109375,222073.625,246230.765625,0.04296875,0.986572265625,0.07080078125,0.9460448622703552,-1.5869139432907104,-1.0375975370407104,73.33333587646484,176353.0,1.0
14837.7324582,294322.78125,295036.25,328410.71875,322305.28125,285128.96875,255880.8125,222133.796875,246252.84375,0.043212890625,0.98779296875,0.06982421875,1.0070799589157104,-1.5258787870407104,-1.0070799589157104,73.33333587646484,176354.0,1.0
14837.7324595,294325.1875,295321.8125,328589.25,322277.125,285253.4375,255921.3125,222167.671875,246242.390625,0.041259765625,0.987548828125,0.0712890625,1.0986326932907104,-1.5258787870407104,-0.9155272841453552,73.33333587646484,176355.0,1.0
14837.7324608,294283.34375,295247.15625,328508.78125,322234.75,285209.71875,255889.125,222127.984375,246214.9375,0.038330078125,0.98828125,0.067626953125,1.1596678495407104,-1.4953612089157104,-0.8544921278953552,73.33333587646484,176356.0,1.0
14837.7573534,294254.375,294903.46875,328266.5,322231.875,285050.375,255816.53125,222062.0,246208.40625,0.039306640625,0.988037109375,0.0693359375,1.1596678495407104,-1.4953612089157104,-0.7934569716453552,73.33333587646484,176357.0,1.0
14837.7573588,294275.75,294763.03125,328195.40625,322272.21875,284995.40625,255805.09375,222061.734375,246227.28125,0.041259765625,0.988525390625,0.065673828125,1.2207030057907104,-1.5258787870407104,-0.8544921278953552,73.33333587646484,176358.0,1.0
14837.7573602,294315.34375,295026.59375,328410.09375,322298.65625,285127.625,255867.40625,222124.859375,246246.40625,0.040771484375,0.9873046875,0.066162109375,1.2207030057907104,-1.4953612089157104,-0.8544921278953552,73.33333587646484,176359.0,1.0
14837.7573615,294316.875,295305.4375,328591.125,322275.15625,285254.75,255918.359375,222168.21875,246245.875,0.039306640625,0.984619140625,0.067138671875,1.1901854276657104,-1.5869139432907104,-0.8544921278953552,73.33333587646484,176360.0,1.0
14837.7812502,294316.875,295305.4375,328591.125,322275.15625,285254.75,255918.359375,222168.21875,246245.875,0.039306640625,0.984619140625,0.067138671875,1.1901854276657104,-1.5869139432907104,-0.8544921278953552,73.33333587646484,176361.0,0.0
14837.7812516,294316.875,295305.4375,328591.125,322275.15625,285254.75,255918.359375,222168.21875,246245.875,0.039306640625,0.984619140625,0.067138671875,1.1901854276657104,-1.5869139432907104,-0.8544921278953552,73.33333587646484,176362.0,0.0
14837.7812518,294316.875,295305.4375,328591.125,322275.15625,285254.75,255918.359375,222168.21875,246245.875,0.039306640625,0.984619140625,0.067138671875,1.1901854276657104,-1.5869139432907104,-0.8544921278953552,73.33333587646484,176363.0,0.0
14837.781252,294316.875,295305.4375,328591.125,322275.15625,285254.75,255918.359375,222168.21875,246245.875,0.039306640625,0.984619140625,0.067138671875,1.1901854276657104,-1.5869139432907104,-0.8544921278953552,73.33333587646484,176364.0,0.0
14837.7812522,294316.875,295305.4375,328591.125,322275.15625,285254.75,255918.359375,222168.21875,246245.875,0.039306640625,0.984619140625,0.067138671875,1.1901854276657104,-1.5869139432907104,-0.8544921278953552,73.33333587646484,176365.0,0.0
14837.7812524,294316.875,295305.4375,328591.125,322275.15625,285254.75,255918.359375,222168.21875,246245.875,0.039306640625,0.984619140625,0.067138671875,1.1901854276657104,-1.5869139432907104,-0.8544921278953552,73.33333587646484,176366.0,0.0
14837.7812526,294316.875,295305.4375,328591.125,322275.15625,285254.75,255918.359375,222168.21875,246245.875,0.039306640625,0.984619140625,0.067138671875,1.1901854276657104,-1.5869139432907104,-0.8544921278953552,73.33333587646484,176367.0,0.0
14837.7812527,294316.875,295305.4375,328591.125,322275.15625,285254.75,255918.359375,222168.21875,246245.875,0.039306640625,0.984619140625,0.067138671875,1.1901854276657104,-1.5869139432907104,-0.8544921278953552,73.33333587646484,176368.0,0.0
14837.7812529,294316.59375,295018.71875,328409.625,322301.53125,285123.25,255872.5,222120.375,246241.578125,0.037353515625,0.990234375,0.068359375,0.8544921278953552,-1.8920897245407104,-1.4953612089157104,73.33333587646484,176369.0,1.0
14837.7812575,294319.125,295304.8125,328596.78125,322276.21875,285256.03125,255935.4375,222171.875,246242.390625,0.040771484375,0.988037109375,0.06591796875,0.8239745497703552,-1.8615721464157104,-1.5869139432907104,73.33333587646484,176370.0,1.0
14837.8063264,294289.34375,295235.96875,328513.78125,322240.5625,285216.21875,255915.78125,222143.09375,246229.59375,0.04052734375,0.987060546875,0.06689453125,1.0070799589157104,-1.8615721464157104,-1.5563963651657104,73.33333587646484,176371.0,1.0
14837.8063328,294258.75,294895.6875,328265.34375,322234.46875,285049.21875,255832.890625,222063.078125,246208.953125,0.038330078125,0.98779296875,0.065185546875,0.9460448622703552,-1.9226073026657104,-1.5563963651657104,73.33333587646484,176372.0,1.0
14837.8601008,294280.3125,294766.25,328199.0,322275.96875,284992.1875,255816.078125,222056.546875,246228.703125,0.03955078125,0.9912109375,0.06640625,1.0375975370407104,-1.9531248807907104,-1.6174315214157104,73.33333587646484,176373.0,1.0
14837.8601064,294319.28125,295028.5625,328408.21875,322304.40625,285123.96875,255881.171875,222125.484375,246253.03125,0.0390625,0.989990234375,0.068359375,0.9765624403953552,-1.9226073026657104,-1.5258787870407104,73.33333587646484,176374.0,1.0
14837.9094464,294321.4375,295311.875,328590.0625,322277.40625,285251.1875,255914.875,222162.140625,246242.203125,0.038818359375,0.98974609375,0.068603515625,0.8544921278953552,-1.8310545682907104,-1.5563963651657104,73.33333587646484,176375.0,1.0
14837.9094518,294282.71875,295240.53125,328510.5,322235.5625,285210.59375,255885.203125,222126.8125,246222.53125,0.0380859375,0.991455078125,0.070068359375,0.8850097060203552,-1.8615721464157104,-1.5258787870407104,73.33333587646484,176376.0,1.0
14837.9094531,294249.28125,294900.53125,328261.40625,322228.9375,285045.65625,255826.28125,222065.03125,246215.109375,0.04052734375,0.99072265625,0.068603515625,0.9155272841453552,-1.8310545682907104,-1.4343260526657104,73.33333587646484,176377.0,1.0
14837.9094543,294269.84375,294766.40625,328192.03125,322271.5,284991.1875,255819.03125,222065.390625,246235.59375,0.0390625,0.990234375,0.068115234375,0.8850097060203552,-1.8005369901657104,-1.4038084745407104,73.33333587646484,176378.0,1.0
14837.9094555,294316.0625,295033.21875,328407.84375,322301.53125,285128.53125,255881.984375,222128.609375,246256.515625,0.037841796875,0.989501953125,0.064453125,0.9155272841453552,-1.8310545682907104,-1.2817381620407104,73.33333587646484,176379.0,1.0
14837.9094569,294323.21875,295324.59375,328599.625,322278.46875,285261.125,255924.890625,222163.75,246249.265625,0.038818359375,0.991455078125,0.066162109375,0.9155272841453552,-1.8615721464157104,-1.2817381620407104,73.33333587646484,176380.0,1.0
14837.9344896,294287.0,295249.65625,328522.46875,322236.1875,285219.8125,255895.65625,222126.8125,246225.9375,0.0380859375,0.9921875,0.0634765625,0.9460448622703552,-1.9226073026657104,-1.2817381620407104,73.33333587646484,176381.0,1.0
14837.9419844,294287.0,295249.65625,328522.46875,322236.1875,285219.8125,255895.65625,222126.8125,246225.9375,0.0380859375,0.9921875,0.0634765625,0.9460448622703552,-1.9226073026657104,-1.2817381620407104,73.33333587646484,176382.0,0.0
14837.9419855,294287.0,295249.65625,328522.46875,322236.1875,285219.8125,255895.65625,222126.8125,246225.9375,0.0380859375,0.9921875,0.0634765625,0.9460448622703552,-1.9226073026657104,-1.2817381620407104,73.33333587646484,176383.0,0.0
14837.9419857,294287.0,295249.65625,328522.46875,322236.1875,285219.8125,255895.65625,222126.8125,246225.9375,0.0380859375,0.9921875,0.0634765625,0.9460448622703552,-1.9226073026657104,-1.2817381620407104,73.33333587646484,176384.0,0.0
14837.9419859,294287.0,295249.65625,328522.46875,322236.1875,285219.8125,255895.65625,222126.8125,246225.9375,0.0380859375,0.9921875,0.0634765625,0.9460448622703552,-1.9226073026657104,-1.2817381620407104,73.33333587646484,176385.0,0.0
14837.941986,294287.0,295249.65625,328522.46875,322236.1875,285219.8125,255895.65625,222126.8125,246225.9375,0.0380859375,0.9921875,0.0634765625,0.9460448622703552,-1.9226073026657104,-1.2817381620407104,73.33333587646484,176386.0,0.0
14837.9419863,294287.0,295249.65625,328522.46875,322236.1875,285219.8125,255895.65625,222126.8125,246225.9375,0.0380859375,0.9921875,0.0634765625,0.9460448622703552,-1.9226073026657104,-1.2817381620407104,73.33333587646484,176387.0,0.0
14837.9419864,294287.0,295249.65625,328522.46875,322236.1875,285219.8125,255895.65625,222126.8125,246225.9375,0.0380859375,0.9921875,0.0634765625,0.9460448622703552,-1.9226073026657104,-1.2817381620407104,73.33333587646484,176388.0,0.0
14837.9419866,294287.0,295249.65625,328522.46875,322236.1875,285219.8125,255895.65625,222126.8125,246225.9375,0.0380859375,0.9921875,0.0634765625,0.9460448622703552,-1.9226073026657104,-1.2817381620407104,73.33333587646484,176389.0,0.0
14837.9419868,294287.0,295249.65625,328522.46875,322236.1875,285219.8125,255895.65625,222126.8125,246225.9375,0.0380859375,0.9921875,0.0634765625,0.9460448622703552,-1.9226073026657104,-1.2817381620407104,73.33333587646484,176390.0,0.0
14837.9419869,294287.0,295249.65625,328522.46875,322236.1875,285219.8125,255895.65625,222126.8125,246225.9375,0.0380859375,0.9921875,0.0634765625,0.9460448622703552,-1.9226073026657104,-1.2817381620407104,73.33333587646484,176391.0,0.0
14837.9419871,294287.0,295249.65625,328522.46875,322236.1875,285219.8125,255895.65625,222126.8125,246225.9375,0.0380859375,0.9921875,0.0634765625,0.9460448622703552,-1.9226073026657104,-1.2817381620407104,73.33333587646484,176392.0,0.0
14837.9419873,294287.0,295249.65625,328522.46875,322236.1875,285219.8125,255895.65625,222126.8125,246225.9375,0.0380859375,0.9921875,0.0634765625,0.9460448622703552,-1.9226073026657104,-1.2817381620407104,73.33333587646484,176393.0,0.0
14837.9419875,294287.0,295249.65625,328522.46875,322236.1875,285219.8125,255895.65625,222126.8125,246225.9375,0.0380859375,0.9921875,0.0634765625,0.9460448622703552,-1.9226073026657104,-1.2817381620407104,73.33333587646484,176394.0,0.0
14837.9419876,294287.0,295249.65625,328522.46875,322236.1875,285219.8125,255895.65625,222126.8125,246225.9375,0.0380859375,0.9921875,0.0634765625,0.9460448622703552,-1.9226073026657104,-1.2817381620407104,73.33333587646484,176395.0,0.0
14837.9419878,294287.0,295249.65625,328522.46875,322236.1875,285219.8125,255895.65625,222126.8125,246225.9375,0.0380859375,0.9921875,0.0634765625,0.9460448622703552,-1.9226073026657104,-1.2817381620407104,73.33333587646484,176396.0,0.0
14837.941988,294287.0,295249.65625,328522.46875,322236.1875,285219.8125,255895.65625,222126.8125,246225.9375,0.0380859375,0.9921875,0.0634765625,0.9460448622703552,-1.9226073026657104,-1.2817381620407104,73.33333587646484,176397.0,0.0
14837.9419881,294287.0,295249.65625,328522.46875,322236.1875,285219.8125,255895.65625,222126.8125,246225.9375,0.0380859375,0.9921875,0.0634765625,0.9460448622703552,-1.9226073026657104,-1.2817381620407104,73.33333587646484,176398.0,0.0
14837.9419883,294287.0,295249.65625,328522.46875,322236.1875,285219.8125,255895.65625,222126.8125,246225.9375,0.0380859375,0.9921875,0.0634765625,0.9460448622703552,-1.9226073026657104,-1.2817381620407104,73.33333587646484,176399.0,0.0
14837.9419885,294287.0,295249.65625,328522.46875,322236.1875,285219.8125,255895.65625,222126.8125,246225.9375,0.0380859375,0.9921875,0.0634765625,0.9460448622703552,-1.9226073026657104,-1.2817381620407104,73.33333587646484,176400.0,0.0
14837.9419887,294306.25,295258.15625,328530.6875,322248.15625,285227.3125,255905.9375,222130.84375,246233.625,0.038818359375,0.986572265625,0.066650390625,0.2441406100988388,-1.9226073026657104,-1.3122557401657104,73.33333587646484,176401.0,1.0
14837.9444272,294277.8125,294919.46875,328281.78125,322243.25,285062.4375,255841.296875,222070.578125,246221.375,0.038330078125,0.98828125,0.065185546875,0.3051757514476776,-1.8920897245407104,-1.3732908964157104,73.33333587646484,176402.0,1.0
14837.9474692,294300.96875,294782.0625,328215.1875,322287.84375,285011.84375,255833.875,222072.734375,246241.40625,0.0380859375,0.988525390625,0.06884765625,0.3051757514476776,-1.8920897245407104,-1.3427733182907104,73.33333587646484,176403.0,1.0
14837.9474718,294345.5,295044.03125,328426.1875,322318.78125,285141.5,255880.546875,222128.078125,246257.765625,0.037109375,0.988037109375,0.069091796875,0.3051757514476776,-1.8310545682907104,-1.3427733182907104,73.33333587646484,176404.0,1.0
14837.9494084,294345.5,295329.59375,328602.84375,322292.3125,285265.3125,255925.78125,222168.21875,246253.46875,0.038330078125,0.990234375,0.0703125,0.2441406100988388,-1.6784666776657104,-1.2817381620407104,73.33333587646484,176405.0,1.0
14837.9519111,294307.59375,295254.40625,328512.1875,322248.34375,285215.78125,255900.671875,222134.421875,246232.734375,0.036865234375,0.986328125,0.07080078125,0.3051757514476776,-1.6174315214157104,-1.3427733182907104,73.33333587646484,176406.0,1.0
14837.9543862,294284.15625,294926.46875,328279.46875,322249.5,285066.03125,255841.828125,222080.15625,246232.28125,0.034423828125,0.98779296875,0.06640625,0.3967284858226776,-1.5563963651657104,-1.4038084745407104,73.33333587646484,176407.0,1.0
14837.9569142,294304.4375,294791.0,328212.21875,322292.0625,285013.53125,255836.109375,222083.453125,246253.46875,0.03515625,0.987548828125,0.06982421875,0.4882812201976776,-1.5869139432907104,-1.3427733182907104,73.33333587646484,176408.0,1.0
14837.9869846,294344.6875,295052.53125,328424.3125,322320.5,285146.59375,255902.8125,222150.0625,246272.0625,0.03466796875,0.989501953125,0.069091796875,0.5493163466453552,-1.6174315214157104,-1.3427733182907104,73.33333587646484,176409.0,1.0
14838.0119696,294346.46875,295339.5,328614.1875,322294.8125,285276.03125,255952.703125,222188.328125,246264.015625,0.03369140625,0.990966796875,0.068359375,0.5798339247703552,-1.5563963651657104,-1.3122557401657104,73.33333587646484,176410.0,1.0
14838.0369864,294309.1875,295269.15625,328537.75,322253.78125,285233.75,255916.40625,222147.03125,246241.765625,0.03369140625,0.99267578125,0.069580078125,0.6408690810203552,-1.6174315214157104,-1.3122557401657104,73.33333587646484,176411.0,1.0
14838.0989406,294280.125,294928.25,328292.4375,322248.59375,285071.5625,255848.265625,222077.90625,246229.78125,0.032470703125,0.99365234375,0.0712890625,0.6408690810203552,-1.5258787870407104,-1.3122557401657104,73.33333587646484,176412.0,1.0
14838.0989456,294301.9375,294788.40625,328221.4375,322288.125,285016.3125,255832.625,222077.203125,246245.96875,0.03125,0.992919921875,0.072509765625,0.6103515028953552,-1.4343260526657104,-1.2817381620407104,73.33333587646484,176413.0,1.0
14838.0989469,294342.09375,295043.75,328428.21875,322311.90625,285145.5,255890.203125,222140.9375,246265.359375,0.03173828125,0.990234375,0.069580078125,0.5798339247703552,-1.5563963651657104,-1.2207030057907104,73.33333587646484,176414.0,1.0
14838.0989481,294344.0625,295328.96875,328606.78125,322286.25,285270.3125,255937.234375,222176.890625,246260.890625,0.032470703125,0.992919921875,0.072509765625,0.5493163466453552,-1.5869139432907104,-1.2512205839157104,73.33333587646484,176415.0,1.0
14838.0989494,294307.59375,295261.71875,328527.03125,322247.53125,285230.0,255906.65625,222140.40625,246239.609375,0.033203125,0.99169921875,0.069091796875,0.7324218153953552,-1.7395018339157104,-1.1291502714157104,73.33333587646484,176416.0,1.0
14838.0989506,294279.78125,294925.125,328286.53125,322243.875,285069.875,255840.3125,222072.28125,246224.765625,0.032470703125,0.989990234375,0.068603515625,0.7019042372703552,-1.6784666776657104,-1.0681151151657104,73.33333587646484,176417.0,1.0
14838.0989519,294299.1875,294782.6875,328216.15625,322284.8125,285014.625,255835.9375,222073.265625,246245.25,0.0322265625,0.989501953125,0.066650390625,0.5798339247703552,-1.7395018339157104,-0.9460448622703552,73.33333587646484,176418.0,1.0
14838.1478489,294339.9375,295051.1875,328427.25,322313.59375,285144.4375,255902.265625,222143.359375,246266.4375,0.032958984375,0.99072265625,0.067626953125,0.6408690810203552,-1.7089842557907104,-0.9460448622703552,73.33333587646484,176419.0,1.0
14838.1478542,294345.84375,295341.03125,328613.84375,322289.1875,285273.4375,255949.125,222183.40625,246260.796875,0.03271484375,0.99072265625,0.066650390625,0.5798339247703552,-1.7700194120407104,-0.9460448622703552,73.33333587646484,176420.0,1.0
14838.1478555,294310.4375,295269.78125,328534.0,322247.15625,285229.65625,255910.40625,222142.28125,246233.984375,0.033203125,0.989990234375,0.06591796875,0.5798339247703552,-1.7395018339157104,-0.7934569716453552,73.33333587646484,176421.0,1.0
14838.1478567,294281.125,294931.5625,328293.78125,322244.3125,285068.875,255836.46875,222071.828125,246224.0625,0.03173828125,0.992431640625,0.064453125,0.4882812201976776,-1.6784666776657104,-0.8239745497703552,73.33333587646484,176422.0,1.0
14838.1478581,294300.34375,294786.34375,328220.53125,322287.0625,285012.5625,255826.015625,222070.046875,246246.5,0.031005859375,0.9931640625,0.068603515625,0.3967284858226776,-1.7395018339157104,-0.7324218153953552,73.33333587646484,176423.0,1.0
14838.1512806,294338.5,295042.25,328424.03125,322315.03125,285141.84375,255891.71875,222132.984375,246268.21875,0.035400390625,0.992919921875,0.069580078125,0.3051757514476776,-1.8310545682907104,-0.7019042372703552,73.33333587646484,176424.0,1.0
14838.1512857,294340.65625,295334.40625,328609.5625,322289.625,285271.21875,255940.359375,222169.203125,246255.53125,0.036376953125,0.9921875,0.06591796875,0.2136230319738388,-1.7700194120407104,-0.6103515028953552,73.33333587646484,176425.0,1.0
14838.1512869,294305.53125,295266.65625,328535.25,322249.3125,285232.40625,255908.796875,222134.59375,246234.078125,0.033203125,0.9921875,0.066162109375,0.1220703050494194,-1.7395018339157104,-0.5798339247703552,73.33333587646484,176426.0,1.0
14838.1512882,294267.25,294908.84375,328280.09375,322234.9375,285060.03125,255830.125,222062.53125,246220.921875,0.03466796875,0.990234375,0.065185546875,0.1220703050494194,-1.6784666776657104,-0.6408690810203552,73.33333587646484,176427.0,1.0
14838.1899393,294305.0625,294788.9375,328215.1875,322289.5625,285013.09375,255837.546875,222074.875,246250.15625,0.03515625,0.989501953125,0.06689453125,0.1525878757238388,-1.6784666776657104,-0.6103515028953552,73.33333587646484,176428.0,1.0
14838.1899445,294346.03125,295058.0625,328426.90625,322318.53125,285146.5,255899.328125,222133.078125,246261.421875,0.0361328125,0.989013671875,0.06640625,0.0915527269244194,-1.7089842557907104,-0.7324218153953552,73.33333587646484,176429.0,1.0
14838.1899458,294346.84375,295345.5,328611.875,322295.28125,285277.375,255940.359375,222172.421875,246260.453125,0.03515625,0.989501953125,0.064453125,0.1525878757238388,-1.7395018339157104,-0.7324218153953552,73.33333587646484,176430.0,1.0
14838.189947,294313.5625,295275.3125,328529.1875,322256.125,285233.5625,255910.40625,222132.09375,246232.015625,0.036376953125,0.987548828125,0.065185546875,0.0915527269244194,-1.7089842557907104,-0.7934569716453552,73.33333587646484,176431.0,1.0
14838.1925614,294313.5625,295275.3125,328529.1875,322256.125,285233.5625,255910.40625,222132.09375,246232.015625,0.036376953125,0.987548828125,0.065185546875,0.0915527269244194,-1.7089842557907104,-0.7934569716453552,73.33333587646484,176432.0,0.0
14838.1925626,294313.5625,295275.3125,328529.1875,322256.125,285233.5625,255910.40625,222132.09375,246232.015625,0.036376953125,0.987548828125,0.065185546875,0.0915527269244194,-1.7089842557907104,-0.7934569716453552,73.33333587646484,176433.0,0.0
14838.1925628,294313.5625,295275.3125,328529.1875,322256.125,285233.5625,255910.40625,222132.09375,246232.015625,0.036376953125,0.987548828125,0.065185546875,0.0915527269244194,-1.7089842557907104,-0.7934569716453552,73.33333587646484,176434.0,0.0
14838.1925631,294313.5625,295275.3125,328529.1875,322256.125,285233.5625,255910.40625,222132.09375,246232.015625,0.036376953125,0.987548828125,0.065185546875,0.0915527269244194,-1.7089842557907104,-0.7934569716453552,73.33333587646484,176435.0,0.0
14838.1925633,294313.5625,295275.3125,328529.1875,322256.125,285233.5625,255910.40625,222132.09375,246232.015625,0.036376953125,0.987548828125,0.065185546875,0.0915527269244194,-1.7089842557907104,-0.7934569716453552,73.33333587646484,176436.0,0.0
14838.1925635,294313.5625,295275.3125,328529.1875,322256.125,285233.5625,255910.40625,222132.09375,246232.015625,0.036376953125,0.987548828125,0.065185546875,0.0915527269244194,-1.7089842557907104,-0.7934569716453552,73.33333587646484,176437.0,0.0
14838.1925636,294313.5625,295275.3125,328529.1875,322256.125,285233.5625,255910.40625,222132.09375,246232.015625,0.036376953125,0.987548828125,0.065185546875,0.0915527269244194,-1.7089842557907104,-0.7934569716453552,73.33333587646484,176438.0,0.0
14838.1925638,294313.5625,295275.3125,328529.1875,322256.125,285233.5625,255910.40625,222132.09375,246232.015625,0.036376953125,0.987548828125,0.065185546875,0.0915527269244194,-1.7089842557907104,-0.7934569716453552,73.33333587646484,176439.0,0.0
14838.192564,294313.5625,295275.3125,328529.1875,322256.125,285233.5625,255910.40625,222132.09375,246232.015625,0.036376953125,0.987548828125,0.065185546875,0.0915527269244194,-1.7089842557907104,-0.7934569716453552,73.33333587646484,176440.0,0.0
14838.1925641,294313.5625,295275.3125,328529.1875,322256.125,285233.5625,255910.40625,222132.09375,246232.015625,0.036376953125,0.987548828125,0.065185546875,0.0915527269244194,-1.7089842557907104,-0.7934569716453552,73.33333587646484,176441.0,0.0
14838.1925643,294313.5625,295275.3125,328529.1875,322256.125,285233.5625,255910.40625,222132.09375,246232.015625,0.036376953125,0.987548828125,0.065185546875,0.0915527269244194,-1.7089842557907104,-0.7934569716453552,73.33333587646484,176442.0,0.0
14838.1925648,294313.5625,295275.3125,328529.1875,322256.125,285233.5625,255910.40625,222132.09375,246232.015625,0.036376953125,0.987548828125,0.065185546875,0.0915527269244194,-1.7089842557907104,-0.7934569716453552,73.33333587646484,176443.0,0.0
14838.192565,294313.5625,295275.3125,328529.1875,322256.125,285233.5625,255910.40625,222132.09375,246232.015625,0.036376953125,0.987548828125,0.065185546875,0.0915527269244194,-1.7089842557907104,-0.7934569716453552,73.33333587646484,176444.0,0.0
14838.1925651,294347.09375,295345.3125,328606.59375,322284.375,285277.375,255933.5625,222179.75,246253.921875,0.036865234375,0.9912109375,0.06591796875,-0.5493163466453552,-1.1901854276657104,-1.0375975370407104,73.33333587646484,176445.0,1.0
14838.1925693,294311.875,295274.96875,328526.5,322241.8125,285231.78125,255901.375,222134.0625,246226.03125,0.0361328125,0.989501953125,0.069091796875,-0.4882812201976776,-1.2207030057907104,-1.0681151151657104,73.33333587646484,176446.0,1.0
14838.1950279,294285.59375,294939.6875,328284.375,322237.4375,285069.5,255832.796875,222067.1875,246217.171875,0.03759765625,0.988037109375,0.070068359375,-0.6103515028953552,-1.2817381620407104,-1.0681151151657104,73.33333587646484,176447.0,1.0
14838.1950323,294306.40625,294799.125,328215.71875,322279.625,285011.03125,255823.5,222067.984375,246235.40625,0.037353515625,0.987060546875,0.069580078125,-0.6408690810203552,-1.3122557401657104,-1.0986326932907104,73.33333587646484,176448.0,1.0
14838.2200286,294346.75,295058.0625,328423.5,322308.6875,285139.875,255892.265625,222138.359375,246261.15625,0.036376953125,0.98583984375,0.0654296875,-0.5798339247703552,-1.2207030057907104,-1.0681151151657104,73.33333587646484,176449.0,1.0
14838.2200339,294345.75,295339.4375,328600.25,322281.875,285261.1875,255938.75,222175.71875,246254.640625,0.0361328125,0.98828125,0.06787109375,-0.5493163466453552,-1.1596678495407104,-0.8850097060203552,73.33333587646484,176450.0,1.0
14838.2692802,294308.28125,295264.59375,328516.9375,322241.4375,285217.5625,255911.390625,222145.6875,246233.359375,0.03466796875,0.9892578125,0.069091796875,-0.6103515028953552,-1.2207030057907104,-0.9155272841453552,73.33333587646484,176451.0,1.0
14838.2692856,294280.03125,294921.34375,328268.5625,322238.9375,285055.03125,255852.46875,222086.765625,246226.828125,0.032958984375,0.99169921875,0.06787109375,-0.6408690810203552,-1.3122557401657104,-0.9460448622703552,73.33333587646484,176452.0,1.0
14838.2692869,294298.1875,294783.21875,328192.1875,322275.5,284993.96875,255829.234375,222074.96875,246239.609375,0.033203125,0.9912109375,0.071533203125,-0.6713866591453552,-1.2817381620407104,-1.0375975370407104,73.33333587646484,176453.0,1.0
14838.2692881,294343.875,295055.65625,328413.03125,322307.96875,285136.125,255897.625,222144.078125,246259.46875,0.0341796875,0.98974609375,0.0712890625,-0.6408690810203552,-1.4648436307907104,-0.9765624403953552,73.33333587646484,176454.0,1.0
14838.2692894,294349.34375,295347.46875,328602.9375,322284.53125,285267.8125,255943.578125,222187.34375,246251.6875,0.03466796875,0.987548828125,0.06787109375,-0.6713866591453552,-1.4038084745407104,-0.9765624403953552,73.33333587646484,176455.0,1.0
14838.2935898,294312.21875,295275.15625,328523.0,322242.96875,285223.28125,255916.578125,222151.859375,246231.5625,0.0341796875,0.987060546875,0.07080078125,-0.7019042372703552,-1.4648436307907104,-0.9460448622703552,73.33333587646484,176456.0,1.0
14838.293597,294312.21875,295275.15625,328523.0,322242.96875,285223.28125,255916.578125,222151.859375,246231.5625,0.0341796875,0.987060546875,0.07080078125,-0.7019042372703552,-1.4648436307907104,-0.9460448622703552,73.33333587646484,176457.0,0.0
14838.2935972,294312.21875,295275.15625,328523.0,322242.96875,285223.28125,255916.578125,222151.859375,246231.5625,0.0341796875,0.987060546875,0.07080078125,-0.7019042372703552,-1.4648436307907104,-0.9460448622703552,73.33333587646484,176458.0,0.0
14838.2935974,294312.21875,295275.15625,328523.0,322242.96875,285223.28125,255916.578125,222151.859375,246231.5625,0.0341796875,0.987060546875,0.07080078125,-0.7019042372703552,-1.4648436307907104,-0.9460448622703552,73.33333587646484,176459.0,0.0
14838.2935976,294312.21875,295275.15625,328523.0,322242.96875,285223.28125,255916.578125,222151.859375,246231.5625,0.0341796875,0.987060546875,0.07080078125,-0.7019042372703552,-1.4648436307907104,-0.9460448622703552,73.33333587646484,176460.0,0.0
14838.2935978,294312.21875,295275.15625,328523.0,322242.96875,285223.28125,255916.578125,222151.859375,246231.5625,0.0341796875,0.987060546875,0.07080078125,-0.7019042372703552,-1.4648436307907104,-0.9460448622703552,73.33333587646484,176461.0,0.0
14838.293598,294312.21875,295275.15625,328523.0,322242.96875,285223.28125,255916.578125,222151.859375,246231.5625,0.0341796875,0.987060546875,0.07080078125,-0.7019042372703552,-1.4648436307907104,-0.9460448622703552,73.33333587646484,176462.0,0.0
14838.2935982,294312.21875,295275.15625,328523.0,322242.96875,285223.28125,255916.578125,222151.859375,246231.5625,0.0341796875,0.987060546875,0.07080078125,-0.7019042372703552,-1.4648436307907104,-0.9460448622703552,73.33333587646484,176463.0,0.0
14838.2935984,294312.21875,295275.15625,328523.0,322242.96875,285223.28125,255916.578125,222151.859375,246231.5625,0.0341796875,0.987060546875,0.07080078125,-0.7019042372703552,-1.4648436307907104,-0.9460448622703552,73.33333587646484,176464.0,0.0
14838.2935985,294312.21875,295275.15625,328523.0,322242.96875,285223.28125,255916.578125,222151.859375,246231.5625,0.0341796875,0.987060546875,0.07080078125,-0.7019042372703552,-1.4648436307907104,-0.9460448622703552,73.33333587646484,176465.0,0.0
14838.2935987,294312.21875,295275.15625,328523.0,322242.96875,285223.28125,255916.578125,222151.859375,246231.5625,0.0341796875,0.987060546875,0.07080078125,-0.7019042372703552,-1.4648436307907104,-0.9460448622703552,73.33333587646484,176466.0,0.0
14838.2935989,294312.21875,295275.15625,328523.0,322242.96875,285223.28125,255916.578125,222151.859375,246231.5625,0.0341796875,0.987060546875,0.07080078125,-0.7019042372703552,-1.4648436307907104,-0.9460448622703552,73.33333587646484,176467.0,0.0
14838.2935991,294312.21875,295275.15625,328523.0,322242.96875,285223.28125,255916.578125,222151.859375,246231.5625,0.0341796875,0.987060546875,0.07080078125,-0.7019042372703552,-1.4648436307907104,-0.9460448622703552,73.33333587646484,176468.0,0.0
14838.2935992,294312.21875,295275.15625,328523.0,322242.96875,285223.28125,255916.578125,222151.859375,246231.5625,0.0341796875,0.987060546875,0.07080078125,-0.7019042372703552,-1.4648436307907104,-0.9460448622703552,73.33333587646484,176469.0,0.0
14838.2935994,294312.21875,295275.15625,328523.0,322242.96875,285223.28125,255916.578125,222151.859375,246231.5625,0.0341796875,0.987060546875,0.07080078125,-0.7019042372703552,-1.4648436307907104,-0.9460448622703552,73.33333587646484,176470.0,0.0
14838.2935996,294312.21875,295275.15625,328523.0,322242.96875,285223.28125,255916.578125,222151.859375,246231.5625,0.0341796875,0.987060546875,0.07080078125,-0.7019042372703552,-1.4648436307907104,-0.9460448622703552,73.33333587646484,176471.0,0.0
14838.2935998,294312.21875,295275.15625,328523.0,322242.96875,285223.28125,255916.578125,222151.859375,246231.5625,0.0341796875,0.987060546875,0.07080078125,-0.7019042372703552,-1.4648436307907104,-0.9460448622703552,73.33333587646484,176472.0,0.0
14838.2936,294312.21875,295275.15625,328523.0,322242.96875,285223.28125,255916.578125,222151.859375,246231.5625,0.0341796875,0.987060546875,0.07080078125,-0.7019042372703552,-1.4648436307907104,-0.9460448622703552,73.33333587646484,176473.0,0.0
14838.2936002,294312.21875,295275.15625,328523.0,322242.96875,285223.28125,255916.578125,222151.859375,246231.5625,0.0341796875,0.987060546875,0.07080078125,-0.7019042372703552,-1.4648436307907104,-0.9460448622703552,73.33333587646484,176474.0,0.0
14838.2936004,294312.21875,295275.15625,328523.0,322242.96875,285223.28125,255916.578125,222151.859375,246231.5625,0.0341796875,0.987060546875,0.07080078125,-0.7019042372703552,-1.4648436307907104,-0.9460448622703552,73.33333587646484,176475.0,0.0
14838.2936006,294312.21875,295275.15625,328523.0,322242.96875,285223.28125,255916.578125,222151.859375,246231.5625,0.0341796875,0.987060546875,0.07080078125,-0.7019042372703552,-1.4648436307907104,-0.9460448622703552,73.33333587646484,176476.0,0.0
14838.2936007,294312.21875,295275.15625,328523.0,322242.96875,285223.28125,255916.578125,222151.859375,246231.5625,0.0341796875,0.987060546875,0.07080078125,-0.7019042372703552,-1.4648436307907104,-0.9460448622703552,73.33333587646484,176477.0,0.0
14838.2936009,294312.21875,295275.15625,328523.0,322242.96875,285223.28125,255916.578125,222151.859375,246231.5625,0.0341796875,0.987060546875,0.07080078125,-0.7019042372703552,-1.4648436307907104,-0.9460448622703552,73.33333587646484,176478.0,0.0
14838.2936011,294312.21875,295275.15625,328523.0,322242.96875,285223.28125,255916.578125,222151.859375,246231.5625,0.0341796875,0.987060546875,0.07080078125,-0.7019042372703552,-1.4648436307907104,-0.9460448622703552,73.33333587646484,176479.0,0.0
14838.2936013,294312.21875,295275.15625,328523.0,322242.96875,285223.28125,255916.578125,222151.859375,246231.5625,0.0341796875,0.987060546875,0.07080078125,-0.7019042372703552,-1.4648436307907104,-0.9460448622703552,73.33333587646484,176480.0,0.0
14838.2936015,294312.21875,295275.15625,328523.0,322242.96875,285223.28125,255916.578125,222151.859375,246231.5625,0.0341796875,0.987060546875,0.07080078125,-0.7019042372703552,-1.4648436307907104,-0.9460448622703552,73.33333587646484,176481.0,0.0
14838.2936016,294312.21875,295275.15625,328523.0,322242.96875,285223.28125,255916.578125,222151.859375,246231.5625,0.0341796875,0.987060546875,0.07080078125,-0.7019042372703552,-1.4648436307907104,-0.9460448622703552,73.33333587646484,176482.0,0.0
14838.2936019,294312.21875,295275.15625,328523.0,322242.96875,285223.28125,255916.578125,222151.859375,246231.5625,0.0341796875,0.987060546875,0.07080078125,-0.7019042372703552,-1.4648436307907104,-0.9460448622703552,73.33333587646484,176483.0,0.0
14838.2936021,294312.21875,295275.15625,328523.0,322242.96875,285223.28125,255916.578125,222151.859375,246231.5625,0.0341796875,0.987060546875,0.07080078125,-0.7019042372703552,-1.4648436307907104,-0.9460448622703552,73.33333587646484,176484.0,0.0
14838.2936022,294312.21875,295275.15625,328523.0,322242.96875,285223.28125,255916.578125,222151.859375,246231.5625,0.0341796875,0.987060546875,0.07080078125,-0.7019042372703552,-1.4648436307907104,-0.9460448622703552,73.33333587646484,176485.0,0.0
14838.2936024,294312.21875,295275.15625,328523.0,322242.96875,285223.28125,255916.578125,222151.859375,246231.5625,0.0341796875,0.987060546875,0.07080078125,-0.7019042372703552,-1.4648436307907104,-0.9460448622703552,73.33333587646484,176486.0,0.0
14838.2936026,294287.28125,294946.9375,328284.8125,322239.03125,285065.3125,255846.65625,222077.015625,246233.890625,0.034912109375,0.986572265625,0.0732421875,0.5187987685203552,-1.3122557401657104,-1.0070799589157104,73.33333587646484,176487.0,1.0
14838.2936039,294306.59375,294808.15625,328212.125,322275.6875,285005.0625,255834.765625,222073.4375,246242.46875,0.033935546875,0.988037109375,0.075439453125,0.4577636420726776,-1.4038084745407104,-0.8850097060203552,73.33333587646484,176488.0,1.0
14838.2936052,294350.0625,295072.625,328418.9375,322304.03125,285133.4375,255891.09375,222139.34375,246264.46875,0.03564453125,0.98974609375,0.076416015625,0.4577636420726776,-1.3427733182907104,-0.8239745497703552,73.33333587646484,176489.0,1.0
14838.2936065,294356.65625,295364.71875,328608.03125,322283.65625,285266.3125,255944.921875,222187.53125,246263.03125,0.035888671875,0.9912109375,0.073486328125,0.3662109076976776,-1.3732908964157104,-0.7629393935203552,73.33333587646484,176490.0,1.0
14838.2936077,294319.75,295298.125,328530.34375,322243.6875,285229.5625,255928.375,222160.796875,246244.53125,0.037109375,0.98876953125,0.0751953125,0.4272460639476776,-1.4953612089157104,-0.7019042372703552,73.33333587646484,176491.0,1.0
14838.293609,294295.25,294966.96875,328295.1875,322241.8125,285078.09375,255871.96875,222098.03125,246238.453125,0.0380859375,0.98828125,0.07080078125,0.4577636420726776,-1.4953612089157104,-0.7019042372703552,73.33333587646484,176492.0,1.0
14838.2957225,294311.78125,294821.59375,328224.21875,322275.5,285016.59375,255842.375,222078.546875,246242.46875,0.037353515625,0.988525390625,0.071533203125,0.5187987685203552,-1.4953612089157104,-0.5798339247703552,73.33333587646484,176493.0,1.0
14838.3032167,294349.34375,295077.8125,328432.96875,322301.8125,285145.59375,255892.890625,222139.78125,246263.125,0.037109375,0.988525390625,0.07177734375,0.6713866591453552,-1.5563963651657104,-0.5798339247703552,73.33333587646484,176494.0,1.0
14838.3057072,294346.46875,295361.5,328606.0625,322269.15625,285263.78125,255935.359375,222173.484375,246251.6875,0.0380859375,0.98876953125,0.0732421875,0.7934569716453552,-1.5563963651657104,-0.6408690810203552,73.33333587646484,176495.0,1.0
14838.3082248,294316.96875,295293.03125,328524.875,322234.375,285224.1875,255922.75,222144.25,246235.765625,0.037353515625,0.98876953125,0.071533203125,0.7019042372703552,-1.5563963651657104,-0.5187987685203552,73.33333587646484,176496.0,1.0
14838.3106657,294286.9375,294956.84375,328282.15625,322233.125,285065.125,255857.65625,222084.0,246233.0,0.036376953125,0.990234375,0.07373046875,0.7019042372703552,-1.4953612089157104,-0.4577636420726776,73.33333587646484,176497.0,1.0
14838.3356884,294302.5625,294815.78125,328205.96875,322272.65625,285005.84375,255840.3125,222086.5,246253.828125,0.0380859375,0.989501953125,0.070556640625,0.6408690810203552,-1.4343260526657104,-0.4577636420726776,73.33333587646484,176498.0,1.0
14838.3864008,294340.03125,295075.21875,328414.28125,322298.21875,285135.21875,255895.84375,222145.328125,246265.8125,0.037353515625,0.991455078125,0.0732421875,0.7324218153953552,-1.4648436307907104,-0.5493163466453552,73.33333587646484,176499.0,1.0
14838.3864148,294340.125,295357.75,328603.75,322270.59375,285264.96875,255950.640625,222180.640625,246251.5,0.03955078125,0.990478515625,0.071533203125,0.6103515028953552,-1.4648436307907104,-0.5187987685203552,73.33333587646484,176500.0,1.0
14838.3864163,294305.78125,295293.375,328532.9375,322233.75,285227.125,255923.1875,222147.921875,246234.96875,0.041259765625,0.98974609375,0.07373046875,0.5798339247703552,-1.4953612089157104,-0.6103515028953552,73.33333587646484,176501.0,1.0
14838.3864177,294276.28125,294947.375,328289.28125,322231.09375,285062.90625,255842.546875,222076.9375,246226.65625,0.04052734375,0.988525390625,0.07177734375,0.5187987685203552,-1.4953612089157104,-0.5798339247703552,73.33333587646484,176502.0,1.0
14838.3864189,294301.0625,294800.5625,328205.0625,322274.8125,284997.375,255836.015625,222075.859375,246245.0625,0.0400390625,0.98828125,0.0732421875,0.5187987685203552,-1.4343260526657104,-0.6408690810203552,73.33333587646484,176503.0,1.0
14838.3864202,294340.5625,295062.96875,328406.25,322298.65625,285124.6875,255894.765625,222140.40625,246258.84375,0.040771484375,0.98779296875,0.071044921875,0.4577636420726776,-1.4038084745407104,-0.7324218153953552,73.33333587646484,176504.0,1.0
14838.3864215,294345.5625,295356.9375,328600.6875,322274.25,285259.5,255936.515625,222178.234375,246256.0625,0.041748046875,0.98828125,0.0693359375,0.4577636420726776,-1.3732908964157104,-0.7629393935203552,73.33333587646484,176505.0,1.0
14838.4085074,294310.875,295277.375,328517.46875,322234.9375,285215.78125,255908.078125,222137.546875,246233.625,0.04345703125,0.98828125,0.07080078125,0.4882812201976776,-1.3122557401657104,-0.7934569716453552,73.33333587646484,176506.0,1.0
14838.4085239,294310.875,295277.375,328517.46875,322234.9375,285215.78125,255908.078125,222137.546875,246233.625,0.04345703125,0.98828125,0.07080078125,0.4882812201976776,-1.3122557401657104,-0.7934569716453552,73.33333587646484,176507.0,0.0
14838.4085242,294310.875,295277.375,328517.46875,322234.9375,285215.78125,255908.078125,222137.546875,246233.625,0.04345703125,0.98828125,0.07080078125,0.4882812201976776,-1.3122557401657104,-0.7934569716453552,73.33333587646484,176508.0,0.0
14838.4085244,294310.875,295277.375,328517.46875,322234.9375,285215.78125,255908.078125,222137.546875,246233.625,0.04345703125,0.98828125,0.07080078125,0.4882812201976776,-1.3122557401657104,-0.7934569716453552,73.33333587646484,176509.0,0.0
14838.4085246,294310.875,295277.375,328517.46875,322234.9375,285215.78125,255908.078125,222137.546875,246233.625,0.04345703125,0.98828125,0.07080078125,0.4882812201976776,-1.3122557401657104,-0.7934569716453552,73.33333587646484,176510.0,0.0
14838.4085248,294310.875,295277.375,328517.46875,322234.9375,285215.78125,255908.078125,222137.546875,246233.625,0.04345703125,0.98828125,0.07080078125,0.4882812201976776,-1.3122557401657104,-0.7934569716453552,73.33333587646484,176511.0,0.0
14838.408525,294310.875,295277.375,328517.46875,322234.9375,285215.78125,255908.078125,222137.546875,246233.625,0.04345703125,0.98828125,0.07080078125,0.4882812201976776,-1.3122557401657104,-0.7934569716453552,73.33333587646484,176512.0,0.0
14838.4085251,294310.875,295277.375,328517.46875,322234.9375,285215.78125,255908.078125,222137.546875,246233.625,0.04345703125,0.98828125,0.07080078125,0.4882812201976776,-1.3122557401657104,-0.7934569716453552,73.33333587646484,176513.0,0.0
14838.4085253,294310.875,295277.375,328517.46875,322234.9375,285215.78125,255908.078125,222137.546875,246233.625,0.04345703125,0.98828125,0.07080078125,0.4882812201976776,-1.3122557401657104,-0.7934569716453552,73.33333587646484,176514.0,0.0
14838.4085255,294310.875,295277.375,328517.46875,322234.9375,285215.78125,255908.078125,222137.546875,246233.625,0.04345703125,0.98828125,0.07080078125,0.4882812201976776,-1.3122557401657104,-0.7934569716453552,73.33333587646484,176515.0,0.0
14838.4085257,294310.875,295277.375,328517.46875,322234.9375,285215.78125,255908.078125,222137.546875,246233.625,0.04345703125,0.98828125,0.07080078125,0.4882812201976776,-1.3122557401657104,-0.7934569716453552,73.33333587646484,176516.0,0.0
14838.4085259,294310.875,295277.375,328517.46875,322234.9375,285215.78125,255908.078125,222137.546875,246233.625,0.04345703125,0.98828125,0.07080078125,0.4882812201976776,-1.3122557401657104,-0.7934569716453552,73.33333587646484,176517.0,0.0
14838.4085261,294310.875,295277.375,328517.46875,322234.9375,285215.78125,255908.078125,222137.546875,246233.625,0.04345703125,0.98828125,0.07080078125,0.4882812201976776,-1.3122557401657104,-0.7934569716453552,73.33333587646484,176518.0,0.0
14838.4085262,294310.875,295277.375,328517.46875,322234.9375,285215.78125,255908.078125,222137.546875,246233.625,0.04345703125,0.98828125,0.07080078125,0.4882812201976776,-1.3122557401657104,-0.7934569716453552,73.33333587646484,176519.0,0.0
14838.4085264,294310.875,295277.375,328517.46875,322234.9375,285215.78125,255908.078125,222137.546875,246233.625,0.04345703125,0.98828125,0.07080078125,0.4882812201976776,-1.3122557401657104,-0.7934569716453552,73.33333587646484,176520.0,0.0
14838.4085266,294310.875,295277.375,328517.46875,322234.9375,285215.78125,255908.078125,222137.546875,246233.625,0.04345703125,0.98828125,0.07080078125,0.4882812201976776,-1.3122557401657104,-0.7934569716453552,73.33333587646484,176521.0,0.0
14838.4085268,294310.875,295277.375,328517.46875,322234.9375,285215.78125,255908.078125,222137.546875,246233.625,0.04345703125,0.98828125,0.07080078125,0.4882812201976776,-1.3122557401657104,-0.7934569716453552,73.33333587646484,176522.0,0.0
14838.408527,294310.875,295277.375,328517.46875,322234.9375,285215.78125,255908.078125,222137.546875,246233.625,0.04345703125,0.98828125,0.07080078125,0.4882812201976776,-1.3122557401657104,-0.7934569716453552,73.33333587646484,176523.0,0.0
14838.4085272,294310.875,295277.375,328517.46875,322234.9375,285215.78125,255908.078125,222137.546875,246233.625,0.04345703125,0.98828125,0.07080078125,0.4882812201976776,-1.3122557401657104,-0.7934569716453552,73.33333587646484,176524.0,0.0
14838.4085274,294310.875,295277.375,328517.46875,322234.9375,285215.78125,255908.078125,222137.546875,246233.625,0.04345703125,0.98828125,0.07080078125,0.4882812201976776,-1.3122557401657104,-0.7934569716453552,73.33333587646484,176525.0,0.0
14838.4085275,294310.875,295277.375,328517.46875,322234.9375,285215.78125,255908.078125,222137.546875,246233.625,0.04345703125,0.98828125,0.07080078125,0.4882812201976776,-1.3122557401657104,-0.7934569716453552,73.33333587646484,176526.0,0.0
14838.4085277,294310.875,295277.375,328517.46875,322234.9375,285215.78125,255908.078125,222137.546875,246233.625,0.04345703125,0.98828125,0.07080078125,0.4882812201976776,-1.3122557401657104,-0.7934569716453552,73.33333587646484,176527.0,0.0
14838.4085279,294310.875,295277.375,328517.46875,322234.9375,285215.78125,255908.078125,222137.546875,246233.625,0.04345703125,0.98828125,0.07080078125,0.4882812201976776,-1.3122557401657104,-0.7934569716453552,73.33333587646484,176528.0,0.0
14838.4085281,294310.875,295277.375,328517.46875,322234.9375,285215.78125,255908.078125,222137.546875,246233.625,0.04345703125,0.98828125,0.07080078125,0.4882812201976776,-1.3122557401657104,-0.7934569716453552,73.33333587646484,176529.0,0.0
14838.4085283,294310.875,295277.375,328517.46875,322234.9375,285215.78125,255908.078125,222137.546875,246233.625,0.04345703125,0.98828125,0.07080078125,0.4882812201976776,-1.3122557401657104,-0.7934569716453552,73.33333587646484,176530.0,0.0
14838.4085285,294310.875,295277.375,328517.46875,322234.9375,285215.78125,255908.078125,222137.546875,246233.625,0.04345703125,0.98828125,0.07080078125,0.4882812201976776,-1.3122557401657104,-0.7934569716453552,73.33333587646484,176531.0,0.0
14838.4085287,294310.875,295277.375,328517.46875,322234.9375,285215.78125,255908.078125,222137.546875,246233.625,0.04345703125,0.98828125,0.07080078125,0.4882812201976776,-1.3122557401657104,-0.7934569716453552,73.33333587646484,176532.0,0.0
14838.4085288,294310.875,295277.375,328517.46875,322234.9375,285215.78125,255908.078125,222137.546875,246233.625,0.04345703125,0.98828125,0.07080078125,0.4882812201976776,-1.3122557401657104,-0.7934569716453552,73.33333587646484,176533.0,0.0
14838.408529,294310.875,295277.375,328517.46875,322234.9375,285215.78125,255908.078125,222137.546875,246233.625,0.04345703125,0.98828125,0.07080078125,0.4882812201976776,-1.3122557401657104,-0.7934569716453552,73.33333587646484,176534.0,0.0
14838.4085292,294310.875,295277.375,328517.46875,322234.9375,285215.78125,255908.078125,222137.546875,246233.625,0.04345703125,0.98828125,0.07080078125,0.4882812201976776,-1.3122557401657104,-0.7934569716453552,73.33333587646484,176535.0,0.0
14838.4085294,294310.875,295277.375,328517.46875,322234.9375,285215.78125,255908.078125,222137.546875,246233.625,0.04345703125,0.98828125,0.07080078125,0.4882812201976776,-1.3122557401657104,-0.7934569716453552,73.33333587646484,176536.0,0.0
14838.4085296,294310.875,295277.375,328517.46875,322234.9375,285215.78125,255908.078125,222137.546875,246233.625,0.04345703125,0.98828125,0.07080078125,0.4882812201976776,-1.3122557401657104,-0.7934569716453552,73.33333587646484,176537.0,0.0
14838.4085298,294310.875,295277.375,328517.46875,322234.9375,285215.78125,255908.078125,222137.546875,246233.625,0.04345703125,0.98828125,0.07080078125,0.4882812201976776,-1.3122557401657104,-0.7934569716453552,73.33333587646484,176538.0,0.0
14838.40853,294310.875,295277.375,328517.46875,322234.9375,285215.78125,255908.078125,222137.546875,246233.625,0.04345703125,0.98828125,0.07080078125,0.4882812201976776,-1.3122557401657104,-0.7934569716453552,73.33333587646484,176539.0,0.0
14838.4085302,294310.875,295277.375,328517.46875,322234.9375,285215.78125,255908.078125,222137.546875,246233.625,0.04345703125,0.98828125,0.07080078125,0.4882812201976776,-1.3122557401657104,-0.7934569716453552,73.33333587646484,176540.0,0.0
14838.4085304,294319.90625,295270.3125,328524.4375,322235.1875,285218.46875,255900.125,222135.84375,246227.453125,0.03955078125,0.992919921875,0.068603515625,0.6713866591453552,-1.8615721464157104,-1.4343260526657104,73.33333587646484,176541.0,1.0
14838.4085318,294291.21875,294928.15625,328275.09375,322228.21875,285053.5,255839.0625,222071.828125,246216.90625,0.03955078125,0.99169921875,0.069091796875,0.5187987685203552,-1.8005369901657104,-1.4343260526657104,73.33333587646484,176542.0,1.0
14838.4085333,294313.375,294790.8125,328207.21875,322270.40625,285000.03125,255823.0625,222068.703125,246234.703125,0.037841796875,0.991943359375,0.0693359375,0.5187987685203552,-1.7395018339157104,-1.3427733182907104,73.33333587646484,176543.0,1.0
14838.4106982,294351.375,295056.8125,328422.34375,322298.21875,285136.46875,255878.578125,222137.015625,246258.65625,0.038330078125,0.990234375,0.072021484375,0.4882812201976776,-1.6784666776657104,-1.5258787870407104,73.33333587646484,176544.0,1.0
14838.4131927,294356.03125,295346.03125,328606.875,322272.65625,285265.125,255932.765625,222177.328125,246252.40625,0.03955078125,0.989990234375,0.069580078125,0.4882812201976776,-1.7395018339157104,-1.5563963651657104,73.33333587646484,176545.0,1.0
14838.4156777,294319.1875,295273.25,328521.3125,322232.0625,285222.9375,255908.359375,222145.328125,246234.875,0.0400390625,0.989501953125,0.0673828125,0.5187987685203552,-1.8310545682907104,-1.4953612089157104,73.33333587646484,176546.0,1.0
14838.418189,294289.78125,294943.875,328284.90625,322230.625,285068.8125,255848.359375,222083.015625,246227.984375,0.0380859375,0.990966796875,0.06787109375,0.6408690810203552,-1.8310545682907104,-1.4343260526657104,73.33333587646484,176547.0,1.0
14838.4206692,294302.125,294792.78125,328211.40625,322264.0625,285004.78125,255817.421875,222071.03125,246240.6875,0.03662109375,0.99169921875,0.06884765625,0.6103515028953552,-1.7700194120407104,-1.3732908964157104,73.33333587646484,176548.0,1.0
14838.4231871,294341.65625,295052.6875,328419.46875,322291.0625,285133.09375,255879.65625,222134.59375,246259.1875,0.03662109375,0.989990234375,0.069091796875,0.6103515028953552,-1.7395018339157104,-1.2817381620407104,73.33333587646484,176549.0,1.0
14838.4257046,294347.28125,295346.84375,328607.84375,322267.28125,285263.625,255931.421875,222175.28125,246251.765625,0.03759765625,0.989013671875,0.0703125,0.4882812201976776,-1.7395018339157104,-1.2817381620407104,73.33333587646484,176550.0,1.0
14838.4281865,294314.71875,295274.875,328526.40625,322229.125,285222.65625,255910.3125,222143.53125,246231.65625,0.0380859375,0.990234375,0.068603515625,0.5493163466453552,-1.7700194120407104,-1.2512205839157104,73.33333587646484,176551.0,1.0
14838.4532712,294284.96875,294934.9375,328277.84375,322223.03125,285059.6875,255837.453125,222073.890625,246219.671875,0.0380859375,0.991455078125,0.06640625,0.4882812201976776,-1.8310545682907104,-1.2512205839157104,73.33333587646484,176552.0,1.0
14838.4806631,294308.65625,294797.8125,328212.0625,322266.9375,285006.5625,255821.8125,222070.21875,246239.078125,0.037109375,0.99169921875,0.069091796875,0.5187987685203552,-1.8615721464157104,-1.1596678495407104,73.33333587646484,176553.0,1.0
14838.5007101,294357.125,295067.90625,328434.125,322301.8125,285146.9375,255889.3125,222141.296875,246264.921875,0.03515625,0.989013671875,0.068603515625,0.5187987685203552,-1.8920897245407104,-1.0986326932907104,73.33333587646484,176554.0,1.0
14838.5140736,294357.8125,295353.65625,328619.9375,322276.75,285276.03125,255936.609375,222183.859375,246266.25,0.035400390625,0.990478515625,0.0712890625,0.3967284858226776,-1.8920897245407104,-1.1596678495407104,73.33333587646484,176555.0,1.0
14838.5140787,294310.96875,295266.125,328522.03125,322231.625,285222.75,255902.984375,222140.234375,246241.671875,0.035400390625,0.990234375,0.067138671875,0.3356933295726776,-1.8310545682907104,-1.0375975370407104,73.33333587646484,176556.0,1.0
14838.5140799,294278.4375,294927.25,328275.09375,322223.75,285060.5625,255838.34375,222073.0,246218.609375,0.0341796875,0.9892578125,0.068115234375,0.3662109076976776,-1.9531248807907104,-1.0070799589157104,73.33333587646484,176557.0,1.0
14838.5140812,294299.875,294789.03125,328204.625,322268.90625,285008.09375,255829.578125,222076.65625,246242.828125,0.033203125,0.985595703125,0.065673828125,0.3051757514476776,-1.9531248807907104,-1.0070799589157104,73.33333587646484,176558.0,1.0
14838.5140824,294342.625,295051.71875,328409.625,322298.125,285135.9375,255890.375,222140.671875,246262.859375,0.03564453125,0.988037109375,0.0673828125,0.3662109076976776,-2.014159917831421,-0.9460448622703552,73.33333587646484,176559.0,1.0
14838.5140836,294345.21875,295345.3125,328604.1875,322272.28125,285268.4375,255940.984375,222180.28125,246254.984375,0.03564453125,0.987060546875,0.06787109375,0.4577636420726776,-2.136230230331421,-0.8850097060203552,73.33333587646484,176560.0,1.0
14838.5140849,294311.25,295272.0,328525.15625,322232.25,285227.3125,255917.734375,222145.140625,246237.015625,0.03564453125,0.98876953125,0.06689453125,0.3356933295726776,-2.136230230331421,-0.9765624403953552,73.33333587646484,176561.0,1.0
14838.5140861,294284.34375,294930.3125,328280.0,322227.15625,285063.78125,255840.140625,222077.203125,246222.71875,0.033935546875,0.989501953125,0.0654296875,0.4577636420726776,-2.075195074081421,-0.9765624403953552,73.33333587646484,176562.0,1.0
14838.5140873,294305.875,294786.875,328207.125,322268.71875,285004.34375,255821.453125,222069.328125,246235.59375,0.035400390625,0.98974609375,0.062744140625,0.4272460639476776,-2.075195074081421,-1.0070799589157104,73.33333587646484,176563.0,1.0
14838.5140886,294356.03125,295055.375,328421.4375,322307.53125,285144.34375,255897.984375,222148.71875,246268.21875,0.0361328125,0.99072265625,0.0673828125,0.4577636420726776,-2.136230230331421,-1.1291502714157104,73.33333587646484,176564.0,1.0
14838.5140898,294357.8125,295345.5,328601.9375,322280.78125,285270.9375,255948.59375,222183.859375,246260.71875,0.03759765625,0.991455078125,0.06982421875,0.4272460639476776,-2.075195074081421,-1.0681151151657104,73.33333587646484,176565.0,1.0
14838.514091,294317.78125,295271.03125,328519.4375,322239.75,285228.46875,255920.875,222145.421875,246242.921875,0.03515625,0.990966796875,0.068115234375,0.4272460639476776,-2.044677495956421,-1.0070799589157104,73.33333587646484,176566.0,1.0
14838.5140923,294283.96875,294924.9375,328266.9375,322232.34375,285061.46875,255841.921875,222069.59375,246228.078125,0.0380859375,0.990966796875,0.069580078125,0.3967284858226776,-1.8920897245407104,-1.0681151151657104,73.33333587646484,176567.0,1.0
14838.5140935,294304.1875,294787.25,328195.6875,322271.59375,285003.34375,255826.28125,222068.96875,246241.046875,0.04052734375,0.991943359375,0.0703125,0.3356933295726776,-1.8920897245407104,-1.1596678495407104,73.33333587646484,176568.0,1.0
14838.5140949,294340.125,295048.40625,328403.8125,322294.1875,285130.84375,255880.90625,222127.625,246257.40625,0.040283203125,0.9912109375,0.0712890625,0.2441406100988388,-1.8615721464157104,-1.1291502714157104,73.33333587646484,176569.0,1.0
14838.515659,294341.46875,295339.25,328592.90625,322265.5,285263.09375,255926.328125,222171.078125,246252.578125,0.040283203125,0.988525390625,0.068603515625,0.1831054538488388,-1.7089842557907104,-1.1291502714157104,73.33333587646484,176570.0,1.0
14838.5862894,294304.8125,295259.21875,328510.75,322224.46875,285219.09375,255895.84375,222137.8125,246232.375,0.0390625,0.986328125,0.067138671875,0.2136230319738388,-1.6784666776657104,-1.0375975370407104,73.33333587646484,176571.0,1.0
14838.586296,294283.15625,294933.6875,328275.71875,322224.28125,285065.125,255840.765625,222081.84375,246226.375,0.038330078125,0.98779296875,0.06640625,0.3967284858226776,-1.6174315214157104,-0.9765624403953552,73.33333587646484,176572.0,1.0
14838.6125049,294303.90625,294790.28125,328199.34375,322264.25,285004.5,255829.859375,222081.84375,246246.3125,0.03857421875,0.987060546875,0.065673828125,0.3967284858226776,-1.5258787870407104,-1.0986326932907104,73.33333587646484,176573.0,1.0
14838.6125107,294345.75,295051.90625,328403.75,322291.78125,285132.8125,255895.65625,222139.25,246262.328125,0.036376953125,0.9892578125,0.06640625,0.4577636420726776,-1.3732908964157104,-1.0070799589157104,73.33333587646484,176574.0,1.0
14838.612512,294343.96875,295340.0625,328591.21875,322264.15625,285260.65625,255930.34375,222172.6875,246254.1875,0.0361328125,0.99072265625,0.072265625,0.4272460639476776,-1.4038084745407104,-1.0375975370407104,73.33333587646484,176575.0,1.0
14838.6125133,294303.28125,295261.90625,328509.40625,322223.3125,285216.21875,255884.65625,222132.984375,246232.375,0.036865234375,0.98828125,0.069091796875,0.3356933295726776,-1.4038084745407104,-1.0070799589157104,73.33333587646484,176576.0,1.0
14838.6682215,294282.46875,294929.6875,328274.625,322225.34375,285064.40625,255832.796875,222076.578125,246226.03125,0.03662109375,0.989990234375,0.068115234375,0.3662109076976776,-1.4343260526657104,-1.0681151151657104,73.33333587646484,176577.0,1.0
14838.6682271,294299.625,294785.1875,328198.90625,322264.59375,285005.5,255824.9375,222075.953125,246242.75,0.0361328125,0.990234375,0.066650390625,0.3662109076976776,-1.4038084745407104,-1.1596678495407104,73.33333587646484,176578.0,1.0
14838.6682284,294340.3125,295051.8125,328413.75,322296.4375,285144.09375,255896.109375,222153.640625,246269.46875,0.03564453125,0.9912109375,0.067138671875,0.4577636420726776,-1.5258787870407104,-1.1596678495407104,73.33333587646484,176579.0,1.0
14838.6682297,294341.28125,295344.875,328603.65625,322269.6875,285272.65625,255941.515625,222187.609375,246256.59375,0.033447265625,0.9912109375,0.067138671875,0.5187987685203552,-1.4343260526657104,-1.2512205839157104,73.33333587646484,176580.0,1.0
14838.6682309,294303.5625,295265.125,328512.46875,322228.5,285222.65625,255899.59375,222141.296875,246234.609375,0.03515625,0.992919921875,0.065673828125,0.4272460639476776,-1.4953612089157104,-1.2512205839157104,73.33333587646484,176581.0,1.0
14838.6682323,294280.75,294930.9375,328270.59375,322229.90625,285064.875,255836.828125,222078.984375,246227.984375,0.03466796875,0.993408203125,0.068115234375,0.3356933295726776,-1.4648436307907104,-1.2512205839157104,73.33333587646484,176582.0,1.0
14838.6944941,294300.96875,294788.5,328196.59375,322267.75,285007.03125,255826.546875,222074.609375,246241.3125,0.03271484375,0.991455078125,0.068115234375,0.3051757514476776,-1.4953612089157104,-1.1596678495407104,73.33333587646484,176583.0,1.0
14838.7460515,294300.96875,294788.5,328196.59375,322267.75,285007.03125,255826.546875,222074.609375,246241.3125,0.03271484375,0.991455078125,0.068115234375,0.3051757514476776,-1.4953612089157104,-1.1596678495407104,73.33333587646484,176584.0,0.0
14838.7460534,294300.96875,294788.5,328196.59375,322267.75,285007.03125,255826.546875,222074.609375,246241.3125,0.03271484375,0.991455078125,0.068115234375,0.3051757514476776,-1.4953612089157104,-1.1596678495407104,73.33333587646484,176585.0,0.0
14838.7460536,294300.96875,294788.5,328196.59375,322267.75,285007.03125,255826.546875,222074.609375,246241.3125,0.03271484375,0.991455078125,0.068115234375,0.3051757514476776,-1.4953612089157104,-1.1596678495407104,73.33333587646484,176586.0,0.0
14838.7460537,294300.96875,294788.5,328196.59375,322267.75,285007.03125,255826.546875,222074.609375,246241.3125,0.03271484375,0.991455078125,0.068115234375,0.3051757514476776,-1.4953612089157104,-1.1596678495407104,73.33333587646484,176587.0,0.0
14838.7460539,294300.96875,294788.5,328196.59375,322267.75,285007.03125,255826.546875,222074.609375,246241.3125,0.03271484375,0.991455078125,0.068115234375,0.3051757514476776,-1.4953612089157104,-1.1596678495407104,73.33333587646484,176588.0,0.0
14838.7460541,294300.96875,294788.5,328196.59375,322267.75,285007.03125,255826.546875,222074.609375,246241.3125,0.03271484375,0.991455078125,0.068115234375,0.3051757514476776,-1.4953612089157104,-1.1596678495407104,73.33333587646484,176589.0,0.0
14838.7460543,294300.96875,294788.5,328196.59375,322267.75,285007.03125,255826.546875,222074.609375,246241.3125,0.03271484375,0.991455078125,0.068115234375,0.3051757514476776,-1.4953612089157104,-1.1596678495407104,73.33333587646484,176590.0,0.0
14838.7460544,294300.96875,294788.5,328196.59375,322267.75,285007.03125,255826.546875,222074.609375,246241.3125,0.03271484375,0.991455078125,0.068115234375,0.3051757514476776,-1.4953612089157104,-1.1596678495407104,73.33333587646484,176591.0,0.0
14838.7460546,294300.96875,294788.5,328196.59375,322267.75,285007.03125,255826.546875,222074.609375,246241.3125,0.03271484375,0.991455078125,0.068115234375,0.3051757514476776,-1.4953612089157104,-1.1596678495407104,73.33333587646484,176592.0,0.0
14838.7460548,294300.96875,294788.5,328196.59375,322267.75,285007.03125,255826.546875,222074.609375,246241.3125,0.03271484375,0.991455078125,0.068115234375,0.3051757514476776,-1.4953612089157104,-1.1596678495407104,73.33333587646484,176593.0,0.0
14838.7460549,294300.96875,294788.5,328196.59375,322267.75,285007.03125,255826.546875,222074.609375,246241.3125,0.03271484375,0.991455078125,0.068115234375,0.3051757514476776,-1.4953612089157104,-1.1596678495407104,73.33333587646484,176594.0,0.0
14838.7460551,294300.96875,294788.5,328196.59375,322267.75,285007.03125,255826.546875,222074.609375,246241.3125,0.03271484375,0.991455078125,0.068115234375,0.3051757514476776,-1.4953612089157104,-1.1596678495407104,73.33333587646484,176595.0,0.0
14838.7460553,294300.96875,294788.5,328196.59375,322267.75,285007.03125,255826.546875,222074.609375,246241.3125,0.03271484375,0.991455078125,0.068115234375,0.3051757514476776,-1.4953612089157104,-1.1596678495407104,73.33333587646484,176596.0,0.0
14838.7460554,294300.96875,294788.5,328196.59375,322267.75,285007.03125,255826.546875,222074.609375,246241.3125,0.03271484375,0.991455078125,0.068115234375,0.3051757514476776,-1.4953612089157104,-1.1596678495407104,73.33333587646484,176597.0,0.0
14838.7460556,294300.96875,294788.5,328196.59375,322267.75,285007.03125,255826.546875,222074.609375,246241.3125,0.03271484375,0.991455078125,0.068115234375,0.3051757514476776,-1.4953612089157104,-1.1596678495407104,73.33333587646484,176598.0,0.0
14838.7460558,294300.96875,294788.5,328196.59375,322267.75,285007.03125,255826.546875,222074.609375,246241.3125,0.03271484375,0.991455078125,0.068115234375,0.3051757514476776,-1.4953612089157104,-1.1596678495407104,73.33333587646484,176599.0,0.0
14838.7460559,294300.96875,294788.5,328196.59375,322267.75,285007.03125,255826.546875,222074.609375,246241.3125,0.03271484375,0.991455078125,0.068115234375,0.3051757514476776,-1.4953612089157104,-1.1596678495407104,73.33333587646484,176600.0,0.0
14838.7460561,294300.96875,294788.5,328196.59375,322267.75,285007.03125,255826.546875,222074.609375,246241.3125,0.03271484375,0.991455078125,0.068115234375,0.3051757514476776,-1.4953612089157104,-1.1596678495407104,73.33333587646484,176601.0,0.0
14838.7460563,294300.96875,294788.5,328196.59375,322267.75,285007.03125,255826.546875,222074.609375,246241.3125,0.03271484375,0.991455078125,0.068115234375,0.3051757514476776,-1.4953612089157104,-1.1596678495407104,73.33333587646484,176602.0,0.0
14838.7460565,294300.96875,294788.5,328196.59375,322267.75,285007.03125,255826.546875,222074.609375,246241.3125,0.03271484375,0.991455078125,0.068115234375,0.3051757514476776,-1.4953612089157104,-1.1596678495407104,73.33333587646484,176603.0,0.0
14838.7460567,294300.96875,294788.5,328196.59375,322267.75,285007.03125,255826.546875,222074.609375,246241.3125,0.03271484375,0.991455078125,0.068115234375,0.3051757514476776,-1.4953612089157104,-1.1596678495407104,73.33333587646484,176604.0,0.0
14838.7460568,294300.96875,294788.5,328196.59375,322267.75,285007.03125,255826.546875,222074.609375,246241.3125,0.03271484375,0.991455078125,0.068115234375,0.3051757514476776,-1.4953612089157104,-1.1596678495407104,73.33333587646484,176605.0,0.0
14838.746057,294300.96875,294788.5,328196.59375,322267.75,285007.03125,255826.546875,222074.609375,246241.3125,0.03271484375,0.991455078125,0.068115234375,0.3051757514476776,-1.4953612089157104,-1.1596678495407104,73.33333587646484,176606.0,0.0
14838.7460572,294300.96875,294788.5,328196.59375,322267.75,285007.03125,255826.546875,222074.609375,246241.3125,0.03271484375,0.991455078125,0.068115234375,0.3051757514476776,-1.4953612089157104,-1.1596678495407104,73.33333587646484,176607.0,0.0
14838.7460574,294300.96875,294788.5,328196.59375,322267.75,285007.03125,255826.546875,222074.609375,246241.3125,0.03271484375,0.991455078125,0.068115234375,0.3051757514476776,-1.4953612089157104,-1.1596678495407104,73.33333587646484,176608.0,0.0
14838.7460575,294300.96875,294788.5,328196.59375,322267.75,285007.03125,255826.546875,222074.609375,246241.3125,0.03271484375,0.991455078125,0.068115234375,0.3051757514476776,-1.4953612089157104,-1.1596678495407104,73.33333587646484,176609.0,0.0
14838.7460577,294300.96875,294788.5,328196.59375,322267.75,285007.03125,255826.546875,222074.609375,246241.3125,0.03271484375,0.991455078125,0.068115234375,0.3051757514476776,-1.4953612089157104,-1.1596678495407104,73.33333587646484,176610.0,0.0
14838.7460579,294300.96875,294788.5,328196.59375,322267.75,285007.03125,255826.546875,222074.609375,246241.3125,0.03271484375,0.991455078125,0.068115234375,0.3051757514476776,-1.4953612089157104,-1.1596678495407104,73.33333587646484,176611.0,0.0
14838.7460581,294300.96875,294788.5,328196.59375,322267.75,285007.03125,255826.546875,222074.609375,246241.3125,0.03271484375,0.991455078125,0.068115234375,0.3051757514476776,-1.4953612089157104,-1.1596678495407104,73.33333587646484,176612.0,0.0
14838.7460582,294300.96875,294788.5,328196.59375,322267.75,285007.03125,255826.546875,222074.609375,246241.3125,0.03271484375,0.991455078125,0.068115234375,0.3051757514476776,-1.4953612089157104,-1.1596678495407104,73.33333587646484,176613.0,0.0
14838.7460584,294300.96875,294788.5,328196.59375,322267.75,285007.03125,255826.546875,222074.609375,246241.3125,0.03271484375,0.991455078125,0.068115234375,0.3051757514476776,-1.4953612089157104,-1.1596678495407104,73.33333587646484,176614.0,0.0
14838.7460586,294367.40625,295353.1875,328607.84375,322276.3125,285282.3125,255949.75,222197.453125,246268.9375,0.03662109375,0.98876953125,0.070556640625,-0.1525878757238388,-0.7629393935203552,-1.0070799589157104,73.33333587646484,176615.0,1.0
14838.746065,294324.03125,295276.84375,328525.78125,322230.0,285241.25,255917.5625,222160.609375,246245.25,0.037109375,0.988525390625,0.070556640625,-0.1220703050494194,-0.8239745497703552,-1.0070799589157104,73.33333587646484,176616.0,1.0
14838.7460663,294295.0625,294950.9375,328290.0,322224.46875,285087.21875,255857.65625,222095.796875,246232.734375,0.037109375,0.989501953125,0.07080078125,-0.0610351525247097,-0.9155272841453552,-1.0070799589157104,73.33333587646484,176617.0,1.0
14838.7460675,294310.15625,294801.46875,328213.125,322262.90625,285025.34375,255850.59375,222096.15625,246245.25,0.034912109375,0.98974609375,0.071533203125,-0.2746581733226776,-0.9460448622703552,-0.9460448622703552,73.33333587646484,176618.0,1.0
14838.7631987,294342.96875,295043.03125,328398.09375,322282.9375,285136.9375,255900.03125,222148.546875,246255.265625,0.03466796875,0.989501953125,0.07470703125,-0.3356933295726776,-0.8544921278953552,-0.8850097060203552,73.33333587646484,176619.0,1.0
14838.7657269,294337.96875,295321.46875,328570.9375,322248.96875,285253.78125,255919.34375,222169.375,246239.34375,0.03515625,0.987548828125,0.075439453125,-0.2746581733226776,-0.7934569716453552,-0.8239745497703552,73.33333587646484,176620.0,1.0
14838.7682651,294314.09375,295255.375,328491.4375,322218.65625,285216.40625,255892.53125,222137.375,246228.703125,0.03515625,0.987548828125,0.073974609375,-0.2746581733226776,-0.7019042372703552,-0.8239745497703552,73.33333587646484,176621.0,1.0
14838.7713597,294287.46875,294917.15625,328244.875,322215.78125,285055.3125,255833.15625,222072.546875,246218.6875,0.033935546875,0.98828125,0.0712890625,-0.0610351525247097,-0.7019042372703552,-0.8544921278953552,73.33333587646484,176622.0,1.0
14838.7713648,294312.9375,294785.90625,328185.84375,322262.625,285007.1875,255828.15625,222079.515625,246238.71875,0.033203125,0.98876953125,0.074462890625,-0.03051757626235485,-0.7629393935203552,-0.9460448622703552,73.33333587646484,176623.0,1.0
14838.7732654,294355.59375,295051.1875,328407.9375,322294.375,285143.53125,255884.390625,222145.59375,246260.359375,0.032470703125,0.990478515625,0.072265625,-0.03051757626235485,-0.8544921278953552,-0.9155272841453552,73.33333587646484,176624.0,1.0
14838.7757624,294359.0625,295341.9375,328598.03125,322270.96875,285273.1875,255932.671875,222183.953125,246256.25,0.031494140625,0.990234375,0.067626953125,-0.0915527269244194,-0.8544921278953552,-0.7934569716453552,73.33333587646484,176625.0,1.0
14838.781355,294325.8125,295272.1875,328517.28125,322230.625,285230.0,255907.375,222146.484375,246234.515625,0.033447265625,0.989013671875,0.072021484375,-0.03051757626235485,-0.9155272841453552,-0.6713866591453552,73.33333587646484,176626.0,1.0
14838.7813604,294299.25,294932.90625,328277.03125,322227.5,285070.84375,255839.953125,222085.0625,246227.359375,0.0341796875,0.989990234375,0.070068359375,0.0,-0.9155272841453552,-0.6408690810203552,73.33333587646484,176627.0,1.0
14838.783846,294319.375,294795.28125,328207.5,322269.625,285013.53125,255827.171875,222083.453125,246248.546875,0.034423828125,0.991455078125,0.069091796875,0.0915527269244194,-0.8850097060203552,-0.6713866591453552,73.33333587646484,176628.0,1.0
14838.7838511,294361.21875,295058.15625,328414.1875,322298.125,285143.4375,255888.140625,222146.484375,246269.203125,0.032958984375,0.991943359375,0.068115234375,0.1525878757238388,-1.0375975370407104,-0.5798339247703552,73.33333587646484,176629.0,1.0
14838.8105225,294366.9375,295351.75,328603.84375,322274.34375,285277.65625,255937.59375,222188.0625,246265.546875,0.0322265625,0.994873046875,0.073486328125,0.0610351525247097,-1.1596678495407104,-0.5493163466453552,73.33333587646484,176630.0,1.0
14838.8105278,294329.21875,295282.46875,328526.5,322233.75,285236.625,255914.796875,222151.765625,246244.984375,0.032470703125,0.99365234375,0.075439453125,0.1220703050494194,-1.2817381620407104,-0.5187987685203552,73.33333587646484,176631.0,1.0
14838.8105291,294297.75,294940.40625,328280.09375,322227.59375,285073.625,255845.765625,222088.546875,246236.390625,0.031494140625,0.990478515625,0.072021484375,0.0,-1.2512205839157104,-0.5493163466453552,73.33333587646484,176632.0,1.0
14838.8105303,294316.53125,294801.8125,328210.875,322270.25,285018.8125,255835.671875,222089.265625,246249.453125,0.033203125,0.98974609375,0.075439453125,0.0610351525247097,-1.2817381620407104,-0.5187987685203552,73.33333587646484,176633.0,1.0
14838.8105316,294356.3125,295063.0625,328423.75,322299.75,285153.65625,255898.34375,222156.0625,246275.015625,0.031982421875,0.990478515625,0.073486328125,-0.03051757626235485,-1.3427733182907104,-0.5493163466453552,73.33333587646484,176634.0,1.0
14838.8365122,294360.96875,295355.78125,328618.59375,322276.6875,285289.53125,255952.515625,222200.9375,246274.921875,0.033447265625,0.99072265625,0.074951171875,-0.0915527269244194,-1.4343260526657104,-0.5493163466453552,73.33333587646484,176635.0,1.0
14838.8365185,294360.96875,295355.78125,328618.59375,322276.6875,285289.53125,255952.515625,222200.9375,246274.921875,0.033447265625,0.99072265625,0.074951171875,-0.0915527269244194,-1.4343260526657104,-0.5493163466453552,73.33333587646484,176636.0,0.0
14838.8365187,294360.96875,295355.78125,328618.59375,322276.6875,285289.53125,255952.515625,222200.9375,246274.921875,0.033447265625,0.99072265625,0.074951171875,-0.0915527269244194,-1.4343260526657104,-0.5493163466453552,73.33333587646484,176637.0,0.0
14838.8365189,294360.96875,295355.78125,328618.59375,322276.6875,285289.53125,255952.515625,222200.9375,246274.921875,0.033447265625,0.99072265625,0.074951171875,-0.0915527269244194,-1.4343260526657104,-0.5493163466453552,73.33333587646484,176638.0,0.0
14838.8365191,294360.96875,295355.78125,328618.59375,322276.6875,285289.53125,255952.515625,222200.9375,246274.921875,0.033447265625,0.99072265625,0.074951171875,-0.0915527269244194,-1.4343260526657104,-0.5493163466453552,73.33333587646484,176639.0,0.0
14838.8365193,294360.96875,295355.78125,328618.59375,322276.6875,285289.53125,255952.515625,222200.9375,246274.921875,0.033447265625,0.99072265625,0.074951171875,-0.0915527269244194,-1.4343260526657104,-0.5493163466453552,73.33333587646484,176640.0,0.0
14838.8365195,294360.96875,295355.78125,328618.59375,322276.6875,285289.53125,255952.515625,222200.9375,246274.921875,0.033447265625,0.99072265625,0.074951171875,-0.0915527269244194,-1.4343260526657104,-0.5493163466453552,73.33333587646484,176641.0,0.0
14838.8365197,294360.96875,295355.78125,328618.59375,322276.6875,285289.53125,255952.515625,222200.9375,246274.921875,0.033447265625,0.99072265625,0.074951171875,-0.0915527269244194,-1.4343260526657104,-0.5493163466453552,73.33333587646484,176642.0,0.0
14838.8365198,294360.96875,295355.78125,328618.59375,322276.6875,285289.53125,255952.515625,222200.9375,246274.921875,0.033447265625,0.99072265625,0.074951171875,-0.0915527269244194,-1.4343260526657104,-0.5493163466453552,73.33333587646484,176643.0,0.0
14838.83652,294360.96875,295355.78125,328618.59375,322276.6875,285289.53125,255952.515625,222200.9375,246274.921875,0.033447265625,0.99072265625,0.074951171875,-0.0915527269244194,-1.4343260526657104,-0.5493163466453552,73.33333587646484,176644.0,0.0
14838.8365202,294360.96875,295355.78125,328618.59375,322276.6875,285289.53125,255952.515625,222200.9375,246274.921875,0.033447265625,0.99072265625,0.074951171875,-0.0915527269244194,-1.4343260526657104,-0.5493163466453552,73.33333587646484,176645.0,0.0
14838.8365203,294360.96875,295355.78125,328618.59375,322276.6875,285289.53125,255952.515625,222200.9375,246274.921875,0.033447265625,0.99072265625,0.074951171875,-0.0915527269244194,-1.4343260526657104,-0.5493163466453552,73.33333587646484,176646.0,0.0
14838.8365205,294360.96875,295355.78125,328618.59375,322276.6875,285289.53125,255952.515625,222200.9375,246274.921875,0.033447265625,0.99072265625,0.074951171875,-0.0915527269244194,-1.4343260526657104,-0.5493163466453552,73.33333587646484,176647.0,0.0
14838.8365207,294360.96875,295355.78125,328618.59375,322276.6875,285289.53125,255952.515625,222200.9375,246274.921875,0.033447265625,0.99072265625,0.074951171875,-0.0915527269244194,-1.4343260526657104,-0.5493163466453552,73.33333587646484,176648.0,0.0
14838.8365209,294360.96875,295355.78125,328618.59375,322276.6875,285289.53125,255952.515625,222200.9375,246274.921875,0.033447265625,0.99072265625,0.074951171875,-0.0915527269244194,-1.4343260526657104,-0.5493163466453552,73.33333587646484,176649.0,0.0
14838.836521,294360.96875,295355.78125,328618.59375,322276.6875,285289.53125,255952.515625,222200.9375,246274.921875,0.033447265625,0.99072265625,0.074951171875,-0.0915527269244194,-1.4343260526657104,-0.5493163466453552,73.33333587646484,176650.0,0.0
14838.8365212,294360.96875,295355.78125,328618.59375,322276.6875,285289.53125,255952.515625,222200.9375,246274.921875,0.033447265625,0.99072265625,0.074951171875,-0.0915527269244194,-1.4343260526657104,-0.5493163466453552,73.33333587646484,176651.0,0.0
14838.8365214,294360.96875,295355.78125,328618.59375,322276.6875,285289.53125,255952.515625,222200.9375,246274.921875,0.033447265625,0.99072265625,0.074951171875,-0.0915527269244194,-1.4343260526657104,-0.5493163466453552,73.33333587646484,176652.0,0.0
14838.8365215,294360.96875,295355.78125,328618.59375,322276.6875,285289.53125,255952.515625,222200.9375,246274.921875,0.033447265625,0.99072265625,0.074951171875,-0.0915527269244194,-1.4343260526657104,-0.5493163466453552,73.33333587646484,176653.0,0.0
14838.8365217,294360.96875,295355.78125,328618.59375,322276.6875,285289.53125,255952.515625,222200.9375,246274.921875,0.033447265625,0.99072265625,0.074951171875,-0.0915527269244194,-1.4343260526657104,-0.5493163466453552,73.33333587646484,176654.0,0.0
14838.8365219,294360.96875,295355.78125,328618.59375,322276.6875,285289.53125,255952.515625,222200.9375,246274.921875,0.033447265625,0.99072265625,0.074951171875,-0.0915527269244194,-1.4343260526657104,-0.5493163466453552,73.33333587646484,176655.0,0.0
14838.836522,294360.96875,295355.78125,328618.59375,322276.6875,285289.53125,255952.515625,222200.9375,246274.921875,0.033447265625,0.99072265625,0.074951171875,-0.0915527269244194,-1.4343260526657104,-0.5493163466453552,73.33333587646484,176656.0,0.0
14838.8365222,294360.96875,295355.78125,328618.59375,322276.6875,285289.53125,255952.515625,222200.9375,246274.921875,0.033447265625,0.99072265625,0.074951171875,-0.0915527269244194,-1.4343260526657104,-0.5493163466453552,73.33333587646484,176657.0,0.0
14838.8365224,294360.96875,295355.78125,328618.59375,322276.6875,285289.53125,255952.515625,222200.9375,246274.921875,0.033447265625,0.99072265625,0.074951171875,-0.0915527269244194,-1.4343260526657104,-0.5493163466453552,73.33333587646484,176658.0,0.0
14838.8365225,294360.96875,295355.78125,328618.59375,322276.6875,285289.53125,255952.515625,222200.9375,246274.921875,0.033447265625,0.99072265625,0.074951171875,-0.0915527269244194,-1.4343260526657104,-0.5493163466453552,73.33333587646484,176659.0,0.0
14838.8365227,294368.8125,295352.21875,328591.5,322271.21875,285277.125,255935.796875,222190.125,246262.5,0.036865234375,0.994873046875,0.06787109375,0.4882812201976776,-1.1291502714157104,-1.3732908964157104,73.33333587646484,176660.0,1.0
14838.8365242,294341.5625,295293.03125,328528.8125,322238.6875,285246.1875,255915.5,222159.359375,246247.84375,0.03759765625,0.993896484375,0.06982421875,0.4882812201976776,-1.1291502714157104,-1.3427733182907104,73.33333587646484,176661.0,1.0
14838.8607893,294309.90625,294953.8125,328285.53125,322232.875,285082.5625,255845.859375,222086.3125,246236.3125,0.036865234375,0.9931640625,0.072265625,0.3051757514476776,-1.1291502714157104,-1.3122557401657104,73.33333587646484,176662.0,1.0
14838.9095115,294322.96875,294799.6875,328197.03125,322266.03125,285009.875,255824.578125,222070.9375,246237.46875,0.03857421875,0.99365234375,0.072998046875,0.2746581733226776,-1.1596678495407104,-1.2512205839157104,73.33333587646484,176663.0,1.0
14838.934504,294363.28125,295063.0625,328407.75,322296.96875,285142.90625,255885.90625,222137.453125,246259.8125,0.039306640625,0.99365234375,0.076904296875,0.2746581733226776,-1.1596678495407104,-1.1901854276657104,73.33333587646484,176664.0,1.0
14838.9595034,294370.875,295361.96875,328605.0,322276.75,285282.75,255944.65625,222187.53125,246262.328125,0.038330078125,0.990966796875,0.07275390625,0.1525878757238388,-1.1901854276657104,-1.0681151151657104,73.33333587646484,176665.0,1.0
14838.9820178,294336.0,295297.59375,328530.96875,322235.8125,285244.75,255918.90625,222153.375,246239.25,0.037841796875,0.9931640625,0.0732421875,0.03051757626235485,-1.2512205839157104,-1.0681151151657104,73.33333587646484,176666.0,1.0
14838.9894125,294302.40625,294959.0,328289.84375,322228.3125,285085.34375,255843.53125,222082.109375,246226.03125,0.0361328125,0.990234375,0.07373046875,-0.0915527269244194,-1.2817381620407104,-0.9155272841453552,73.33333587646484,176667.0,1.0
14838.9894175,294322.59375,294809.96875,328211.34375,322269.15625,285024.375,255830.21875,222077.203125,246246.140625,0.036376953125,0.990478515625,0.07470703125,-0.1525878757238388,-1.2512205839157104,-0.9155272841453552,73.33333587646484,176668.0,1.0
14838.9894188,294364.25,295075.5,328420.375,322295.4375,285153.1875,255890.203125,222140.3125,246263.578125,0.03515625,0.98974609375,0.07861328125,-0.0915527269244194,-1.3122557401657104,-0.8544921278953552,73.33333587646484,176669.0,1.0
14838.9894201,294365.25,295363.125,328605.875,322266.65625,285280.96875,255930.796875,222177.953125,246255.703125,0.037109375,0.987548828125,0.074951171875,-0.0610351525247097,-1.2817381620407104,-0.7934569716453552,73.33333587646484,176670.0,1.0
14838.9894213,294341.1875,295299.09375,328531.15625,322236.09375,285246.28125,255918.1875,222150.953125,246241.40625,0.035888671875,0.989013671875,0.072021484375,0.0,-1.3427733182907104,-0.6408690810203552,73.33333587646484,176671.0,1.0
14838.9894225,294311.34375,294962.65625,328286.25,322229.8125,285088.28125,255862.046875,222089.09375,246230.859375,0.037109375,0.99072265625,0.07421875,-0.0915527269244194,-1.4343260526657104,-0.5798339247703552,73.33333587646484,176672.0,1.0
14838.9894237,294326.53125,294820.40625,328208.65625,322269.0,285029.5625,255843.796875,222086.40625,246249.625,0.037353515625,0.99169921875,0.071044921875,-0.1831054538488388,-1.6174315214157104,-0.6408690810203552,73.33333587646484,176673.0,1.0
14838.9894251,294357.75,295074.4375,328412.21875,322291.96875,285154.28125,255893.0625,222147.46875,246264.296875,0.037109375,0.990478515625,0.0712890625,-0.1831054538488388,-1.4648436307907104,-0.4882812201976776,73.33333587646484,176674.0,1.0
14838.99192,294366.59375,295371.34375,328608.3125,322273.09375,285293.5625,255958.0625,222199.234375,246263.578125,0.03759765625,0.98876953125,0.071044921875,-0.1831054538488388,-1.5869139432907104,-0.5187987685203552,73.33333587646484,176675.0,1.0
14838.9944445,294332.6875,295302.40625,328528.0,322233.59375,285251.46875,255932.9375,222165.625,246243.8125,0.0380859375,0.9873046875,0.072998046875,-0.3051757514476776,-1.5563963651657104,-0.3967284858226776,73.33333587646484,176676.0,1.0
14838.9969469,294303.03125,294961.59375,328281.25,322227.6875,285089.0,255860.4375,222095.4375,246231.828125,0.037353515625,0.989501953125,0.0732421875,-0.3051757514476776,-1.5869139432907104,-0.5187987685203552,73.33333587646484,176677.0,1.0
14839.0000122,294320.28125,294821.5,328211.96875,322268.625,285032.9375,255845.59375,222088.46875,246244.625,0.035400390625,0.98681640625,0.07666015625,-0.2136230319738388,-1.5869139432907104,-0.5493163466453552,73.33333587646484,176678.0,1.0
14839.0000144,294355.21875,295072.1875,328412.40625,322292.59375,285154.8125,255906.46875,222150.421875,246268.140625,0.039306640625,0.986328125,0.074462890625,-0.1831054538488388,-1.5258787870407104,-0.6408690810203552,73.33333587646484,176679.0,1.0
14839.0245127,294360.6875,295361.34375,328600.625,322269.78125,285284.0,255959.578125,222195.21875,246267.59375,0.0400390625,0.988525390625,0.073486328125,-0.2136230319738388,-1.5869139432907104,-0.7324218153953552,73.33333587646484,176680.0,1.0
14839.0495031,294322.96875,295287.75,328519.15625,322224.375,285238.59375,255922.84375,222155.25,246232.015625,0.04150390625,0.9912109375,0.072509765625,-0.2441406100988388,-1.5258787870407104,-0.7934569716453552,73.33333587646484,176681.0,1.0
14839.0751124,294293.28125,294946.65625,328276.15625,322217.84375,285076.84375,255851.84375,222086.765625,246221.015625,0.043212890625,0.992431640625,0.072265625,-0.2136230319738388,-1.5258787870407104,-0.7324218153953552,73.33333587646484,176682.0,1.0
14839.0751181,294320.1875,294811.46875,328212.3125,322264.875,285026.6875,255848.1875,222089.359375,246247.84375,0.041748046875,0.991943359375,0.072998046875,-0.1220703050494194,-1.4648436307907104,-0.7934569716453552,73.33333587646484,176683.0,1.0
14839.1476162,294361.21875,295075.0625,328420.28125,322294.65625,285159.46875,255915.234375,222163.125,246273.140625,0.041259765625,0.991455078125,0.076904296875,-0.1525878757238388,-1.4038084745407104,-0.7629393935203552,73.33333587646484,176684.0,1.0
14839.1476211,294364.34375,295364.09375,328605.875,322269.78125,285288.28125,255954.484375,222194.5,246265.90625,0.042236328125,0.990478515625,0.0751953125,-0.1220703050494194,-1.3427733182907104,-0.8544921278953552,73.33333587646484,176685.0,1.0
14839.1476224,294327.0625,295289.4375,328520.6875,322225.625,285240.71875,255915.78125,222145.859375,246230.21875,0.04345703125,0.988525390625,0.076171875,-0.1525878757238388,-1.1291502714157104,-0.9155272841453552,73.33333587646484,176686.0,1.0
14839.1476236,294293.1875,294944.6875,328274.1875,322220.0,285076.125,255843.984375,222076.75,246219.9375,0.045654296875,0.9873046875,0.074951171875,0.0,-0.9460448622703552,-0.9765624403953552,73.33333587646484,176687.0,1.0
14839.1476248,294314.46875,294800.46875,328202.65625,322263.34375,285019.34375,255832.71875,222076.9375,246239.796875,0.043701171875,0.98583984375,0.071533203125,0.0610351525247097,-0.9460448622703552,-0.9460448622703552,73.33333587646484,176688.0,1.0
14839.147626,294359.15625,295064.6875,328418.5625,322296.34375,285154.90625,255903.4375,222153.375,246265.1875,0.044677734375,0.987060546875,0.071533203125,0.1220703050494194,-0.8850097060203552,-1.0070799589157104,73.33333587646484,176689.0,1.0
14839.1476273,294364.875,295355.34375,328605.0,322273.46875,285283.46875,255955.375,222194.328125,246262.0625,0.045654296875,0.986083984375,0.069580078125,0.2441406100988388,-0.7629393935203552,-1.0681151151657104,73.33333587646484,176690.0,1.0
14839.1476285,294326.8125,295280.15625,328515.84375,322232.96875,285236.25,255919.625,222154.53125,246241.046875,0.04345703125,0.98828125,0.0712890625,0.4272460639476776,-0.6713866591453552,-1.0681151151657104,73.33333587646484,176691.0,1.0
14839.1476298,294299.25,294942.8125,328272.5625,322228.84375,285075.9375,255854.4375,222089.625,246230.21875,0.042724609375,0.987548828125,0.07275390625,0.5493163466453552,-0.5493163466453552,-0.9460448622703552,73.33333587646484,176692.0,1.0
14839.170762,294326.96875,294808.78125,328206.25,322274.4375,285024.0,255840.3125,222089.71875,246250.34375,0.04150390625,0.987060546875,0.0751953125,0.7324218153953552,-0.5187987685203552,-0.9765624403953552,73.33333587646484,176693.0,1.0
14839.1963499,294370.625,295073.0,328424.75,322308.6875,285163.46875,255905.84375,222161.953125,246277.515625,0.04052734375,0.98876953125,0.0751953125,0.7934569716453552,-0.4272460639476776,-0.8544921278953552,73.33333587646484,176694.0,1.0
14839.1963549,294376.15625,295367.9375,328613.9375,322283.28125,285297.15625,255966.203125,222205.046875,246272.15625,0.041259765625,0.987548828125,0.072509765625,0.7934569716453552,-0.3356933295726776,-0.8544921278953552,73.33333587646484,176695.0,1.0
14839.2288754,294335.65625,295297.9375,328533.46875,322239.21875,285254.125,255937.953125,222167.765625,246248.109375,0.038818359375,0.9892578125,0.07373046875,0.8239745497703552,-0.3967284858226776,-0.9155272841453552,73.33333587646484,176696.0,1.0
14839.2288807,294301.40625,294958.1875,328291.8125,322234.9375,285094.5625,255870.265625,222103.75,246240.0625,0.03857421875,0.989990234375,0.073974609375,0.8850097060203552,-0.4577636420726776,-0.8850097060203552,73.33333587646484,176697.0,1.0
14839.2780431,294311.59375,294801.5625,328207.03125,322269.0625,285026.0625,255844.15625,222090.609375,246252.21875,0.037353515625,0.990966796875,0.072998046875,1.0375975370407104,-0.4577636420726776,-0.8544921278953552,73.33333587646484,176698.0,1.0
14839.2780507,294349.15625,295055.46875,328405.4375,322294.125,285147.375,255895.203125,222148.984375,246268.578125,0.03515625,0.9921875,0.076171875,1.1596678495407104,-0.5493163466453552,-0.9155272841453552,73.33333587646484,176699.0,1.0
14839.2780521,294357.65625,295353.5625,328600.34375,322271.5,285279.875,255941.96875,222182.078125,246256.953125,0.033935546875,0.99072265625,0.072998046875,1.0375975370407104,-0.6408690810203552,-0.9155272841453552,73.33333587646484,176700.0,1.0
14839.2780534,294321.4375,295276.84375,328513.71875,322229.28125,285235.4375,255913.984375,222148.28125,246238.984375,0.033447265625,0.991455078125,0.0751953125,0.9765624403953552,-0.7324218153953552,-0.8850097060203552,73.33333587646484,176701.0,1.0
14839.2780546,294292.8125,294940.40625,328270.25,322223.3125,285074.53125,255844.25,222081.84375,246230.3125,0.03564453125,0.990234375,0.072509765625,0.9765624403953552,-0.9765624403953552,-0.8544921278953552,73.33333587646484,176702.0,1.0
14839.3046444,294316.96875,294803.0625,328203.09375,322270.40625,285021.84375,255836.828125,222082.828125,246253.296875,0.037353515625,0.989013671875,0.0712890625,0.8850097060203552,-1.0681151151657104,-0.8850097060203552,73.33333587646484,176703.0,1.0
14839.3046513,294316.96875,294803.0625,328203.09375,322270.40625,285021.84375,255836.828125,222082.828125,246253.296875,0.037353515625,0.989013671875,0.0712890625,0.8850097060203552,-1.0681151151657104,-0.8850097060203552,73.33333587646484,176704.0,0.0
14839.3046516,294316.96875,294803.0625,328203.09375,322270.40625,285021.84375,255836.828125,222082.828125,246253.296875,0.037353515625,0.989013671875,0.0712890625,0.8850097060203552,-1.0681151151657104,-0.8850097060203552,73.33333587646484,176705.0,0.0
14839.3046518,294316.96875,294803.0625,328203.09375,322270.40625,285021.84375,255836.828125,222082.828125,246253.296875,0.037353515625,0.989013671875,0.0712890625,0.8850097060203552,-1.0681151151657104,-0.8850097060203552,73.33333587646484,176706.0,0.0
14839.3046519,294316.96875,294803.0625,328203.09375,322270.40625,285021.84375,255836.828125,222082.828125,246253.296875,0.037353515625,0.989013671875,0.0712890625,0.8850097060203552,-1.0681151151657104,-0.8850097060203552,73.33333587646484,176707.0,0.0
14839.3046521,294316.96875,294803.0625,328203.09375,322270.40625,285021.84375,255836.828125,222082.828125,246253.296875,0.037353515625,0.989013671875,0.0712890625,0.8850097060203552,-1.0681151151657104,-0.8850097060203552,73.33333587646484,176708.0,0.0
14839.3046523,294316.96875,294803.0625,328203.09375,322270.40625,285021.84375,255836.828125,222082.828125,246253.296875,0.037353515625,0.989013671875,0.0712890625,0.8850097060203552,-1.0681151151657104,-0.8850097060203552,73.33333587646484,176709.0,0.0
14839.3046525,294316.96875,294803.0625,328203.09375,322270.40625,285021.84375,255836.828125,222082.828125,246253.296875,0.037353515625,0.989013671875,0.0712890625,0.8850097060203552,-1.0681151151657104,-0.8850097060203552,73.33333587646484,176710.0,0.0
14839.3046526,294316.96875,294803.0625,328203.09375,322270.40625,285021.84375,255836.828125,222082.828125,246253.296875,0.037353515625,0.989013671875,0.0712890625,0.8850097060203552,-1.0681151151657104,-0.8850097060203552,73.33333587646484,176711.0,0.0
14839.3046528,294316.96875,294803.0625,328203.09375,322270.40625,285021.84375,255836.828125,222082.828125,246253.296875,0.037353515625,0.989013671875,0.0712890625,0.8850097060203552,-1.0681151151657104,-0.8850097060203552,73.33333587646484,176712.0,0.0
14839.304653,294316.96875,294803.0625,328203.09375,322270.40625,285021.84375,255836.828125,222082.828125,246253.296875,0.037353515625,0.989013671875,0.0712890625,0.8850097060203552,-1.0681151151657104,-0.8850097060203552,73.33333587646484,176713.0,0.0
14839.3046532,294316.96875,294803.0625,328203.09375,322270.40625,285021.84375,255836.828125,222082.828125,246253.296875,0.037353515625,0.989013671875,0.0712890625,0.8850097060203552,-1.0681151151657104,-0.8850097060203552,73.33333587646484,176714.0,0.0
14839.3046533,294316.96875,294803.0625,328203.09375,322270.40625,285021.84375,255836.828125,222082.828125,246253.296875,0.037353515625,0.989013671875,0.0712890625,0.8850097060203552,-1.0681151151657104,-0.8850097060203552,73.33333587646484,176715.0,0.0
14839.3046535,294316.96875,294803.0625,328203.09375,322270.40625,285021.84375,255836.828125,222082.828125,246253.296875,0.037353515625,0.989013671875,0.0712890625,0.8850097060203552,-1.0681151151657104,-0.8850097060203552,73.33333587646484,176716.0,0.0
14839.3046537,294316.96875,294803.0625,328203.09375,322270.40625,285021.84375,255836.828125,222082.828125,246253.296875,0.037353515625,0.989013671875,0.0712890625,0.8850097060203552,-1.0681151151657104,-0.8850097060203552,73.33333587646484,176717.0,0.0
14839.3046538,294316.96875,294803.0625,328203.09375,322270.40625,285021.84375,255836.828125,222082.828125,246253.296875,0.037353515625,0.989013671875,0.0712890625,0.8850097060203552,-1.0681151151657104,-0.8850097060203552,73.33333587646484,176718.0,0.0
14839.304654,294316.96875,294803.0625,328203.09375,322270.40625,285021.84375,255836.828125,222082.828125,246253.296875,0.037353515625,0.989013671875,0.0712890625,0.8850097060203552,-1.0681151151657104,-0.8850097060203552,73.33333587646484,176719.0,0.0
14839.3046542,294316.96875,294803.0625,328203.09375,322270.40625,285021.84375,255836.828125,222082.828125,246253.296875,0.037353515625,0.989013671875,0.0712890625,0.8850097060203552,-1.0681151151657104,-0.8850097060203552,73.33333587646484,176720.0,0.0
14839.3046543,294316.96875,294803.0625,328203.09375,322270.40625,285021.84375,255836.828125,222082.828125,246253.296875,0.037353515625,0.989013671875,0.0712890625,0.8850097060203552,-1.0681151151657104,-0.8850097060203552,73.33333587646484,176721.0,0.0
