Time,FZ,C3,CZ,C4,PZ,PO7,OZ,PO8,AccX,AccY,AccZ,Gyro1,Gyro2,Gyro3,Battery,Counter,Validation
15229.1667629,296379.59375,295293.46875,322970.46875,313882.0625,285760.28125,255165.203125,220192.671875,245184.078125,0.052001953125,1.00048828125,0.1748046875,0.6713866591453552,-1.3732908964157104,-1.4953612089157104,73.33333587646484,274160.0,1.0
15229.1929879,296171.1875,294442.40625,321749.25,313587.84375,285047.4375,254970.390625,219904.515625,245028.59375,0.05126953125,1.000732421875,0.1767578125,0.5493163466453552,-1.4343260526657104,-1.4343260526657104,73.33333587646484,274161.0,1.0
15229.1930022,296177.53125,294104.8125,321053.5,313591.78125,284703.46875,254930.953125,219867.5,245043.703125,0.052490234375,1.0009765625,0.1787109375,0.5493163466453552,-1.5258787870407104,-1.4038084745407104,73.33333587646484,274162.0,1.0
15229.1930035,296384.25,294729.3125,321815.78125,313886.53125,285186.5625,255099.484375,220130.359375,245211.96875,0.0546875,0.99951171875,0.18115234375,0.4882812201976776,-1.4648436307907104,-1.4038084745407104,73.33333587646484,274163.0,1.0
15229.2516288,296499.40625,295455.9375,322994.625,314062.15625,285832.4375,255237.359375,220326.25,245297.53125,0.053955078125,0.998779296875,0.177978515625,0.4272460639476776,-1.4953612089157104,-1.2817381620407104,73.33333587646484,274164.0,1.0
15229.2516442,296373.875,295279.625,322963.78125,313885.5625,285754.71875,255164.21875,220195.71875,245186.75,0.0546875,0.999267578125,0.1787109375,0.4272460639476776,-1.5563963651657104,-1.2817381620407104,73.33333587646484,274165.0,1.0
15229.2516456,296175.03125,294433.46875,321752.21875,313596.40625,285054.40625,254982.09375,219920.796875,245047.734375,0.0546875,0.997314453125,0.178955078125,0.3662109076976776,-1.5258787870407104,-1.1901854276657104,73.33333587646484,274166.0,1.0
15229.2516468,296180.9375,294102.375,321059.21875,313597.59375,284709.03125,254944.90625,219873.3125,245058.375,0.054931640625,0.997314453125,0.17919921875,0.2746581733226776,-1.5869139432907104,-1.0986326932907104,73.33333587646484,274167.0,1.0
15229.251648,296385.5,294729.5,321822.5625,313888.875,285191.46875,255120.59375,220129.828125,245207.046875,0.05322265625,0.997314453125,0.18115234375,0.0915527269244194,-1.5869139432907104,-1.0375975370407104,73.33333587646484,274168.0,1.0
15229.2516492,296512.09375,295468.09375,323011.875,314074.3125,285846.71875,255252.28125,220328.578125,245290.203125,0.05224609375,0.9951171875,0.178466796875,0.0915527269244194,-1.5869139432907104,-0.9460448622703552,73.33333587646484,274169.0,1.0
15229.2516504,296380.03125,295287.03125,322971.1875,313892.8125,285760.8125,255152.0625,220183.109375,245189.796875,0.051025390625,0.992919921875,0.17236328125,0.03051757626235485,-1.5869139432907104,-0.9460448622703552,73.33333587646484,274170.0,1.0
15229.2516519,296175.375,294436.6875,321752.3125,313593.46875,285050.8125,254957.6875,219898.0,245038.875,0.05078125,0.991943359375,0.1728515625,0.1525878757238388,-1.5869139432907104,-0.8239745497703552,73.33333587646484,274171.0,1.0
15229.2767748,296175.375,294436.6875,321752.3125,313593.46875,285050.8125,254957.6875,219898.0,245038.875,0.05078125,0.991943359375,0.1728515625,0.1525878757238388,-1.5869139432907104,-0.8239745497703552,73.33333587646484,274172.0,0.0
15229.2767762,296175.375,294436.6875,321752.3125,313593.46875,285050.8125,254957.6875,219898.0,245038.875,0.05078125,0.991943359375,0.1728515625,0.1525878757238388,-1.5869139432907104,-0.8239745497703552,73.33333587646484,274173.0,0.0
15229.2767764,296175.375,294436.6875,321752.3125,313593.46875,285050.8125,254957.6875,219898.0,245038.875,0.05078125,0.991943359375,0.1728515625,0.1525878757238388,-1.5869139432907104,-0.8239745497703552,73.33333587646484,274174.0,0.0
15229.2767766,296175.375,294436.6875,321752.3125,313593.46875,285050.8125,254957.6875,219898.0,245038.875,0.05078125,0.991943359375,0.1728515625,0.1525878757238388,-1.5869139432907104,-0.8239745497703552,73.33333587646484,274175.0,0.0
15229.2767768,296175.375,294436.6875,321752.3125,313593.46875,285050.8125,254957.6875,219898.0,245038.875,0.05078125,0.991943359375,0.1728515625,0.1525878757238388,-1.5869139432907104,-0.8239745497703552,73.33333587646484,274176.0,0.0
15229.276777,296175.375,294436.6875,321752.3125,313593.46875,285050.8125,254957.6875,219898.0,245038.875,0.05078125,0.991943359375,0.1728515625,0.1525878757238388,-1.5869139432907104,-0.8239745497703552,73.33333587646484,274177.0,0.0
15229.2767771,296175.375,294436.6875,321752.3125,313593.46875,285050.8125,254957.6875,219898.0,245038.875,0.05078125,0.991943359375,0.1728515625,0.1525878757238388,-1.5869139432907104,-0.8239745497703552,73.33333587646484,274178.0,0.0
15229.2767773,296175.375,294436.6875,321752.3125,313593.46875,285050.8125,254957.6875,219898.0,245038.875,0.05078125,0.991943359375,0.1728515625,0.1525878757238388,-1.5869139432907104,-0.8239745497703552,73.33333587646484,274179.0,0.0
15229.2767775,296175.375,294436.6875,321752.3125,313593.46875,285050.8125,254957.6875,219898.0,245038.875,0.05078125,0.991943359375,0.1728515625,0.1525878757238388,-1.5869139432907104,-0.8239745497703552,73.33333587646484,274180.0,0.0
15229.2767777,296175.375,294436.6875,321752.3125,313593.46875,285050.8125,254957.6875,219898.0,245038.875,0.05078125,0.991943359375,0.1728515625,0.1525878757238388,-1.5869139432907104,-0.8239745497703552,73.33333587646484,274181.0,0.0
15229.2767778,296175.375,294436.6875,321752.3125,313593.46875,285050.8125,254957.6875,219898.0,245038.875,0.05078125,0.991943359375,0.1728515625,0.1525878757238388,-1.5869139432907104,-0.8239745497703552,73.33333587646484,274182.0,0.0
15229.276778,296175.375,294436.6875,321752.3125,313593.46875,285050.8125,254957.6875,219898.0,245038.875,0.05078125,0.991943359375,0.1728515625,0.1525878757238388,-1.5869139432907104,-0.8239745497703552,73.33333587646484,274183.0,0.0
15229.2767782,296175.375,294436.6875,321752.3125,313593.46875,285050.8125,254957.6875,219898.0,245038.875,0.05078125,0.991943359375,0.1728515625,0.1525878757238388,-1.5869139432907104,-0.8239745497703552,73.33333587646484,274184.0,0.0
15229.2767784,296175.375,294436.6875,321752.3125,313593.46875,285050.8125,254957.6875,219898.0,245038.875,0.05078125,0.991943359375,0.1728515625,0.1525878757238388,-1.5869139432907104,-0.8239745497703552,73.33333587646484,274185.0,0.0
15229.2767785,296175.375,294436.6875,321752.3125,313593.46875,285050.8125,254957.6875,219898.0,245038.875,0.05078125,0.991943359375,0.1728515625,0.1525878757238388,-1.5869139432907104,-0.8239745497703552,73.33333587646484,274186.0,0.0
15229.2767787,296175.375,294436.6875,321752.3125,313593.46875,285050.8125,254957.6875,219898.0,245038.875,0.05078125,0.991943359375,0.1728515625,0.1525878757238388,-1.5869139432907104,-0.8239745497703552,73.33333587646484,274187.0,0.0
15229.2767789,296175.375,294436.6875,321752.3125,313593.46875,285050.8125,254957.6875,219898.0,245038.875,0.05078125,0.991943359375,0.1728515625,0.1525878757238388,-1.5869139432907104,-0.8239745497703552,73.33333587646484,274188.0,0.0
15229.276779,296175.375,294436.6875,321752.3125,313593.46875,285050.8125,254957.6875,219898.0,245038.875,0.05078125,0.991943359375,0.1728515625,0.1525878757238388,-1.5869139432907104,-0.8239745497703552,73.33333587646484,274189.0,0.0
15229.2767792,296175.375,294436.6875,321752.3125,313593.46875,285050.8125,254957.6875,219898.0,245038.875,0.05078125,0.991943359375,0.1728515625,0.1525878757238388,-1.5869139432907104,-0.8239745497703552,73.33333587646484,274190.0,0.0
15229.2767794,296175.375,294436.6875,321752.3125,313593.46875,285050.8125,254957.6875,219898.0,245038.875,0.05078125,0.991943359375,0.1728515625,0.1525878757238388,-1.5869139432907104,-0.8239745497703552,73.33333587646484,274191.0,0.0
15229.2767796,296175.375,294436.6875,321752.3125,313593.46875,285050.8125,254957.6875,219898.0,245038.875,0.05078125,0.991943359375,0.1728515625,0.1525878757238388,-1.5869139432907104,-0.8239745497703552,73.33333587646484,274192.0,0.0
15229.2767798,296175.375,294436.6875,321752.3125,313593.46875,285050.8125,254957.6875,219898.0,245038.875,0.05078125,0.991943359375,0.1728515625,0.1525878757238388,-1.5869139432907104,-0.8239745497703552,73.33333587646484,274193.0,0.0
15229.2767799,296175.375,294436.6875,321752.3125,313593.46875,285050.8125,254957.6875,219898.0,245038.875,0.05078125,0.991943359375,0.1728515625,0.1525878757238388,-1.5869139432907104,-0.8239745497703552,73.33333587646484,274194.0,0.0
15229.2767801,296175.375,294436.6875,321752.3125,313593.46875,285050.8125,254957.6875,219898.0,245038.875,0.05078125,0.991943359375,0.1728515625,0.1525878757238388,-1.5869139432907104,-0.8239745497703552,73.33333587646484,274195.0,0.0
15229.2767803,296175.375,294436.6875,321752.3125,313593.46875,285050.8125,254957.6875,219898.0,245038.875,0.05078125,0.991943359375,0.1728515625,0.1525878757238388,-1.5869139432907104,-0.8239745497703552,73.33333587646484,274196.0,0.0
15229.2767804,296175.375,294436.6875,321752.3125,313593.46875,285050.8125,254957.6875,219898.0,245038.875,0.05078125,0.991943359375,0.1728515625,0.1525878757238388,-1.5869139432907104,-0.8239745497703552,73.33333587646484,274197.0,0.0
15229.276781,296175.375,294436.6875,321752.3125,313593.46875,285050.8125,254957.6875,219898.0,245038.875,0.05078125,0.991943359375,0.1728515625,0.1525878757238388,-1.5869139432907104,-0.8239745497703552,73.33333587646484,274198.0,0.0
15229.2767812,296175.375,294436.6875,321752.3125,313593.46875,285050.8125,254957.6875,219898.0,245038.875,0.05078125,0.991943359375,0.1728515625,0.1525878757238388,-1.5869139432907104,-0.8239745497703552,73.33333587646484,274199.0,0.0
15229.2767814,296386.75,295280.0625,322968.15625,313889.84375,285760.1875,255146.6875,220185.34375,245199.1875,0.053466796875,0.995849609375,0.174560546875,0.3356933295726776,-0.7934569716453552,-0.9765624403953552,73.33333587646484,274200.0,1.0
15229.3034842,296190.40625,294440.09375,321761.0625,313602.59375,285058.875,254969.671875,219905.953125,245039.6875,0.050537109375,0.995849609375,0.176513671875,0.3662109076976776,-0.8239745497703552,-0.9765624403953552,73.33333587646484,274201.0,1.0
15229.3034999,296196.65625,294109.0,321070.65625,313602.84375,284714.375,254926.03125,219870.453125,245056.578125,0.050048828125,0.996337890625,0.1748046875,0.3662109076976776,-0.8239745497703552,-1.0070799589157104,73.33333587646484,274202.0,1.0
15229.3035012,296393.625,294722.25,321822.125,313884.59375,285184.40625,255081.96875,220114.890625,245201.421875,0.049560546875,0.996337890625,0.1748046875,0.3051757514476776,-0.8544921278953552,-0.9765624403953552,73.33333587646484,274203.0,1.0
15229.3035027,296512.8125,295459.78125,323003.375,314067.40625,285838.0625,255232.890625,220318.734375,245285.109375,0.048095703125,0.9970703125,0.177001953125,0.2441406100988388,-1.0681151151657104,-0.8850097060203552,73.33333587646484,274204.0,1.0
15229.3423213,296380.03125,295279.34375,322964.9375,313887.15625,285758.125,255158.859375,220191.78125,245185.0625,0.04736328125,0.995361328125,0.174560546875,0.2136230319738388,-1.1901854276657104,-0.9460448622703552,73.33333587646484,274205.0,1.0
15229.3423331,296185.40625,294439.09375,321759.53125,313603.3125,285063.4375,254986.03125,219919.546875,245048.796875,0.04833984375,0.994384765625,0.1767578125,0.1525878757238388,-1.2512205839157104,-0.9460448622703552,73.33333587646484,274206.0,1.0
15229.3423344,296188.625,294102.84375,321065.9375,313599.71875,284715.5625,254932.5625,219870.8125,245058.09375,0.050537109375,0.99072265625,0.17626953125,0.0915527269244194,-1.4343260526657104,-0.9155272841453552,73.33333587646484,274207.0,1.0
15229.3423356,296388.625,294720.375,321818.28125,313887.53125,285189.40625,255089.296875,220126.34375,245221.265625,0.052490234375,0.992431640625,0.174072265625,0.2136230319738388,-1.4953612089157104,-0.8850097060203552,73.33333587646484,274208.0,1.0
15229.3655324,296511.8125,295460.03125,323001.40625,314071.4375,285845.21875,255250.046875,220344.84375,245312.734375,0.05419921875,0.994140625,0.1767578125,0.1525878757238388,-1.5869139432907104,-0.7629393935203552,73.33333587646484,274209.0,1.0
15229.4764287,296378.875,295282.46875,322961.96875,313889.59375,285763.21875,255180.40625,220212.703125,245203.203125,0.054443359375,0.996337890625,0.17626953125,0.2746581733226776,-1.5563963651657104,-0.6408690810203552,73.33333587646484,274210.0,1.0
15229.4764457,296170.375,294437.3125,321749.96875,313592.5,285060.46875,254989.25,219927.3125,245056.84375,0.052734375,0.997314453125,0.176025390625,0.3662109076976776,-1.6174315214157104,-0.6103515028953552,73.33333587646484,274211.0,1.0
15229.476447,296178.15625,294110.4375,321069.6875,313592.65625,284723.34375,254937.296875,219879.84375,245057.203125,0.050537109375,0.99755859375,0.17724609375,0.3051757514476776,-1.6479490995407104,-0.6713866591453552,73.33333587646484,274212.0,1.0
15229.4764482,296381.03125,294726.8125,321825.53125,313881.09375,285194.9375,255084.734375,220127.234375,245210.625,0.05078125,0.995361328125,0.17578125,0.1831054538488388,-1.7089842557907104,-0.7019042372703552,73.33333587646484,274213.0,1.0
15229.4764494,296503.15625,295454.125,322999.625,314066.0,285840.28125,255229.03125,220326.34375,245303.4375,0.052490234375,0.99169921875,0.1748046875,0.1525878757238388,-1.6784666776657104,-0.6713866591453552,73.33333587646484,274214.0,1.0
15229.4764506,296371.28125,295276.5625,322957.0625,313889.21875,285757.3125,255152.953125,220195.0,245205.796875,0.053955078125,0.992431640625,0.1767578125,0.1831054538488388,-1.8005369901657104,-0.7019042372703552,73.33333587646484,274215.0,1.0
15229.4764518,296168.125,294429.8125,321742.03125,313593.75,285049.5,254957.328125,219907.921875,245045.859375,0.054443359375,0.9912109375,0.177490234375,0.2136230319738388,-1.8310545682907104,-0.6103515028953552,73.33333587646484,274216.0,1.0
15229.4764531,296185.65625,294108.125,321061.28125,313599.28125,284716.8125,254936.5,219880.109375,245063.203125,0.0537109375,0.99072265625,0.17626953125,0.3356933295726776,-1.9226073026657104,-0.6408690810203552,73.33333587646484,274217.0,1.0
15229.4764543,296393.90625,294736.90625,321825.15625,313892.4375,285200.21875,255108.609375,220146.0,245237.453125,0.0517578125,0.992919921875,0.177490234375,0.3662109076976776,-1.8310545682907104,-0.7019042372703552,73.33333587646484,274218.0,1.0
15229.4764555,296513.59375,295466.28125,323005.0,314064.46875,285840.75,255223.5,220315.875,245300.84375,0.050537109375,0.994384765625,0.171875,0.3662109076976776,-1.8615721464157104,-0.7934569716453552,73.33333587646484,274219.0,1.0
15229.5017998,296384.25,295276.9375,322956.25,313884.40625,285747.9375,255132.125,220175.25,245192.75,0.052734375,0.995849609375,0.171875,0.3967284858226776,-1.8615721464157104,-0.9765624403953552,73.33333587646484,274220.0,1.0
15229.5871527,296189.15625,294434.71875,321746.03125,313596.875,285048.21875,254955.625,219899.0625,245049.25,0.0517578125,0.998046875,0.17333984375,0.3051757514476776,-1.9836424589157104,-0.9460448622703552,73.33333587646484,274221.0,1.0
15229.5871778,296189.15625,294434.71875,321746.03125,313596.875,285048.21875,254955.625,219899.0625,245049.25,0.0517578125,0.998046875,0.17333984375,0.3051757514476776,-1.9836424589157104,-0.9460448622703552,73.33333587646484,274222.0,0.0
15229.5871787,296189.15625,294434.71875,321746.03125,313596.875,285048.21875,254955.625,219899.0625,245049.25,0.0517578125,0.998046875,0.17333984375,0.3051757514476776,-1.9836424589157104,-0.9460448622703552,73.33333587646484,274223.0,0.0
15229.5871791,296189.15625,294434.71875,321746.03125,313596.875,285048.21875,254955.625,219899.0625,245049.25,0.0517578125,0.998046875,0.17333984375,0.3051757514476776,-1.9836424589157104,-0.9460448622703552,73.33333587646484,274224.0,0.0
15229.5871795,296189.15625,294434.71875,321746.03125,313596.875,285048.21875,254955.625,219899.0625,245049.25,0.0517578125,0.998046875,0.17333984375,0.3051757514476776,-1.9836424589157104,-0.9460448622703552,73.33333587646484,274225.0,0.0
15229.5871799,296189.15625,294434.71875,321746.03125,313596.875,285048.21875,254955.625,219899.0625,245049.25,0.0517578125,0.998046875,0.17333984375,0.3051757514476776,-1.9836424589157104,-0.9460448622703552,73.33333587646484,274226.0,0.0
15229.5871803,296189.15625,294434.71875,321746.03125,313596.875,285048.21875,254955.625,219899.0625,245049.25,0.0517578125,0.998046875,0.17333984375,0.3051757514476776,-1.9836424589157104,-0.9460448622703552,73.33333587646484,274227.0,0.0
15229.5871807,296189.15625,294434.71875,321746.03125,313596.875,285048.21875,254955.625,219899.0625,245049.25,0.0517578125,0.998046875,0.17333984375,0.3051757514476776,-1.9836424589157104,-0.9460448622703552,73.33333587646484,274228.0,0.0
15229.5871811,296189.15625,294434.71875,321746.03125,313596.875,285048.21875,254955.625,219899.0625,245049.25,0.0517578125,0.998046875,0.17333984375,0.3051757514476776,-1.9836424589157104,-0.9460448622703552,73.33333587646484,274229.0,0.0
15229.5871815,296189.15625,294434.71875,321746.03125,313596.875,285048.21875,254955.625,219899.0625,245049.25,0.0517578125,0.998046875,0.17333984375,0.3051757514476776,-1.9836424589157104,-0.9460448622703552,73.33333587646484,274230.0,0.0
15229.587182,296189.15625,294434.71875,321746.03125,313596.875,285048.21875,254955.625,219899.0625,245049.25,0.0517578125,0.998046875,0.17333984375,0.3051757514476776,-1.9836424589157104,-0.9460448622703552,73.33333587646484,274231.0,0.0
15229.5871824,296189.15625,294434.71875,321746.03125,313596.875,285048.21875,254955.625,219899.0625,245049.25,0.0517578125,0.998046875,0.17333984375,0.3051757514476776,-1.9836424589157104,-0.9460448622703552,73.33333587646484,274232.0,0.0
15229.5871828,296189.15625,294434.71875,321746.03125,313596.875,285048.21875,254955.625,219899.0625,245049.25,0.0517578125,0.998046875,0.17333984375,0.3051757514476776,-1.9836424589157104,-0.9460448622703552,73.33333587646484,274233.0,0.0
15229.5871834,296189.15625,294434.71875,321746.03125,313596.875,285048.21875,254955.625,219899.0625,245049.25,0.0517578125,0.998046875,0.17333984375,0.3051757514476776,-1.9836424589157104,-0.9460448622703552,73.33333587646484,274234.0,0.0
15229.5871837,296189.15625,294434.71875,321746.03125,313596.875,285048.21875,254955.625,219899.0625,245049.25,0.0517578125,0.998046875,0.17333984375,0.3051757514476776,-1.9836424589157104,-0.9460448622703552,73.33333587646484,274235.0,0.0
15229.587184,296189.15625,294434.71875,321746.03125,313596.875,285048.21875,254955.625,219899.0625,245049.25,0.0517578125,0.998046875,0.17333984375,0.3051757514476776,-1.9836424589157104,-0.9460448622703552,73.33333587646484,274236.0,0.0
15229.5871844,296189.15625,294434.71875,321746.03125,313596.875,285048.21875,254955.625,219899.0625,245049.25,0.0517578125,0.998046875,0.17333984375,0.3051757514476776,-1.9836424589157104,-0.9460448622703552,73.33333587646484,274237.0,0.0
15229.5871847,296189.15625,294434.71875,321746.03125,313596.875,285048.21875,254955.625,219899.0625,245049.25,0.0517578125,0.998046875,0.17333984375,0.3051757514476776,-1.9836424589157104,-0.9460448622703552,73.33333587646484,274238.0,0.0
15229.5871851,296503.15625,295446.71875,322999.8125,314059.09375,285828.84375,255228.859375,220317.9375,245298.609375,0.051513671875,0.9931640625,0.1806640625,0.3356933295726776,-1.1901854276657104,-0.6713866591453552,73.33333587646484,274239.0,1.0
15229.5871873,296376.46875,295271.28125,322961.34375,313877.34375,285746.9375,255153.3125,220184.546875,245191.140625,0.0517578125,0.994384765625,0.176025390625,0.3356933295726776,-1.1901854276657104,-0.6713866591453552,73.33333587646484,274240.0,1.0
15229.5871894,296168.21875,294420.78125,321746.75,313577.28125,285037.9375,254960.453125,219901.125,245034.671875,0.051513671875,0.9931640625,0.177978515625,0.2746581733226776,-1.2207030057907104,-0.5798339247703552,73.33333587646484,274241.0,1.0
15229.5871914,296177.09375,294096.84375,321063.5,313583.71875,284699.0,254922.109375,219866.25,245051.75,0.0517578125,0.993408203125,0.17822265625,0.3051757514476776,-1.2817381620407104,-0.5493163466453552,73.33333587646484,274242.0,1.0
15229.5871934,296389.15625,294728.15625,321831.4375,313883.5,285185.5625,255094.03125,220129.375,245221.359375,0.05322265625,0.992919921875,0.17919921875,0.3356933295726776,-1.3122557401657104,-0.5798339247703552,73.33333587646484,274243.0,1.0
15229.5871953,296515.5,295465.03125,323012.9375,314068.3125,285842.09375,255251.125,220338.046875,245315.859375,0.05078125,0.992431640625,0.17724609375,0.4577636420726776,-1.3732908964157104,-0.6408690810203552,73.33333587646484,274244.0,1.0
15229.6136306,296386.375,295282.75,322970.28125,313891.46875,285761.34375,255178.609375,220208.5,245212.15625,0.052490234375,0.9951171875,0.17822265625,0.5798339247703552,-1.3427733182907104,-0.6103515028953552,73.33333587646484,274245.0,1.0
15229.6136442,296180.375,294434.71875,321756.3125,313593.5625,285052.96875,254961.625,219915.34375,245050.234375,0.052001953125,0.99658203125,0.1796875,0.5493163466453552,-1.3732908964157104,-0.6103515028953552,73.33333587646484,274246.0,1.0
15229.638188,296190.03125,294108.65625,321076.84375,313600.8125,284719.84375,254922.8125,219883.59375,245073.65625,0.05078125,0.99462890625,0.174560546875,0.5798339247703552,-1.4038084745407104,-0.7629393935203552,73.33333587646484,274247.0,1.0
15229.6742884,296396.3125,294730.375,321834.8125,313892.1875,285198.25,255100.296875,220144.390625,245231.375,0.051513671875,0.99560546875,0.17578125,0.5798339247703552,-1.4038084745407104,-0.8239745497703552,73.33333587646484,274248.0,1.0
15229.676759,296518.625,295464.25,323009.375,314073.84375,285844.75,255261.5,220351.828125,245317.734375,0.052490234375,0.99755859375,0.178955078125,0.7019042372703552,-1.5563963651657104,-0.8239745497703552,73.33333587646484,274249.0,1.0
15229.6804102,296393.34375,295297.84375,322979.25,313898.15625,285770.09375,255192.203125,220219.234375,245205.0,0.053955078125,0.997314453125,0.17822265625,0.6103515028953552,-1.5258787870407104,-0.7629393935203552,73.33333587646484,274250.0,1.0
15229.6804188,296393.34375,295297.84375,322979.25,313898.15625,285770.09375,255192.203125,220219.234375,245205.0,0.053955078125,0.997314453125,0.17822265625,0.6103515028953552,-1.5258787870407104,-0.7629393935203552,73.33333587646484,274251.0,0.0
15229.680419,296393.34375,295297.84375,322979.25,313898.15625,285770.09375,255192.203125,220219.234375,245205.0,0.053955078125,0.997314453125,0.17822265625,0.6103515028953552,-1.5258787870407104,-0.7629393935203552,73.33333587646484,274252.0,0.0
15229.6804192,296393.34375,295297.84375,322979.25,313898.15625,285770.09375,255192.203125,220219.234375,245205.0,0.053955078125,0.997314453125,0.17822265625,0.6103515028953552,-1.5258787870407104,-0.7629393935203552,73.33333587646484,274253.0,0.0
15229.6804194,296393.34375,295297.84375,322979.25,313898.15625,285770.09375,255192.203125,220219.234375,245205.0,0.053955078125,0.997314453125,0.17822265625,0.6103515028953552,-1.5258787870407104,-0.7629393935203552,73.33333587646484,274254.0,0.0
15229.6804196,296393.34375,295297.84375,322979.25,313898.15625,285770.09375,255192.203125,220219.234375,245205.0,0.053955078125,0.997314453125,0.17822265625,0.6103515028953552,-1.5258787870407104,-0.7629393935203552,73.33333587646484,274255.0,0.0
15229.6804198,296393.34375,295297.84375,322979.25,313898.15625,285770.09375,255192.203125,220219.234375,245205.0,0.053955078125,0.997314453125,0.17822265625,0.6103515028953552,-1.5258787870407104,-0.7629393935203552,73.33333587646484,274256.0,0.0
15229.6804201,296393.34375,295297.84375,322979.25,313898.15625,285770.09375,255192.203125,220219.234375,245205.0,0.053955078125,0.997314453125,0.17822265625,0.6103515028953552,-1.5258787870407104,-0.7629393935203552,73.33333587646484,274257.0,0.0
15229.6804202,296393.34375,295297.84375,322979.25,313898.15625,285770.09375,255192.203125,220219.234375,245205.0,0.053955078125,0.997314453125,0.17822265625,0.6103515028953552,-1.5258787870407104,-0.7629393935203552,73.33333587646484,274258.0,0.0
15229.6804204,296393.34375,295297.84375,322979.25,313898.15625,285770.09375,255192.203125,220219.234375,245205.0,0.053955078125,0.997314453125,0.17822265625,0.6103515028953552,-1.5258787870407104,-0.7629393935203552,73.33333587646484,274259.0,0.0
15229.6804206,296393.34375,295297.84375,322979.25,313898.15625,285770.09375,255192.203125,220219.234375,245205.0,0.053955078125,0.997314453125,0.17822265625,0.6103515028953552,-1.5258787870407104,-0.7629393935203552,73.33333587646484,274260.0,0.0
15229.6804208,296393.34375,295297.84375,322979.25,313898.15625,285770.09375,255192.203125,220219.234375,245205.0,0.053955078125,0.997314453125,0.17822265625,0.6103515028953552,-1.5258787870407104,-0.7629393935203552,73.33333587646484,274261.0,0.0
15229.6804211,296393.34375,295297.84375,322979.25,313898.15625,285770.09375,255192.203125,220219.234375,245205.0,0.053955078125,0.997314453125,0.17822265625,0.6103515028953552,-1.5258787870407104,-0.7629393935203552,73.33333587646484,274262.0,0.0
15229.6804214,296393.34375,295297.84375,322979.25,313898.15625,285770.09375,255192.203125,220219.234375,245205.0,0.053955078125,0.997314453125,0.17822265625,0.6103515028953552,-1.5258787870407104,-0.7629393935203552,73.33333587646484,274263.0,0.0
15229.6804216,296393.34375,295297.84375,322979.25,313898.15625,285770.09375,255192.203125,220219.234375,245205.0,0.053955078125,0.997314453125,0.17822265625,0.6103515028953552,-1.5258787870407104,-0.7629393935203552,73.33333587646484,274264.0,0.0
15229.6804218,296393.34375,295297.84375,322979.25,313898.15625,285770.09375,255192.203125,220219.234375,245205.0,0.053955078125,0.997314453125,0.17822265625,0.6103515028953552,-1.5258787870407104,-0.7629393935203552,73.33333587646484,274265.0,0.0
15229.680422,296393.34375,295297.84375,322979.25,313898.15625,285770.09375,255192.203125,220219.234375,245205.0,0.053955078125,0.997314453125,0.17822265625,0.6103515028953552,-1.5258787870407104,-0.7629393935203552,73.33333587646484,274266.0,0.0
15229.6804222,296393.34375,295297.84375,322979.25,313898.15625,285770.09375,255192.203125,220219.234375,245205.0,0.053955078125,0.997314453125,0.17822265625,0.6103515028953552,-1.5258787870407104,-0.7629393935203552,73.33333587646484,274267.0,0.0
15229.6804223,296393.34375,295297.84375,322979.25,313898.15625,285770.09375,255192.203125,220219.234375,245205.0,0.053955078125,0.997314453125,0.17822265625,0.6103515028953552,-1.5258787870407104,-0.7629393935203552,73.33333587646484,274268.0,0.0
15229.6804225,296515.40625,295465.125,323008.125,314060.4375,285838.78125,255246.921875,220340.5625,245298.34375,0.0546875,0.994140625,0.17626953125,0.3967284858226776,-1.3732908964157104,-0.9155272841453552,73.33333587646484,274269.0,1.0
15229.6804239,296388.4375,295290.15625,322964.46875,313888.4375,285759.09375,255185.5,220223.796875,245208.390625,0.054443359375,0.995361328125,0.177001953125,0.3662109076976776,-1.4343260526657104,-0.9765624403953552,73.33333587646484,274270.0,1.0
15229.687775,296193.1875,294465.75,321770.1875,313602.9375,285071.3125,255015.359375,219949.3125,245058.09375,0.056396484375,0.994873046875,0.174072265625,0.3051757514476776,-1.4038084745407104,-0.9155272841453552,73.33333587646484,274271.0,1.0
15229.6877789,296196.21875,294136.1875,321092.03125,313599.09375,284729.84375,254955.90625,219889.671875,245059.359375,0.054931640625,0.995361328125,0.177001953125,0.3051757514476776,-1.3732908964157104,-0.9155272841453552,73.33333587646484,274272.0,1.0
15229.6877802,296395.5,294749.4375,321850.28125,313883.59375,285200.84375,255086.96875,220129.46875,245214.03125,0.052978515625,0.995849609375,0.177490234375,0.1525878757238388,-1.3427733182907104,-0.9460448622703552,73.33333587646484,274273.0,1.0
15229.6877815,296511.8125,295466.65625,323014.5625,314061.78125,285840.90625,255227.875,220333.046875,245304.78125,0.052734375,0.9931640625,0.17724609375,0.2136230319738388,-1.4648436307907104,-0.8850097060203552,73.33333587646484,274274.0,1.0
15229.6877828,296383.53125,295288.5625,322969.5,313886.8125,285760.09375,255166.28125,220213.59375,245207.046875,0.0537109375,0.99365234375,0.17529296875,0.0915527269244194,-1.4343260526657104,-0.9765624403953552,73.33333587646484,274275.0,1.0
15229.687784,296181.28125,294447.6875,321758.65625,313595.34375,285056.625,254978.34375,219930.0,245057.03125,0.052490234375,0.99365234375,0.17529296875,0.1525878757238388,-1.3732908964157104,-1.0681151151657104,73.33333587646484,274276.0,1.0
15229.6877853,296188.875,294125.625,321081.9375,313597.5,284717.0625,254921.125,219875.734375,245061.859375,0.055419921875,0.992919921875,0.17724609375,0.2441406100988388,-1.4953612089157104,-0.9460448622703552,73.33333587646484,274277.0,1.0
15229.6877868,296393.625,294745.21875,321841.96875,313886.28125,285194.0625,255085.546875,220135.8125,245216.796875,0.053955078125,0.9931640625,0.17578125,0.2441406100988388,-1.5563963651657104,-1.0375975370407104,73.33333587646484,274278.0,1.0
15229.6905036,296507.875,295466.90625,323009.90625,314058.75,285834.21875,255230.46875,220329.296875,245289.3125,0.05517578125,0.99365234375,0.177001953125,0.1831054538488388,-1.5869139432907104,-0.9155272841453552,73.33333587646484,274279.0,1.0
15229.719719,296507.875,295466.90625,323009.90625,314058.75,285834.21875,255230.46875,220329.296875,245289.3125,0.05517578125,0.99365234375,0.177001953125,0.1831054538488388,-1.5869139432907104,-0.9155272841453552,73.33333587646484,274280.0,0.0
15229.7197222,296507.875,295466.90625,323009.90625,314058.75,285834.21875,255230.46875,220329.296875,245289.3125,0.05517578125,0.99365234375,0.177001953125,0.1831054538488388,-1.5869139432907104,-0.9155272841453552,73.33333587646484,274281.0,0.0
15229.7197225,296507.875,295466.90625,323009.90625,314058.75,285834.21875,255230.46875,220329.296875,245289.3125,0.05517578125,0.99365234375,0.177001953125,0.1831054538488388,-1.5869139432907104,-0.9155272841453552,73.33333587646484,274282.0,0.0
15229.7197226,296507.875,295466.90625,323009.90625,314058.75,285834.21875,255230.46875,220329.296875,245289.3125,0.05517578125,0.99365234375,0.177001953125,0.1831054538488388,-1.5869139432907104,-0.9155272841453552,73.33333587646484,274283.0,0.0
15229.7197228,296507.875,295466.90625,323009.90625,314058.75,285834.21875,255230.46875,220329.296875,245289.3125,0.05517578125,0.99365234375,0.177001953125,0.1831054538488388,-1.5869139432907104,-0.9155272841453552,73.33333587646484,274284.0,0.0
15229.719723,296507.875,295466.90625,323009.90625,314058.75,285834.21875,255230.46875,220329.296875,245289.3125,0.05517578125,0.99365234375,0.177001953125,0.1831054538488388,-1.5869139432907104,-0.9155272841453552,73.33333587646484,274285.0,0.0
15229.7197232,296507.875,295466.90625,323009.90625,314058.75,285834.21875,255230.46875,220329.296875,245289.3125,0.05517578125,0.99365234375,0.177001953125,0.1831054538488388,-1.5869139432907104,-0.9155272841453552,73.33333587646484,274286.0,0.0
15229.7197234,296507.875,295466.90625,323009.90625,314058.75,285834.21875,255230.46875,220329.296875,245289.3125,0.05517578125,0.99365234375,0.177001953125,0.1831054538488388,-1.5869139432907104,-0.9155272841453552,73.33333587646484,274287.0,0.0
15229.7197236,296507.875,295466.90625,323009.90625,314058.75,285834.21875,255230.46875,220329.296875,245289.3125,0.05517578125,0.99365234375,0.177001953125,0.1831054538488388,-1.5869139432907104,-0.9155272841453552,73.33333587646484,274288.0,0.0
15229.7197237,296507.875,295466.90625,323009.90625,314058.75,285834.21875,255230.46875,220329.296875,245289.3125,0.05517578125,0.99365234375,0.177001953125,0.1831054538488388,-1.5869139432907104,-0.9155272841453552,73.33333587646484,274289.0,0.0
15229.7197239,296507.875,295466.90625,323009.90625,314058.75,285834.21875,255230.46875,220329.296875,245289.3125,0.05517578125,0.99365234375,0.177001953125,0.1831054538488388,-1.5869139432907104,-0.9155272841453552,73.33333587646484,274290.0,0.0
15229.7197241,296181.90625,294449.46875,321757.59375,313590.875,285058.59375,254977.0,219930.09375,245055.859375,0.05517578125,0.99267578125,0.17578125,0.1525878757238388,-1.5869139432907104,-0.7934569716453552,73.33333587646484,274291.0,1.0
15229.719732,296187.28125,294115.09375,321073.78125,313591.3125,284716.53125,254922.640625,219876.796875,245059.890625,0.0556640625,0.993896484375,0.175537109375,0.1525878757238388,-1.4953612089157104,-0.7629393935203552,73.33333587646484,274292.0,1.0
15229.7197334,296392.09375,294741.03125,321833.5,313880.5625,285194.3125,255087.859375,220128.390625,245210.1875,0.05615234375,0.992919921875,0.177490234375,0.2746581733226776,-1.5258787870407104,-0.7629393935203552,73.33333587646484,274293.0,1.0
15229.7197347,296512.4375,295473.8125,323002.21875,314059.8125,285840.125,255234.671875,220335.8125,245304.0625,0.057373046875,0.994384765625,0.176025390625,0.2441406100988388,-1.4343260526657104,-0.7019042372703552,73.33333587646484,274294.0,1.0
15229.7585818,296378.4375,295286.9375,322954.65625,313881.4375,285754.8125,255163.59375,220209.578125,245211.078125,0.056396484375,0.99365234375,0.17578125,0.1831054538488388,-1.3732908964157104,-0.7324218153953552,73.33333587646484,274295.0,1.0
15229.7585956,296170.90625,294443.75,321751.5,313584.53125,285054.40625,254975.03125,219926.25,245059.4375,0.0576171875,0.993896484375,0.177001953125,0.1525878757238388,-1.3122557401657104,-0.7934569716453552,73.33333587646484,274296.0,1.0
15229.7585969,296180.3125,294117.0625,321077.5625,313594.1875,284722.875,254938.375,219891.46875,245076.421875,0.05810546875,0.995361328125,0.178466796875,0.2136230319738388,-1.4343260526657104,-0.7324218153953552,73.33333587646484,274297.0,1.0
15229.7585982,296385.03125,294735.3125,321831.15625,313884.75,285198.96875,255112.0,220150.203125,245220.640625,0.056640625,0.99609375,0.1748046875,0.1831054538488388,-1.3122557401657104,-0.8239745497703552,73.33333587646484,274298.0,1.0
15229.7817502,296497.25,295453.25,322992.46875,314055.875,285836.8125,255245.125,220345.65625,245304.0625,0.05615234375,0.995849609375,0.176513671875,0.1831054538488388,-1.2817381620407104,-0.8544921278953552,73.33333587646484,274299.0,1.0
15229.8439168,296356.25,295265.65625,322944.53125,313865.96875,285747.3125,255152.234375,220204.03125,245195.875,0.054443359375,0.99560546875,0.1767578125,0.2136230319738388,-1.3427733182907104,-0.8544921278953552,73.33333587646484,274300.0,1.0
15229.8439347,296163.75,294435.625,321743.625,313580.0625,285054.03125,254972.0,219929.375,245056.046875,0.0546875,0.994873046875,0.17822265625,0.2441406100988388,-1.3122557401657104,-0.9460448622703552,73.33333587646484,274301.0,1.0
15229.843937,296177.96875,294111.78125,321068.6875,313584.625,284719.03125,254924.078125,219887.171875,245063.46875,0.05712890625,0.99365234375,0.181396484375,0.2441406100988388,-1.3122557401657104,-0.9765624403953552,73.33333587646484,274302.0,1.0
15229.8439389,296381.28125,294729.03125,321819.8125,313874.3125,285190.5625,255084.109375,220138.046875,245222.875,0.056640625,0.994384765625,0.182373046875,0.2441406100988388,-1.3732908964157104,-1.0681151151657104,73.33333587646484,274303.0,1.0
15229.8439407,296494.03125,295443.40625,322977.09375,314052.125,285826.625,255220.984375,220338.59375,245318.8125,0.056396484375,0.99609375,0.183349609375,0.2136230319738388,-1.3732908964157104,-1.0375975370407104,73.33333587646484,274304.0,1.0
15229.8439424,296368.15625,295268.53125,322941.9375,313873.21875,285746.5,255153.125,220202.15625,245193.90625,0.056396484375,0.99609375,0.180908203125,0.1525878757238388,-1.3732908964157104,-1.0070799589157104,73.33333587646484,274305.0,1.0
15229.8439442,296171.71875,294438.46875,321746.75,313587.3125,285054.59375,254981.828125,219933.75,245054.34375,0.056884765625,0.995849609375,0.18212890625,0.0610351525247097,-1.3122557401657104,-1.0070799589157104,73.33333587646484,274306.0,1.0
15229.843946,296176.71875,294114.90625,321065.21875,313587.75,284714.9375,254936.140625,219891.203125,245062.03125,0.054931640625,0.998046875,0.1787109375,0.1220703050494194,-1.3427733182907104,-1.0070799589157104,73.33333587646484,274307.0,1.0
15229.8439477,296386.90625,294739.6875,321822.5,313880.46875,285193.625,255102.625,220150.75,245225.296875,0.055908203125,0.99609375,0.18017578125,0.0,-1.3732908964157104,-1.0681151151657104,73.33333587646484,274308.0,1.0
15229.8439493,296505.5625,295462.375,322983.71875,314053.65625,285830.09375,255237.53125,220343.15625,245302.359375,0.0537109375,0.995849609375,0.1806640625,-0.1220703050494194,-1.3427733182907104,-1.0681151151657104,73.33333587646484,274309.0,1.0
15229.8692498,296371.53125,295283.375,322944.53125,313873.75,285746.40625,255160.640625,220205.1875,245194.984375,0.052734375,0.993408203125,0.180908203125,-0.0915527269244194,-1.3732908964157104,-1.0681151151657104,73.33333587646484,274310.0,1.0
15229.949161,296371.53125,295283.375,322944.53125,313873.75,285746.40625,255160.640625,220205.1875,245194.984375,0.052734375,0.993408203125,0.180908203125,-0.0915527269244194,-1.3732908964157104,-1.0681151151657104,73.33333587646484,274311.0,0.0
15229.9491678,296371.53125,295283.375,322944.53125,313873.75,285746.40625,255160.640625,220205.1875,245194.984375,0.052734375,0.993408203125,0.180908203125,-0.0915527269244194,-1.3732908964157104,-1.0681151151657104,73.33333587646484,274312.0,0.0
15229.9491685,296371.53125,295283.375,322944.53125,313873.75,285746.40625,255160.640625,220205.1875,245194.984375,0.052734375,0.993408203125,0.180908203125,-0.0915527269244194,-1.3732908964157104,-1.0681151151657104,73.33333587646484,274313.0,0.0
15229.9491692,296371.53125,295283.375,322944.53125,313873.75,285746.40625,255160.640625,220205.1875,245194.984375,0.052734375,0.993408203125,0.180908203125,-0.0915527269244194,-1.3732908964157104,-1.0681151151657104,73.33333587646484,274314.0,0.0
15229.9491698,296371.53125,295283.375,322944.53125,313873.75,285746.40625,255160.640625,220205.1875,245194.984375,0.052734375,0.993408203125,0.180908203125,-0.0915527269244194,-1.3732908964157104,-1.0681151151657104,73.33333587646484,274315.0,0.0
15229.9491704,296371.53125,295283.375,322944.53125,313873.75,285746.40625,255160.640625,220205.1875,245194.984375,0.052734375,0.993408203125,0.180908203125,-0.0915527269244194,-1.3732908964157104,-1.0681151151657104,73.33333587646484,274316.0,0.0
15229.949171,296371.53125,295283.375,322944.53125,313873.75,285746.40625,255160.640625,220205.1875,245194.984375,0.052734375,0.993408203125,0.180908203125,-0.0915527269244194,-1.3732908964157104,-1.0681151151657104,73.33333587646484,274317.0,0.0
15229.9491717,296371.53125,295283.375,322944.53125,313873.75,285746.40625,255160.640625,220205.1875,245194.984375,0.052734375,0.993408203125,0.180908203125,-0.0915527269244194,-1.3732908964157104,-1.0681151151657104,73.33333587646484,274318.0,0.0
15229.9491723,296371.53125,295283.375,322944.53125,313873.75,285746.40625,255160.640625,220205.1875,245194.984375,0.052734375,0.993408203125,0.180908203125,-0.0915527269244194,-1.3732908964157104,-1.0681151151657104,73.33333587646484,274319.0,0.0
15229.9491729,296371.53125,295283.375,322944.53125,313873.75,285746.40625,255160.640625,220205.1875,245194.984375,0.052734375,0.993408203125,0.180908203125,-0.0915527269244194,-1.3732908964157104,-1.0681151151657104,73.33333587646484,274320.0,0.0
15229.9491735,296371.53125,295283.375,322944.53125,313873.75,285746.40625,255160.640625,220205.1875,245194.984375,0.052734375,0.993408203125,0.180908203125,-0.0915527269244194,-1.3732908964157104,-1.0681151151657104,73.33333587646484,274321.0,0.0
15229.9491741,296371.53125,295283.375,322944.53125,313873.75,285746.40625,255160.640625,220205.1875,245194.984375,0.052734375,0.993408203125,0.180908203125,-0.0915527269244194,-1.3732908964157104,-1.0681151151657104,73.33333587646484,274322.0,0.0
15229.9491747,296371.53125,295283.375,322944.53125,313873.75,285746.40625,255160.640625,220205.1875,245194.984375,0.052734375,0.993408203125,0.180908203125,-0.0915527269244194,-1.3732908964157104,-1.0681151151657104,73.33333587646484,274323.0,0.0
15229.9491753,296371.53125,295283.375,322944.53125,313873.75,285746.40625,255160.640625,220205.1875,245194.984375,0.052734375,0.993408203125,0.180908203125,-0.0915527269244194,-1.3732908964157104,-1.0681151151657104,73.33333587646484,274324.0,0.0
15229.9491759,296371.53125,295283.375,322944.53125,313873.75,285746.40625,255160.640625,220205.1875,245194.984375,0.052734375,0.993408203125,0.180908203125,-0.0915527269244194,-1.3732908964157104,-1.0681151151657104,73.33333587646484,274325.0,0.0
15229.9491765,296371.53125,295283.375,322944.53125,313873.75,285746.40625,255160.640625,220205.1875,245194.984375,0.052734375,0.993408203125,0.180908203125,-0.0915527269244194,-1.3732908964157104,-1.0681151151657104,73.33333587646484,274326.0,0.0
15229.9491771,296371.53125,295283.375,322944.53125,313873.75,285746.40625,255160.640625,220205.1875,245194.984375,0.052734375,0.993408203125,0.180908203125,-0.0915527269244194,-1.3732908964157104,-1.0681151151657104,73.33333587646484,274327.0,0.0
15229.9491777,296371.53125,295283.375,322944.53125,313873.75,285746.40625,255160.640625,220205.1875,245194.984375,0.052734375,0.993408203125,0.180908203125,-0.0915527269244194,-1.3732908964157104,-1.0681151151657104,73.33333587646484,274328.0,0.0
15229.9491783,296491.53125,295433.3125,322977.90625,314043.28125,285826.0,255222.0625,220351.828125,245296.546875,0.05859375,0.99853515625,0.182373046875,0.6408690810203552,-1.6784666776657104,-0.7629393935203552,73.33333587646484,274329.0,1.0
15229.9492037,296361.09375,295262.1875,322936.9375,313859.1875,285739.71875,255147.40625,220202.328125,245167.4375,0.057861328125,0.99755859375,0.18310546875,0.5187987685203552,-1.7089842557907104,-0.6408690810203552,73.33333587646484,274330.0,1.0
15229.9492081,296162.5,294432.21875,321741.21875,313570.3125,285047.53125,254960.1875,219923.390625,245029.578125,0.057861328125,0.993896484375,0.178466796875,0.3662109076976776,-1.8005369901657104,-0.7324218153953552,73.33333587646484,274331.0,1.0
15229.9492123,296175.90625,294109.4375,321071.90625,313581.21875,284719.75,254924.703125,219891.015625,245055.0625,0.056396484375,0.992431640625,0.177490234375,0.1831054538488388,-1.6174315214157104,-0.7324218153953552,73.33333587646484,274332.0,1.0
15229.9492166,296380.65625,294728.15625,321825.25,313872.59375,285196.75,255099.84375,220158.796875,245224.046875,0.054931640625,0.992431640625,0.177978515625,0.2136230319738388,-1.6784666776657104,-0.7019042372703552,73.33333587646484,274333.0,1.0
15229.9492209,296491.4375,295440.625,322979.5,314041.21875,285830.90625,255237.984375,220356.109375,245304.59375,0.052490234375,0.99169921875,0.173828125,0.3356933295726776,-1.5563963651657104,-0.8239745497703552,73.33333587646484,274334.0,1.0
15229.9492252,296359.8125,295262.625,322940.0625,313861.59375,285747.75,255156.4375,220218.25,245192.65625,0.051025390625,0.994873046875,0.172607421875,0.3662109076976776,-1.5258787870407104,-0.9155272841453552,73.33333587646484,274335.0,1.0
15229.9492294,296166.8125,294428.90625,321748.375,313578.53125,285051.0,254945.625,219927.59375,245045.40625,0.05322265625,0.995361328125,0.1787109375,0.4272460639476776,-1.6174315214157104,-1.0681151151657104,73.33333587646484,274336.0,1.0
15229.9492337,296179.65625,294104.8125,321072.90625,313588.71875,284718.5,254918.171875,219897.90625,245067.9375,0.0517578125,0.99462890625,0.18212890625,0.4272460639476776,-1.6479490995407104,-1.0681151151657104,73.33333587646484,274337.0,1.0
15229.9492379,296382.0,294711.59375,321815.5,313877.59375,285188.25,255090.375,220158.609375,245227.53125,0.0546875,0.9951171875,0.181884765625,0.4577636420726776,-1.6174315214157104,-1.0986326932907104,73.33333587646484,274338.0,1.0
15229.9717519,296501.53125,295444.9375,322984.15625,314052.125,285828.3125,255224.125,220351.015625,245303.609375,0.055419921875,0.992919921875,0.181396484375,0.4577636420726776,-1.5869139432907104,-1.1596678495407104,73.33333587646484,274339.0,1.0
15229.9967504,296368.15625,295266.8125,322939.625,313865.96875,285740.875,255149.734375,220218.609375,245198.5625,0.05712890625,0.994873046875,0.176513671875,0.4577636420726776,-1.4648436307907104,-1.1596678495407104,73.33333587646484,274340.0,1.0
15230.0243453,296170.90625,294437.9375,321751.59375,313581.40625,285051.28125,254960.90625,219941.171875,245058.375,0.057861328125,0.993896484375,0.177001953125,0.5187987685203552,-1.4953612089157104,-1.0681151151657104,73.33333587646484,274341.0,1.0
15230.0243691,296170.90625,294437.9375,321751.59375,313581.40625,285051.28125,254960.90625,219941.171875,245058.375,0.057861328125,0.993896484375,0.177001953125,0.5187987685203552,-1.4953612089157104,-1.0681151151657104,73.33333587646484,274342.0,0.0
15230.0243694,296170.90625,294437.9375,321751.59375,313581.40625,285051.28125,254960.90625,219941.171875,245058.375,0.057861328125,0.993896484375,0.177001953125,0.5187987685203552,-1.4953612089157104,-1.0681151151657104,73.33333587646484,274343.0,0.0
15230.0243696,296170.90625,294437.9375,321751.59375,313581.40625,285051.28125,254960.90625,219941.171875,245058.375,0.057861328125,0.993896484375,0.177001953125,0.5187987685203552,-1.4953612089157104,-1.0681151151657104,73.33333587646484,274344.0,0.0
15230.0243698,296170.90625,294437.9375,321751.59375,313581.40625,285051.28125,254960.90625,219941.171875,245058.375,0.057861328125,0.993896484375,0.177001953125,0.5187987685203552,-1.4953612089157104,-1.0681151151657104,73.33333587646484,274345.0,0.0
15230.02437,296170.90625,294437.9375,321751.59375,313581.40625,285051.28125,254960.90625,219941.171875,245058.375,0.057861328125,0.993896484375,0.177001953125,0.5187987685203552,-1.4953612089157104,-1.0681151151657104,73.33333587646484,274346.0,0.0
15230.0243702,296170.90625,294437.9375,321751.59375,313581.40625,285051.28125,254960.90625,219941.171875,245058.375,0.057861328125,0.993896484375,0.177001953125,0.5187987685203552,-1.4953612089157104,-1.0681151151657104,73.33333587646484,274347.0,0.0
15230.0243704,296170.90625,294437.9375,321751.59375,313581.40625,285051.28125,254960.90625,219941.171875,245058.375,0.057861328125,0.993896484375,0.177001953125,0.5187987685203552,-1.4953612089157104,-1.0681151151657104,73.33333587646484,274348.0,0.0
15230.0243706,296170.90625,294437.9375,321751.59375,313581.40625,285051.28125,254960.90625,219941.171875,245058.375,0.057861328125,0.993896484375,0.177001953125,0.5187987685203552,-1.4953612089157104,-1.0681151151657104,73.33333587646484,274349.0,0.0
15230.0243708,296170.90625,294437.9375,321751.59375,313581.40625,285051.28125,254960.90625,219941.171875,245058.375,0.057861328125,0.993896484375,0.177001953125,0.5187987685203552,-1.4953612089157104,-1.0681151151657104,73.33333587646484,274350.0,0.0
15230.024371,296175.375,294436.0625,321759.90625,313589.96875,285055.3125,254959.828125,219944.03125,245051.484375,0.05712890625,0.989990234375,0.17333984375,0.2746581733226776,-1.1291502714157104,-0.4577636420726776,73.33333587646484,274351.0,1.0
15230.024373,296182.0,294108.65625,321080.78125,313591.5,284718.59375,254931.3125,219908.625,245067.21875,0.055419921875,0.990478515625,0.17333984375,0.3356933295726776,-1.1291502714157104,-0.3051757514476776,73.33333587646484,274352.0,1.0
15230.0378025,296385.40625,294718.125,321822.65625,313876.34375,285186.5625,255082.953125,220153.875,245215.015625,0.057373046875,0.9912109375,0.174072265625,0.4882812201976776,-1.1596678495407104,-0.4272460639476776,73.33333587646484,274353.0,1.0
15230.0378235,296499.21875,295434.09375,322976.71875,314047.84375,285817.59375,255200.703125,220335.640625,245295.125,0.056640625,0.991943359375,0.1728515625,0.5493163466453552,-1.1596678495407104,-0.5493163466453552,73.33333587646484,274354.0,1.0
15230.037826,296372.78125,295262.625,322940.0625,313873.5,285737.125,255125.78125,220207.875,245196.765625,0.056884765625,0.991455078125,0.171630859375,0.4577636420726776,-1.0986326932907104,-0.5798339247703552,73.33333587646484,274355.0,1.0
15230.0378282,296180.125,294438.46875,321753.03125,313591.40625,285053.875,254952.765625,219940.375,245050.328125,0.0556640625,0.9912109375,0.17041015625,0.5187987685203552,-1.0986326932907104,-0.7019042372703552,73.33333587646484,274356.0,1.0
15230.0378302,296189.0625,294106.0625,321073.09375,313595.53125,284717.4375,254917.546875,219904.78125,245064.453125,0.055908203125,0.9931640625,0.17431640625,0.5798339247703552,-1.1596678495407104,-0.7629393935203552,73.33333587646484,274357.0,1.0
15230.0378321,296396.5625,294726.0,321821.875,313882.6875,285188.6875,255079.28125,220156.828125,245223.5,0.0556640625,0.99755859375,0.17333984375,0.6103515028953552,-1.1901854276657104,-0.8239745497703552,73.33333587646484,274358.0,1.0
15230.0378341,296521.03125,295449.9375,322983.4375,314060.71875,285828.40625,255217.6875,220355.21875,245308.625,0.05419921875,0.9990234375,0.176025390625,0.6103515028953552,-1.1596678495407104,-0.9460448622703552,73.33333587646484,274359.0,1.0
15230.0612342,296396.46875,295282.21875,322953.03125,313886.8125,285754.625,255153.046875,220234.15625,245208.484375,0.056396484375,1.00146484375,0.173583984375,0.4882812201976776,-1.3122557401657104,-1.0681151151657104,73.33333587646484,274360.0,1.0
15230.0629747,296204.53125,294457.15625,321769.125,313608.75,285071.125,254972.0,219966.203125,245078.578125,0.05615234375,1.0029296875,0.178466796875,0.3356933295726776,-1.4038084745407104,-1.1901854276657104,73.33333587646484,274361.0,1.0
15230.0910003,296204.53125,294457.15625,321769.125,313608.75,285071.125,254972.0,219966.203125,245078.578125,0.05615234375,1.0029296875,0.178466796875,0.3356933295726776,-1.4038084745407104,-1.1901854276657104,73.33333587646484,274362.0,0.0
15230.0910038,296204.53125,294457.15625,321769.125,313608.75,285071.125,254972.0,219966.203125,245078.578125,0.05615234375,1.0029296875,0.178466796875,0.3356933295726776,-1.4038084745407104,-1.1901854276657104,73.33333587646484,274363.0,0.0
15230.091004,296204.53125,294457.15625,321769.125,313608.75,285071.125,254972.0,219966.203125,245078.578125,0.05615234375,1.0029296875,0.178466796875,0.3356933295726776,-1.4038084745407104,-1.1901854276657104,73.33333587646484,274364.0,0.0
15230.0910041,296204.53125,294457.15625,321769.125,313608.75,285071.125,254972.0,219966.203125,245078.578125,0.05615234375,1.0029296875,0.178466796875,0.3356933295726776,-1.4038084745407104,-1.1901854276657104,73.33333587646484,274365.0,0.0
15230.0910043,296204.53125,294457.15625,321769.125,313608.75,285071.125,254972.0,219966.203125,245078.578125,0.05615234375,1.0029296875,0.178466796875,0.3356933295726776,-1.4038084745407104,-1.1901854276657104,73.33333587646484,274366.0,0.0
15230.0910045,296204.53125,294457.15625,321769.125,313608.75,285071.125,254972.0,219966.203125,245078.578125,0.05615234375,1.0029296875,0.178466796875,0.3356933295726776,-1.4038084745407104,-1.1901854276657104,73.33333587646484,274367.0,0.0
15230.0910047,296204.53125,294457.15625,321769.125,313608.75,285071.125,254972.0,219966.203125,245078.578125,0.05615234375,1.0029296875,0.178466796875,0.3356933295726776,-1.4038084745407104,-1.1901854276657104,73.33333587646484,274368.0,0.0
15230.0910048,296204.53125,294457.15625,321769.125,313608.75,285071.125,254972.0,219966.203125,245078.578125,0.05615234375,1.0029296875,0.178466796875,0.3356933295726776,-1.4038084745407104,-1.1901854276657104,73.33333587646484,274369.0,0.0
15230.091005,296204.53125,294457.15625,321769.125,313608.75,285071.125,254972.0,219966.203125,245078.578125,0.05615234375,1.0029296875,0.178466796875,0.3356933295726776,-1.4038084745407104,-1.1901854276657104,73.33333587646484,274370.0,0.0
15230.0910052,296204.53125,294457.15625,321769.125,313608.75,285071.125,254972.0,219966.203125,245078.578125,0.05615234375,1.0029296875,0.178466796875,0.3356933295726776,-1.4038084745407104,-1.1901854276657104,73.33333587646484,274371.0,0.0
15230.0910054,296204.53125,294457.15625,321769.125,313608.75,285071.125,254972.0,219966.203125,245078.578125,0.05615234375,1.0029296875,0.178466796875,0.3356933295726776,-1.4038084745407104,-1.1901854276657104,73.33333587646484,274372.0,0.0
15230.0910055,296204.53125,294457.15625,321769.125,313608.75,285071.125,254972.0,219966.203125,245078.578125,0.05615234375,1.0029296875,0.178466796875,0.3356933295726776,-1.4038084745407104,-1.1901854276657104,73.33333587646484,274373.0,0.0
15230.0910057,296204.53125,294457.15625,321769.125,313608.75,285071.125,254972.0,219966.203125,245078.578125,0.05615234375,1.0029296875,0.178466796875,0.3356933295726776,-1.4038084745407104,-1.1901854276657104,73.33333587646484,274374.0,0.0
15230.0910059,296204.53125,294457.15625,321769.125,313608.75,285071.125,254972.0,219966.203125,245078.578125,0.05615234375,1.0029296875,0.178466796875,0.3356933295726776,-1.4038084745407104,-1.1901854276657104,73.33333587646484,274375.0,0.0
15230.0910061,296204.53125,294457.15625,321769.125,313608.75,285071.125,254972.0,219966.203125,245078.578125,0.05615234375,1.0029296875,0.178466796875,0.3356933295726776,-1.4038084745407104,-1.1901854276657104,73.33333587646484,274376.0,0.0
15230.0910062,296204.53125,294457.15625,321769.125,313608.75,285071.125,254972.0,219966.203125,245078.578125,0.05615234375,1.0029296875,0.178466796875,0.3356933295726776,-1.4038084745407104,-1.1901854276657104,73.33333587646484,274377.0,0.0
15230.0910064,296204.53125,294457.15625,321769.125,313608.75,285071.125,254972.0,219966.203125,245078.578125,0.05615234375,1.0029296875,0.178466796875,0.3356933295726776,-1.4038084745407104,-1.1901854276657104,73.33333587646484,274378.0,0.0
15230.0910066,296204.53125,294457.15625,321769.125,313608.75,285071.125,254972.0,219966.203125,245078.578125,0.05615234375,1.0029296875,0.178466796875,0.3356933295726776,-1.4038084745407104,-1.1901854276657104,73.33333587646484,274379.0,0.0
15230.0910068,296204.53125,294457.15625,321769.125,313608.75,285071.125,254972.0,219966.203125,245078.578125,0.05615234375,1.0029296875,0.178466796875,0.3356933295726776,-1.4038084745407104,-1.1901854276657104,73.33333587646484,274380.0,0.0
15230.0910069,296204.53125,294457.15625,321769.125,313608.75,285071.125,254972.0,219966.203125,245078.578125,0.05615234375,1.0029296875,0.178466796875,0.3356933295726776,-1.4038084745407104,-1.1901854276657104,73.33333587646484,274381.0,0.0
15230.0910071,296204.53125,294457.15625,321769.125,313608.75,285071.125,254972.0,219966.203125,245078.578125,0.05615234375,1.0029296875,0.178466796875,0.3356933295726776,-1.4038084745407104,-1.1901854276657104,73.33333587646484,274382.0,0.0
15230.0910073,296204.53125,294457.15625,321769.125,313608.75,285071.125,254972.0,219966.203125,245078.578125,0.05615234375,1.0029296875,0.178466796875,0.3356933295726776,-1.4038084745407104,-1.1901854276657104,73.33333587646484,274383.0,0.0
15230.0910075,296204.53125,294457.15625,321769.125,313608.75,285071.125,254972.0,219966.203125,245078.578125,0.05615234375,1.0029296875,0.178466796875,0.3356933295726776,-1.4038084745407104,-1.1901854276657104,73.33333587646484,274384.0,0.0
15230.0910076,296204.53125,294457.15625,321769.125,313608.75,285071.125,254972.0,219966.203125,245078.578125,0.05615234375,1.0029296875,0.178466796875,0.3356933295726776,-1.4038084745407104,-1.1901854276657104,73.33333587646484,274385.0,0.0
15230.0910078,296204.53125,294457.15625,321769.125,313608.75,285071.125,254972.0,219966.203125,245078.578125,0.05615234375,1.0029296875,0.178466796875,0.3356933295726776,-1.4038084745407104,-1.1901854276657104,73.33333587646484,274386.0,0.0
15230.091008,296204.53125,294457.15625,321769.125,313608.75,285071.125,254972.0,219966.203125,245078.578125,0.05615234375,1.0029296875,0.178466796875,0.3356933295726776,-1.4038084745407104,-1.1901854276657104,73.33333587646484,274387.0,0.0
15230.0910082,296204.53125,294457.15625,321769.125,313608.75,285071.125,254972.0,219966.203125,245078.578125,0.05615234375,1.0029296875,0.178466796875,0.3356933295726776,-1.4038084745407104,-1.1901854276657104,73.33333587646484,274388.0,0.0
15230.0910083,296204.53125,294457.15625,321769.125,313608.75,285071.125,254972.0,219966.203125,245078.578125,0.05615234375,1.0029296875,0.178466796875,0.3356933295726776,-1.4038084745407104,-1.1901854276657104,73.33333587646484,274389.0,0.0
15230.0910086,296204.53125,294457.15625,321769.125,313608.75,285071.125,254972.0,219966.203125,245078.578125,0.05615234375,1.0029296875,0.178466796875,0.3356933295726776,-1.4038084745407104,-1.1901854276657104,73.33333587646484,274390.0,0.0
15230.0910087,296204.53125,294457.15625,321769.125,313608.75,285071.125,254972.0,219966.203125,245078.578125,0.05615234375,1.0029296875,0.178466796875,0.3356933295726776,-1.4038084745407104,-1.1901854276657104,73.33333587646484,274391.0,0.0
15230.0910089,296204.53125,294457.15625,321769.125,313608.75,285071.125,254972.0,219966.203125,245078.578125,0.05615234375,1.0029296875,0.178466796875,0.3356933295726776,-1.4038084745407104,-1.1901854276657104,73.33333587646484,274392.0,0.0
15230.0910091,296204.53125,294457.15625,321769.125,313608.75,285071.125,254972.0,219966.203125,245078.578125,0.05615234375,1.0029296875,0.178466796875,0.3356933295726776,-1.4038084745407104,-1.1901854276657104,73.33333587646484,274393.0,0.0
15230.0910093,296204.53125,294457.15625,321769.125,313608.75,285071.125,254972.0,219966.203125,245078.578125,0.05615234375,1.0029296875,0.178466796875,0.3356933295726776,-1.4038084745407104,-1.1901854276657104,73.33333587646484,274394.0,0.0
15230.0910094,296204.53125,294457.15625,321769.125,313608.75,285071.125,254972.0,219966.203125,245078.578125,0.05615234375,1.0029296875,0.178466796875,0.3356933295726776,-1.4038084745407104,-1.1901854276657104,73.33333587646484,274395.0,0.0
15230.0910096,296204.53125,294457.15625,321769.125,313608.75,285071.125,254972.0,219966.203125,245078.578125,0.05615234375,1.0029296875,0.178466796875,0.3356933295726776,-1.4038084745407104,-1.1901854276657104,73.33333587646484,274396.0,0.0
15230.0910098,296204.53125,294457.15625,321769.125,313608.75,285071.125,254972.0,219966.203125,245078.578125,0.05615234375,1.0029296875,0.178466796875,0.3356933295726776,-1.4038084745407104,-1.1901854276657104,73.33333587646484,274397.0,0.0
15230.09101,296204.53125,294457.15625,321769.125,313608.75,285071.125,254972.0,219966.203125,245078.578125,0.05615234375,1.0029296875,0.178466796875,0.3356933295726776,-1.4038084745407104,-1.1901854276657104,73.33333587646484,274398.0,0.0
15230.0910101,296204.53125,294457.15625,321769.125,313608.75,285071.125,254972.0,219966.203125,245078.578125,0.05615234375,1.0029296875,0.178466796875,0.3356933295726776,-1.4038084745407104,-1.1901854276657104,73.33333587646484,274399.0,0.0
15230.0910103,296384.875,295288.65625,322956.96875,313877.59375,285765.625,255159.5625,220246.671875,245205.71875,0.05322265625,0.9931640625,0.1806640625,0.7019042372703552,-1.2512205839157104,-0.8850097060203552,73.33333587646484,274400.0,1.0
15230.0910201,296188.0625,294457.15625,321764.5625,313590.0625,285073.71875,254981.65625,219974.609375,245062.578125,0.053955078125,0.9931640625,0.1796875,0.7019042372703552,-1.2817381620407104,-0.7934569716453552,73.33333587646484,274401.0,1.0
15230.0910214,296199.6875,294136.09375,321094.96875,313600.4375,284747.1875,254952.140625,219949.9375,245097.171875,0.0546875,0.994384765625,0.18212890625,0.8239745497703552,-1.1901854276657104,-0.7934569716453552,73.33333587646484,274402.0,1.0
15230.0910227,296403.90625,294751.65625,321842.15625,313892.625,285220.34375,255122.46875,220214.765625,245268.828125,0.0546875,0.995849609375,0.1796875,0.7629393935203552,-1.1901854276657104,-0.7324218153953552,73.33333587646484,274403.0,1.0
15230.1162209,296517.1875,295466.21875,322992.75,314054.375,285845.3125,255251.03125,220386.78125,245324.09375,0.0556640625,0.99755859375,0.17919921875,0.8239745497703552,-1.2207030057907104,-0.7934569716453552,73.33333587646484,274404.0,1.0
15230.1162333,296390.3125,295299.1875,322962.96875,313875.625,285767.78125,255165.375,220242.390625,245207.671875,0.054931640625,1.0009765625,0.178466796875,0.7629393935203552,-1.3122557401657104,-0.8544921278953552,73.33333587646484,274405.0,1.0
15230.1162347,296187.375,294464.40625,321773.40625,313588.375,285074.6875,254970.5625,219958.703125,245059.53125,0.052734375,0.9990234375,0.177978515625,0.6713866591453552,-1.2817381620407104,-0.8544921278953552,73.33333587646484,274406.0,1.0
15230.1162361,296191.90625,294129.5625,321089.4375,313587.75,284731.71875,254917.1875,219906.390625,245063.734375,0.051513671875,0.9970703125,0.1796875,0.5187987685203552,-1.3732908964157104,-0.8850097060203552,73.33333587646484,274407.0,1.0
15230.1368214,296393.1875,294739.6875,321832.0625,313871.96875,285199.25,255074.28125,220157.625,245220.375,0.052734375,0.993408203125,0.17626953125,0.5187987685203552,-1.4038084745407104,-0.8850097060203552,73.33333587646484,274408.0,1.0
15230.1402515,296511.375,295453.34375,322980.03125,314046.125,285832.15625,255219.65625,220358.34375,245301.640625,0.054443359375,0.990966796875,0.1767578125,0.5798339247703552,-1.3427733182907104,-0.8544921278953552,73.33333587646484,274409.0,1.0
15230.1402577,296385.40625,295283.46875,322941.9375,313873.40625,285757.15625,255154.390625,220241.3125,245212.5,0.055419921875,0.98828125,0.177734375,0.6103515028953552,-1.4953612089157104,-0.6103515028953552,73.33333587646484,274410.0,1.0
15230.1402591,296191.21875,294463.6875,321767.15625,313591.875,285075.0625,254967.171875,219972.734375,245069.71875,0.056396484375,0.99169921875,0.177734375,0.7324218153953552,-1.5563963651657104,-0.6408690810203552,73.33333587646484,274411.0,1.0
15230.1402625,296191.21875,294463.6875,321767.15625,313591.875,285075.0625,254967.171875,219972.734375,245069.71875,0.056396484375,0.99169921875,0.177734375,0.7324218153953552,-1.5563963651657104,-0.6408690810203552,73.33333587646484,274412.0,0.0
15230.1402627,296191.21875,294463.6875,321767.15625,313591.875,285075.0625,254967.171875,219972.734375,245069.71875,0.056396484375,0.99169921875,0.177734375,0.7324218153953552,-1.5563963651657104,-0.6408690810203552,73.33333587646484,274413.0,0.0
15230.1402628,296191.21875,294463.6875,321767.15625,313591.875,285075.0625,254967.171875,219972.734375,245069.71875,0.056396484375,0.99169921875,0.177734375,0.7324218153953552,-1.5563963651657104,-0.6408690810203552,73.33333587646484,274414.0,0.0
15230.140263,296191.21875,294463.6875,321767.15625,313591.875,285075.0625,254967.171875,219972.734375,245069.71875,0.056396484375,0.99169921875,0.177734375,0.7324218153953552,-1.5563963651657104,-0.6408690810203552,73.33333587646484,274415.0,0.0
15230.1402632,296191.21875,294463.6875,321767.15625,313591.875,285075.0625,254967.171875,219972.734375,245069.71875,0.056396484375,0.99169921875,0.177734375,0.7324218153953552,-1.5563963651657104,-0.6408690810203552,73.33333587646484,274416.0,0.0
15230.1402634,296191.21875,294463.6875,321767.15625,313591.875,285075.0625,254967.171875,219972.734375,245069.71875,0.056396484375,0.99169921875,0.177734375,0.7324218153953552,-1.5563963651657104,-0.6408690810203552,73.33333587646484,274417.0,0.0
15230.1402636,296191.21875,294463.6875,321767.15625,313591.875,285075.0625,254967.171875,219972.734375,245069.71875,0.056396484375,0.99169921875,0.177734375,0.7324218153953552,-1.5563963651657104,-0.6408690810203552,73.33333587646484,274418.0,0.0
15230.1402637,296191.21875,294463.6875,321767.15625,313591.875,285075.0625,254967.171875,219972.734375,245069.71875,0.056396484375,0.99169921875,0.177734375,0.7324218153953552,-1.5563963651657104,-0.6408690810203552,73.33333587646484,274419.0,0.0
15230.1402639,296191.21875,294463.6875,321767.15625,313591.875,285075.0625,254967.171875,219972.734375,245069.71875,0.056396484375,0.99169921875,0.177734375,0.7324218153953552,-1.5563963651657104,-0.6408690810203552,73.33333587646484,274420.0,0.0
15230.1402641,296191.21875,294463.6875,321767.15625,313591.875,285075.0625,254967.171875,219972.734375,245069.71875,0.056396484375,0.99169921875,0.177734375,0.7324218153953552,-1.5563963651657104,-0.6408690810203552,73.33333587646484,274421.0,0.0
15230.1402644,296191.21875,294463.6875,321767.15625,313591.875,285075.0625,254967.171875,219972.734375,245069.71875,0.056396484375,0.99169921875,0.177734375,0.7324218153953552,-1.5563963651657104,-0.6408690810203552,73.33333587646484,274422.0,0.0
15230.1402646,296191.21875,294463.6875,321767.15625,313591.875,285075.0625,254967.171875,219972.734375,245069.71875,0.056396484375,0.99169921875,0.177734375,0.7324218153953552,-1.5563963651657104,-0.6408690810203552,73.33333587646484,274423.0,0.0
15230.1402648,296191.21875,294463.6875,321767.15625,313591.875,285075.0625,254967.171875,219972.734375,245069.71875,0.056396484375,0.99169921875,0.177734375,0.7324218153953552,-1.5563963651657104,-0.6408690810203552,73.33333587646484,274424.0,0.0
15230.1402653,296191.21875,294463.6875,321767.15625,313591.875,285075.0625,254967.171875,219972.734375,245069.71875,0.056396484375,0.99169921875,0.177734375,0.7324218153953552,-1.5563963651657104,-0.6408690810203552,73.33333587646484,274425.0,0.0
15230.1402655,296191.21875,294463.6875,321767.15625,313591.875,285075.0625,254967.171875,219972.734375,245069.71875,0.056396484375,0.99169921875,0.177734375,0.7324218153953552,-1.5563963651657104,-0.6408690810203552,73.33333587646484,274426.0,0.0
15230.1402656,296191.21875,294463.6875,321767.15625,313591.875,285075.0625,254967.171875,219972.734375,245069.71875,0.056396484375,0.99169921875,0.177734375,0.7324218153953552,-1.5563963651657104,-0.6408690810203552,73.33333587646484,274427.0,0.0
15230.1402658,296191.21875,294463.6875,321767.15625,313591.875,285075.0625,254967.171875,219972.734375,245069.71875,0.056396484375,0.99169921875,0.177734375,0.7324218153953552,-1.5563963651657104,-0.6408690810203552,73.33333587646484,274428.0,0.0
15230.140266,296191.21875,294463.6875,321767.15625,313591.875,285075.0625,254967.171875,219972.734375,245069.71875,0.056396484375,0.99169921875,0.177734375,0.7324218153953552,-1.5563963651657104,-0.6408690810203552,73.33333587646484,274429.0,0.0
15230.1402662,296191.21875,294463.6875,321767.15625,313591.875,285075.0625,254967.171875,219972.734375,245069.71875,0.056396484375,0.99169921875,0.177734375,0.7324218153953552,-1.5563963651657104,-0.6408690810203552,73.33333587646484,274430.0,0.0
15230.1402664,296191.21875,294463.6875,321767.15625,313591.875,285075.0625,254967.171875,219972.734375,245069.71875,0.056396484375,0.99169921875,0.177734375,0.7324218153953552,-1.5563963651657104,-0.6408690810203552,73.33333587646484,274431.0,0.0
15230.1402665,296191.21875,294463.6875,321767.15625,313591.875,285075.0625,254967.171875,219972.734375,245069.71875,0.056396484375,0.99169921875,0.177734375,0.7324218153953552,-1.5563963651657104,-0.6408690810203552,73.33333587646484,274432.0,0.0
15230.1402667,296191.21875,294463.6875,321767.15625,313591.875,285075.0625,254967.171875,219972.734375,245069.71875,0.056396484375,0.99169921875,0.177734375,0.7324218153953552,-1.5563963651657104,-0.6408690810203552,73.33333587646484,274433.0,0.0
15230.1402669,296191.21875,294463.6875,321767.15625,313591.875,285075.0625,254967.171875,219972.734375,245069.71875,0.056396484375,0.99169921875,0.177734375,0.7324218153953552,-1.5563963651657104,-0.6408690810203552,73.33333587646484,274434.0,0.0
15230.1402671,296191.21875,294463.6875,321767.15625,313591.875,285075.0625,254967.171875,219972.734375,245069.71875,0.056396484375,0.99169921875,0.177734375,0.7324218153953552,-1.5563963651657104,-0.6408690810203552,73.33333587646484,274435.0,0.0
15230.1402673,296191.21875,294463.6875,321767.15625,313591.875,285075.0625,254967.171875,219972.734375,245069.71875,0.056396484375,0.99169921875,0.177734375,0.7324218153953552,-1.5563963651657104,-0.6408690810203552,73.33333587646484,274436.0,0.0
15230.1402674,296191.21875,294463.6875,321767.15625,313591.875,285075.0625,254967.171875,219972.734375,245069.71875,0.056396484375,0.99169921875,0.177734375,0.7324218153953552,-1.5563963651657104,-0.6408690810203552,73.33333587646484,274437.0,0.0
15230.1402676,296191.21875,294463.6875,321767.15625,313591.875,285075.0625,254967.171875,219972.734375,245069.71875,0.056396484375,0.99169921875,0.177734375,0.7324218153953552,-1.5563963651657104,-0.6408690810203552,73.33333587646484,274438.0,0.0
15230.1402678,296191.21875,294463.6875,321767.15625,313591.875,285075.0625,254967.171875,219972.734375,245069.71875,0.056396484375,0.99169921875,0.177734375,0.7324218153953552,-1.5563963651657104,-0.6408690810203552,73.33333587646484,274439.0,0.0
15230.140268,296191.21875,294463.6875,321767.15625,313591.875,285075.0625,254967.171875,219972.734375,245069.71875,0.056396484375,0.99169921875,0.177734375,0.7324218153953552,-1.5563963651657104,-0.6408690810203552,73.33333587646484,274440.0,0.0
15230.1402681,296191.21875,294463.6875,321767.15625,313591.875,285075.0625,254967.171875,219972.734375,245069.71875,0.056396484375,0.99169921875,0.177734375,0.7324218153953552,-1.5563963651657104,-0.6408690810203552,73.33333587646484,274441.0,0.0
15230.1402683,296191.21875,294463.6875,321767.15625,313591.875,285075.0625,254967.171875,219972.734375,245069.71875,0.056396484375,0.99169921875,0.177734375,0.7324218153953552,-1.5563963651657104,-0.6408690810203552,73.33333587646484,274442.0,0.0
15230.1402685,296191.21875,294463.6875,321767.15625,313591.875,285075.0625,254967.171875,219972.734375,245069.71875,0.056396484375,0.99169921875,0.177734375,0.7324218153953552,-1.5563963651657104,-0.6408690810203552,73.33333587646484,274443.0,0.0
15230.1402687,296191.21875,294463.6875,321767.15625,313591.875,285075.0625,254967.171875,219972.734375,245069.71875,0.056396484375,0.99169921875,0.177734375,0.7324218153953552,-1.5563963651657104,-0.6408690810203552,73.33333587646484,274444.0,0.0
15230.1402689,296191.21875,294463.6875,321767.15625,313591.875,285075.0625,254967.171875,219972.734375,245069.71875,0.056396484375,0.99169921875,0.177734375,0.7324218153953552,-1.5563963651657104,-0.6408690810203552,73.33333587646484,274445.0,0.0
15230.1402691,296191.21875,294463.6875,321767.15625,313591.875,285075.0625,254967.171875,219972.734375,245069.71875,0.056396484375,0.99169921875,0.177734375,0.7324218153953552,-1.5563963651657104,-0.6408690810203552,73.33333587646484,274446.0,0.0
15230.1402692,296191.21875,294463.6875,321767.15625,313591.875,285075.0625,254967.171875,219972.734375,245069.71875,0.056396484375,0.99169921875,0.177734375,0.7324218153953552,-1.5563963651657104,-0.6408690810203552,73.33333587646484,274447.0,0.0
15230.1402694,296191.21875,294463.6875,321767.15625,313591.875,285075.0625,254967.171875,219972.734375,245069.71875,0.056396484375,0.99169921875,0.177734375,0.7324218153953552,-1.5563963651657104,-0.6408690810203552,73.33333587646484,274448.0,0.0
15230.1402696,296504.5,295448.6875,322967.0625,314037.1875,285825.4375,255212.40625,220358.53125,245294.9375,0.0537109375,0.993896484375,0.175537109375,0.6103515028953552,-2.166747808456421,-0.5187987685203552,73.33333587646484,274449.0,1.0
15230.1417152,296378.96875,295278.09375,322924.53125,313860.09375,285743.90625,255139.09375,220230.140625,245194.171875,0.054443359375,0.993896484375,0.1767578125,0.6103515028953552,-2.136230230331421,-0.4272460639476776,73.33333587646484,274450.0,1.0
15230.1442622,296189.3125,294465.75,321761.4375,313579.96875,285070.3125,254972.078125,219968.4375,245064.359375,0.056396484375,0.9931640625,0.17724609375,0.6408690810203552,-2.105712652206421,-0.4577636420726776,73.33333587646484,274451.0,1.0
15230.1472859,296199.4375,294138.34375,321098.28125,313583.90625,284741.65625,254938.109375,219937.15625,245074.90625,0.05712890625,0.993896484375,0.172119140625,0.6408690810203552,-2.136230230331421,-0.3662109076976776,73.33333587646484,274452.0,1.0
15230.1472887,296397.03125,294729.125,321824.8125,313862.21875,285195.3125,255083.03125,220177.484375,245226.0,0.056396484375,0.991943359375,0.173583984375,0.7019042372703552,-2.014159917831421,-0.5798339247703552,73.33333587646484,274453.0,1.0
15230.1492257,296514.59375,295443.0625,322960.71875,314035.84375,285822.84375,255226.71875,220376.765625,245319.890625,0.056396484375,0.991943359375,0.174072265625,0.8544921278953552,-2.014159917831421,-0.5798339247703552,73.33333587646484,274454.0,1.0
15230.1517169,296388.4375,295286.3125,322936.78125,313863.03125,285752.59375,255146.96875,220245.875,245213.21875,0.0595703125,0.992431640625,0.173095703125,0.9155272841453552,-1.8615721464157104,-0.6408690810203552,73.33333587646484,274455.0,1.0
15230.1542239,296188.6875,294463.9375,321769.75,313577.1875,285069.78125,254951.078125,219957.71875,245056.3125,0.059814453125,0.994873046875,0.1728515625,1.0070799589157104,-1.9226073026657104,-0.5798339247703552,73.33333587646484,274456.0,1.0
15230.1567244,296202.28125,294137.4375,321103.46875,313586.6875,284740.3125,254923.890625,219923.65625,245077.140625,0.060302734375,0.99609375,0.175048828125,0.8544921278953552,-1.8920897245407104,-0.6408690810203552,73.33333587646484,274457.0,1.0
15230.1592314,296408.71875,294740.5,321835.4375,313875.625,285205.3125,255094.125,220181.953125,245239.59375,0.059814453125,0.993896484375,0.177978515625,0.6408690810203552,-1.7089842557907104,-0.5798339247703552,73.33333587646484,274458.0,1.0
15230.1842643,296521.28125,295447.53125,322963.78125,314045.875,285831.625,255237.625,220387.046875,245336.6875,0.06103515625,0.995361328125,0.178466796875,0.6408690810203552,-1.6784666776657104,-0.5493163466453552,73.33333587646484,274459.0,1.0
15230.2093687,296402.21875,295294.625,322942.125,313878.0625,285769.125,255186.21875,220273.5,245236.921875,0.0595703125,0.99609375,0.176513671875,0.6713866591453552,-1.5563963651657104,-0.5493163466453552,73.33333587646484,274460.0,1.0
15230.2305584,296197.09375,294475.84375,321780.75,313584.875,285086.5,254987.640625,219977.390625,245060.328125,0.056640625,0.99560546875,0.17822265625,0.6103515028953552,-1.4953612089157104,-0.4882812201976776,73.33333587646484,274461.0,1.0
15230.2330248,296193.4375,294133.25,321104.625,313579.625,284738.15625,254891.96875,219906.578125,245067.9375,0.056640625,0.994384765625,0.1767578125,0.4882812201976776,-1.5869139432907104,-0.5187987685203552,73.33333587646484,274462.0,1.0
15230.2405396,296386.03125,294713.65625,321816.78125,313862.125,285189.40625,255054.515625,220160.3125,245238.796875,0.05615234375,0.9912109375,0.176025390625,0.4577636420726776,-1.4953612089157104,-0.6713866591453552,73.33333587646484,274463.0,1.0
15230.2430419,296512.53125,295439.65625,322956.53125,314040.5,285824.09375,255216.609375,220372.03125,245323.734375,0.054931640625,0.99267578125,0.17431640625,0.5798339247703552,-1.4343260526657104,-0.6713866591453552,73.33333587646484,274464.0,1.0
15230.2989138,296392.71875,295291.78125,322937.5625,313867.9375,285759.5625,255158.765625,220257.140625,245223.140625,0.0556640625,0.9931640625,0.17236328125,0.5798339247703552,-1.3122557401657104,-0.6408690810203552,73.33333587646484,274465.0,1.0
15230.2989366,296192.53125,294468.6875,321776.1875,313578.53125,285078.28125,254967.4375,219969.421875,245063.015625,0.054443359375,0.9921875,0.17431640625,0.5798339247703552,-1.4953612089157104,-0.6103515028953552,73.33333587646484,274466.0,1.0
15230.2989389,296195.0625,294125.375,321099.625,313578.09375,284735.65625,254921.5625,219923.203125,245064.359375,0.056640625,0.9931640625,0.173583984375,0.5798339247703552,-1.5258787870407104,-0.6408690810203552,73.33333587646484,274467.0,1.0
15230.2989409,296385.84375,294707.125,321808.90625,313853.90625,285182.6875,255074.640625,220163.703125,245216.703125,0.05712890625,0.990234375,0.173828125,0.6713866591453552,-1.4953612089157104,-0.6713866591453552,73.33333587646484,274468.0,1.0
15230.2989428,296502.78125,295426.96875,322946.4375,314029.34375,285818.125,255233.515625,220374.890625,245310.859375,0.054443359375,0.990234375,0.177001953125,0.7324218153953552,-1.5563963651657104,-0.5493163466453552,73.33333587646484,274469.0,1.0
15230.2989447,296378.15625,295269.96875,322923.96875,313857.65625,285752.59375,255150.1875,220247.03125,245211.96875,0.054931640625,0.988525390625,0.17431640625,0.8239745497703552,-1.4648436307907104,-0.7324218153953552,73.33333587646484,274470.0,1.0
15230.2989472,296181.375,294458.9375,321767.3125,313573.0,285075.9375,254951.96875,219966.5625,245067.9375,0.052978515625,0.98974609375,0.173095703125,0.9765624403953552,-1.5563963651657104,-0.7934569716453552,73.33333587646484,274471.0,1.0
15230.2989492,296185.125,294127.59375,321093.90625,313573.25,284738.25,254917.71875,219923.296875,245074.90625,0.052978515625,0.99072265625,0.177490234375,1.0375975370407104,-1.4953612089157104,-0.7934569716453552,73.33333587646484,274472.0,1.0
15230.2989511,296383.0625,294720.375,321817.21875,313856.59375,285197.8125,255074.546875,220170.6875,245233.34375,0.0537109375,0.99072265625,0.17578125,1.0986326932907104,-1.5869139432907104,-0.7629393935203552,73.33333587646484,274473.0,1.0
15230.298953,296491.78125,295421.0625,322939.625,314022.4375,285816.78125,255209.453125,220361.03125,245309.609375,0.0556640625,0.992431640625,0.179443359375,1.0986326932907104,-1.7700194120407104,-0.7934569716453552,73.33333587646484,274474.0,1.0
15230.2989547,296379.75,295271.46875,322919.5,313863.375,285754.90625,255157.515625,220249.984375,245220.203125,0.05615234375,0.990234375,0.176025390625,1.0986326932907104,-1.8310545682907104,-0.7324218153953552,73.33333587646484,274475.0,1.0
15230.2989566,296193.09375,294476.125,321781.4375,313589.625,285098.21875,255001.59375,219995.796875,245087.609375,0.05712890625,0.99560546875,0.175537109375,1.2207030057907104,-1.7395018339157104,-0.7629393935203552,73.33333587646484,274476.0,1.0
15230.2989584,296197.5625,294137.875,321111.625,313585.875,284760.625,254957.953125,219950.921875,245099.234375,0.0556640625,0.995849609375,0.1748046875,1.0986326932907104,-1.9226073026657104,-0.7019042372703552,73.33333587646484,274477.0,1.0
15230.2989607,296401.75,294727.6875,321832.9375,313866.4375,285211.75,255107.265625,220188.03125,245246.125,0.056396484375,0.99560546875,0.173583984375,1.0986326932907104,-1.9531248807907104,-0.7629393935203552,73.33333587646484,274478.0,1.0
15230.2989627,296518.4375,295440.71875,322961.8125,314035.0625,285831.8125,255249.515625,220380.609375,245317.015625,0.055908203125,0.9970703125,0.177734375,1.0375975370407104,-1.8615721464157104,-0.7934569716453552,73.33333587646484,274479.0,1.0
15230.3330455,296392.71875,295289.1875,322938.46875,313866.96875,285766.09375,255190.953125,220268.3125,245232.53125,0.05712890625,0.993896484375,0.17724609375,1.0070799589157104,-1.9226073026657104,-0.8850097060203552,73.33333587646484,274480.0,1.0
15230.4111535,296193.875,294485.0625,321795.3125,313586.125,285101.6875,254990.5,219990.625,245087.0625,0.057861328125,0.9931640625,0.1767578125,0.9460448622703552,-1.9836424589157104,-0.7934569716453552,73.33333587646484,274481.0,1.0
15230.4111705,296193.875,294141.90625,321117.4375,313576.65625,284755.34375,254916.734375,219920.4375,245071.25,0.056884765625,0.991943359375,0.17431640625,0.9155272841453552,-2.014159917831421,-0.8239745497703552,73.33333587646484,274482.0,1.0
15230.4111723,296392.28125,294717.34375,321810.96875,313853.90625,285193.0625,255069.09375,220156.5625,245229.140625,0.057373046875,0.9921875,0.17333984375,0.9460448622703552,-1.9226073026657104,-0.7934569716453552,73.33333587646484,274483.0,1.0
15230.4111738,296508.34375,295428.28125,322937.84375,314028.34375,285813.5625,255217.78125,220356.109375,245313.796875,0.058837890625,0.993896484375,0.172607421875,0.8850097060203552,-1.8920897245407104,-0.8544921278953552,73.33333587646484,274484.0,1.0
15230.4111783,296384.5,295281.59375,322922.46875,313864.5625,285753.125,255148.65625,220244.796875,245234.59375,0.057861328125,0.993408203125,0.17431640625,0.9765624403953552,-1.9531248807907104,-0.9765624403953552,73.33333587646484,274485.0,1.0
15230.4111807,296196.21875,294482.28125,321787.4375,313589.96875,285095.53125,254974.671875,219976.046875,245083.40625,0.0595703125,0.994140625,0.174072265625,0.9765624403953552,-1.8615721464157104,-0.8239745497703552,73.33333587646484,274486.0,1.0
15230.411182,296201.9375,294150.125,321117.5,313585.6875,284756.6875,254936.234375,219925.984375,245074.90625,0.061279296875,0.99560546875,0.173095703125,0.9155272841453552,-1.8310545682907104,-0.7324218153953552,73.33333587646484,274487.0,1.0
15230.4111833,296401.21875,294734.40625,321825.625,313865.90625,285201.9375,255093.765625,220166.125,245224.3125,0.060791015625,0.994140625,0.171875,0.9155272841453552,-1.8005369901657104,-0.7629393935203552,73.33333587646484,274488.0,1.0
15230.4111844,296514.59375,295434.03125,322942.125,314037.03125,285815.25,255221.703125,220357.984375,245310.765625,0.060546875,0.99267578125,0.173095703125,0.8239745497703552,-1.8310545682907104,-0.7934569716453552,73.33333587646484,274489.0,1.0
15230.4147126,296390.84375,295282.03125,322918.625,313866.4375,285745.875,255141.421875,220235.0625,245218.859375,0.063232421875,0.99169921875,0.169921875,0.7324218153953552,-1.6784666776657104,-0.9460448622703552,73.33333587646484,274490.0,1.0
15230.4147285,296199.0625,294480.125,321775.28125,313592.5,285085.6875,254973.515625,219975.234375,245080.8125,0.05908203125,0.993896484375,0.174072265625,0.7324218153953552,-1.6174315214157104,-0.9765624403953552,73.33333587646484,274491.0,1.0
15230.4147297,296212.5625,294149.34375,321111.53125,313599.5625,284756.9375,254946.609375,219944.21875,245091.1875,0.060302734375,0.9951171875,0.173095703125,0.8239745497703552,-1.5258787870407104,-1.0681151151657104,73.33333587646484,274492.0,1.0
15230.4147326,296212.5625,294149.34375,321111.53125,313599.5625,284756.9375,254946.609375,219944.21875,245091.1875,0.060302734375,0.9951171875,0.173095703125,0.8239745497703552,-1.5258787870407104,-1.0681151151657104,73.33333587646484,274493.0,0.0
15230.4147328,296212.5625,294149.34375,321111.53125,313599.5625,284756.9375,254946.609375,219944.21875,245091.1875,0.060302734375,0.9951171875,0.173095703125,0.8239745497703552,-1.5258787870407104,-1.0681151151657104,73.33333587646484,274494.0,0.0
15230.414733,296212.5625,294149.34375,321111.53125,313599.5625,284756.9375,254946.609375,219944.21875,245091.1875,0.060302734375,0.9951171875,0.173095703125,0.8239745497703552,-1.5258787870407104,-1.0681151151657104,73.33333587646484,274495.0,0.0
15230.4147332,296212.5625,294149.34375,321111.53125,313599.5625,284756.9375,254946.609375,219944.21875,245091.1875,0.060302734375,0.9951171875,0.173095703125,0.8239745497703552,-1.5258787870407104,-1.0681151151657104,73.33333587646484,274496.0,0.0
15230.4147334,296212.5625,294149.34375,321111.53125,313599.5625,284756.9375,254946.609375,219944.21875,245091.1875,0.060302734375,0.9951171875,0.173095703125,0.8239745497703552,-1.5258787870407104,-1.0681151151657104,73.33333587646484,274497.0,0.0
15230.4147336,296212.5625,294149.34375,321111.53125,313599.5625,284756.9375,254946.609375,219944.21875,245091.1875,0.060302734375,0.9951171875,0.173095703125,0.8239745497703552,-1.5258787870407104,-1.0681151151657104,73.33333587646484,274498.0,0.0
15230.4147338,296212.5625,294149.34375,321111.53125,313599.5625,284756.9375,254946.609375,219944.21875,245091.1875,0.060302734375,0.9951171875,0.173095703125,0.8239745497703552,-1.5258787870407104,-1.0681151151657104,73.33333587646484,274499.0,0.0
15230.4147339,296212.5625,294149.34375,321111.53125,313599.5625,284756.9375,254946.609375,219944.21875,245091.1875,0.060302734375,0.9951171875,0.173095703125,0.8239745497703552,-1.5258787870407104,-1.0681151151657104,73.33333587646484,274500.0,0.0
15230.4147341,296212.5625,294149.34375,321111.53125,313599.5625,284756.9375,254946.609375,219944.21875,245091.1875,0.060302734375,0.9951171875,0.173095703125,0.8239745497703552,-1.5258787870407104,-1.0681151151657104,73.33333587646484,274501.0,0.0
15230.4147343,296212.5625,294149.34375,321111.53125,313599.5625,284756.9375,254946.609375,219944.21875,245091.1875,0.060302734375,0.9951171875,0.173095703125,0.8239745497703552,-1.5258787870407104,-1.0681151151657104,73.33333587646484,274502.0,0.0
15230.4147345,296212.5625,294149.34375,321111.53125,313599.5625,284756.9375,254946.609375,219944.21875,245091.1875,0.060302734375,0.9951171875,0.173095703125,0.8239745497703552,-1.5258787870407104,-1.0681151151657104,73.33333587646484,274503.0,0.0
15230.4147346,296212.5625,294149.34375,321111.53125,313599.5625,284756.9375,254946.609375,219944.21875,245091.1875,0.060302734375,0.9951171875,0.173095703125,0.8239745497703552,-1.5258787870407104,-1.0681151151657104,73.33333587646484,274504.0,0.0
15230.4147348,296212.5625,294149.34375,321111.53125,313599.5625,284756.9375,254946.609375,219944.21875,245091.1875,0.060302734375,0.9951171875,0.173095703125,0.8239745497703552,-1.5258787870407104,-1.0681151151657104,73.33333587646484,274505.0,0.0
15230.414735,296212.5625,294149.34375,321111.53125,313599.5625,284756.9375,254946.609375,219944.21875,245091.1875,0.060302734375,0.9951171875,0.173095703125,0.8239745497703552,-1.5258787870407104,-1.0681151151657104,73.33333587646484,274506.0,0.0
15230.4147352,296212.5625,294149.34375,321111.53125,313599.5625,284756.9375,254946.609375,219944.21875,245091.1875,0.060302734375,0.9951171875,0.173095703125,0.8239745497703552,-1.5258787870407104,-1.0681151151657104,73.33333587646484,274507.0,0.0
15230.4147353,296212.5625,294149.34375,321111.53125,313599.5625,284756.9375,254946.609375,219944.21875,245091.1875,0.060302734375,0.9951171875,0.173095703125,0.8239745497703552,-1.5258787870407104,-1.0681151151657104,73.33333587646484,274508.0,0.0
15230.4147355,296212.5625,294149.34375,321111.53125,313599.5625,284756.9375,254946.609375,219944.21875,245091.1875,0.060302734375,0.9951171875,0.173095703125,0.8239745497703552,-1.5258787870407104,-1.0681151151657104,73.33333587646484,274509.0,0.0
15230.4147357,296212.5625,294149.34375,321111.53125,313599.5625,284756.9375,254946.609375,219944.21875,245091.1875,0.060302734375,0.9951171875,0.173095703125,0.8239745497703552,-1.5258787870407104,-1.0681151151657104,73.33333587646484,274510.0,0.0
15230.4147358,296212.5625,294149.34375,321111.53125,313599.5625,284756.9375,254946.609375,219944.21875,245091.1875,0.060302734375,0.9951171875,0.173095703125,0.8239745497703552,-1.5258787870407104,-1.0681151151657104,73.33333587646484,274511.0,0.0
15230.414736,296212.5625,294149.34375,321111.53125,313599.5625,284756.9375,254946.609375,219944.21875,245091.1875,0.060302734375,0.9951171875,0.173095703125,0.8239745497703552,-1.5258787870407104,-1.0681151151657104,73.33333587646484,274512.0,0.0
15230.4147362,296212.5625,294149.34375,321111.53125,313599.5625,284756.9375,254946.609375,219944.21875,245091.1875,0.060302734375,0.9951171875,0.173095703125,0.8239745497703552,-1.5258787870407104,-1.0681151151657104,73.33333587646484,274513.0,0.0
15230.4147364,296212.5625,294149.34375,321111.53125,313599.5625,284756.9375,254946.609375,219944.21875,245091.1875,0.060302734375,0.9951171875,0.173095703125,0.8239745497703552,-1.5258787870407104,-1.0681151151657104,73.33333587646484,274514.0,0.0
15230.4147365,296212.5625,294149.34375,321111.53125,313599.5625,284756.9375,254946.609375,219944.21875,245091.1875,0.060302734375,0.9951171875,0.173095703125,0.8239745497703552,-1.5258787870407104,-1.0681151151657104,73.33333587646484,274515.0,0.0
15230.4147367,296212.5625,294149.34375,321111.53125,313599.5625,284756.9375,254946.609375,219944.21875,245091.1875,0.060302734375,0.9951171875,0.173095703125,0.8239745497703552,-1.5258787870407104,-1.0681151151657104,73.33333587646484,274516.0,0.0
15230.4147369,296212.5625,294149.34375,321111.53125,313599.5625,284756.9375,254946.609375,219944.21875,245091.1875,0.060302734375,0.9951171875,0.173095703125,0.8239745497703552,-1.5258787870407104,-1.0681151151657104,73.33333587646484,274517.0,0.0
15230.4147371,296212.5625,294149.34375,321111.53125,313599.5625,284756.9375,254946.609375,219944.21875,245091.1875,0.060302734375,0.9951171875,0.173095703125,0.8239745497703552,-1.5258787870407104,-1.0681151151657104,73.33333587646484,274518.0,0.0
15230.4147373,296212.5625,294149.34375,321111.53125,313599.5625,284756.9375,254946.609375,219944.21875,245091.1875,0.060302734375,0.9951171875,0.173095703125,0.8239745497703552,-1.5258787870407104,-1.0681151151657104,73.33333587646484,274519.0,0.0
15230.4147375,296212.5625,294149.34375,321111.53125,313599.5625,284756.9375,254946.609375,219944.21875,245091.1875,0.060302734375,0.9951171875,0.173095703125,0.8239745497703552,-1.5258787870407104,-1.0681151151657104,73.33333587646484,274520.0,0.0
15230.4147377,296212.5625,294149.34375,321111.53125,313599.5625,284756.9375,254946.609375,219944.21875,245091.1875,0.060302734375,0.9951171875,0.173095703125,0.8239745497703552,-1.5258787870407104,-1.0681151151657104,73.33333587646484,274521.0,0.0
15230.4147378,296212.5625,294149.34375,321111.53125,313599.5625,284756.9375,254946.609375,219944.21875,245091.1875,0.060302734375,0.9951171875,0.173095703125,0.8239745497703552,-1.5258787870407104,-1.0681151151657104,73.33333587646484,274522.0,0.0
15230.414738,296212.5625,294149.34375,321111.53125,313599.5625,284756.9375,254946.609375,219944.21875,245091.1875,0.060302734375,0.9951171875,0.173095703125,0.8239745497703552,-1.5258787870407104,-1.0681151151657104,73.33333587646484,274523.0,0.0
15230.4147382,296527.46875,295439.375,322965.1875,314043.28125,285832.59375,255240.9375,220379.1875,245320.234375,0.0576171875,0.994873046875,0.173828125,0.1220703050494194,-1.5258787870407104,-0.9460448622703552,73.33333587646484,274524.0,1.0
15230.4393935,296398.625,295289.09375,322944.375,313875.375,285765.1875,255155.1875,220249.984375,245229.40625,0.056640625,0.99658203125,0.16796875,0.0610351525247097,-1.5563963651657104,-0.8544921278953552,73.33333587646484,274525.0,1.0
15230.4824591,296205.59375,294497.46875,321819.71875,313596.78125,285108.21875,254976.109375,219980.421875,245074.1875,0.055908203125,0.994140625,0.1708984375,0.1220703050494194,-1.5869139432907104,-0.9155272841453552,73.33333587646484,274526.0,1.0
15230.482495,296207.65625,294157.09375,321155.5,313594.46875,284775.09375,254939.890625,219941.09375,245089.390625,0.056640625,0.99267578125,0.171630859375,0.2136230319738388,-1.6174315214157104,-0.8850097060203552,73.33333587646484,274527.0,1.0
15230.4824996,296398.8125,294718.59375,321845.375,313865.96875,285210.0625,255091.359375,220183.375,245239.78125,0.056640625,0.98974609375,0.173828125,0.3356933295726776,-1.6479490995407104,-0.9460448622703552,73.33333587646484,274528.0,1.0
15230.4825039,296518.15625,295428.90625,322958.03125,314039.625,285829.5625,255237.625,220386.59375,245332.9375,0.05810546875,0.989990234375,0.172119140625,0.3967284858226776,-1.5869139432907104,-0.9460448622703552,73.33333587646484,274529.0,1.0
15230.506195,296384.9375,295272.8125,322926.75,313865.34375,285756.0625,255166.28125,220260.8125,245237.625,0.057861328125,0.993896484375,0.17333984375,0.4882812201976776,-1.6174315214157104,-0.9765624403953552,73.33333587646484,274530.0,1.0
15230.5062051,296193.4375,294486.21875,321802.375,313588.1875,285102.40625,254995.78125,219993.84375,245081.171875,0.057861328125,0.99658203125,0.176513671875,0.6103515028953552,-1.6479490995407104,-0.9460448622703552,73.33333587646484,274531.0,1.0
15230.5305923,296190.9375,294142.96875,321128.0625,313581.65625,284758.8125,254945.703125,219943.671875,245081.25,0.058349609375,0.995361328125,0.17578125,0.6408690810203552,-1.4953612089157104,-1.0375975370407104,73.33333587646484,274532.0,1.0
15230.5561433,296190.9375,294142.96875,321128.0625,313581.65625,284758.8125,254945.703125,219943.671875,245081.25,0.058349609375,0.995361328125,0.17578125,0.6408690810203552,-1.4953612089157104,-1.0375975370407104,73.33333587646484,274533.0,0.0
15230.5561443,296190.9375,294142.96875,321128.0625,313581.65625,284758.8125,254945.703125,219943.671875,245081.25,0.058349609375,0.995361328125,0.17578125,0.6408690810203552,-1.4953612089157104,-1.0375975370407104,73.33333587646484,274534.0,0.0
15230.5561445,296190.9375,294142.96875,321128.0625,313581.65625,284758.8125,254945.703125,219943.671875,245081.25,0.058349609375,0.995361328125,0.17578125,0.6408690810203552,-1.4953612089157104,-1.0375975370407104,73.33333587646484,274535.0,0.0
15230.5561447,296190.9375,294142.96875,321128.0625,313581.65625,284758.8125,254945.703125,219943.671875,245081.25,0.058349609375,0.995361328125,0.17578125,0.6408690810203552,-1.4953612089157104,-1.0375975370407104,73.33333587646484,274536.0,0.0
15230.5561449,296190.9375,294142.96875,321128.0625,313581.65625,284758.8125,254945.703125,219943.671875,245081.25,0.058349609375,0.995361328125,0.17578125,0.6408690810203552,-1.4953612089157104,-1.0375975370407104,73.33333587646484,274537.0,0.0
15230.556145,296190.9375,294142.96875,321128.0625,313581.65625,284758.8125,254945.703125,219943.671875,245081.25,0.058349609375,0.995361328125,0.17578125,0.6408690810203552,-1.4953612089157104,-1.0375975370407104,73.33333587646484,274538.0,0.0
15230.5561452,296190.9375,294142.96875,321128.0625,313581.65625,284758.8125,254945.703125,219943.671875,245081.25,0.058349609375,0.995361328125,0.17578125,0.6408690810203552,-1.4953612089157104,-1.0375975370407104,73.33333587646484,274539.0,0.0
15230.5561454,296190.9375,294142.96875,321128.0625,313581.65625,284758.8125,254945.703125,219943.671875,245081.25,0.058349609375,0.995361328125,0.17578125,0.6408690810203552,-1.4953612089157104,-1.0375975370407104,73.33333587646484,274540.0,0.0
15230.5561456,296190.9375,294142.96875,321128.0625,313581.65625,284758.8125,254945.703125,219943.671875,245081.25,0.058349609375,0.995361328125,0.17578125,0.6408690810203552,-1.4953612089157104,-1.0375975370407104,73.33333587646484,274541.0,0.0
15230.5561457,296190.9375,294142.96875,321128.0625,313581.65625,284758.8125,254945.703125,219943.671875,245081.25,0.058349609375,0.995361328125,0.17578125,0.6408690810203552,-1.4953612089157104,-1.0375975370407104,73.33333587646484,274542.0,0.0
15230.5561459,296190.9375,294142.96875,321128.0625,313581.65625,284758.8125,254945.703125,219943.671875,245081.25,0.058349609375,0.995361328125,0.17578125,0.6408690810203552,-1.4953612089157104,-1.0375975370407104,73.33333587646484,274543.0,0.0
15230.5561461,296190.9375,294142.96875,321128.0625,313581.65625,284758.8125,254945.703125,219943.671875,245081.25,0.058349609375,0.995361328125,0.17578125,0.6408690810203552,-1.4953612089157104,-1.0375975370407104,73.33333587646484,274544.0,0.0
15230.5561463,296190.9375,294142.96875,321128.0625,313581.65625,284758.8125,254945.703125,219943.671875,245081.25,0.058349609375,0.995361328125,0.17578125,0.6408690810203552,-1.4953612089157104,-1.0375975370407104,73.33333587646484,274545.0,0.0
15230.5561465,296190.9375,294142.96875,321128.0625,313581.65625,284758.8125,254945.703125,219943.671875,245081.25,0.058349609375,0.995361328125,0.17578125,0.6408690810203552,-1.4953612089157104,-1.0375975370407104,73.33333587646484,274546.0,0.0
15230.5561466,296223.3125,294153.0,321147.09375,313590.34375,284767.3125,254935.34375,219931.4375,245083.765625,0.054443359375,0.993408203125,0.17626953125,0.5798339247703552,-1.4038084745407104,-1.2207030057907104,73.33333587646484,274547.0,1.0
15230.5561509,296411.25,294711.34375,321824.09375,313862.40625,285191.5625,255081.78125,220163.984375,245239.15625,0.05419921875,0.9921875,0.17333984375,0.5493163466453552,-1.4648436307907104,-1.2817381620407104,73.33333587646484,274548.0,1.0
15230.5667526,296525.21875,295414.0,322929.4375,314034.5,285803.28125,255223.9375,220362.109375,245319.265625,0.057373046875,0.9921875,0.17333984375,0.4882812201976776,-1.3427733182907104,-1.2207030057907104,73.33333587646484,274549.0,1.0
15230.5667582,296407.21875,295283.375,322922.0,313873.03125,285749.71875,255172.53125,220257.234375,245230.296875,0.05810546875,0.9921875,0.173583984375,0.5798339247703552,-1.3427733182907104,-1.1291502714157104,73.33333587646484,274550.0,1.0
15230.5667609,296219.5625,294500.96875,321809.53125,313596.59375,285102.40625,254994.34375,219985.4375,245072.140625,0.058837890625,0.994384765625,0.17333984375,0.5187987685203552,-1.4038084745407104,-1.0681151151657104,73.33333587646484,274551.0,1.0
15230.569887,296221.15625,294162.125,321150.6875,313594.375,284770.0,254939.453125,219934.015625,245073.75,0.059814453125,0.996337890625,0.17529296875,0.4882812201976776,-1.4648436307907104,-1.1291502714157104,73.33333587646484,274552.0,1.0
15230.5699011,296405.875,294710.28125,321826.59375,313862.125,285193.53125,255079.546875,220160.484375,245224.75,0.06005859375,0.995361328125,0.169921875,0.4577636420726776,-1.4648436307907104,-1.0070799589157104,73.33333587646484,274553.0,1.0
15230.5732226,296517.1875,295401.90625,322919.6875,314028.25,285797.46875,255212.59375,220352.53125,245310.234375,0.06103515625,0.991455078125,0.17333984375,0.4882812201976776,-1.3122557401657104,-0.9155272841453552,73.33333587646484,274554.0,1.0
15230.5732272,296401.59375,295279.25,322913.53125,313868.75,285746.3125,255164.125,220253.296875,245226.71875,0.06103515625,0.9912109375,0.17138671875,0.4882812201976776,-1.2817381620407104,-1.0681151151657104,73.33333587646484,274555.0,1.0
15230.5732284,296217.21875,294501.3125,321803.34375,313603.75,285105.09375,255000.875,219999.203125,245095.921875,0.062744140625,0.9921875,0.1728515625,0.5187987685203552,-1.1901854276657104,-1.0070799589157104,73.33333587646484,274556.0,1.0
15230.5752004,296225.625,294167.375,321146.65625,313605.28125,284773.125,254951.34375,219946.1875,245090.5625,0.060791015625,0.995849609375,0.173828125,0.4272460639476776,-1.1901854276657104,-0.9155272841453552,73.33333587646484,274557.0,1.0
15230.5780653,296225.625,294167.375,321146.65625,313605.28125,284773.125,254951.34375,219946.1875,245090.5625,0.060791015625,0.995849609375,0.173828125,0.4272460639476776,-1.1901854276657104,-0.9155272841453552,73.33333587646484,274558.0,0.0
15230.5780683,296225.625,294167.375,321146.65625,313605.28125,284773.125,254951.34375,219946.1875,245090.5625,0.060791015625,0.995849609375,0.173828125,0.4272460639476776,-1.1901854276657104,-0.9155272841453552,73.33333587646484,274559.0,0.0
15230.5780694,296225.625,294167.375,321146.65625,313605.28125,284773.125,254951.34375,219946.1875,245090.5625,0.060791015625,0.995849609375,0.173828125,0.4272460639476776,-1.1901854276657104,-0.9155272841453552,73.33333587646484,274560.0,0.0
15230.5780706,296225.625,294167.375,321146.65625,313605.28125,284773.125,254951.34375,219946.1875,245090.5625,0.060791015625,0.995849609375,0.173828125,0.4272460639476776,-1.1901854276657104,-0.9155272841453552,73.33333587646484,274561.0,0.0
15230.5780719,296225.625,294167.375,321146.65625,313605.28125,284773.125,254951.34375,219946.1875,245090.5625,0.060791015625,0.995849609375,0.173828125,0.4272460639476776,-1.1901854276657104,-0.9155272841453552,73.33333587646484,274562.0,0.0
15230.5780729,296225.625,294167.375,321146.65625,313605.28125,284773.125,254951.34375,219946.1875,245090.5625,0.060791015625,0.995849609375,0.173828125,0.4272460639476776,-1.1901854276657104,-0.9155272841453552,73.33333587646484,274563.0,0.0
15230.5780741,296225.625,294167.375,321146.65625,313605.28125,284773.125,254951.34375,219946.1875,245090.5625,0.060791015625,0.995849609375,0.173828125,0.4272460639476776,-1.1901854276657104,-0.9155272841453552,73.33333587646484,274564.0,0.0
15230.5780752,296225.625,294167.375,321146.65625,313605.28125,284773.125,254951.34375,219946.1875,245090.5625,0.060791015625,0.995849609375,0.173828125,0.4272460639476776,-1.1901854276657104,-0.9155272841453552,73.33333587646484,274565.0,0.0
15230.5780763,296225.625,294167.375,321146.65625,313605.28125,284773.125,254951.34375,219946.1875,245090.5625,0.060791015625,0.995849609375,0.173828125,0.4272460639476776,-1.1901854276657104,-0.9155272841453552,73.33333587646484,274566.0,0.0
15230.5780774,296225.625,294167.375,321146.65625,313605.28125,284773.125,254951.34375,219946.1875,245090.5625,0.060791015625,0.995849609375,0.173828125,0.4272460639476776,-1.1901854276657104,-0.9155272841453552,73.33333587646484,274567.0,0.0
15230.5780785,296225.625,294167.375,321146.65625,313605.28125,284773.125,254951.34375,219946.1875,245090.5625,0.060791015625,0.995849609375,0.173828125,0.4272460639476776,-1.1901854276657104,-0.9155272841453552,73.33333587646484,274568.0,0.0
15230.5780795,296225.625,294167.375,321146.65625,313605.28125,284773.125,254951.34375,219946.1875,245090.5625,0.060791015625,0.995849609375,0.173828125,0.4272460639476776,-1.1901854276657104,-0.9155272841453552,73.33333587646484,274569.0,0.0
15230.5780811,296225.625,294167.375,321146.65625,313605.28125,284773.125,254951.34375,219946.1875,245090.5625,0.060791015625,0.995849609375,0.173828125,0.4272460639476776,-1.1901854276657104,-0.9155272841453552,73.33333587646484,274570.0,0.0
15230.5780819,296207.125,294497.5625,321810.40625,313588.46875,285092.75,254978.703125,219982.21875,245069.015625,0.05419921875,0.99853515625,0.173583984375,-0.3051757514476776,-1.3732908964157104,-1.5869139432907104,73.33333587646484,274571.0,1.0
15230.5805282,296210.875,294156.9375,321149.78125,313589.28125,284758.03125,254933.8125,219935.625,245072.578125,0.0556640625,0.998779296875,0.17431640625,-0.2441406100988388,-1.4953612089157104,-1.6479490995407104,73.33333587646484,274572.0,1.0
15230.5830599,296404.4375,294712.0625,321829.375,313863.65625,285190.21875,255089.109375,220183.828125,245235.84375,0.05517578125,0.998291015625,0.175537109375,-0.3051757514476776,-1.6174315214157104,-1.6784666776657104,73.33333587646484,274573.0,1.0
15230.5855536,296518.96875,295410.875,322928.0,314031.125,285802.46875,255224.75,220380.078125,245316.84375,0.053955078125,1.0,0.172607421875,-0.3051757514476776,-1.6479490995407104,-1.6784666776657104,73.33333587646484,274574.0,1.0
15230.5880595,296403.375,295284.8125,322928.8125,313874.75,285754.90625,255160.28125,220267.78125,245227.96875,0.054443359375,1.001220703125,0.1728515625,-0.2746581733226776,-1.7089842557907104,-1.6479490995407104,73.33333587646484,274575.0,1.0
15230.6130694,296212.9375,294506.96875,321825.0,313603.75,285110.71875,254977.8125,219998.75,245084.296875,0.0556640625,1.000732421875,0.174072265625,-0.5187987685203552,-1.7395018339157104,-1.5563963651657104,73.33333587646484,274576.0,1.0
15230.6380699,296212.40625,294156.03125,321154.15625,313595.78125,284765.96875,254927.203125,219938.21875,245081.171875,0.0556640625,1.0,0.176513671875,-0.6103515028953552,-1.7700194120407104,-1.5869139432907104,73.33333587646484,274577.0,1.0
15230.6605457,296397.8125,294707.6875,321827.9375,313863.9375,285187.875,255079.453125,220171.484375,245230.921875,0.056396484375,0.998046875,0.179931640625,-0.6408690810203552,-1.7089842557907104,-1.4953612089157104,73.33333587646484,274578.0,1.0
15230.6630633,296511.90625,295404.0625,322918.15625,314030.125,285792.90625,255215.359375,220363.984375,245314.875,0.05615234375,0.998291015625,0.17626953125,-0.7629393935203552,-1.7700194120407104,-1.4038084745407104,73.33333587646484,274579.0,1.0
15230.6669259,296398.90625,295281.65625,322915.75,313869.65625,285744.28125,255163.59375,220259.546875,245221.09375,0.0546875,0.995361328125,0.174560546875,-0.7629393935203552,-1.7700194120407104,-1.3732908964157104,73.33333587646484,274580.0,1.0
15230.6669421,296214.625,294510.0,321816.9375,313602.78125,285105.71875,254987.90625,220000.0,245080.1875,0.0556640625,0.992919921875,0.1748046875,-0.7324218153953552,-1.8310545682907104,-1.3427733182907104,73.33333587646484,274581.0,1.0
15230.6669486,296217.3125,294167.125,321158.46875,313602.0625,284773.40625,254942.484375,219954.9375,245100.21875,0.054443359375,0.994384765625,0.1728515625,-0.6713866591453552,-1.7700194120407104,-1.2207030057907104,73.33333587646484,274582.0,1.0
15230.6736379,296402.28125,294717.96875,321829.71875,313865.0,285196.46875,255088.046875,220184.09375,245246.921875,0.052490234375,0.994873046875,0.173828125,-0.5187987685203552,-1.8005369901657104,-1.1901854276657104,73.33333587646484,274583.0,1.0
15230.6736422,296524.15625,295429.5625,322932.46875,314038.71875,285812.5625,255236.453125,220387.578125,245328.828125,0.052734375,0.994873046875,0.1767578125,-0.5798339247703552,-1.8615721464157104,-1.1291502714157104,73.33333587646484,274584.0,1.0
15230.6736435,296406.40625,295306.4375,322928.28125,313874.21875,285759.28125,255178.53125,220274.3125,245230.484375,0.05419921875,0.99658203125,0.18017578125,-0.6713866591453552,-1.9226073026657104,-1.1901854276657104,73.33333587646484,274585.0,1.0
15230.6736447,296220.0,294532.15625,321828.5625,313604.5625,285120.28125,255014.90625,220010.109375,245087.34375,0.05517578125,0.995361328125,0.18212890625,-0.8239745497703552,-1.8920897245407104,-1.0375975370407104,73.33333587646484,274586.0,1.0
15230.6736459,296223.125,294186.4375,321165.96875,313601.6875,284781.96875,254950.09375,219947.96875,245088.953125,0.05517578125,0.99560546875,0.182861328125,-0.7324218153953552,-1.9531248807907104,-1.0681151151657104,73.33333587646484,274587.0,1.0
15230.6736471,296409.90625,294734.6875,321839.5625,313869.5625,285204.59375,255081.34375,220180.609375,245238.796875,0.05517578125,0.993408203125,0.17919921875,-0.7629393935203552,-1.8615721464157104,-1.0070799589157104,73.33333587646484,274588.0,1.0
15230.6736485,296522.28125,295428.03125,322929.78125,314036.9375,285807.9375,255231.984375,220374.0,245320.59375,0.05517578125,0.990478515625,0.182373046875,-0.7629393935203552,-1.8920897245407104,-0.9765624403953552,73.33333587646484,274589.0,1.0
15230.6786137,296403.90625,295296.96875,322923.53125,313873.03125,285752.3125,255161.625,220256.25,245214.5625,0.054931640625,0.98974609375,0.179443359375,-0.7019042372703552,-1.9226073026657104,-1.0070799589157104,73.33333587646484,274590.0,1.0
15230.6786178,296215.6875,294514.5625,321822.75,313604.5625,285110.1875,254971.28125,219998.578125,245077.6875,0.05322265625,0.989501953125,0.178466796875,-0.6103515028953552,-1.9836424589157104,-1.0375975370407104,73.33333587646484,274591.0,1.0
15230.7330695,296217.75,294174.28125,321166.40625,313602.78125,284779.21875,254938.5625,219952.078125,245087.421875,0.0517578125,0.989990234375,0.178466796875,-0.4577636420726776,-1.9531248807907104,-1.0375975370407104,73.33333587646484,274592.0,1.0
15230.760557,296407.75,294726.0,321839.75,313876.0,285205.9375,255099.125,220192.234375,245240.9375,0.052734375,0.98974609375,0.1787109375,-0.3967284858226776,-1.9531248807907104,-1.1596678495407104,73.33333587646484,274593.0,1.0
15230.7993505,296523.53125,295425.78125,322933.46875,314043.71875,285811.84375,255226.0,220380.4375,245321.3125,0.0537109375,0.991943359375,0.182373046875,-0.2746581733226776,-1.9226073026657104,-1.1596678495407104,73.33333587646484,274594.0,1.0
15230.8243245,296407.3125,295300.0,322929.875,313882.15625,285759.375,255161.984375,220269.84375,245232.0,0.056640625,0.993896484375,0.1826171875,-0.2441406100988388,-1.8615721464157104,-1.0375975370407104,73.33333587646484,274595.0,1.0
15230.8493399,296215.875,294518.40625,321826.59375,313607.59375,285116.53125,254986.828125,220003.140625,245089.75,0.055908203125,0.994140625,0.1796875,-0.3051757514476776,-1.7700194120407104,-1.1291502714157104,73.33333587646484,274596.0,1.0
15230.9336645,296210.6875,294164.0,321162.84375,313600.34375,284776.53125,254922.546875,219943.328125,245091.625,0.055908203125,0.994140625,0.1806640625,-0.2441406100988388,-1.8615721464157104,-1.1901854276657104,73.33333587646484,274597.0,1.0
15230.9336738,296397.90625,294706.5,321826.0625,313866.875,285193.96875,255075.078125,220178.1875,245240.765625,0.055908203125,0.991943359375,0.1796875,-0.03051757626235485,-1.8005369901657104,-1.1901854276657104,73.33333587646484,274598.0,1.0
15230.9336751,296503.5,295396.09375,322902.96875,314026.46875,285791.375,255208.125,220367.015625,245320.328125,0.05810546875,0.992431640625,0.181396484375,0.1525878757238388,-1.7395018339157104,-1.2817381620407104,73.33333587646484,274599.0,1.0
15230.9336764,296388.71875,295273.1875,322900.375,313866.59375,285741.21875,255143.296875,220252.84375,245229.3125,0.05908203125,0.9931640625,0.179931640625,0.0610351525247097,-1.5869139432907104,-1.2512205839157104,73.33333587646484,274600.0,1.0
15230.9336776,296211.84375,294517.59375,321820.78125,313605.8125,285112.0625,254981.734375,220003.40625,245090.734375,0.05908203125,0.99267578125,0.1796875,0.1831054538488388,-1.5258787870407104,-1.1901854276657104,73.33333587646484,274601.0,1.0
15230.9336788,296213.46875,294175.625,321164.375,313603.9375,284778.75,254938.5625,219953.0625,245100.65625,0.05908203125,0.991943359375,0.1806640625,0.3967284858226776,-1.4953612089157104,-1.1901854276657104,73.33333587646484,274602.0,1.0
15230.93368,296400.34375,294720.625,321833.5,313867.0625,285196.5625,255073.734375,220171.75,245232.890625,0.057861328125,0.99267578125,0.17822265625,0.3967284858226776,-1.4343260526657104,-1.1596678495407104,73.33333587646484,274603.0,1.0
15230.9336812,296510.75,295404.78125,322914.25,314033.09375,285793.0,255206.328125,220363.53125,245316.484375,0.056884765625,0.991455078125,0.18017578125,0.4577636420726776,-1.2817381620407104,-1.0070799589157104,73.33333587646484,274604.0,1.0
15230.9336824,296395.15625,295281.65625,322909.78125,313875.1875,285743.1875,255160.28125,220258.75,245227.171875,0.056640625,0.992919921875,0.181884765625,0.4272460639476776,-1.1596678495407104,-0.9765624403953552,73.33333587646484,274605.0,1.0
15230.9336835,296208.28125,294513.84375,321814.875,313599.09375,285107.0625,254993.453125,219998.578125,245075.71875,0.056396484375,0.991943359375,0.18359375,0.5798339247703552,-1.1596678495407104,-0.9765624403953552,73.33333587646484,274606.0,1.0
15230.9336847,296209.4375,294172.3125,321155.59375,313599.1875,284773.5625,254941.6875,219950.65625,245098.328125,0.057373046875,0.9921875,0.1787109375,0.6713866591453552,-1.0070799589157104,-0.9460448622703552,73.33333587646484,274607.0,1.0
15230.9336865,296393.0,294721.0,321828.65625,313864.0,285196.84375,255078.921875,220179.09375,245257.484375,0.057861328125,0.992431640625,0.17822265625,0.7629393935203552,-1.0681151151657104,-1.0375975370407104,73.33333587646484,274608.0,1.0
15230.9336877,296505.5625,295410.59375,322915.03125,314024.84375,285795.40625,255202.03125,220360.578125,245316.046875,0.0556640625,0.993408203125,0.177734375,0.8239745497703552,-1.0681151151657104,-1.0070799589157104,73.33333587646484,274609.0,1.0
15230.9336889,296386.5625,295281.59375,322911.28125,313858.21875,285737.75,255139.8125,220237.828125,245198.203125,0.051513671875,0.9931640625,0.1796875,0.9765624403953552,-1.1596678495407104,-0.9460448622703552,73.33333587646484,274610.0,1.0
15230.9585434,296198.71875,294512.78125,321820.0625,313593.1875,285103.3125,254971.71875,219980.15625,245068.828125,0.05322265625,0.993896484375,0.1787109375,0.9460448622703552,-1.0375975370407104,-0.7629393935203552,73.33333587646484,274611.0,1.0
15230.9585545,296198.34375,294168.71875,321156.6875,313587.9375,284768.84375,254939.8125,219940.640625,245078.75,0.0546875,0.993408203125,0.179443359375,0.9155272841453552,-1.0070799589157104,-0.7629393935203552,73.33333587646484,274612.0,1.0
15230.9585564,296389.15625,294717.25,321825.96875,313855.4375,285188.5,255077.21875,220169.515625,245225.5625,0.05419921875,0.993896484375,0.1806640625,0.8239745497703552,-1.0070799589157104,-0.8239745497703552,73.33333587646484,274613.0,1.0
15230.958558,296496.625,295399.15625,322906.1875,314016.71875,285781.46875,255193.1875,220353.15625,245305.84375,0.05322265625,0.9951171875,0.179931640625,0.9765624403953552,-1.0375975370407104,-0.7934569716453552,73.33333587646484,274614.0,1.0
15230.9817965,296387.09375,295278.28125,322908.6875,313865.4375,285735.25,255148.84375,220251.59375,245223.0625,0.052734375,0.99609375,0.177978515625,0.8850097060203552,-1.0375975370407104,-0.7324218153953552,73.33333587646484,274615.0,1.0
15231.0355783,296205.40625,294516.96875,321822.75,313601.875,285103.5,254973.15625,219992.40625,245085.453125,0.0517578125,0.99609375,0.176025390625,0.9765624403953552,-1.1596678495407104,-0.7934569716453552,73.33333587646484,274616.0,1.0
15231.0868029,296207.03125,294176.15625,321164.8125,313598.9375,284770.09375,254926.03125,219946.625,245096.546875,0.05078125,0.99755859375,0.17578125,0.9765624403953552,-1.2207030057907104,-0.8544921278953552,73.33333587646484,274617.0,1.0
15231.1093334,296207.03125,294176.15625,321164.8125,313598.9375,284770.09375,254926.03125,219946.625,245096.546875,0.05078125,0.99755859375,0.17578125,0.9765624403953552,-1.2207030057907104,-0.8544921278953552,73.33333587646484,274618.0,0.0
15231.1093381,296207.03125,294176.15625,321164.8125,313598.9375,284770.09375,254926.03125,219946.625,245096.546875,0.05078125,0.99755859375,0.17578125,0.9765624403953552,-1.2207030057907104,-0.8544921278953552,73.33333587646484,274619.0,0.0
15231.1093394,296207.03125,294176.15625,321164.8125,313598.9375,284770.09375,254926.03125,219946.625,245096.546875,0.05078125,0.99755859375,0.17578125,0.9765624403953552,-1.2207030057907104,-0.8544921278953552,73.33333587646484,274620.0,0.0
15231.1093406,296207.03125,294176.15625,321164.8125,313598.9375,284770.09375,254926.03125,219946.625,245096.546875,0.05078125,0.99755859375,0.17578125,0.9765624403953552,-1.2207030057907104,-0.8544921278953552,73.33333587646484,274621.0,0.0
15231.1093422,296207.03125,294176.15625,321164.8125,313598.9375,284770.09375,254926.03125,219946.625,245096.546875,0.05078125,0.99755859375,0.17578125,0.9765624403953552,-1.2207030057907104,-0.8544921278953552,73.33333587646484,274622.0,0.0
15231.1093429,296207.03125,294176.15625,321164.8125,313598.9375,284770.09375,254926.03125,219946.625,245096.546875,0.05078125,0.99755859375,0.17578125,0.9765624403953552,-1.2207030057907104,-0.8544921278953552,73.33333587646484,274623.0,0.0
15231.1093431,296207.03125,294176.15625,321164.8125,313598.9375,284770.09375,254926.03125,219946.625,245096.546875,0.05078125,0.99755859375,0.17578125,0.9765624403953552,-1.2207030057907104,-0.8544921278953552,73.33333587646484,274624.0,0.0
15231.1093433,296207.03125,294176.15625,321164.8125,313598.9375,284770.09375,254926.03125,219946.625,245096.546875,0.05078125,0.99755859375,0.17578125,0.9765624403953552,-1.2207030057907104,-0.8544921278953552,73.33333587646484,274625.0,0.0
15231.1093435,296207.03125,294176.15625,321164.8125,313598.9375,284770.09375,254926.03125,219946.625,245096.546875,0.05078125,0.99755859375,0.17578125,0.9765624403953552,-1.2207030057907104,-0.8544921278953552,73.33333587646484,274626.0,0.0
15231.1093436,296207.03125,294176.15625,321164.8125,313598.9375,284770.09375,254926.03125,219946.625,245096.546875,0.05078125,0.99755859375,0.17578125,0.9765624403953552,-1.2207030057907104,-0.8544921278953552,73.33333587646484,274627.0,0.0
15231.1093438,296207.03125,294176.15625,321164.8125,313598.9375,284770.09375,254926.03125,219946.625,245096.546875,0.05078125,0.99755859375,0.17578125,0.9765624403953552,-1.2207030057907104,-0.8544921278953552,73.33333587646484,274628.0,0.0
15231.109344,296207.03125,294176.15625,321164.8125,313598.9375,284770.09375,254926.03125,219946.625,245096.546875,0.05078125,0.99755859375,0.17578125,0.9765624403953552,-1.2207030057907104,-0.8544921278953552,73.33333587646484,274629.0,0.0
15231.1093441,296207.03125,294176.15625,321164.8125,313598.9375,284770.09375,254926.03125,219946.625,245096.546875,0.05078125,0.99755859375,0.17578125,0.9765624403953552,-1.2207030057907104,-0.8544921278953552,73.33333587646484,274630.0,0.0
15231.1093443,296207.03125,294176.15625,321164.8125,313598.9375,284770.09375,254926.03125,219946.625,245096.546875,0.05078125,0.99755859375,0.17578125,0.9765624403953552,-1.2207030057907104,-0.8544921278953552,73.33333587646484,274631.0,0.0
15231.1093445,296207.03125,294176.15625,321164.8125,313598.9375,284770.09375,254926.03125,219946.625,245096.546875,0.05078125,0.99755859375,0.17578125,0.9765624403953552,-1.2207030057907104,-0.8544921278953552,73.33333587646484,274632.0,0.0
15231.1093447,296207.03125,294176.15625,321164.8125,313598.9375,284770.09375,254926.03125,219946.625,245096.546875,0.05078125,0.99755859375,0.17578125,0.9765624403953552,-1.2207030057907104,-0.8544921278953552,73.33333587646484,274633.0,0.0
15231.1093448,296501.53125,295395.21875,322910.84375,314018.6875,285776.71875,255206.15625,220360.21875,245325.0625,0.054443359375,0.9970703125,0.17041015625,0.6103515028953552,-1.3427733182907104,-1.1901854276657104,73.33333587646484,274634.0,1.0
15231.1117965,296385.5625,295274.15625,322901.625,313857.03125,285718.15625,255137.390625,220243.015625,245225.296875,0.056884765625,0.996826171875,0.174072265625,0.5798339247703552,-1.4343260526657104,-1.1596678495407104,73.33333587646484,274635.0,1.0
15231.114312,296201.84375,294514.75,321816.6875,313594.375,285089.71875,254966.984375,219986.421875,245093.421875,0.056884765625,0.994873046875,0.175537109375,0.4577636420726776,-1.4038084745407104,-1.2207030057907104,73.33333587646484,274636.0,1.0
15231.1174014,296206.9375,294175.875,321168.21875,313596.25,284763.125,254927.828125,219939.65625,245098.78125,0.055908203125,0.992431640625,0.174560546875,0.3967284858226776,-1.4038084745407104,-1.2817381620407104,73.33333587646484,274637.0,1.0
15231.117416,296395.9375,294719.46875,321835.375,313860.625,285183.15625,255082.140625,220175.78125,245241.203125,0.057373046875,0.9921875,0.1767578125,0.2136230319738388,-1.4038084745407104,-1.2207030057907104,73.33333587646484,274638.0,1.0
15231.1193308,296509.9375,295408.96875,322912.90625,314027.90625,285785.84375,255237.625,220385.171875,245336.421875,0.057373046875,0.991943359375,0.17333984375,0.2746581733226776,-1.3427733182907104,-1.2207030057907104,73.33333587646484,274639.0,1.0
15231.1232191,296396.03125,295290.4375,322914.25,313873.59375,285742.5625,255189.34375,220282.078125,245251.9375,0.054443359375,0.994384765625,0.17529296875,0.2746581733226776,-1.3427733182907104,-1.2207030057907104,73.33333587646484,274640.0,1.0
15231.1232242,296207.21875,294520.71875,321827.9375,313600.71875,285108.21875,255006.140625,220010.375,245093.5,0.0537109375,0.99609375,0.173583984375,0.2441406100988388,-1.3122557401657104,-1.2207030057907104,73.33333587646484,274641.0,1.0
15231.1232255,296200.5,294172.65625,321167.59375,313587.21875,284768.3125,254936.234375,219949.578125,245091.8125,0.05419921875,0.99462890625,0.1728515625,0.1525878757238388,-1.3732908964157104,-1.2512205839157104,73.33333587646484,274642.0,1.0
15231.1257705,296388.96875,294717.5,321837.25,313856.9375,285191.1875,255077.046875,220182.75,245249.703125,0.05615234375,0.991455078125,0.171142578125,0.1220703050494194,-1.3427733182907104,-1.3122557401657104,73.33333587646484,274643.0,1.0
15231.125785,296388.96875,294717.5,321837.25,313856.9375,285191.1875,255077.046875,220182.75,245249.703125,0.05615234375,0.991455078125,0.171142578125,0.1220703050494194,-1.3427733182907104,-1.3122557401657104,73.33333587646484,274644.0,0.0
15231.1257853,296388.96875,294717.5,321837.25,313856.9375,285191.1875,255077.046875,220182.75,245249.703125,0.05615234375,0.991455078125,0.171142578125,0.1220703050494194,-1.3427733182907104,-1.3122557401657104,73.33333587646484,274645.0,0.0
15231.1257855,296388.96875,294717.5,321837.25,313856.9375,285191.1875,255077.046875,220182.75,245249.703125,0.05615234375,0.991455078125,0.171142578125,0.1220703050494194,-1.3427733182907104,-1.3122557401657104,73.33333587646484,274646.0,0.0
15231.1257857,296388.96875,294717.5,321837.25,313856.9375,285191.1875,255077.046875,220182.75,245249.703125,0.05615234375,0.991455078125,0.171142578125,0.1220703050494194,-1.3427733182907104,-1.3122557401657104,73.33333587646484,274647.0,0.0
15231.1257859,296388.96875,294717.5,321837.25,313856.9375,285191.1875,255077.046875,220182.75,245249.703125,0.05615234375,0.991455078125,0.171142578125,0.1220703050494194,-1.3427733182907104,-1.3122557401657104,73.33333587646484,274648.0,0.0
15231.125786,296388.96875,294717.5,321837.25,313856.9375,285191.1875,255077.046875,220182.75,245249.703125,0.05615234375,0.991455078125,0.171142578125,0.1220703050494194,-1.3427733182907104,-1.3122557401657104,73.33333587646484,274649.0,0.0
15231.1257862,296388.96875,294717.5,321837.25,313856.9375,285191.1875,255077.046875,220182.75,245249.703125,0.05615234375,0.991455078125,0.171142578125,0.1220703050494194,-1.3427733182907104,-1.3122557401657104,73.33333587646484,274650.0,0.0
