Time,FZ,C3,CZ,C4,PZ,PO7,OZ,PO8,AccX,AccY,AccZ,Gyro1,Gyro2,Gyro3,Battery,Counter,Validation
14281.6933322,290728.34375,298142.59375,371462.40625,367334.03125,288102.46875,258195.734375,224072.5,246102.90625,0.01220703125,1.00341796875,0.193359375,0.0915527269244194,-1.7395018339157104,-1.2207030057907104,80.0,37432.0,1.0
14281.6933336,290763.5,298102.28125,371503.09375,367384.28125,288121.5,258198.609375,224092.703125,246129.109375,0.0126953125,1.00146484375,0.19189453125,-0.0915527269244194,-1.8005369901657104,-1.1291502714157104,80.0,37433.0,1.0
14281.6933348,290790.21875,298375.78125,371674.5625,367389.03125,288211.625,258257.4375,224136.953125,246126.421875,0.014404296875,1.00146484375,0.19287109375,-0.2441406100988388,-1.8005369901657104,-1.1596678495407104,80.0,37434.0,1.0
14281.693336,290775.28125,298594.375,371742.53125,367330.71875,288247.40625,258267.625,224124.53125,246092.546875,0.01513671875,1.00146484375,0.1904296875,-0.3356933295726776,-1.8615721464157104,-1.0986326932907104,80.0,37435.0,1.0
14281.6933376,290742.75,298457.75,371623.59375,367311.5,288192.40625,258223.8125,224094.84375,246095.671875,0.015380859375,0.997314453125,0.190673828125,-0.4577636420726776,-1.8615721464157104,-1.1291502714157104,80.0,37436.0,1.0
14281.6933388,290735.3125,298153.15625,371463.03125,367333.9375,288109.53125,258193.328125,224064.453125,246087.53125,0.01611328125,0.997314453125,0.18896484375,-0.5493163466453552,-1.9531248807907104,-1.0986326932907104,80.0,37437.0,1.0
14281.69334,290768.40625,298111.84375,371496.65625,367378.125,288125.25,258212.8125,224085.453125,246111.84375,0.015869140625,0.99658203125,0.192138671875,-0.4882812201976776,-1.9531248807907104,-1.0681151151657104,80.0,37438.0,1.0
14281.6933412,290791.75,298387.21875,371672.6875,367378.9375,288212.15625,258245.265625,224121.484375,246114.890625,0.013427734375,0.995361328125,0.195068359375,-0.4577636420726776,-1.9836424589157104,-1.0070799589157104,80.0,37439.0,1.0
14281.6933424,290774.40625,298606.4375,371748.96875,367338.25,288254.28125,258264.234375,224135.171875,246103.53125,0.01318359375,0.9951171875,0.19580078125,-0.4272460639476776,-2.014159917831421,-1.0986326932907104,80.0,37440.0,1.0
14281.6933436,290740.25,298469.90625,371629.34375,367314.0,288196.78125,258234.0,224098.515625,246091.828125,0.014892578125,0.99365234375,0.1962890625,-0.5187987685203552,-2.105712652206421,-1.1291502714157104,80.0,37441.0,1.0
14281.6933448,290734.78125,298167.46875,371477.53125,367341.1875,288118.5625,258193.953125,224070.796875,246104.15625,0.01416015625,0.993896484375,0.19921875,-0.4882812201976776,-2.075195074081421,-1.0986326932907104,80.0,37442.0,1.0
14281.723056,290767.15625,298117.375,371513.5625,367384.65625,288128.21875,258198.953125,224088.40625,246123.296875,0.013916015625,0.99560546875,0.196533203125,-0.4272460639476776,-2.044677495956421,-1.0986326932907104,80.0,37443.0,1.0
14281.7230743,290767.15625,298117.375,371513.5625,367384.65625,288128.21875,258198.953125,224088.40625,246123.296875,0.013916015625,0.99560546875,0.196533203125,-0.4272460639476776,-2.044677495956421,-1.0986326932907104,80.0,37444.0,0.0
14281.7230747,290767.15625,298117.375,371513.5625,367384.65625,288128.21875,258198.953125,224088.40625,246123.296875,0.013916015625,0.99560546875,0.196533203125,-0.4272460639476776,-2.044677495956421,-1.0986326932907104,80.0,37445.0,0.0
14281.7230751,290767.15625,298117.375,371513.5625,367384.65625,288128.21875,258198.953125,224088.40625,246123.296875,0.013916015625,0.99560546875,0.196533203125,-0.4272460639476776,-2.044677495956421,-1.0986326932907104,80.0,37446.0,0.0
14281.7230754,290767.15625,298117.375,371513.5625,367384.65625,288128.21875,258198.953125,224088.40625,246123.296875,0.013916015625,0.99560546875,0.196533203125,-0.4272460639476776,-2.044677495956421,-1.0986326932907104,80.0,37447.0,0.0
14281.7230758,290767.15625,298117.375,371513.5625,367384.65625,288128.21875,258198.953125,224088.40625,246123.296875,0.013916015625,0.99560546875,0.196533203125,-0.4272460639476776,-2.044677495956421,-1.0986326932907104,80.0,37448.0,0.0
14281.7230762,290767.15625,298117.375,371513.5625,367384.65625,288128.21875,258198.953125,224088.40625,246123.296875,0.013916015625,0.99560546875,0.196533203125,-0.4272460639476776,-2.044677495956421,-1.0986326932907104,80.0,37449.0,0.0
14281.7230765,290767.15625,298117.375,371513.5625,367384.65625,288128.21875,258198.953125,224088.40625,246123.296875,0.013916015625,0.99560546875,0.196533203125,-0.4272460639476776,-2.044677495956421,-1.0986326932907104,80.0,37450.0,0.0
14281.7230769,290767.15625,298117.375,371513.5625,367384.65625,288128.21875,258198.953125,224088.40625,246123.296875,0.013916015625,0.99560546875,0.196533203125,-0.4272460639476776,-2.044677495956421,-1.0986326932907104,80.0,37451.0,0.0
14281.7230773,290767.15625,298117.375,371513.5625,367384.65625,288128.21875,258198.953125,224088.40625,246123.296875,0.013916015625,0.99560546875,0.196533203125,-0.4272460639476776,-2.044677495956421,-1.0986326932907104,80.0,37452.0,0.0
14281.7230776,290767.15625,298117.375,371513.5625,367384.65625,288128.21875,258198.953125,224088.40625,246123.296875,0.013916015625,0.99560546875,0.196533203125,-0.4272460639476776,-2.044677495956421,-1.0986326932907104,80.0,37453.0,0.0
14281.723078,290775.5625,298384.4375,371665.0,367362.65625,288208.15625,258241.78125,224141.78125,246134.109375,0.015380859375,0.99365234375,0.2021484375,-0.3967284858226776,-1.9531248807907104,-1.2817381620407104,80.0,37454.0,1.0
14281.7230806,290757.0625,298604.03125,371736.15625,367314.625,288251.5,258274.953125,224152.953125,246107.375,0.01318359375,0.993896484375,0.2021484375,-0.3356933295726776,-1.8615721464157104,-1.3427733182907104,80.0,37455.0,1.0
14281.7606813,290721.03125,298466.96875,371621.5625,367285.21875,288192.3125,258233.375,224103.515625,246085.390625,0.013916015625,0.994873046875,0.201171875,-0.3356933295726776,-1.7700194120407104,-1.2512205839157104,80.0,37456.0,1.0
14281.7607019,290713.6875,298160.75,371465.53125,367304.71875,288106.75,258193.78125,224064.265625,246081.453125,0.015625,0.995361328125,0.203857421875,-0.3051757514476776,-1.7089842557907104,-1.0375975370407104,80.0,37457.0,1.0
14281.78316,290742.125,298116.59375,371501.3125,367344.3125,288118.03125,258198.6875,224076.515625,246101.21875,0.015380859375,0.994873046875,0.2021484375,-0.3051757514476776,-1.5869139432907104,-1.0375975370407104,80.0,37458.0,1.0
14281.7831752,290763.5625,298386.9375,371674.5625,367342.71875,288206.625,258240.71875,224117.28125,246107.46875,0.01513671875,0.994140625,0.1982421875,-0.2136230319738388,-1.4953612089157104,-1.0681151151657104,80.0,37459.0,1.0
14281.7831781,290745.96875,298591.0625,371726.96875,367297.75,288247.125,258268.15625,224133.828125,246101.296875,0.014892578125,0.99267578125,0.20166015625,-0.1220703050494194,-1.2512205839157104,-1.0070799589157104,80.0,37460.0,1.0
14281.8093981,290715.21875,298448.46875,371591.34375,367271.1875,288184.71875,258243.3125,224103.515625,246095.125,0.015625,0.992919921875,0.20361328125,-0.0610351525247097,-1.0375975370407104,-0.9460448622703552,80.0,37461.0,1.0
14281.8094049,290709.65625,298146.28125,371430.9375,367294.15625,288100.3125,258207.71875,224073.484375,246093.96875,0.015625,0.99267578125,0.199462890625,0.1220703050494194,-1.0681151151657104,-0.7934569716453552,80.0,37462.0,1.0
14281.8094062,290744.4375,298107.71875,371475.625,367341.09375,288116.59375,258212.546875,224090.640625,246114.53125,0.015625,0.9931640625,0.200927734375,0.3356933295726776,-0.8850097060203552,-0.7019042372703552,80.0,37463.0,1.0
14281.8094074,290765.46875,298378.375,371650.4375,367339.9375,288202.34375,258250.1875,224129.53125,246119.890625,0.01416015625,0.992919921875,0.202392578125,0.4577636420726776,-0.6713866591453552,-0.6713866591453552,80.0,37464.0,1.0
14281.8094086,290754.28125,298592.78125,371718.65625,367301.9375,288248.5625,258274.421875,224150.09375,246114.265625,0.01806640625,0.993896484375,0.199462890625,0.6408690810203552,-0.5798339247703552,-0.7019042372703552,80.0,37465.0,1.0
14281.80941,290729.96875,298469.375,371614.65625,367283.34375,288203.84375,258257.609375,224125.953125,246106.21875,0.016845703125,0.991943359375,0.19873046875,0.6408690810203552,-0.5187987685203552,-0.6103515028953552,80.0,37466.0,1.0
14281.8137987,290726.90625,298168.1875,371461.25,367306.6875,288124.5625,258232.578125,224105.484375,246112.03125,0.015869140625,0.993408203125,0.19873046875,0.8239745497703552,-0.4272460639476776,-0.5798339247703552,80.0,37467.0,1.0
14281.8593938,290760.0,298126.96875,371498.34375,367356.125,288137.59375,258239.109375,224112.8125,246129.546875,0.015380859375,0.996826171875,0.201416015625,0.7629393935203552,-0.3967284858226776,-0.5187987685203552,80.0,37468.0,1.0
14281.85941,290780.28125,298385.34375,371660.0,367353.8125,288216.09375,258263.328125,224145.546875,246140.546875,0.0166015625,0.99560546875,0.2021484375,0.8544921278953552,-0.2441406100988388,-0.4577636420726776,80.0,37469.0,1.0
14281.864336,290763.5625,298597.6875,371721.96875,367299.78125,288251.5,258280.765625,224155.109375,246110.0625,0.014892578125,0.99609375,0.2041015625,0.8850097060203552,-0.1220703050494194,-0.5187987685203552,80.0,37470.0,1.0
14281.8643411,290733.8125,298468.40625,371608.78125,367281.46875,288195.71875,258242.5,224121.3125,246102.375,0.0146484375,0.9970703125,0.202392578125,0.8544921278953552,-0.0915527269244194,-0.6103515028953552,80.0,37471.0,1.0
14281.8643426,290728.625,298163.78125,371451.0625,367299.71875,288107.21875,258192.796875,224079.46875,246093.703125,0.013671875,0.99755859375,0.2001953125,0.7629393935203552,-0.0610351525247097,-0.5493163466453552,80.0,37472.0,1.0
14281.8706352,290761.6875,298114.25,371481.0,367338.25,288112.03125,258201.46875,224081.34375,246096.828125,0.01416015625,0.996826171875,0.20166015625,0.8239745497703552,-0.0610351525247097,-0.6408690810203552,80.0,37473.0,1.0
14281.8706405,290788.53125,298388.65625,371656.34375,367342.09375,288204.3125,258257.515625,224136.859375,246112.921875,0.01513671875,0.997314453125,0.20166015625,0.8239745497703552,0.0610351525247097,-0.7629393935203552,80.0,37474.0,1.0
14281.9063103,290771.4375,298606.34375,371726.59375,367300.96875,288250.78125,258275.9375,224153.40625,246110.875,0.0126953125,0.99951171875,0.19970703125,0.9155272841453552,0.0610351525247097,-0.7629393935203552,80.0,37475.0,1.0
14281.9313019,290738.8125,298474.9375,371612.78125,367274.125,288195.28125,258247.234375,224118.8125,246096.46875,0.01220703125,0.998779296875,0.201171875,0.9155272841453552,0.0,-0.8239745497703552,80.0,37476.0,1.0
14281.9412868,290733.09375,298173.0,371452.40625,367296.3125,288109.96875,258205.046875,224087.0625,246099.0625,0.012451171875,0.998291015625,0.19970703125,0.9765624403953552,-0.1220703050494194,-0.9155272841453552,80.0,37477.0,1.0
14281.9575446,290765.0,298125.625,371489.0625,367340.84375,288125.0,258216.65625,224108.53125,246115.875,0.01220703125,0.995361328125,0.196533203125,1.0070799589157104,-0.1525878757238388,-0.8544921278953552,80.0,37478.0,1.0
14281.9600579,290775.46875,298378.71875,371647.21875,367331.625,288201.71875,258254.65625,224143.84375,246118.640625,0.0126953125,0.993408203125,0.20068359375,1.0375975370407104,-0.1525878757238388,-1.0070799589157104,80.0,37479.0,1.0
14281.9625562,290764.5625,298603.75,371717.3125,367293.625,288247.3125,258279.78125,224159.75,246113.8125,0.014892578125,0.9912109375,0.201171875,1.1596678495407104,-0.2136230319738388,-0.8544921278953552,80.0,37480.0,1.0
14281.9650495,290741.5,298482.625,371611.71875,367273.34375,288199.65625,258262.265625,224133.296875,246095.9375,0.01513671875,0.991943359375,0.196533203125,1.2512205839157104,-0.3356933295726776,-0.7019042372703552,80.0,37481.0,1.0
14281.9675587,290733.90625,298165.9375,371446.125,367293.53125,288109.34375,258218.0,224096.984375,246103.359375,0.015869140625,0.995361328125,0.19775390625,1.2207030057907104,-0.3051757514476776,-0.6408690810203552,80.0,37482.0,1.0
14281.9838045,290764.5625,298116.6875,371477.59375,367338.78125,288123.65625,258230.4375,224120.140625,246133.9375,0.014404296875,0.997314453125,0.19921875,1.1596678495407104,-0.2746581733226776,-0.6408690810203552,80.0,37483.0,1.0
14281.9887962,290787.1875,298396.0625,371656.78125,367336.28125,288213.15625,258278.53125,224161.90625,246135.09375,0.011962890625,0.998046875,0.198486328125,1.1901854276657104,-0.3051757514476776,-0.6713866591453552,80.0,37484.0,1.0
14282.0013133,290776.90625,298621.8125,371739.375,367296.75,288262.6875,258302.765625,224172.984375,246116.953125,0.012451171875,1.000244140625,0.194580078125,1.1596678495407104,-0.3662109076976776,-0.5798339247703552,80.0,37485.0,1.0
14282.0175602,290744.8125,298484.84375,371619.3125,367268.40625,288200.28125,258258.234375,224126.5,246093.078125,0.011962890625,0.997802734375,0.196044921875,1.0681151151657104,-0.5493163466453552,-0.5187987685203552,80.0,37486.0,1.0
14282.0325975,290733.96875,298162.90625,371451.6875,367287.8125,288109.875,258200.484375,224088.40625,246103.359375,0.01025390625,0.994873046875,0.195068359375,1.0986326932907104,-0.7019042372703552,-0.5187987685203552,80.0,37487.0,1.0
14282.0475943,290765.71875,298108.625,371475.5625,367331.8125,288120.15625,258212.640625,224113.265625,246124.09375,0.01171875,0.993896484375,0.197021484375,1.0681151151657104,-0.7934569716453552,-0.4577636420726776,80.0,37488.0,1.0
14282.0525366,290789.78125,298380.6875,371647.21875,367331.1875,288205.71875,258255.28125,224142.5,246122.046875,0.011474609375,0.991943359375,0.19580078125,1.1596678495407104,-0.8239745497703552,-0.4882812201976776,80.0,37489.0,1.0
14282.0638007,290767.5,298597.0625,371721.78125,367284.59375,288248.8125,258272.625,224150.28125,246110.515625,0.009033203125,0.99365234375,0.1943359375,1.2207030057907104,-0.8239745497703552,-0.5798339247703552,80.0,37490.0,1.0
14282.0800318,290736.5,298462.59375,371605.8125,367265.375,288200.1875,258250.8125,224132.21875,246111.578125,0.009033203125,0.99609375,0.19384765625,1.2512205839157104,-0.8850097060203552,-0.5187987685203552,80.0,37491.0,1.0
14282.1063229,290732.5625,298166.46875,371449.0,367292.46875,288120.625,258217.734375,224100.921875,246110.6875,0.008544921875,0.996826171875,0.192138671875,1.3732908964157104,-1.0375975370407104,-0.5187987685203552,80.0,37492.0,1.0
14282.1125325,290762.6875,298120.59375,371484.125,367337.25,288137.15625,258233.375,224116.484375,246128.296875,0.00830078125,0.99951171875,0.19189453125,1.3732908964157104,-1.2512205839157104,-0.6713866591453552,80.0,37493.0,1.0
14282.1187978,290783.15625,298386.0625,371653.46875,367324.46875,288218.0625,258256.453125,224147.421875,246126.6875,0.01171875,0.99951171875,0.1953125,1.3732908964157104,-1.4038084745407104,-0.7629393935203552,80.0,37494.0,1.0
14282.1325771,290763.84375,298589.09375,371713.5625,367282.8125,288256.4375,258265.75,224155.734375,246124.90625,0.010986328125,0.9970703125,0.1962890625,1.2207030057907104,-1.6479490995407104,-0.8239745497703552,80.0,37495.0,1.0
14282.1750705,290733.09375,298464.125,371594.8125,367259.125,288199.75,258243.03125,224124.4375,246104.609375,0.012451171875,0.995849609375,0.195556640625,1.1901854276657104,-1.6784666776657104,-0.7934569716453552,80.0,37496.0,1.0
14282.2012958,290719.6875,298155.65625,371432.1875,367272.09375,288109.0,258198.328125,224077.671875,246084.9375,0.0146484375,0.993896484375,0.195556640625,1.2817381620407104,-1.8005369901657104,-0.8544921278953552,80.0,37497.0,1.0
14282.2651485,290752.65625,298103.1875,371465.28125,367317.0625,288124.8125,258211.921875,224098.875,246112.484375,0.01416015625,0.99365234375,0.195556640625,1.2817381620407104,-1.8615721464157104,-0.8544921278953552,80.0,37498.0,1.0
14282.265173,290771.34375,298365.84375,371631.75,367313.75,288207.15625,258252.515625,224136.421875,246115.609375,0.013671875,0.992431640625,0.191650390625,1.3122557401657104,-1.8310545682907104,-0.8544921278953552,80.0,37499.0,1.0
14282.2651749,290759.09375,298586.15625,371702.65625,367273.6875,288252.5,258278.984375,224147.953125,246110.78125,0.01416015625,0.9921875,0.190673828125,1.4343260526657104,-1.8920897245407104,-1.0681151151657104,80.0,37500.0,1.0
14282.2651764,290731.3125,298465.8125,371594.46875,367251.34375,288201.96875,258246.53125,224116.65625,246101.5625,0.013427734375,0.991943359375,0.19140625,1.5258787870407104,-2.044677495956421,-1.0986326932907104,80.0,37501.0,1.0
14282.2651778,290722.8125,298151.625,371422.4375,367271.0,288111.84375,258206.828125,224088.234375,246111.40625,0.0146484375,0.995849609375,0.19091796875,1.5258787870407104,-1.8920897245407104,-1.1291502714157104,80.0,37502.0,1.0
14282.265179,290756.34375,298099.5,371449.25,367317.5,288125.1875,258219.25,224115.046875,246142.609375,0.017333984375,0.9970703125,0.195556640625,1.5258787870407104,-1.8920897245407104,-1.3122557401657104,80.0,37503.0,1.0
14282.2651802,290781.71875,298380.5,371630.3125,367310.34375,288210.8125,258260.921875,224142.953125,246108.90625,0.017578125,0.996826171875,0.193115234375,1.4038084745407104,-1.9836424589157104,-1.1596678495407104,80.0,37504.0,1.0
14282.2651814,290765.8125,298596.0625,371701.5625,367267.15625,288252.9375,258271.375,224148.125,246099.25,0.017333984375,0.997314453125,0.19580078125,1.4648436307907104,-1.9836424589157104,-1.1901854276657104,80.0,37505.0,1.0
14282.2651825,290741.9375,298473.21875,371591.875,367248.9375,288204.46875,258248.21875,224119.515625,246099.328125,0.01416015625,0.9970703125,0.195068359375,1.3732908964157104,-1.9226073026657104,-1.1291502714157104,80.0,37506.0,1.0
14282.2651837,290734.25,298164.59375,371427.09375,367272.78125,288116.5,258199.578125,224080.265625,246109.34375,0.0146484375,0.9931640625,0.192138671875,1.3122557401657104,-1.8920897245407104,-1.1291502714157104,80.0,37507.0,1.0
14282.2651849,290761.59375,298106.75,371447.125,367312.3125,288116.59375,258196.09375,224084.109375,246118.203125,0.01318359375,0.99462890625,0.191650390625,1.2207030057907104,-1.9836424589157104,-1.0070799589157104,80.0,37508.0,1.0
14282.2651861,290790.75,298383.65625,371623.96875,367323.59375,288212.25,258260.375,224140.71875,246125.0,0.01220703125,0.995849609375,0.188232421875,1.3732908964157104,-1.9836424589157104,-1.0375975370407104,80.0,37509.0,1.0
14282.2651873,290775.28125,298609.3125,371703.34375,367287.09375,288263.84375,258296.0625,224163.0625,246116.671875,0.010986328125,0.99560546875,0.18994140625,1.3732908964157104,-1.9531248807907104,-1.0681151151657104,80.0,37510.0,1.0
14282.2651885,290739.0625,298471.875,371584.09375,367245.96875,288197.875,258249.03125,224120.0625,246101.484375,0.01220703125,0.997314453125,0.18798828125,1.3732908964157104,-2.136230230331421,-1.0375975370407104,80.0,37511.0,1.0
14282.2651897,290727.625,298148.0625,371412.96875,367263.125,288101.21875,258186.71875,224077.671875,246102.375,0.012451171875,0.996337890625,0.1904296875,1.3122557401657104,-2.166747808456421,-1.0986326932907104,80.0,37512.0,1.0
14282.2651908,290769.3125,298093.96875,371430.5,367315.53125,288114.96875,258209.0625,224104.859375,246131.96875,0.0107421875,0.99755859375,0.189697265625,1.3122557401657104,-2.319335699081421,-1.0986326932907104,80.0,37513.0,1.0
14282.265192,290799.96875,298376.5,371612.625,367321.25,288208.15625,258255.828125,224145.09375,246129.46875,0.009521484375,1.0,0.190185546875,1.3122557401657104,-2.319335699081421,-1.1596678495407104,80.0,37514.0,1.0
14282.2651932,290791.84375,298601.71875,371697.5625,367280.03125,288255.875,258277.015625,224154.296875,246114.4375,0.01171875,1.0,0.1884765625,1.3427733182907104,-2.349853277206421,-1.1901854276657104,80.0,37515.0,1.0
14282.2651944,290759.8125,298464.8125,371576.59375,367256.25,288198.3125,258244.46875,224122.203125,246105.953125,0.01171875,0.99755859375,0.18896484375,1.2207030057907104,-2.288818120956421,-1.2207030057907104,80.0,37516.0,1.0
14282.2651958,290760.625,298164.875,371416.375,367282.1875,288117.65625,258204.5,224091.984375,246117.9375,0.01171875,0.996826171875,0.185302734375,1.1901854276657104,-2.288818120956421,-1.1901854276657104,80.0,37517.0,1.0
14282.2714473,290801.84375,298117.125,371449.34375,367329.375,288133.84375,258220.15625,224113.625,246131.4375,0.01123046875,0.99658203125,0.186767578125,1.2512205839157104,-2.441406011581421,-1.2512205839157104,80.0,37518.0,1.0
14282.2714519,290831.15625,298399.28125,371629.96875,367332.6875,288225.125,258256.8125,224151.703125,246141.09375,0.0107421875,0.997314453125,0.190673828125,1.1596678495407104,-2.441406011581421,-1.2207030057907104,80.0,37519.0,1.0
14282.2714532,290813.46875,298618.0625,371705.25,367283.78125,288266.25,258276.390625,224154.84375,246121.0625,0.011962890625,0.998291015625,0.19140625,1.0986326932907104,-2.471923589706421,-1.1901854276657104,80.0,37520.0,1.0
14282.2714545,290780.125,298483.34375,371584.4375,367257.40625,288206.90625,258242.328125,224125.78125,246106.21875,0.013671875,0.998046875,0.194091796875,1.1291502714157104,-2.532958745956421,-1.2512205839157104,80.0,37521.0,1.0
14282.2714559,290769.65625,298164.875,371408.84375,367278.53125,288116.0625,258197.4375,224089.125,246115.96875,0.01318359375,0.9970703125,0.193115234375,1.0375975370407104,-2.532958745956421,-1.3427733182907104,80.0,37522.0,1.0
14282.2875622,290812.46875,298122.21875,371444.96875,367332.25,288138.84375,258219.875,224121.484375,246152.890625,0.012451171875,0.9970703125,0.19189453125,1.0375975370407104,-2.685546636581421,-1.3122557401657104,80.0,37523.0,1.0
14282.302571,290838.59375,298386.78125,371620.46875,367328.59375,288225.9375,258266.015625,224158.5,246140.015625,0.01220703125,0.9970703125,0.190673828125,1.0681151151657104,-2.685546636581421,-1.2512205839157104,80.0,37524.0,1.0
14282.3206755,290833.21875,298614.5,371698.8125,367288.4375,288275.125,258297.3125,224170.65625,246129.203125,0.01220703125,0.998779296875,0.18701171875,0.9765624403953552,-2.685546636581421,-1.2512205839157104,80.0,37525.0,1.0
14282.3206798,290807.46875,298486.1875,371584.09375,367266.28125,288217.09375,258255.375,224132.21875,246115.34375,0.011962890625,0.99951171875,0.187255859375,0.9765624403953552,-2.655029058456421,-1.2207030057907104,80.0,37526.0,1.0
14282.3206811,290799.78125,298165.65625,371408.21875,367283.4375,288120.96875,258194.21875,224086.703125,246123.03125,0.01123046875,0.9970703125,0.1884765625,0.7934569716453552,-2.777099370956421,-1.2817381620407104,80.0,37527.0,1.0
14282.3275464,290834.5625,298115.4375,371441.21875,367326.0,288131.0625,258198.25,224097.609375,246134.65625,0.012451171875,0.99365234375,0.1904296875,0.8239745497703552,-2.716064214706421,-1.3122557401657104,80.0,37528.0,1.0
14282.3300624,290858.4375,298388.46875,371621.5625,367324.65625,288218.96875,258242.40625,224137.84375,246129.546875,0.0126953125,0.99560546875,0.187255859375,0.9155272841453552,-2.685546636581421,-1.2817381620407104,80.0,37529.0,1.0
14282.3325602,290843.9375,298608.875,371697.1875,367281.03125,288262.5,258263.6875,224145.453125,246113.1875,0.013916015625,0.99365234375,0.18798828125,0.9460448622703552,-2.716064214706421,-1.1901854276657104,80.0,37530.0,1.0
14282.3356522,290820.71875,298492.0,371592.3125,367264.5625,288217.1875,258249.65625,224123.015625,246105.40625,0.013427734375,0.99072265625,0.189453125,0.9460448622703552,-2.655029058456421,-1.1901854276657104,80.0,37531.0,1.0
14282.3356545,290811.9375,298174.34375,371415.1875,367281.75,288127.21875,258211.390625,224100.125,246120.96875,0.01513671875,0.994140625,0.18994140625,0.9765624403953552,-2.685546636581421,-1.1596678495407104,80.0,37532.0,1.0
14282.3381304,290844.9375,298117.65625,371433.53125,367325.90625,288137.59375,258222.65625,224121.84375,246142.78125,0.015625,0.994384765625,0.1865234375,0.9765624403953552,-2.593993902206421,-1.0375975370407104,80.0,37533.0,1.0
14282.3381451,290873.0,298391.25,371607.96875,367330.46875,288228.96875,258266.734375,224161.546875,246143.046875,0.014892578125,0.995361328125,0.186767578125,1.0986326932907104,-2.532958745956421,-1.0070799589157104,80.0,37534.0,1.0
14282.3400375,290852.1875,298614.03125,371685.84375,367284.59375,288273.59375,258277.734375,224174.859375,246123.203125,0.013427734375,0.996337890625,0.189453125,1.1901854276657104,-2.502441167831421,-1.0986326932907104,80.0,37535.0,1.0
14282.342575,290816.78125,298477.25,371562.8125,367257.875,288211.90625,258227.5625,224131.328125,246111.765625,0.011962890625,0.996337890625,0.1884765625,1.2207030057907104,-2.410888433456421,-1.2207030057907104,80.0,37536.0,1.0
14282.3449993,290809.0,298163.0,371395.0,367282.8125,288127.6875,258187.34375,224097.171875,246126.15625,0.013427734375,0.993896484375,0.191162109375,1.2512205839157104,-2.380370855331421,-1.1596678495407104,80.0,37537.0,1.0
14282.3500695,290832.0625,298109.15625,371424.59375,367318.125,288135.28125,258193.78125,224104.5,246128.578125,0.014404296875,0.99365234375,0.18994140625,1.3122557401657104,-2.410888433456421,-1.2207030057907104,80.0,37538.0,1.0
14282.3663284,290832.0625,298109.15625,371424.59375,367318.125,288135.28125,258193.78125,224104.5,246128.578125,0.014404296875,0.99365234375,0.18994140625,1.3122557401657104,-2.410888433456421,-1.2207030057907104,80.0,37539.0,0.0
14282.3663326,290832.0625,298109.15625,371424.59375,367318.125,288135.28125,258193.78125,224104.5,246128.578125,0.014404296875,0.99365234375,0.18994140625,1.3122557401657104,-2.410888433456421,-1.2207030057907104,80.0,37540.0,0.0
14282.3663338,290832.0625,298109.15625,371424.59375,367318.125,288135.28125,258193.78125,224104.5,246128.578125,0.014404296875,0.99365234375,0.18994140625,1.3122557401657104,-2.410888433456421,-1.2207030057907104,80.0,37541.0,0.0
14282.3663353,290832.0625,298109.15625,371424.59375,367318.125,288135.28125,258193.78125,224104.5,246128.578125,0.014404296875,0.99365234375,0.18994140625,1.3122557401657104,-2.410888433456421,-1.2207030057907104,80.0,37542.0,0.0
14282.3663386,290832.0625,298109.15625,371424.59375,367318.125,288135.28125,258193.78125,224104.5,246128.578125,0.014404296875,0.99365234375,0.18994140625,1.3122557401657104,-2.410888433456421,-1.2207030057907104,80.0,37543.0,0.0
14282.3663388,290832.0625,298109.15625,371424.59375,367318.125,288135.28125,258193.78125,224104.5,246128.578125,0.014404296875,0.99365234375,0.18994140625,1.3122557401657104,-2.410888433456421,-1.2207030057907104,80.0,37544.0,0.0
14282.3663389,290832.0625,298109.15625,371424.59375,367318.125,288135.28125,258193.78125,224104.5,246128.578125,0.014404296875,0.99365234375,0.18994140625,1.3122557401657104,-2.410888433456421,-1.2207030057907104,80.0,37545.0,0.0
14282.3663391,290832.0625,298109.15625,371424.59375,367318.125,288135.28125,258193.78125,224104.5,246128.578125,0.014404296875,0.99365234375,0.18994140625,1.3122557401657104,-2.410888433456421,-1.2207030057907104,80.0,37546.0,0.0
14282.3663393,290832.0625,298109.15625,371424.59375,367318.125,288135.28125,258193.78125,224104.5,246128.578125,0.014404296875,0.99365234375,0.18994140625,1.3122557401657104,-2.410888433456421,-1.2207030057907104,80.0,37547.0,0.0
14282.3663395,290832.0625,298109.15625,371424.59375,367318.125,288135.28125,258193.78125,224104.5,246128.578125,0.014404296875,0.99365234375,0.18994140625,1.3122557401657104,-2.410888433456421,-1.2207030057907104,80.0,37548.0,0.0
14282.3663396,290832.0625,298109.15625,371424.59375,367318.125,288135.28125,258193.78125,224104.5,246128.578125,0.014404296875,0.99365234375,0.18994140625,1.3122557401657104,-2.410888433456421,-1.2207030057907104,80.0,37549.0,0.0
14282.3663398,290832.0625,298109.15625,371424.59375,367318.125,288135.28125,258193.78125,224104.5,246128.578125,0.014404296875,0.99365234375,0.18994140625,1.3122557401657104,-2.410888433456421,-1.2207030057907104,80.0,37550.0,0.0
14282.36634,290832.0625,298109.15625,371424.59375,367318.125,288135.28125,258193.78125,224104.5,246128.578125,0.014404296875,0.99365234375,0.18994140625,1.3122557401657104,-2.410888433456421,-1.2207030057907104,80.0,37551.0,0.0
14282.3663401,290832.0625,298109.15625,371424.59375,367318.125,288135.28125,258193.78125,224104.5,246128.578125,0.014404296875,0.99365234375,0.18994140625,1.3122557401657104,-2.410888433456421,-1.2207030057907104,80.0,37552.0,0.0
14282.3663403,290832.0625,298109.15625,371424.59375,367318.125,288135.28125,258193.78125,224104.5,246128.578125,0.014404296875,0.99365234375,0.18994140625,1.3122557401657104,-2.410888433456421,-1.2207030057907104,80.0,37553.0,0.0
14282.3663405,290832.0625,298109.15625,371424.59375,367318.125,288135.28125,258193.78125,224104.5,246128.578125,0.014404296875,0.99365234375,0.18994140625,1.3122557401657104,-2.410888433456421,-1.2207030057907104,80.0,37554.0,0.0
14282.3663407,290832.0625,298109.15625,371424.59375,367318.125,288135.28125,258193.78125,224104.5,246128.578125,0.014404296875,0.99365234375,0.18994140625,1.3122557401657104,-2.410888433456421,-1.2207030057907104,80.0,37555.0,0.0
14282.3663408,290832.0625,298109.15625,371424.59375,367318.125,288135.28125,258193.78125,224104.5,246128.578125,0.014404296875,0.99365234375,0.18994140625,1.3122557401657104,-2.410888433456421,-1.2207030057907104,80.0,37556.0,0.0
14282.366341,290832.0625,298109.15625,371424.59375,367318.125,288135.28125,258193.78125,224104.5,246128.578125,0.014404296875,0.99365234375,0.18994140625,1.3122557401657104,-2.410888433456421,-1.2207030057907104,80.0,37557.0,0.0
14282.3663412,290832.0625,298109.15625,371424.59375,367318.125,288135.28125,258193.78125,224104.5,246128.578125,0.014404296875,0.99365234375,0.18994140625,1.3122557401657104,-2.410888433456421,-1.2207030057907104,80.0,37558.0,0.0
14282.3663413,290832.0625,298109.15625,371424.59375,367318.125,288135.28125,258193.78125,224104.5,246128.578125,0.014404296875,0.99365234375,0.18994140625,1.3122557401657104,-2.410888433456421,-1.2207030057907104,80.0,37559.0,0.0
14282.3663415,290832.0625,298109.15625,371424.59375,367318.125,288135.28125,258193.78125,224104.5,246128.578125,0.014404296875,0.99365234375,0.18994140625,1.3122557401657104,-2.410888433456421,-1.2207030057907104,80.0,37560.0,0.0
14282.3663417,290832.0625,298109.15625,371424.59375,367318.125,288135.28125,258193.78125,224104.5,246128.578125,0.014404296875,0.99365234375,0.18994140625,1.3122557401657104,-2.410888433456421,-1.2207030057907104,80.0,37561.0,0.0
14282.3663418,290832.0625,298109.15625,371424.59375,367318.125,288135.28125,258193.78125,224104.5,246128.578125,0.014404296875,0.99365234375,0.18994140625,1.3122557401657104,-2.410888433456421,-1.2207030057907104,80.0,37562.0,0.0
14282.366342,290832.0625,298109.15625,371424.59375,367318.125,288135.28125,258193.78125,224104.5,246128.578125,0.014404296875,0.99365234375,0.18994140625,1.3122557401657104,-2.410888433456421,-1.2207030057907104,80.0,37563.0,0.0
14282.3663422,290812.5625,298383.09375,371582.65625,367276.1875,288221.375,258254.84375,224148.9375,246118.46875,0.014892578125,0.99658203125,0.19091796875,0.3051757514476776,-1.7395018339157104,-0.9460448622703552,80.0,37564.0,1.0
14282.3750787,290796.84375,298602.4375,371651.40625,367223.4375,288263.9375,258280.40625,224160.5625,246105.140625,0.015380859375,0.99658203125,0.191650390625,0.1525878757238388,-1.6784666776657104,-0.8239745497703552,80.0,37565.0,1.0
14282.3826053,290760.4375,298468.9375,371530.625,367197.875,288204.5625,258236.0625,224122.828125,246101.125,0.01318359375,0.995361328125,0.190673828125,0.1220703050494194,-1.5869139432907104,-0.7324218153953552,80.0,37566.0,1.0
14282.4376023,290750.0625,298157.8125,371361.8125,367214.40625,288115.59375,258193.78125,224087.328125,246102.90625,0.012939453125,0.995361328125,0.1884765625,0.1220703050494194,-1.4343260526657104,-0.7629393935203552,80.0,37567.0,1.0
14282.437613,290781.28125,298097.28125,371383.0,367258.9375,288125.09375,258204.953125,224109.859375,246129.734375,0.0126953125,0.994140625,0.18505859375,0.1220703050494194,-1.3732908964157104,-0.7629393935203552,80.0,37568.0,1.0
14282.4376143,290806.5,298367.0,371553.0625,367262.96875,288212.09375,258250.546875,224157.703125,246132.421875,0.015869140625,0.99755859375,0.18896484375,0.1525878757238388,-1.3427733182907104,-0.8239745497703552,80.0,37569.0,1.0
14282.4376156,290798.34375,298606.28125,371646.40625,367224.53125,288267.25,258278.984375,224174.953125,246113.8125,0.012451171875,0.99755859375,0.190185546875,0.1220703050494194,-1.3122557401657104,-0.7934569716453552,80.0,37570.0,1.0
14282.4376168,290768.65625,298485.5625,371539.375,367203.0625,288215.5625,258245.546875,224132.9375,246109.34375,0.0126953125,0.997314453125,0.189453125,0.0915527269244194,-1.2512205839157104,-0.8544921278953552,80.0,37571.0,1.0
14282.437618,290758.3125,298173.625,371370.75,367223.1875,288128.65625,258206.203125,224101.546875,246120.796875,0.014404296875,0.995361328125,0.189697265625,0.03051757626235485,-1.2207030057907104,-0.8239745497703552,80.0,37572.0,1.0
14282.4376192,290787.0,298108.4375,371382.375,367262.34375,288131.0625,258222.921875,224120.59375,246126.609375,0.01513671875,0.995361328125,0.19287109375,0.03051757626235485,-1.1901854276657104,-0.8850097060203552,80.0,37573.0,1.0
14282.4376204,290807.46875,298370.59375,371544.21875,367262.78125,288212.875,258264.046875,224151.34375,246135.0,0.013916015625,0.995361328125,0.191162109375,-0.0915527269244194,-1.0681151151657104,-0.8239745497703552,80.0,37574.0,1.0
14282.4845428,290793.34375,298602.0625,371634.5,367224.25,288264.125,258275.84375,224161.984375,246121.6875,0.01416015625,0.99658203125,0.19091796875,-0.0610351525247097,-1.0375975370407104,-0.8544921278953552,80.0,37575.0,1.0
14282.4862248,290793.34375,298602.0625,371634.5,367224.25,288264.125,258275.84375,224161.984375,246121.6875,0.01416015625,0.99658203125,0.19091796875,-0.0610351525247097,-1.0375975370407104,-0.8544921278953552,80.0,37576.0,0.0
14282.4862258,290793.34375,298602.0625,371634.5,367224.25,288264.125,258275.84375,224161.984375,246121.6875,0.01416015625,0.99658203125,0.19091796875,-0.0610351525247097,-1.0375975370407104,-0.8544921278953552,80.0,37577.0,0.0
14282.4862262,290793.34375,298602.0625,371634.5,367224.25,288264.125,258275.84375,224161.984375,246121.6875,0.01416015625,0.99658203125,0.19091796875,-0.0610351525247097,-1.0375975370407104,-0.8544921278953552,80.0,37578.0,0.0
14282.4862265,290793.34375,298602.0625,371634.5,367224.25,288264.125,258275.84375,224161.984375,246121.6875,0.01416015625,0.99658203125,0.19091796875,-0.0610351525247097,-1.0375975370407104,-0.8544921278953552,80.0,37579.0,0.0
14282.4862268,290793.34375,298602.0625,371634.5,367224.25,288264.125,258275.84375,224161.984375,246121.6875,0.01416015625,0.99658203125,0.19091796875,-0.0610351525247097,-1.0375975370407104,-0.8544921278953552,80.0,37580.0,0.0
14282.4862271,290793.34375,298602.0625,371634.5,367224.25,288264.125,258275.84375,224161.984375,246121.6875,0.01416015625,0.99658203125,0.19091796875,-0.0610351525247097,-1.0375975370407104,-0.8544921278953552,80.0,37581.0,0.0
14282.4862274,290793.34375,298602.0625,371634.5,367224.25,288264.125,258275.84375,224161.984375,246121.6875,0.01416015625,0.99658203125,0.19091796875,-0.0610351525247097,-1.0375975370407104,-0.8544921278953552,80.0,37582.0,0.0
14282.4862277,290793.34375,298602.0625,371634.5,367224.25,288264.125,258275.84375,224161.984375,246121.6875,0.01416015625,0.99658203125,0.19091796875,-0.0610351525247097,-1.0375975370407104,-0.8544921278953552,80.0,37583.0,0.0
14282.4862281,290793.34375,298602.0625,371634.5,367224.25,288264.125,258275.84375,224161.984375,246121.6875,0.01416015625,0.99658203125,0.19091796875,-0.0610351525247097,-1.0375975370407104,-0.8544921278953552,80.0,37584.0,0.0
14282.4862285,290793.34375,298602.0625,371634.5,367224.25,288264.125,258275.84375,224161.984375,246121.6875,0.01416015625,0.99658203125,0.19091796875,-0.0610351525247097,-1.0375975370407104,-0.8544921278953552,80.0,37585.0,0.0
14282.4862288,290793.34375,298602.0625,371634.5,367224.25,288264.125,258275.84375,224161.984375,246121.6875,0.01416015625,0.99658203125,0.19091796875,-0.0610351525247097,-1.0375975370407104,-0.8544921278953552,80.0,37586.0,0.0
14282.486229,290793.34375,298602.0625,371634.5,367224.25,288264.125,258275.84375,224161.984375,246121.6875,0.01416015625,0.99658203125,0.19091796875,-0.0610351525247097,-1.0375975370407104,-0.8544921278953552,80.0,37587.0,0.0
14282.4862293,290793.34375,298602.0625,371634.5,367224.25,288264.125,258275.84375,224161.984375,246121.6875,0.01416015625,0.99658203125,0.19091796875,-0.0610351525247097,-1.0375975370407104,-0.8544921278953552,80.0,37588.0,0.0
14282.4862296,290793.34375,298602.0625,371634.5,367224.25,288264.125,258275.84375,224161.984375,246121.6875,0.01416015625,0.99658203125,0.19091796875,-0.0610351525247097,-1.0375975370407104,-0.8544921278953552,80.0,37589.0,0.0
14282.4862298,290793.34375,298602.0625,371634.5,367224.25,288264.125,258275.84375,224161.984375,246121.6875,0.01416015625,0.99658203125,0.19091796875,-0.0610351525247097,-1.0375975370407104,-0.8544921278953552,80.0,37590.0,0.0
14282.4862301,290793.34375,298602.0625,371634.5,367224.25,288264.125,258275.84375,224161.984375,246121.6875,0.01416015625,0.99658203125,0.19091796875,-0.0610351525247097,-1.0375975370407104,-0.8544921278953552,80.0,37591.0,0.0
14282.4862305,290738.625,298169.25,371345.46875,367194.84375,288127.78125,258221.046875,224119.875,246113.8125,0.01171875,0.9970703125,0.191162109375,-0.0915527269244194,-1.1596678495407104,-0.6408690810203552,80.0,37592.0,1.0
14282.4900788,290763.65625,298099.40625,371355.3125,367232.5625,288126.59375,258215.765625,224131.59375,246135.1875,0.01220703125,0.99853515625,0.19287109375,0.0,-1.1596678495407104,-0.6408690810203552,80.0,37593.0,1.0
14282.5050769,290783.34375,298355.46875,371511.3125,367228.0,288202.15625,258251.984375,224162.609375,246130.8125,0.013427734375,0.997802734375,0.189453125,-0.1525878757238388,-1.1291502714157104,-0.6408690810203552,80.0,37594.0,1.0
14282.5163195,290771.09375,298577.21875,371579.25,367182.6875,288246.15625,258277.1875,224168.96875,246118.109375,0.011962890625,0.997314453125,0.19384765625,-0.2136230319738388,-1.2512205839157104,-0.7019042372703552,80.0,37595.0,1.0
14282.5700776,290744.71875,298465.90625,371476.34375,367161.03125,288203.75,258263.328125,224152.515625,246111.140625,0.013916015625,0.9970703125,0.195068359375,-0.2746581733226776,-1.2512205839157104,-0.6713866591453552,80.0,37596.0,1.0
14282.602766,290741.75,298170.40625,371326.59375,367186.96875,288126.34375,258235.078125,224123.09375,246111.140625,0.01318359375,0.998046875,0.19287109375,-0.3051757514476776,-1.3732908964157104,-0.5798339247703552,80.0,37597.0,1.0
14282.6027924,290779.21875,298116.21875,371363.4375,367239.0,288140.09375,258235.34375,224142.59375,246139.65625,0.01220703125,0.997802734375,0.191650390625,-0.4272460639476776,-1.4648436307907104,-0.5187987685203552,80.0,37598.0,1.0
14282.6027966,290804.625,298380.25,371534.90625,367240.78125,288225.40625,258270.9375,224172.625,246144.03125,0.01416015625,0.998046875,0.190185546875,-0.5187987685203552,-1.3732908964157104,-0.6103515028953552,80.0,37599.0,1.0
14282.6028003,290784.125,298595.53125,371594.5625,367192.59375,288260.53125,258286.578125,224167.53125,246125.703125,0.010986328125,0.99609375,0.19140625,-0.4882812201976776,-1.4343260526657104,-0.6713866591453552,80.0,37600.0,1.0
14282.6028038,290756.15625,298481.46875,371488.96875,367172.21875,288208.15625,258254.21875,224135.25,246108.0,0.009765625,0.9951171875,0.194091796875,-0.5493163466453552,-1.4648436307907104,-0.6713866591453552,80.0,37601.0,1.0
14282.6212903,290752.125,298178.09375,371337.0625,367197.6875,288126.25,258224.4375,224112.015625,246107.734375,0.010009765625,0.995849609375,0.193359375,-0.6408690810203552,-1.5563963651657104,-0.6713866591453552,80.0,37602.0,1.0
14282.6250687,290780.90625,298116.40625,371359.9375,367224.875,288129.1875,258225.78125,224122.65625,246125.0,0.01123046875,0.9931640625,0.192626953125,-0.5798339247703552,-1.7395018339157104,-0.7324218153953552,80.0,37603.0,1.0
14282.6425611,290803.71875,298377.5625,371529.65625,367223.8125,288209.5625,258246.609375,224143.84375,246119.8125,0.01220703125,0.9931640625,0.190673828125,-0.4577636420726776,-1.7700194120407104,-0.7324218153953552,80.0,37604.0,1.0
14282.6596268,290786.90625,298595.90625,371600.71875,367177.3125,288252.9375,258255.28125,224151.796875,246102.375,0.01220703125,0.9931640625,0.1923828125,-0.4272460639476776,-1.8310545682907104,-0.7629393935203552,80.0,37605.0,1.0
14282.6596376,290750.875,298471.1875,371481.1875,367151.375,288197.9375,258238.5625,224128.8125,246097.28125,0.013427734375,0.993408203125,0.19384765625,-0.2746581733226776,-1.9226073026657104,-0.8544921278953552,80.0,37606.0,1.0
14282.6596458,290739.96875,298154.75,371306.3125,367172.65625,288108.46875,258197.171875,224098.953125,246110.59375,0.014404296875,0.99365234375,0.194580078125,-0.1525878757238388,-2.075195074081421,-0.8850097060203552,80.0,37607.0,1.0
14282.6596471,290780.21875,298100.5,371336.78125,367222.8125,288121.40625,258210.21875,224117.28125,246117.3125,0.013427734375,0.993408203125,0.194091796875,-0.1220703050494194,-2.044677495956421,-0.8850097060203552,80.0,37608.0,1.0
14282.6596485,290810.15625,298379.09375,371521.5,367231.125,288218.4375,258264.5,224165.75,246127.234375,0.013671875,0.99365234375,0.194580078125,0.0,-2.166747808456421,-0.8239745497703552,80.0,37609.0,1.0
14282.6596499,290789.78125,298601.34375,371593.375,367184.09375,288261.6875,258287.828125,224181.390625,246122.3125,0.014404296875,0.99365234375,0.1923828125,0.1220703050494194,-2.105712652206421,-0.8239745497703552,80.0,37610.0,1.0
14282.6596512,290762.6875,298479.65625,371474.75,367164.0,288208.6875,258267.53125,224164.765625,246133.21875,0.017822265625,0.9951171875,0.1904296875,0.2136230319738388,-2.166747808456421,-0.8850097060203552,80.0,37611.0,1.0
14282.6596525,290750.0625,298169.875,371305.3125,367176.40625,288114.4375,258216.3125,224118.453125,246114.0,0.016357421875,0.99560546875,0.194580078125,0.1525878757238388,-2.136230230331421,-0.7934569716453552,80.0,37612.0,1.0
14282.6596538,290778.40625,298108.4375,371331.25,367215.3125,288116.9375,258212.8125,224116.578125,246113.1875,0.0166015625,0.996337890625,0.193359375,0.2136230319738388,-2.075195074081421,-0.8544921278953552,80.0,37613.0,1.0
14282.6596551,290803.625,298377.90625,371506.84375,367221.125,288209.3125,258263.328125,224163.15625,246127.40625,0.0185546875,0.99365234375,0.193603515625,0.1220703050494194,-2.105712652206421,-0.9460448622703552,80.0,37614.0,1.0
14282.6596565,290792.1875,298608.875,371593.125,367183.21875,288264.65625,258295.703125,224182.28125,246122.84375,0.017578125,0.993408203125,0.1953125,0.2136230319738388,-2.044677495956421,-0.9765624403953552,80.0,37615.0,1.0
14282.6768989,290762.59375,298490.84375,371484.125,367159.6875,288213.0625,258264.765625,224154.296875,246126.96875,0.017578125,0.99462890625,0.1943359375,0.2136230319738388,-2.014159917831421,-0.9155272841453552,80.0,37616.0,1.0
14282.676905,290757.40625,298183.8125,371319.34375,367178.03125,288124.5625,258225.25,224117.734375,246120.96875,0.01513671875,0.994873046875,0.19140625,0.2441406100988388,-1.9226073026657104,-0.9765624403953552,80.0,37617.0,1.0
14282.6918808,290797.375,298125.625,371345.5625,367227.46875,288138.9375,258257.25,224147.15625,246137.421875,0.017822265625,0.99462890625,0.192138671875,0.3051757514476776,-1.8615721464157104,-0.8850097060203552,80.0,37618.0,1.0
14282.6918853,290817.75,298385.0,371514.34375,367227.03125,288223.0,258286.671875,224182.46875,246153.15625,0.018310546875,0.994873046875,0.1904296875,0.3051757514476776,-1.7700194120407104,-0.8239745497703552,80.0,37619.0,1.0
14282.7250932,290801.40625,298613.59375,371603.5,367180.25,288266.25,258279.34375,224170.21875,246118.109375,0.019287109375,0.9970703125,0.195068359375,0.3356933295726776,-1.8005369901657104,-0.8239745497703552,80.0,37620.0,1.0
14282.7306624,290768.59375,298488.6875,371484.75,367153.25,288207.4375,258236.25,224128.375,246098.890625,0.01953125,0.99609375,0.193115234375,0.2746581733226776,-1.7700194120407104,-0.7629393935203552,80.0,37621.0,1.0
14282.7306777,290753.90625,298172.65625,371312.125,367179.625,288117.5625,258192.96875,224089.84375,246103.984375,0.016845703125,0.994873046875,0.19580078125,0.1525878757238388,-1.6784666776657104,-0.7934569716453552,80.0,37622.0,1.0
14282.7306852,290781.1875,298108.90625,371333.46875,367213.875,288120.09375,258191.359375,224097.609375,246112.390625,0.018310546875,0.995849609375,0.192138671875,0.0,-1.6784666776657104,-0.7629393935203552,80.0,37623.0,1.0
14282.7438437,290810.15625,298378.09375,371504.15625,367217.1875,288211.09375,258247.953125,224146.796875,246116.765625,0.01708984375,0.993896484375,0.18701171875,0.03051757626235485,-1.6174315214157104,-0.7629393935203552,80.0,37624.0,1.0
14282.7506547,290793.53125,298601.53125,371576.9375,367174.625,288257.125,258278.359375,224162.609375,246106.9375,0.015380859375,0.990966796875,0.188720703125,0.0915527269244194,-1.5869139432907104,-0.9155272841453552,80.0,37625.0,1.0
14282.7506688,290767.0625,298484.3125,371467.3125,367153.625,288206.34375,258252.6875,224134.359375,246102.640625,0.0146484375,0.991455078125,0.1904296875,0.2746581733226776,-1.6479490995407104,-1.0375975370407104,80.0,37626.0,1.0
14282.755117,290761.59375,298179.25,371305.84375,367176.25,288121.96875,258208.171875,224100.125,246110.328125,0.014404296875,0.990478515625,0.1884765625,0.4272460639476776,-1.6784666776657104,-1.0375975370407104,80.0,37627.0,1.0
14282.7551267,290761.59375,298179.25,371305.84375,367176.25,288121.96875,258208.171875,224100.125,246110.328125,0.014404296875,0.990478515625,0.1884765625,0.4272460639476776,-1.6784666776657104,-1.0375975370407104,80.0,37628.0,0.0
14282.755127,290761.59375,298179.25,371305.84375,367176.25,288121.96875,258208.171875,224100.125,246110.328125,0.014404296875,0.990478515625,0.1884765625,0.4272460639476776,-1.6784666776657104,-1.0375975370407104,80.0,37629.0,0.0
14282.7551273,290761.59375,298179.25,371305.84375,367176.25,288121.96875,258208.171875,224100.125,246110.328125,0.014404296875,0.990478515625,0.1884765625,0.4272460639476776,-1.6784666776657104,-1.0375975370407104,80.0,37630.0,0.0
14282.7551276,290761.59375,298179.25,371305.84375,367176.25,288121.96875,258208.171875,224100.125,246110.328125,0.014404296875,0.990478515625,0.1884765625,0.4272460639476776,-1.6784666776657104,-1.0375975370407104,80.0,37631.0,0.0
14282.7551279,290761.59375,298179.25,371305.84375,367176.25,288121.96875,258208.171875,224100.125,246110.328125,0.014404296875,0.990478515625,0.1884765625,0.4272460639476776,-1.6784666776657104,-1.0375975370407104,80.0,37632.0,0.0
14282.7551282,290761.59375,298179.25,371305.84375,367176.25,288121.96875,258208.171875,224100.125,246110.328125,0.014404296875,0.990478515625,0.1884765625,0.4272460639476776,-1.6784666776657104,-1.0375975370407104,80.0,37633.0,0.0
14282.7551285,290761.59375,298179.25,371305.84375,367176.25,288121.96875,258208.171875,224100.125,246110.328125,0.014404296875,0.990478515625,0.1884765625,0.4272460639476776,-1.6784666776657104,-1.0375975370407104,80.0,37634.0,0.0
14282.7551288,290761.59375,298179.25,371305.84375,367176.25,288121.96875,258208.171875,224100.125,246110.328125,0.014404296875,0.990478515625,0.1884765625,0.4272460639476776,-1.6784666776657104,-1.0375975370407104,80.0,37635.0,0.0
14282.7551292,290761.59375,298179.25,371305.84375,367176.25,288121.96875,258208.171875,224100.125,246110.328125,0.014404296875,0.990478515625,0.1884765625,0.4272460639476776,-1.6784666776657104,-1.0375975370407104,80.0,37636.0,0.0
14282.7551295,290761.59375,298179.25,371305.84375,367176.25,288121.96875,258208.171875,224100.125,246110.328125,0.014404296875,0.990478515625,0.1884765625,0.4272460639476776,-1.6784666776657104,-1.0375975370407104,80.0,37637.0,0.0
14282.7551297,290761.59375,298179.25,371305.84375,367176.25,288121.96875,258208.171875,224100.125,246110.328125,0.014404296875,0.990478515625,0.1884765625,0.4272460639476776,-1.6784666776657104,-1.0375975370407104,80.0,37638.0,0.0
14282.75513,290761.59375,298179.25,371305.84375,367176.25,288121.96875,258208.171875,224100.125,246110.328125,0.014404296875,0.990478515625,0.1884765625,0.4272460639476776,-1.6784666776657104,-1.0375975370407104,80.0,37639.0,0.0
14282.7551304,290761.59375,298179.25,371305.84375,367176.25,288121.96875,258208.171875,224100.125,246110.328125,0.014404296875,0.990478515625,0.1884765625,0.4272460639476776,-1.6784666776657104,-1.0375975370407104,80.0,37640.0,0.0
14282.7551307,290761.59375,298179.25,371305.84375,367176.25,288121.96875,258208.171875,224100.125,246110.328125,0.014404296875,0.990478515625,0.1884765625,0.4272460639476776,-1.6784666776657104,-1.0375975370407104,80.0,37641.0,0.0
14282.755131,290761.59375,298179.25,371305.84375,367176.25,288121.96875,258208.171875,224100.125,246110.328125,0.014404296875,0.990478515625,0.1884765625,0.4272460639476776,-1.6784666776657104,-1.0375975370407104,80.0,37642.0,0.0
14282.7551313,290761.59375,298179.25,371305.84375,367176.25,288121.96875,258208.171875,224100.125,246110.328125,0.014404296875,0.990478515625,0.1884765625,0.4272460639476776,-1.6784666776657104,-1.0375975370407104,80.0,37643.0,0.0
14282.7551316,290761.59375,298179.25,371305.84375,367176.25,288121.96875,258208.171875,224100.125,246110.328125,0.014404296875,0.990478515625,0.1884765625,0.4272460639476776,-1.6784666776657104,-1.0375975370407104,80.0,37644.0,0.0
14282.7551319,290761.59375,298179.25,371305.84375,367176.25,288121.96875,258208.171875,224100.125,246110.328125,0.014404296875,0.990478515625,0.1884765625,0.4272460639476776,-1.6784666776657104,-1.0375975370407104,80.0,37645.0,0.0
14282.7551322,290761.59375,298179.25,371305.84375,367176.25,288121.96875,258208.171875,224100.125,246110.328125,0.014404296875,0.990478515625,0.1884765625,0.4272460639476776,-1.6784666776657104,-1.0375975370407104,80.0,37646.0,0.0
14282.7551325,290761.59375,298179.25,371305.84375,367176.25,288121.96875,258208.171875,224100.125,246110.328125,0.014404296875,0.990478515625,0.1884765625,0.4272460639476776,-1.6784666776657104,-1.0375975370407104,80.0,37647.0,0.0
14282.7551327,290761.59375,298179.25,371305.84375,367176.25,288121.96875,258208.171875,224100.125,246110.328125,0.014404296875,0.990478515625,0.1884765625,0.4272460639476776,-1.6784666776657104,-1.0375975370407104,80.0,37648.0,0.0
14282.755133,290761.59375,298179.25,371305.84375,367176.25,288121.96875,258208.171875,224100.125,246110.328125,0.014404296875,0.990478515625,0.1884765625,0.4272460639476776,-1.6784666776657104,-1.0375975370407104,80.0,37649.0,0.0
14282.7551333,290761.59375,298179.25,371305.84375,367176.25,288121.96875,258208.171875,224100.125,246110.328125,0.014404296875,0.990478515625,0.1884765625,0.4272460639476776,-1.6784666776657104,-1.0375975370407104,80.0,37650.0,0.0
14282.7551335,290761.59375,298179.25,371305.84375,367176.25,288121.96875,258208.171875,224100.125,246110.328125,0.014404296875,0.990478515625,0.1884765625,0.4272460639476776,-1.6784666776657104,-1.0375975370407104,80.0,37651.0,0.0
14282.7551338,290761.59375,298179.25,371305.84375,367176.25,288121.96875,258208.171875,224100.125,246110.328125,0.014404296875,0.990478515625,0.1884765625,0.4272460639476776,-1.6784666776657104,-1.0375975370407104,80.0,37652.0,0.0
14282.7551341,290816.40625,298151.53125,371332.5,367208.6875,288154.6875,258244.5625,224143.390625,246141.984375,0.011962890625,0.9970703125,0.190673828125,-0.1831054538488388,-2.990722417831421,-1.1901854276657104,80.0,37653.0,1.0
14282.7551359,290832.40625,298400.90625,371487.09375,367206.09375,288232.09375,258280.859375,224185.5,246149.3125,0.01123046875,0.9951171875,0.193603515625,-0.0610351525247097,-3.051757574081421,-1.2207030057907104,80.0,37654.0,1.0
14282.7551379,290808.375,298612.0,371545.8125,367157.375,288266.4375,258278.53125,224186.046875,246142.078125,0.014404296875,0.99609375,0.197021484375,0.03051757626235485,-2.929687261581421,-1.2207030057907104,80.0,37655.0,1.0
14282.7551399,290777.4375,298501.75,371443.09375,367126.15625,288209.03125,258242.765625,224127.5625,246101.921875,0.01708984375,0.995849609375,0.1982421875,-0.03051757626235485,-2.777099370956421,-1.2207030057907104,80.0,37656.0,1.0
14282.7593087,290765.625,298188.28125,371273.59375,367144.3125,288117.40625,258203.078125,224088.765625,246109.078125,0.019775390625,0.9951171875,0.198974609375,-0.0915527269244194,-2.777099370956421,-1.0986326932907104,80.0,37657.0,1.0
14282.7593153,290791.65625,298112.5625,371283.3125,367183.21875,288115.4375,258208.703125,224103.78125,246119.1875,0.01904296875,0.994384765625,0.20166015625,-0.1525878757238388,-2.471923589706421,-1.1291502714157104,80.0,37658.0,1.0
14282.7612617,290823.03125,298388.84375,371470.90625,367194.375,288218.34375,258267.09375,224163.0625,246138.140625,0.020751953125,0.992919921875,0.200439453125,-0.0915527269244194,-2.319335699081421,-1.1291502714157104,80.0,37659.0,1.0
14282.763766,290810.4375,298624.78125,371556.65625,367155.6875,288272.59375,258290.421875,224180.9375,246130.890625,0.018798828125,0.99169921875,0.1962890625,-0.1220703050494194,-2.044677495956421,-0.9765624403953552,80.0,37660.0,1.0
14282.769993,290778.0625,298505.15625,371440.6875,367128.9375,288214.03125,258261.546875,224138.921875,246103.265625,0.018798828125,0.991455078125,0.190673828125,-0.0915527269244194,-1.8920897245407104,-0.9460448622703552,80.0,37661.0,1.0
14282.7725147,290766.09375,298194.90625,371272.875,367138.40625,288127.3125,258217.921875,224109.78125,246112.484375,0.01904296875,0.99267578125,0.191162109375,0.1831054538488388,-1.7700194120407104,-0.9460448622703552,80.0,37662.0,1.0
14282.7750273,290797.09375,298125.25,371292.8125,367184.0,288135.0,258214.15625,224129.09375,246138.578125,0.0185546875,0.99072265625,0.193603515625,0.3051757514476776,-1.6174315214157104,-0.9460448622703552,80.0,37663.0,1.0
14282.7775071,290816.78125,298381.78125,371459.1875,367185.09375,288217.4375,258259.578125,224166.640625,246139.03125,0.018798828125,0.9912109375,0.19580078125,0.3967284858226776,-1.4648436307907104,-1.0375975370407104,80.0,37664.0,1.0
14282.7800152,290804.53125,298618.34375,371547.15625,367144.75,288267.96875,258285.6875,224179.0625,246128.75,0.017578125,0.99267578125,0.194580078125,0.3967284858226776,-1.3427733182907104,-1.0986326932907104,80.0,37665.0,1.0
14282.7900308,290770.1875,298496.28125,371434.6875,367115.71875,288212.875,258248.140625,224140.359375,246101.65625,0.017822265625,0.992919921875,0.193115234375,0.4882812201976776,-1.1596678495407104,-1.0986326932907104,80.0,37666.0,1.0
14282.8075762,290761.6875,298192.3125,371274.46875,367132.25,288129.46875,258214.25,224111.5625,246098.0,0.0166015625,0.994384765625,0.19384765625,0.4882812201976776,-0.9765624403953552,-1.0375975370407104,80.0,37667.0,1.0
14282.8325241,290792.28125,298125.4375,371298.53125,367178.03125,288138.3125,258230.515625,224135.796875,246126.515625,0.01513671875,0.99560546875,0.193603515625,0.5187987685203552,-0.9765624403953552,-0.9765624403953552,80.0,37668.0,1.0
14282.8901071,290819.71875,298398.21875,371479.46875,367183.375,288227.625,258279.96875,224179.421875,246133.046875,0.01416015625,0.995361328125,0.191650390625,0.5798339247703552,-0.9460448622703552,-1.0070799589157104,80.0,37669.0,1.0
14282.9710991,290802.90625,298623.25,371553.4375,367139.84375,288273.0625,258312.5,224197.9375,246123.921875,0.013916015625,0.998046875,0.1943359375,0.4882812201976776,-0.9460448622703552,-1.0375975370407104,80.0,37670.0,1.0
14282.9711105,290760.71875,298497.09375,371429.9375,367104.1875,288207.4375,258263.328125,224151.625,246106.671875,0.013671875,0.99951171875,0.196533203125,0.4272460639476776,-0.9155272841453552,-1.0986326932907104,80.0,37671.0,1.0
14282.9711118,290753.03125,298177.90625,371261.6875,367128.40625,288124.375,258211.75,224127.203125,246127.046875,0.01220703125,0.99755859375,0.195068359375,0.4577636420726776,-0.8239745497703552,-1.0986326932907104,80.0,37672.0,1.0
14282.9711131,290791.46875,298127.65625,371294.5,367175.96875,288136.4375,258222.5625,224134.71875,246139.828125,0.013916015625,0.99462890625,0.19580078125,0.4577636420726776,-0.8544921278953552,-1.1596678495407104,80.0,37673.0,1.0
14282.9711145,290814.53125,298397.40625,371478.21875,367177.125,288220.46875,258252.328125,224163.0625,246137.0625,0.0126953125,0.997314453125,0.197509765625,0.3356933295726776,-0.8850097060203552,-1.0986326932907104,80.0,37674.0,1.0
14282.9711157,290791.90625,298604.5625,371535.90625,367123.03125,288248.65625,258264.5,224159.390625,246100.046875,0.011962890625,0.9970703125,0.1953125,0.3051757514476776,-0.8239745497703552,-1.0375975370407104,80.0,37675.0,1.0
14282.9711169,290762.78125,298487.34375,371418.0625,367101.40625,288195.71875,258236.15625,224129.984375,246095.765625,0.009521484375,0.999267578125,0.1962890625,0.2746581733226776,-0.7629393935203552,-1.1596678495407104,80.0,37676.0,1.0
14282.9711181,290758.75,298182.9375,371259.53125,367115.875,288116.78125,258197.265625,224099.9375,246107.5625,0.00830078125,0.99853515625,0.193359375,0.4272460639476776,-0.9765624403953552,-1.1596678495407104,80.0,37677.0,1.0
14282.9711192,290791.375,298115.59375,371281.1875,367160.40625,288123.21875,258207.1875,224113.265625,246121.234375,0.010009765625,0.99560546875,0.194580078125,0.3051757514476776,-1.0681151151657104,-1.0986326932907104,80.0,37678.0,1.0
14282.9711204,290815.4375,298372.5625,371444.875,367164.875,288207.4375,258246.53125,224154.03125,246135.640625,0.010986328125,0.994384765625,0.19189453125,0.2746581733226776,-1.0681151151657104,-1.0375975370407104,80.0,37679.0,1.0
14282.9711216,290804.0625,298602.59375,371523.84375,367124.125,288259.5625,258283.890625,224178.265625,246120.703125,0.01318359375,0.99169921875,0.193603515625,0.3967284858226776,-1.0681151151657104,-0.8239745497703552,80.0,37680.0,1.0
14282.9711228,290778.59375,298499.4375,371427.71875,367103.375,288218.6875,258266.1875,224158.40625,246113.546875,0.013916015625,0.995361328125,0.189453125,0.3967284858226776,-0.9765624403953552,-0.6408690810203552,80.0,37681.0,1.0
14282.9711239,290767.96875,298188.75,371260.875,367120.90625,288129.8125,258215.765625,224114.15625,246119.359375,0.01416015625,0.997314453125,0.1923828125,0.3967284858226776,-1.0986326932907104,-0.5493163466453552,80.0,37682.0,1.0
14282.9711251,290795.6875,298116.84375,371274.03125,367162.1875,288133.5,258223.453125,224134.71875,246137.515625,0.012939453125,0.9970703125,0.191650390625,0.4882812201976776,-1.0681151151657104,-0.6408690810203552,80.0,37683.0,1.0
14282.9711263,290824.625,298384.53125,371453.65625,367166.5,288223.625,258274.0625,224178.4375,246135.546875,0.010498046875,0.999267578125,0.193359375,0.3662109076976776,-1.0681151151657104,-0.6408690810203552,80.0,37684.0,1.0
14282.9906972,290824.625,298384.53125,371453.65625,367166.5,288223.625,258274.0625,224178.4375,246135.546875,0.010498046875,0.999267578125,0.193359375,0.3662109076976776,-1.0681151151657104,-0.6408690810203552,80.0,37685.0,0.0
14282.9907032,290824.625,298384.53125,371453.65625,367166.5,288223.625,258274.0625,224178.4375,246135.546875,0.010498046875,0.999267578125,0.193359375,0.3662109076976776,-1.0681151151657104,-0.6408690810203552,80.0,37686.0,0.0
14282.9907044,290824.625,298384.53125,371453.65625,367166.5,288223.625,258274.0625,224178.4375,246135.546875,0.010498046875,0.999267578125,0.193359375,0.3662109076976776,-1.0681151151657104,-0.6408690810203552,80.0,37687.0,0.0
14282.9907056,290824.625,298384.53125,371453.65625,367166.5,288223.625,258274.0625,224178.4375,246135.546875,0.010498046875,0.999267578125,0.193359375,0.3662109076976776,-1.0681151151657104,-0.6408690810203552,80.0,37688.0,0.0
14282.9907072,290824.625,298384.53125,371453.65625,367166.5,288223.625,258274.0625,224178.4375,246135.546875,0.010498046875,0.999267578125,0.193359375,0.3662109076976776,-1.0681151151657104,-0.6408690810203552,80.0,37689.0,0.0
14282.9907085,290824.625,298384.53125,371453.65625,367166.5,288223.625,258274.0625,224178.4375,246135.546875,0.010498046875,0.999267578125,0.193359375,0.3662109076976776,-1.0681151151657104,-0.6408690810203552,80.0,37690.0,0.0
14282.9907087,290824.625,298384.53125,371453.65625,367166.5,288223.625,258274.0625,224178.4375,246135.546875,0.010498046875,0.999267578125,0.193359375,0.3662109076976776,-1.0681151151657104,-0.6408690810203552,80.0,37691.0,0.0
14282.9907089,290824.625,298384.53125,371453.65625,367166.5,288223.625,258274.0625,224178.4375,246135.546875,0.010498046875,0.999267578125,0.193359375,0.3662109076976776,-1.0681151151657104,-0.6408690810203552,80.0,37692.0,0.0
14282.9907093,290824.625,298384.53125,371453.65625,367166.5,288223.625,258274.0625,224178.4375,246135.546875,0.010498046875,0.999267578125,0.193359375,0.3662109076976776,-1.0681151151657104,-0.6408690810203552,80.0,37693.0,0.0
14282.9907099,290824.625,298384.53125,371453.65625,367166.5,288223.625,258274.0625,224178.4375,246135.546875,0.010498046875,0.999267578125,0.193359375,0.3662109076976776,-1.0681151151657104,-0.6408690810203552,80.0,37694.0,0.0
14282.9907101,290809.1875,298608.78125,371512.65625,367117.0625,288267.59375,258287.46875,224188.71875,246119.359375,0.0107421875,0.998046875,0.193603515625,0.2746581733226776,-1.5563963651657104,-1.2512205839157104,80.0,37695.0,1.0
14282.9907154,290776.90625,298499.0625,371406.34375,367089.25,288213.6875,258246.796875,224148.484375,246104.34375,0.013916015625,0.99658203125,0.194580078125,0.3051757514476776,-1.6174315214157104,-1.2207030057907104,80.0,37696.0,1.0
14283.0168802,290766.15625,298188.03125,371242.46875,367112.59375,288126.6875,258203.25,224115.140625,246113.109375,0.014892578125,0.995361328125,0.19482421875,0.3051757514476776,-1.6174315214157104,-1.2817381620407104,80.0,37697.0,1.0
14283.0168979,290794.96875,298111.3125,371257.75,367146.375,288130.1875,258204.328125,224136.953125,246142.078125,0.015625,0.99560546875,0.193115234375,0.2441406100988388,-1.5869139432907104,-1.4038084745407104,80.0,37698.0,1.0
14283.0200322,290823.21875,298379.4375,371433.71875,367146.46875,288216.625,258262.53125,224178.0,246130.625,0.014404296875,0.99560546875,0.194091796875,0.2746581733226776,-1.5869139432907104,-1.3427733182907104,80.0,37699.0,1.0
14283.0274196,290810.15625,298620.3125,371526.5,367106.6875,288268.9375,258296.6875,224186.21875,246114.0,0.0146484375,0.99853515625,0.1943359375,0.2441406100988388,-1.6174315214157104,-1.4343260526657104,80.0,37700.0,1.0
14283.0274259,290779.03125,298508.0,371421.09375,367083.34375,288220.3125,258258.234375,224153.5,246108.8125,0.013916015625,0.995849609375,0.193115234375,0.0915527269244194,-1.6479490995407104,-1.4648436307907104,80.0,37701.0,1.0
14283.0274271,290767.96875,298192.03125,371252.9375,367100.59375,288129.28125,258200.921875,224117.015625,246116.765625,0.013671875,0.996826171875,0.194091796875,0.1831054538488388,-1.5258787870407104,-1.4038084745407104,80.0,37702.0,1.0
14283.032541,290798.09375,298112.28125,371262.40625,367144.21875,288131.78125,258214.96875,224136.234375,246140.375,0.0126953125,0.996826171875,0.19140625,0.2136230319738388,-1.5563963651657104,-1.4038084745407104,80.0,37703.0,1.0
14283.0368786,290819.1875,298357.0,371411.4375,367141.0,288206.4375,258255.734375,224171.734375,246142.875,0.01318359375,0.995849609375,0.19140625,0.1831054538488388,-1.5869139432907104,-1.4038084745407104,80.0,37704.0,1.0
14283.0368833,290805.40625,298590.625,371492.09375,367097.28125,288255.53125,258276.921875,224183.359375,246125.703125,0.014892578125,0.996826171875,0.1923828125,0.2136230319738388,-1.7089842557907104,-1.2817381620407104,80.0,37705.0,1.0
14283.0433809,290780.21875,298500.59375,371404.375,367072.96875,288218.6875,258267.0,224157.25,246101.296875,0.011962890625,0.9970703125,0.18798828125,0.1831054538488388,-1.7395018339157104,-1.2207030057907104,80.0,37706.0,1.0
14283.0433844,290758.9375,298184.28125,371233.78125,367080.125,288118.46875,258190.28125,224097.171875,246091.828125,0.01171875,0.997802734375,0.19091796875,0.1220703050494194,-1.7700194120407104,-1.1596678495407104,80.0,37707.0,1.0
14283.0433858,290790.03125,298114.4375,371253.65625,367127.25,288124.8125,258191.1875,224115.859375,246119.890625,0.011962890625,0.995361328125,0.193115234375,0.1220703050494194,-1.8615721464157104,-1.0681151151657104,80.0,37708.0,1.0
14283.0433871,290821.6875,298385.53125,371431.75,367141.625,288224.0625,258260.109375,224175.578125,246139.125,0.009521484375,0.994384765625,0.19140625,0.2746581733226776,-1.8920897245407104,-1.0681151151657104,80.0,37709.0,1.0
14283.0433885,290800.9375,298606.625,371508.0,367093.0,288266.78125,258269.953125,224178.078125,246118.109375,0.01123046875,0.994873046875,0.19482421875,0.3967284858226776,-1.9836424589157104,-1.1291502714157104,80.0,37710.0,1.0
14283.0456278,290768.84375,298492.71875,371396.25,367066.09375,288213.96875,258241.515625,224146.609375,246109.078125,0.009033203125,0.995849609375,0.192138671875,0.4577636420726776,-1.9531248807907104,-1.1596678495407104,80.0,37711.0,1.0
14283.0456479,290768.84375,298492.71875,371396.25,367066.09375,288213.96875,258241.515625,224146.609375,246109.078125,0.009033203125,0.995849609375,0.192138671875,0.4577636420726776,-1.9531248807907104,-1.1596678495407104,80.0,37712.0,0.0
14283.0456481,290768.84375,298492.71875,371396.25,367066.09375,288213.96875,258241.515625,224146.609375,246109.078125,0.009033203125,0.995849609375,0.192138671875,0.4577636420726776,-1.9531248807907104,-1.1596678495407104,80.0,37713.0,0.0
14283.0456483,290768.84375,298492.71875,371396.25,367066.09375,288213.96875,258241.515625,224146.609375,246109.078125,0.009033203125,0.995849609375,0.192138671875,0.4577636420726776,-1.9531248807907104,-1.1596678495407104,80.0,37714.0,0.0
14283.0456485,290768.84375,298492.71875,371396.25,367066.09375,288213.96875,258241.515625,224146.609375,246109.078125,0.009033203125,0.995849609375,0.192138671875,0.4577636420726776,-1.9531248807907104,-1.1596678495407104,80.0,37715.0,0.0
14283.0456487,290768.84375,298492.71875,371396.25,367066.09375,288213.96875,258241.515625,224146.609375,246109.078125,0.009033203125,0.995849609375,0.192138671875,0.4577636420726776,-1.9531248807907104,-1.1596678495407104,80.0,37716.0,0.0
14283.0456489,290768.84375,298492.71875,371396.25,367066.09375,288213.96875,258241.515625,224146.609375,246109.078125,0.009033203125,0.995849609375,0.192138671875,0.4577636420726776,-1.9531248807907104,-1.1596678495407104,80.0,37717.0,0.0
14283.0456491,290768.84375,298492.71875,371396.25,367066.09375,288213.96875,258241.515625,224146.609375,246109.078125,0.009033203125,0.995849609375,0.192138671875,0.4577636420726776,-1.9531248807907104,-1.1596678495407104,80.0,37718.0,0.0
14283.0456493,290768.84375,298492.71875,371396.25,367066.09375,288213.96875,258241.515625,224146.609375,246109.078125,0.009033203125,0.995849609375,0.192138671875,0.4577636420726776,-1.9531248807907104,-1.1596678495407104,80.0,37719.0,0.0
14283.0456494,290768.84375,298492.71875,371396.25,367066.09375,288213.96875,258241.515625,224146.609375,246109.078125,0.009033203125,0.995849609375,0.192138671875,0.4577636420726776,-1.9531248807907104,-1.1596678495407104,80.0,37720.0,0.0
14283.0456496,290768.84375,298492.71875,371396.25,367066.09375,288213.96875,258241.515625,224146.609375,246109.078125,0.009033203125,0.995849609375,0.192138671875,0.4577636420726776,-1.9531248807907104,-1.1596678495407104,80.0,37721.0,0.0
14283.0456498,290768.84375,298492.71875,371396.25,367066.09375,288213.96875,258241.515625,224146.609375,246109.078125,0.009033203125,0.995849609375,0.192138671875,0.4577636420726776,-1.9531248807907104,-1.1596678495407104,80.0,37722.0,0.0
14283.0456499,290768.84375,298492.71875,371396.25,367066.09375,288213.96875,258241.515625,224146.609375,246109.078125,0.009033203125,0.995849609375,0.192138671875,0.4577636420726776,-1.9531248807907104,-1.1596678495407104,80.0,37723.0,0.0
14283.0456502,290768.84375,298492.71875,371396.25,367066.09375,288213.96875,258241.515625,224146.609375,246109.078125,0.009033203125,0.995849609375,0.192138671875,0.4577636420726776,-1.9531248807907104,-1.1596678495407104,80.0,37724.0,0.0
14283.0456503,290768.84375,298492.71875,371396.25,367066.09375,288213.96875,258241.515625,224146.609375,246109.078125,0.009033203125,0.995849609375,0.192138671875,0.4577636420726776,-1.9531248807907104,-1.1596678495407104,80.0,37725.0,0.0
14283.0456505,290768.84375,298492.71875,371396.25,367066.09375,288213.96875,258241.515625,224146.609375,246109.078125,0.009033203125,0.995849609375,0.192138671875,0.4577636420726776,-1.9531248807907104,-1.1596678495407104,80.0,37726.0,0.0
14283.0456507,290768.84375,298492.71875,371396.25,367066.09375,288213.96875,258241.515625,224146.609375,246109.078125,0.009033203125,0.995849609375,0.192138671875,0.4577636420726776,-1.9531248807907104,-1.1596678495407104,80.0,37727.0,0.0
14283.0456508,290768.84375,298492.71875,371396.25,367066.09375,288213.96875,258241.515625,224146.609375,246109.078125,0.009033203125,0.995849609375,0.192138671875,0.4577636420726776,-1.9531248807907104,-1.1596678495407104,80.0,37728.0,0.0
14283.045651,290768.84375,298492.71875,371396.25,367066.09375,288213.96875,258241.515625,224146.609375,246109.078125,0.009033203125,0.995849609375,0.192138671875,0.4577636420726776,-1.9531248807907104,-1.1596678495407104,80.0,37729.0,0.0
14283.0456512,290768.84375,298492.71875,371396.25,367066.09375,288213.96875,258241.515625,224146.609375,246109.078125,0.009033203125,0.995849609375,0.192138671875,0.4577636420726776,-1.9531248807907104,-1.1596678495407104,80.0,37730.0,0.0
14283.0456514,290768.84375,298492.71875,371396.25,367066.09375,288213.96875,258241.515625,224146.609375,246109.078125,0.009033203125,0.995849609375,0.192138671875,0.4577636420726776,-1.9531248807907104,-1.1596678495407104,80.0,37731.0,0.0
14283.0456515,290768.84375,298492.71875,371396.25,367066.09375,288213.96875,258241.515625,224146.609375,246109.078125,0.009033203125,0.995849609375,0.192138671875,0.4577636420726776,-1.9531248807907104,-1.1596678495407104,80.0,37732.0,0.0
14283.0456517,290801.84375,298111.3125,371235.59375,367126.09375,288138.5,258214.15625,224140.890625,246144.484375,0.0126953125,0.997802734375,0.19140625,0.6103515028953552,-1.9531248807907104,-1.4038084745407104,80.0,37733.0,1.0
14283.0488313,290832.34375,298382.46875,371414.84375,367140.90625,288233.53125,258275.671875,224194.4375,246161.03125,0.012939453125,0.998291015625,0.19287109375,0.6713866591453552,-2.105712652206421,-1.4648436307907104,80.0,37734.0,1.0
14283.1088456,290823.75,298622.28125,371510.6875,367103.90625,288291.125,258308.578125,224216.078125,246152.265625,0.01220703125,0.9970703125,0.19287109375,0.6408690810203552,-2.136230230331421,-1.4648436307907104,80.0,37735.0,1.0
14283.1162828,290787.90625,298507.46875,371400.4375,367058.5,288229.6875,258258.6875,224159.046875,246124.09375,0.011474609375,0.99755859375,0.19091796875,0.6103515028953552,-2.075195074081421,-1.3427733182907104,80.0,37736.0,1.0
14283.1162857,290772.78125,298191.78125,371229.9375,367073.15625,288132.25,258196.015625,224105.484375,246113.109375,0.0107421875,0.999267578125,0.19140625,0.6103515028953552,-2.136230230331421,-1.4953612089157104,80.0,37737.0,1.0
14283.116287,290807.90625,298120.59375,371245.78125,367123.5,288140.1875,258211.484375,224135.796875,246146.90625,0.010986328125,0.998291015625,0.1904296875,0.6103515028953552,-2.075195074081421,-1.4343260526657104,80.0,37738.0,1.0
14283.1400953,290834.84375,298384.90625,371419.3125,367129.75,288230.40625,258264.9375,224185.140625,246158.34375,0.01123046875,0.994384765625,0.192138671875,0.3967284858226776,-2.197265386581421,-1.5258787870407104,80.0,37739.0,1.0
14283.1576311,290821.0625,298617.625,371498.4375,367082.1875,288274.03125,258295.15625,224189.703125,246127.046875,0.01220703125,0.99560546875,0.190673828125,0.3967284858226776,-2.319335699081421,-1.4648436307907104,80.0,37740.0,1.0
14283.1727546,290792.8125,298512.5625,371398.40625,367058.65625,288228.25,258266.8125,224160.5625,246113.546875,0.009765625,0.99560546875,0.190185546875,0.4272460639476776,-2.288818120956421,-1.3732908964157104,80.0,37741.0,1.0
14283.2444158,290773.5,298195.34375,371226.8125,367069.21875,288130.8125,258195.296875,224115.953125,246119.0,0.01123046875,0.99462890625,0.191650390625,0.3967284858226776,-2.349853277206421,-1.3732908964157104,80.0,37742.0,1.0
14283.2444298,290809.1875,298125.875,371251.3125,367117.5,288138.6875,258203.078125,224126.578125,246136.34375,0.009033203125,0.996337890625,0.190673828125,0.4272460639476776,-2.441406011581421,-1.4038084745407104,80.0,37743.0,1.0
14283.2525789,290835.375,298380.96875,371415.5625,367122.59375,288224.0625,258257.25,224170.9375,246141.171875,0.009033203125,0.996337890625,0.19091796875,0.3051757514476776,-2.471923589706421,-1.3427733182907104,80.0,37744.0,1.0
14283.2734863,290823.75,298617.53125,371503.28125,367088.34375,288282.625,258300.96875,224201.515625,246140.015625,0.0087890625,0.99755859375,0.190185546875,0.2746581733226776,-2.441406011581421,-1.3427733182907104,80.0,37745.0,1.0
14283.2735078,290796.5625,298515.0625,371400.09375,367061.0,288233.4375,258267.09375,224169.234375,246128.125,0.009521484375,0.995849609375,0.187744140625,0.3051757514476776,-2.563476324081421,-1.3427733182907104,80.0,37746.0,1.0
14283.2735091,290784.75,298197.59375,371227.28125,367072.96875,288135.375,258210.578125,224120.421875,246122.578125,0.008544921875,0.994140625,0.188232421875,0.3356933295726776,-2.502441167831421,-1.3732908964157104,80.0,37747.0,1.0
14283.2735103,290812.65625,298112.46875,371236.375,367117.3125,288133.9375,258211.03125,224135.171875,246145.640625,0.009765625,0.992431640625,0.19189453125,0.3662109076976776,-2.563476324081421,-1.4038084745407104,80.0,37748.0,1.0
14283.2735116,290840.46875,298373.375,371411.0,367125.71875,288226.28125,258267.890625,224186.84375,246158.96875,0.009765625,0.993896484375,0.191162109375,0.3967284858226776,-2.563476324081421,-1.3427733182907104,80.0,37749.0,1.0
14283.2751015,290827.5,298611.625,371496.28125,367081.71875,288277.71875,258297.578125,224198.921875,246141.796875,0.010986328125,0.99658203125,0.189697265625,0.2746581733226776,-2.563476324081421,-1.3427733182907104,80.0,37750.0,1.0
14283.2813711,290827.5,298611.625,371496.28125,367081.71875,288277.71875,258297.578125,224198.921875,246141.796875,0.010986328125,0.99658203125,0.189697265625,0.2746581733226776,-2.563476324081421,-1.3427733182907104,80.0,37751.0,0.0
14283.2813752,290827.5,298611.625,371496.28125,367081.71875,288277.71875,258297.578125,224198.921875,246141.796875,0.010986328125,0.99658203125,0.189697265625,0.2746581733226776,-2.563476324081421,-1.3427733182907104,80.0,37752.0,0.0
14283.2813767,290827.5,298611.625,371496.28125,367081.71875,288277.71875,258297.578125,224198.921875,246141.796875,0.010986328125,0.99658203125,0.189697265625,0.2746581733226776,-2.563476324081421,-1.3427733182907104,80.0,37753.0,0.0
14283.2813779,290827.5,298611.625,371496.28125,367081.71875,288277.71875,258297.578125,224198.921875,246141.796875,0.010986328125,0.99658203125,0.189697265625,0.2746581733226776,-2.563476324081421,-1.3427733182907104,80.0,37754.0,0.0
14283.281379,290827.5,298611.625,371496.28125,367081.71875,288277.71875,258297.578125,224198.921875,246141.796875,0.010986328125,0.99658203125,0.189697265625,0.2746581733226776,-2.563476324081421,-1.3427733182907104,80.0,37755.0,0.0
14283.2813801,290827.5,298611.625,371496.28125,367081.71875,288277.71875,258297.578125,224198.921875,246141.796875,0.010986328125,0.99658203125,0.189697265625,0.2746581733226776,-2.563476324081421,-1.3427733182907104,80.0,37756.0,0.0
14283.2813811,290827.5,298611.625,371496.28125,367081.71875,288277.71875,258297.578125,224198.921875,246141.796875,0.010986328125,0.99658203125,0.189697265625,0.2746581733226776,-2.563476324081421,-1.3427733182907104,80.0,37757.0,0.0
14283.2813822,290827.5,298611.625,371496.28125,367081.71875,288277.71875,258297.578125,224198.921875,246141.796875,0.010986328125,0.99658203125,0.189697265625,0.2746581733226776,-2.563476324081421,-1.3427733182907104,80.0,37758.0,0.0
14283.2813832,290827.5,298611.625,371496.28125,367081.71875,288277.71875,258297.578125,224198.921875,246141.796875,0.010986328125,0.99658203125,0.189697265625,0.2746581733226776,-2.563476324081421,-1.3427733182907104,80.0,37759.0,0.0
14283.2813843,290827.5,298611.625,371496.28125,367081.71875,288277.71875,258297.578125,224198.921875,246141.796875,0.010986328125,0.99658203125,0.189697265625,0.2746581733226776,-2.563476324081421,-1.3427733182907104,80.0,37760.0,0.0
14283.2813853,290827.5,298611.625,371496.28125,367081.71875,288277.71875,258297.578125,224198.921875,246141.796875,0.010986328125,0.99658203125,0.189697265625,0.2746581733226776,-2.563476324081421,-1.3427733182907104,80.0,37761.0,0.0
14283.2813869,290827.5,298611.625,371496.28125,367081.71875,288277.71875,258297.578125,224198.921875,246141.796875,0.010986328125,0.99658203125,0.189697265625,0.2746581733226776,-2.563476324081421,-1.3427733182907104,80.0,37762.0,0.0
14283.2813871,290827.5,298611.625,371496.28125,367081.71875,288277.71875,258297.578125,224198.921875,246141.796875,0.010986328125,0.99658203125,0.189697265625,0.2746581733226776,-2.563476324081421,-1.3427733182907104,80.0,37763.0,0.0
14283.2813873,290827.5,298611.625,371496.28125,367081.71875,288277.71875,258297.578125,224198.921875,246141.796875,0.010986328125,0.99658203125,0.189697265625,0.2746581733226776,-2.563476324081421,-1.3427733182907104,80.0,37764.0,0.0
14283.2813875,290827.5,298611.625,371496.28125,367081.71875,288277.71875,258297.578125,224198.921875,246141.796875,0.010986328125,0.99658203125,0.189697265625,0.2746581733226776,-2.563476324081421,-1.3427733182907104,80.0,37765.0,0.0
14283.2813876,290827.5,298611.625,371496.28125,367081.71875,288277.71875,258297.578125,224198.921875,246141.796875,0.010986328125,0.99658203125,0.189697265625,0.2746581733226776,-2.563476324081421,-1.3427733182907104,80.0,37766.0,0.0
14283.2813878,290771.09375,298195.34375,371198.84375,367050.1875,288135.0,258225.875,224129.359375,246119.890625,0.012451171875,0.991943359375,0.1962890625,-0.1220703050494194,-1.6784666776657104,-1.2817381620407104,80.0,37767.0,1.0
14283.2981772,290799.25,298113.375,371208.3125,367090.6875,288131.53125,258218.265625,224140.890625,246140.015625,0.012451171875,0.99169921875,0.1953125,-0.1220703050494194,-1.5563963651657104,-1.2512205839157104,80.0,37768.0,1.0
14283.2981952,290822.0625,298366.65625,371378.09375,367092.375,288215.375,258259.75,224180.59375,246147.703125,0.010498046875,0.99267578125,0.1962890625,-0.0915527269244194,-1.5258787870407104,-1.2207030057907104,80.0,37769.0,1.0
14283.3063498,290808.09375,298597.0625,371451.84375,367050.625,288266.15625,258302.5,224196.046875,246130.453125,0.010986328125,0.9931640625,0.193603515625,-0.1525878757238388,-1.5563963651657104,-1.1596678495407104,80.0,37770.0,1.0
14283.3225806,290775.46875,298491.1875,371340.46875,367021.65625,288215.5625,258276.296875,224165.03125,246116.40625,0.01220703125,0.994140625,0.191162109375,-0.1525878757238388,-1.4953612089157104,-1.1291502714157104,80.0,37771.0,1.0
14283.3400926,290762.5,298176.5,371173.09375,367034.09375,288120.53125,258208.265625,224113.703125,246106.9375,0.011962890625,0.996826171875,0.192626953125,-0.03051757626235485,-1.4038084745407104,-1.0681151151657104,80.0,37772.0,1.0
14283.347583,290792.46875,298095.5,371188.09375,367077.34375,288119.28125,258200.296875,224126.046875,246127.046875,0.010986328125,0.99462890625,0.197998046875,-0.03051757626235485,-1.3427733182907104,-1.0070799589157104,80.0,37773.0,1.0
14283.3638115,290819.53125,298354.59375,371365.21875,367084.78125,288211.09375,258254.65625,224174.421875,246146.625,0.0107421875,0.99365234375,0.19775390625,0.0610351525247097,-1.2817381620407104,-1.1291502714157104,80.0,37774.0,1.0
14283.3775803,290810.5,298596.0,371450.96875,367046.59375,288267.15625,258298.015625,224197.75,246132.765625,0.00927734375,0.996826171875,0.19677734375,0.03051757626235485,-1.1901854276657104,-1.1291502714157104,80.0,37775.0,1.0
14283.4602864,290777.875,298493.4375,371344.75,367017.90625,288219.3125,258279.78125,224172.1875,246119.890625,0.0087890625,0.99609375,0.194580078125,-0.03051757626235485,-1.2817381620407104,-1.0375975370407104,80.0,37776.0,1.0
14283.4603038,290761.875,298181.75,371174.15625,367029.4375,288126.6875,258227.84375,224123.8125,246116.40625,0.00732421875,0.995849609375,0.193603515625,0.0915527269244194,-1.2207030057907104,-1.0375975370407104,80.0,37777.0,1.0
14283.4603051,290784.6875,298095.3125,371184.25,367069.9375,288118.75,258205.671875,224118.625,246128.65625,0.00732421875,0.99462890625,0.191650390625,0.0915527269244194,-1.2512205839157104,-1.0681151151657104,80.0,37778.0,1.0
14283.4603063,290813.90625,298357.4375,371359.59375,367079.6875,288210.1875,258247.421875,224171.28125,246146.453125,0.00830078125,0.99658203125,0.19384765625,0.1220703050494194,-1.2817381620407104,-1.0986326932907104,80.0,37779.0,1.0
14283.4603075,290798.34375,298586.59375,371438.34375,367032.5625,288256.0625,258269.859375,224179.15625,246121.859375,0.010009765625,0.995361328125,0.19287109375,0.1831054538488388,-1.3122557401657104,-1.1291502714157104,80.0,37780.0,1.0
14283.4603089,290766.34375,298481.09375,371325.625,367006.625,288200.625,258242.234375,224139.375,246100.234375,0.010009765625,0.994140625,0.1953125,0.1525878757238388,-1.2817381620407104,-1.0070799589157104,80.0,37781.0,1.0
14283.46031,290754.28125,298173.8125,371156.1875,367014.6875,288110.5,258196.71875,224101.8125,246097.375,0.009033203125,0.994873046875,0.194091796875,0.1220703050494194,-1.3732908964157104,-1.0375975370407104,80.0,37782.0,1.0
14283.4603112,290791.84375,298104.59375,371181.125,367062.5,288123.125,258204.765625,224122.46875,246126.609375,0.010009765625,0.996337890625,0.194091796875,0.0915527269244194,-1.2817381620407104,-0.9765624403953552,80.0,37783.0,1.0
14283.4603124,290816.25,298364.25,371349.9375,367073.5,288215.03125,258260.65625,224180.765625,246151.09375,0.010009765625,0.99658203125,0.19140625,0.1831054538488388,-1.2512205839157104,-0.9765624403953552,80.0,37784.0,1.0
14283.4603135,290804.78125,298598.65625,371430.9375,367032.5625,288268.40625,258297.9375,224201.953125,246133.046875,0.0087890625,0.997802734375,0.193603515625,0.2136230319738388,-1.2512205839157104,-0.9155272841453552,80.0,37785.0,1.0
14283.4603147,290773.3125,298499.6875,371332.0625,367004.84375,288218.0625,258256.8125,224153.40625,246108.984375,0.0078125,0.998046875,0.197021484375,0.1831054538488388,-1.3122557401657104,-0.9460448622703552,80.0,37786.0,1.0
14283.460316,290758.21875,298188.125,371164.9375,367018.6875,288123.9375,258196.015625,224104.5,246107.828125,0.00927734375,0.9990234375,0.194091796875,0.1525878757238388,-1.3732908964157104,-0.7934569716453552,80.0,37787.0,1.0
14283.4603171,290793.34375,298109.25,371177.5625,367069.03125,288129.125,258210.671875,224127.03125,246138.21875,0.010009765625,0.998779296875,0.196044921875,0.1831054538488388,-1.3732908964157104,-0.7934569716453552,80.0,37788.0,1.0
14283.4603183,290828.65625,298380.0625,371361.75,367082.0,288225.40625,258266.734375,224181.21875,246153.78125,0.009521484375,0.997314453125,0.1982421875,0.1525878757238388,-1.4038084745407104,-0.8239745497703552,80.0,37789.0,1.0
14283.4603195,290817.3125,298620.03125,371451.78125,367039.25,288278.5,258299.1875,224197.125,246131.15625,0.009521484375,0.998779296875,0.1953125,-0.03051757626235485,-1.4343260526657104,-0.7019042372703552,80.0,37790.0,1.0
14283.4603207,290784.3125,298511.9375,371344.375,367014.40625,288232.71875,258278.359375,224173.609375,246135.984375,0.009765625,1.00048828125,0.196044921875,0.03051757626235485,-1.2817381620407104,-0.6713866591453552,80.0,37791.0,1.0
14283.4768859,290764.28125,298191.0625,371167.28125,367015.75,288131.78125,258209.78125,224113.625,246109.4375,0.008056640625,0.9970703125,0.19580078125,0.03051757626235485,-1.2817381620407104,-0.6713866591453552,80.0,37792.0,1.0
14283.4769068,290796.9375,298105.9375,371173.4375,367059.75,288129.03125,258207.90625,224117.46875,246123.03125,0.008056640625,0.99755859375,0.198486328125,-0.03051757626235485,-1.2817381620407104,-0.6103515028953552,80.0,37793.0,1.0
14283.4938159,290818.21875,298359.59375,371338.3125,367062.5,288213.59375,258259.671875,224164.765625,246133.671875,0.00732421875,0.996826171875,0.197021484375,-0.03051757626235485,-1.2817381620407104,-0.7019042372703552,80.0,37794.0,1.0
14283.5173145,290800.59375,298588.5625,371416.53125,367015.9375,288257.125,258282.109375,224175.3125,246107.5625,0.00830078125,0.995361328125,0.1953125,-0.03051757626235485,-1.2817381620407104,-0.7629393935203552,80.0,37795.0,1.0
14283.5173345,290776.0,298488.15625,371316.21875,366993.65625,288210.1875,258255.640625,224150.8125,246100.765625,0.007568359375,0.9951171875,0.190673828125,0.0,-1.3122557401657104,-0.6408690810203552,80.0,37796.0,1.0
14283.5173358,290767.6875,298177.75,371149.5625,367014.40625,288122.9375,258207.8125,224117.015625,246109.4375,0.008544921875,0.995361328125,0.19384765625,0.0,-1.4343260526657104,-0.7019042372703552,80.0,37797.0,1.0
14283.5173372,290793.15625,298095.9375,371161.71875,367057.9375,288125.53125,258210.40625,224133.296875,246133.9375,0.008544921875,0.995849609375,0.195556640625,0.0915527269244194,-1.4648436307907104,-0.7629393935203552,80.0,37798.0,1.0
14283.5173384,290821.0625,298358.34375,371346.0,367068.84375,288219.3125,258252.6875,224171.921875,246144.21875,0.0107421875,0.994873046875,0.197021484375,0.1220703050494194,-1.5258787870407104,-0.7934569716453552,80.0,37799.0,1.0
14283.5187956,290808.1875,298596.4375,371423.78125,367024.6875,288262.875,258272.90625,224173.25,246117.65625,0.010009765625,0.994873046875,0.20068359375,0.03051757626235485,-1.5563963651657104,-0.8850097060203552,80.0,37800.0,1.0
14283.5238112,290780.90625,298496.375,371316.6875,367001.1875,288215.9375,258262.625,224152.515625,246112.828125,0.01025390625,0.994873046875,0.198486328125,0.0,-1.5258787870407104,-0.8544921278953552,80.0,37801.0,1.0
14283.5281858,290775.90625,298195.8125,371156.8125,367025.6875,288141.4375,258229.71875,224134.625,246129.015625,0.01171875,0.993896484375,0.1962890625,0.0610351525247097,-1.5258787870407104,-0.7934569716453552,80.0,37802.0,1.0
14283.5282006,290806.59375,298120.59375,371176.75,367066.71875,288146.46875,258223.8125,224137.3125,246136.4375,0.01220703125,0.994384765625,0.19482421875,0.1525878757238388,-1.5258787870407104,-0.8544921278953552,80.0,37803.0,1.0
14283.5346841,290828.21875,298367.71875,371343.75,367068.6875,288228.09375,258254.125,224168.0625,246137.59375,0.01123046875,0.993408203125,0.19775390625,0.1220703050494194,-1.5258787870407104,-0.7324218153953552,80.0,37804.0,1.0
14283.5346912,290828.21875,298367.71875,371343.75,367068.6875,288228.09375,258254.125,224168.0625,246137.59375,0.01123046875,0.993408203125,0.19775390625,0.1220703050494194,-1.5258787870407104,-0.7324218153953552,80.0,37805.0,0.0
14283.5346914,290828.21875,298367.71875,371343.75,367068.6875,288228.09375,258254.125,224168.0625,246137.59375,0.01123046875,0.993408203125,0.19775390625,0.1220703050494194,-1.5258787870407104,-0.7324218153953552,80.0,37806.0,0.0
14283.5346916,290828.21875,298367.71875,371343.75,367068.6875,288228.09375,258254.125,224168.0625,246137.59375,0.01123046875,0.993408203125,0.19775390625,0.1220703050494194,-1.5258787870407104,-0.7324218153953552,80.0,37807.0,0.0
14283.5346918,290828.21875,298367.71875,371343.75,367068.6875,288228.09375,258254.125,224168.0625,246137.59375,0.01123046875,0.993408203125,0.19775390625,0.1220703050494194,-1.5258787870407104,-0.7324218153953552,80.0,37808.0,0.0
14283.534692,290828.21875,298367.71875,371343.75,367068.6875,288228.09375,258254.125,224168.0625,246137.59375,0.01123046875,0.993408203125,0.19775390625,0.1220703050494194,-1.5258787870407104,-0.7324218153953552,80.0,37809.0,0.0
14283.5346922,290828.21875,298367.71875,371343.75,367068.6875,288228.09375,258254.125,224168.0625,246137.59375,0.01123046875,0.993408203125,0.19775390625,0.1220703050494194,-1.5258787870407104,-0.7324218153953552,80.0,37810.0,0.0
14283.5346923,290828.21875,298367.71875,371343.75,367068.6875,288228.09375,258254.125,224168.0625,246137.59375,0.01123046875,0.993408203125,0.19775390625,0.1220703050494194,-1.5258787870407104,-0.7324218153953552,80.0,37811.0,0.0
14283.5346925,290828.21875,298367.71875,371343.75,367068.6875,288228.09375,258254.125,224168.0625,246137.59375,0.01123046875,0.993408203125,0.19775390625,0.1220703050494194,-1.5258787870407104,-0.7324218153953552,80.0,37812.0,0.0
14283.5346927,290828.21875,298367.71875,371343.75,367068.6875,288228.09375,258254.125,224168.0625,246137.59375,0.01123046875,0.993408203125,0.19775390625,0.1220703050494194,-1.5258787870407104,-0.7324218153953552,80.0,37813.0,0.0
14283.5346929,290828.21875,298367.71875,371343.75,367068.6875,288228.09375,258254.125,224168.0625,246137.59375,0.01123046875,0.993408203125,0.19775390625,0.1220703050494194,-1.5258787870407104,-0.7324218153953552,80.0,37814.0,0.0
14283.5346931,290828.21875,298367.71875,371343.75,367068.6875,288228.09375,258254.125,224168.0625,246137.59375,0.01123046875,0.993408203125,0.19775390625,0.1220703050494194,-1.5258787870407104,-0.7324218153953552,80.0,37815.0,0.0
14283.5346932,290828.21875,298367.71875,371343.75,367068.6875,288228.09375,258254.125,224168.0625,246137.59375,0.01123046875,0.993408203125,0.19775390625,0.1220703050494194,-1.5258787870407104,-0.7324218153953552,80.0,37816.0,0.0
14283.5346934,290828.21875,298367.71875,371343.75,367068.6875,288228.09375,258254.125,224168.0625,246137.59375,0.01123046875,0.993408203125,0.19775390625,0.1220703050494194,-1.5258787870407104,-0.7324218153953552,80.0,37817.0,0.0
14283.5346936,290828.21875,298367.71875,371343.75,367068.6875,288228.09375,258254.125,224168.0625,246137.59375,0.01123046875,0.993408203125,0.19775390625,0.1220703050494194,-1.5258787870407104,-0.7324218153953552,80.0,37818.0,0.0
14283.5346937,290828.21875,298367.71875,371343.75,367068.6875,288228.09375,258254.125,224168.0625,246137.59375,0.01123046875,0.993408203125,0.19775390625,0.1220703050494194,-1.5258787870407104,-0.7324218153953552,80.0,37819.0,0.0
14283.5346939,290828.21875,298367.71875,371343.75,367068.6875,288228.09375,258254.125,224168.0625,246137.59375,0.01123046875,0.993408203125,0.19775390625,0.1220703050494194,-1.5258787870407104,-0.7324218153953552,80.0,37820.0,0.0
14283.5346941,290828.21875,298367.71875,371343.75,367068.6875,288228.09375,258254.125,224168.0625,246137.59375,0.01123046875,0.993408203125,0.19775390625,0.1220703050494194,-1.5258787870407104,-0.7324218153953552,80.0,37821.0,0.0
14283.5346943,290828.21875,298367.71875,371343.75,367068.6875,288228.09375,258254.125,224168.0625,246137.59375,0.01123046875,0.993408203125,0.19775390625,0.1220703050494194,-1.5258787870407104,-0.7324218153953552,80.0,37822.0,0.0
14283.5346945,290828.21875,298367.71875,371343.75,367068.6875,288228.09375,258254.125,224168.0625,246137.59375,0.01123046875,0.993408203125,0.19775390625,0.1220703050494194,-1.5258787870407104,-0.7324218153953552,80.0,37823.0,0.0
14283.5346947,290828.21875,298367.71875,371343.75,367068.6875,288228.09375,258254.125,224168.0625,246137.59375,0.01123046875,0.993408203125,0.19775390625,0.1220703050494194,-1.5258787870407104,-0.7324218153953552,80.0,37824.0,0.0
14283.5346948,290828.21875,298367.71875,371343.75,367068.6875,288228.09375,258254.125,224168.0625,246137.59375,0.01123046875,0.993408203125,0.19775390625,0.1220703050494194,-1.5258787870407104,-0.7324218153953552,80.0,37825.0,0.0
14283.534695,290828.21875,298367.71875,371343.75,367068.6875,288228.09375,258254.125,224168.0625,246137.59375,0.01123046875,0.993408203125,0.19775390625,0.1220703050494194,-1.5258787870407104,-0.7324218153953552,80.0,37826.0,0.0
14283.5346952,290828.21875,298367.71875,371343.75,367068.6875,288228.09375,258254.125,224168.0625,246137.59375,0.01123046875,0.993408203125,0.19775390625,0.1220703050494194,-1.5258787870407104,-0.7324218153953552,80.0,37827.0,0.0
14283.5346954,290828.21875,298367.71875,371343.75,367068.6875,288228.09375,258254.125,224168.0625,246137.59375,0.01123046875,0.993408203125,0.19775390625,0.1220703050494194,-1.5258787870407104,-0.7324218153953552,80.0,37828.0,0.0
14283.5346955,290828.21875,298367.71875,371343.75,367068.6875,288228.09375,258254.125,224168.0625,246137.59375,0.01123046875,0.993408203125,0.19775390625,0.1220703050494194,-1.5258787870407104,-0.7324218153953552,80.0,37829.0,0.0
14283.5346957,290828.21875,298367.71875,371343.75,367068.6875,288228.09375,258254.125,224168.0625,246137.59375,0.01123046875,0.993408203125,0.19775390625,0.1220703050494194,-1.5258787870407104,-0.7324218153953552,80.0,37830.0,0.0
14283.5346959,290784.40625,298502.1875,371296.375,366974.625,288226.75,258269.6875,224170.21875,246119.265625,0.010498046875,0.99951171875,0.195068359375,0.3967284858226776,-1.4648436307907104,-0.8544921278953552,80.0,37831.0,1.0
14283.5346972,290768.9375,298179.96875,371117.75,366986.6875,288129.5625,258218.8125,224126.234375,246114.890625,0.009765625,0.998291015625,0.193359375,0.3051757514476776,-1.5563963651657104,-0.9765624403953552,80.0,37832.0,1.0
14283.5346985,290808.28125,298116.3125,371144.5625,367038.8125,288140.65625,258229.890625,224142.765625,246139.484375,0.009521484375,0.999755859375,0.19091796875,0.1220703050494194,-1.4648436307907104,-1.0986326932907104,80.0,37833.0,1.0
14283.5346999,290840.28125,298381.78125,371324.8125,367052.125,288233.625,258290.15625,224196.5,246154.953125,0.009765625,1.000244140625,0.19140625,0.0915527269244194,-1.5258787870407104,-1.0681151151657104,80.0,37834.0,1.0
14283.5362878,290825.0,298613.59375,371402.875,367002.6875,288273.5,258301.0625,224199.0,246129.90625,0.010986328125,1.00244140625,0.1865234375,0.1220703050494194,-1.6784666776657104,-1.1901854276657104,80.0,37835.0,1.0
14283.5388131,290790.84375,298497.375,371283.3125,366970.875,288219.9375,258272.8125,224173.53125,246127.59375,0.01220703125,1.003173828125,0.194091796875,0.0,-1.7089842557907104,-1.2207030057907104,80.0,37836.0,1.0
14283.543755,290781.71875,298190.0,371116.3125,366986.34375,288136.0,258239.546875,224141.6875,246123.65625,0.01416015625,1.001708984375,0.19921875,0.0,-1.6479490995407104,-1.0986326932907104,80.0,37837.0,1.0
14283.5437576,290814.34375,298112.90625,371132.3125,367034.25,288140.65625,258239.8125,224155.640625,246147.609375,0.013427734375,0.999267578125,0.199462890625,0.0,-1.7700194120407104,-1.1596678495407104,80.0,37838.0,1.0
14283.5437589,290839.46875,298372.65625,371306.65625,367037.9375,288224.3125,258267.359375,224188.8125,246151.640625,0.01318359375,0.997314453125,0.198974609375,-0.0915527269244194,-1.7395018339157104,-1.0375975370407104,80.0,37839.0,1.0
14283.5463487,290818.84375,298609.9375,371399.375,366988.75,288271.0,258291.40625,224192.390625,246112.03125,0.01318359375,0.997314453125,0.19677734375,-0.1831054538488388,-1.6479490995407104,-1.0375975370407104,80.0,37840.0,1.0
14283.5488207,290787.71875,298509.71875,371301.90625,366968.0,288226.28125,258264.3125,224163.6875,246108.546875,0.013916015625,0.994873046875,0.1943359375,-0.2136230319738388,-1.6784666776657104,-0.9460448622703552,80.0,37841.0,1.0
14283.5613442,290777.78125,298198.5625,371130.96875,366985.71875,288135.09375,258217.640625,224123.09375,246111.3125,0.011474609375,0.9970703125,0.197021484375,-0.1220703050494194,-1.6784666776657104,-1.0070799589157104,80.0,37842.0,1.0
14283.5688294,290807.5625,298108.4375,371130.25,367034.4375,288132.25,258236.515625,224143.65625,246132.859375,0.011474609375,0.995361328125,0.196044921875,-0.1525878757238388,-1.7089842557907104,-0.8544921278953552,80.0,37843.0,1.0
14283.6564056,290836.1875,298370.59375,371304.15625,367040.34375,288224.5,258288.28125,224189.609375,246145.828125,0.010498046875,0.99462890625,0.1962890625,-0.2441406100988388,-1.7395018339157104,-0.9155272841453552,80.0,37844.0,1.0
14283.6713606,290813.03125,298595.71875,371371.40625,366984.71875,288261.875,258284.078125,224182.46875,246126.96875,0.010498046875,0.994873046875,0.196533203125,-0.2441406100988388,-1.7395018339157104,-0.8544921278953552,80.0,37845.0,1.0
14283.6812624,290780.5625,298498.09375,371267.6875,366955.65625,288214.5,258246.4375,224146.515625,246112.65625,0.0107421875,0.99267578125,0.1982421875,-0.2136230319738388,-1.8920897245407104,-0.7629393935203552,80.0,37846.0,1.0
14283.6812666,290771.4375,298188.75,371097.34375,366973.71875,288125.96875,258209.0625,224113.796875,246116.40625,0.0126953125,0.991943359375,0.198486328125,-0.1220703050494194,-1.8615721464157104,-0.6713866591453552,80.0,37847.0,1.0
14283.6812681,290804.96875,298106.46875,371107.46875,367019.59375,288126.875,258221.578125,224132.671875,246129.375,0.009765625,0.990966796875,0.19873046875,-0.2136230319738388,-1.8615721464157104,-0.5798339247703552,80.0,37848.0,1.0
14283.7231714,290834.75,298376.5,371291.5625,367031.21875,288223.875,258276.921875,224183.0,246138.9375,0.010009765625,0.991455078125,0.197265625,-0.1525878757238388,-1.9531248807907104,-0.5798339247703552,80.0,37849.0,1.0
14283.7231783,290834.75,298376.5,371291.5625,367031.21875,288223.875,258276.921875,224183.0,246138.9375,0.010009765625,0.991455078125,0.197265625,-0.1525878757238388,-1.9531248807907104,-0.5798339247703552,80.0,37850.0,0.0
14283.7231785,290834.75,298376.5,371291.5625,367031.21875,288223.875,258276.921875,224183.0,246138.9375,0.010009765625,0.991455078125,0.197265625,-0.1525878757238388,-1.9531248807907104,-0.5798339247703552,80.0,37851.0,0.0
14283.7231787,290834.75,298376.5,371291.5625,367031.21875,288223.875,258276.921875,224183.0,246138.9375,0.010009765625,0.991455078125,0.197265625,-0.1525878757238388,-1.9531248807907104,-0.5798339247703552,80.0,37852.0,0.0
14283.7231789,290834.75,298376.5,371291.5625,367031.21875,288223.875,258276.921875,224183.0,246138.9375,0.010009765625,0.991455078125,0.197265625,-0.1525878757238388,-1.9531248807907104,-0.5798339247703552,80.0,37853.0,0.0
14283.7231791,290834.75,298376.5,371291.5625,367031.21875,288223.875,258276.921875,224183.0,246138.9375,0.010009765625,0.991455078125,0.197265625,-0.1525878757238388,-1.9531248807907104,-0.5798339247703552,80.0,37854.0,0.0
14283.7231793,290834.75,298376.5,371291.5625,367031.21875,288223.875,258276.921875,224183.0,246138.9375,0.010009765625,0.991455078125,0.197265625,-0.1525878757238388,-1.9531248807907104,-0.5798339247703552,80.0,37855.0,0.0
14283.7231795,290834.75,298376.5,371291.5625,367031.21875,288223.875,258276.921875,224183.0,246138.9375,0.010009765625,0.991455078125,0.197265625,-0.1525878757238388,-1.9531248807907104,-0.5798339247703552,80.0,37856.0,0.0
14283.7231797,290834.75,298376.5,371291.5625,367031.21875,288223.875,258276.921875,224183.0,246138.9375,0.010009765625,0.991455078125,0.197265625,-0.1525878757238388,-1.9531248807907104,-0.5798339247703552,80.0,37857.0,0.0
14283.7231798,290834.75,298376.5,371291.5625,367031.21875,288223.875,258276.921875,224183.0,246138.9375,0.010009765625,0.991455078125,0.197265625,-0.1525878757238388,-1.9531248807907104,-0.5798339247703552,80.0,37858.0,0.0
14283.72318,290834.75,298376.5,371291.5625,367031.21875,288223.875,258276.921875,224183.0,246138.9375,0.010009765625,0.991455078125,0.197265625,-0.1525878757238388,-1.9531248807907104,-0.5798339247703552,80.0,37859.0,0.0
14283.7231802,290834.75,298376.5,371291.5625,367031.21875,288223.875,258276.921875,224183.0,246138.9375,0.010009765625,0.991455078125,0.197265625,-0.1525878757238388,-1.9531248807907104,-0.5798339247703552,80.0,37860.0,0.0
14283.7231804,290834.75,298376.5,371291.5625,367031.21875,288223.875,258276.921875,224183.0,246138.9375,0.010009765625,0.991455078125,0.197265625,-0.1525878757238388,-1.9531248807907104,-0.5798339247703552,80.0,37861.0,0.0
14283.7231805,290834.75,298376.5,371291.5625,367031.21875,288223.875,258276.921875,224183.0,246138.9375,0.010009765625,0.991455078125,0.197265625,-0.1525878757238388,-1.9531248807907104,-0.5798339247703552,80.0,37862.0,0.0
14283.7231807,290834.75,298376.5,371291.5625,367031.21875,288223.875,258276.921875,224183.0,246138.9375,0.010009765625,0.991455078125,0.197265625,-0.1525878757238388,-1.9531248807907104,-0.5798339247703552,80.0,37863.0,0.0
14283.7231809,290834.75,298376.5,371291.5625,367031.21875,288223.875,258276.921875,224183.0,246138.9375,0.010009765625,0.991455078125,0.197265625,-0.1525878757238388,-1.9531248807907104,-0.5798339247703552,80.0,37864.0,0.0
14283.7231811,290834.75,298376.5,371291.5625,367031.21875,288223.875,258276.921875,224183.0,246138.9375,0.010009765625,0.991455078125,0.197265625,-0.1525878757238388,-1.9531248807907104,-0.5798339247703552,80.0,37865.0,0.0
14283.7231812,290834.75,298376.5,371291.5625,367031.21875,288223.875,258276.921875,224183.0,246138.9375,0.010009765625,0.991455078125,0.197265625,-0.1525878757238388,-1.9531248807907104,-0.5798339247703552,80.0,37866.0,0.0
14283.7231814,290834.75,298376.5,371291.5625,367031.21875,288223.875,258276.921875,224183.0,246138.9375,0.010009765625,0.991455078125,0.197265625,-0.1525878757238388,-1.9531248807907104,-0.5798339247703552,80.0,37867.0,0.0
14283.7231816,290834.75,298376.5,371291.5625,367031.21875,288223.875,258276.921875,224183.0,246138.9375,0.010009765625,0.991455078125,0.197265625,-0.1525878757238388,-1.9531248807907104,-0.5798339247703552,80.0,37868.0,0.0
14283.7231817,290834.75,298376.5,371291.5625,367031.21875,288223.875,258276.921875,224183.0,246138.9375,0.010009765625,0.991455078125,0.197265625,-0.1525878757238388,-1.9531248807907104,-0.5798339247703552,80.0,37869.0,0.0
14283.7231819,290834.75,298376.5,371291.5625,367031.21875,288223.875,258276.921875,224183.0,246138.9375,0.010009765625,0.991455078125,0.197265625,-0.1525878757238388,-1.9531248807907104,-0.5798339247703552,80.0,37870.0,0.0
14283.7231821,290834.75,298376.5,371291.5625,367031.21875,288223.875,258276.921875,224183.0,246138.9375,0.010009765625,0.991455078125,0.197265625,-0.1525878757238388,-1.9531248807907104,-0.5798339247703552,80.0,37871.0,0.0
14283.7231823,290834.75,298376.5,371291.5625,367031.21875,288223.875,258276.921875,224183.0,246138.9375,0.010009765625,0.991455078125,0.197265625,-0.1525878757238388,-1.9531248807907104,-0.5798339247703552,80.0,37872.0,0.0
14283.7231824,290834.75,298376.5,371291.5625,367031.21875,288223.875,258276.921875,224183.0,246138.9375,0.010009765625,0.991455078125,0.197265625,-0.1525878757238388,-1.9531248807907104,-0.5798339247703552,80.0,37873.0,0.0
14283.7231826,290834.75,298376.5,371291.5625,367031.21875,288223.875,258276.921875,224183.0,246138.9375,0.010009765625,0.991455078125,0.197265625,-0.1525878757238388,-1.9531248807907104,-0.5798339247703552,80.0,37874.0,0.0
14283.7231828,290834.75,298376.5,371291.5625,367031.21875,288223.875,258276.921875,224183.0,246138.9375,0.010009765625,0.991455078125,0.197265625,-0.1525878757238388,-1.9531248807907104,-0.5798339247703552,80.0,37875.0,0.0
14283.7231829,290834.75,298376.5,371291.5625,367031.21875,288223.875,258276.921875,224183.0,246138.9375,0.010009765625,0.991455078125,0.197265625,-0.1525878757238388,-1.9531248807907104,-0.5798339247703552,80.0,37876.0,0.0
14283.7231831,290834.75,298376.5,371291.5625,367031.21875,288223.875,258276.921875,224183.0,246138.9375,0.010009765625,0.991455078125,0.197265625,-0.1525878757238388,-1.9531248807907104,-0.5798339247703552,80.0,37877.0,0.0
14283.7231833,290834.75,298376.5,371291.5625,367031.21875,288223.875,258276.921875,224183.0,246138.9375,0.010009765625,0.991455078125,0.197265625,-0.1525878757238388,-1.9531248807907104,-0.5798339247703552,80.0,37878.0,0.0
14283.7231835,290834.75,298376.5,371291.5625,367031.21875,288223.875,258276.921875,224183.0,246138.9375,0.010009765625,0.991455078125,0.197265625,-0.1525878757238388,-1.9531248807907104,-0.5798339247703552,80.0,37879.0,0.0
14283.7231836,290834.75,298376.5,371291.5625,367031.21875,288223.875,258276.921875,224183.0,246138.9375,0.010009765625,0.991455078125,0.197265625,-0.1525878757238388,-1.9531248807907104,-0.5798339247703552,80.0,37880.0,0.0
14283.7231838,290834.75,298376.5,371291.5625,367031.21875,288223.875,258276.921875,224183.0,246138.9375,0.010009765625,0.991455078125,0.197265625,-0.1525878757238388,-1.9531248807907104,-0.5798339247703552,80.0,37881.0,0.0
14283.723184,290834.75,298376.5,371291.5625,367031.21875,288223.875,258276.921875,224183.0,246138.9375,0.010009765625,0.991455078125,0.197265625,-0.1525878757238388,-1.9531248807907104,-0.5798339247703552,80.0,37882.0,0.0
14283.7231842,290834.75,298376.5,371291.5625,367031.21875,288223.875,258276.921875,224183.0,246138.9375,0.010009765625,0.991455078125,0.197265625,-0.1525878757238388,-1.9531248807907104,-0.5798339247703552,80.0,37883.0,0.0
14283.7231844,290834.75,298376.5,371291.5625,367031.21875,288223.875,258276.921875,224183.0,246138.9375,0.010009765625,0.991455078125,0.197265625,-0.1525878757238388,-1.9531248807907104,-0.5798339247703552,80.0,37884.0,0.0
14283.7231847,290834.75,298376.5,371291.5625,367031.21875,288223.875,258276.921875,224183.0,246138.9375,0.010009765625,0.991455078125,0.197265625,-0.1525878757238388,-1.9531248807907104,-0.5798339247703552,80.0,37885.0,0.0
14283.7231849,290834.75,298376.5,371291.5625,367031.21875,288223.875,258276.921875,224183.0,246138.9375,0.010009765625,0.991455078125,0.197265625,-0.1525878757238388,-1.9531248807907104,-0.5798339247703552,80.0,37886.0,0.0
14283.7231851,290834.75,298376.5,371291.5625,367031.21875,288223.875,258276.921875,224183.0,246138.9375,0.010009765625,0.991455078125,0.197265625,-0.1525878757238388,-1.9531248807907104,-0.5798339247703552,80.0,37887.0,0.0
14283.7231853,290834.75,298376.5,371291.5625,367031.21875,288223.875,258276.921875,224183.0,246138.9375,0.010009765625,0.991455078125,0.197265625,-0.1525878757238388,-1.9531248807907104,-0.5798339247703552,80.0,37888.0,0.0
14283.7231854,290834.75,298376.5,371291.5625,367031.21875,288223.875,258276.921875,224183.0,246138.9375,0.010009765625,0.991455078125,0.197265625,-0.1525878757238388,-1.9531248807907104,-0.5798339247703552,80.0,37889.0,0.0
14283.7231856,290834.75,298376.5,371291.5625,367031.21875,288223.875,258276.921875,224183.0,246138.9375,0.010009765625,0.991455078125,0.197265625,-0.1525878757238388,-1.9531248807907104,-0.5798339247703552,80.0,37890.0,0.0
14283.7231858,290834.75,298376.5,371291.5625,367031.21875,288223.875,258276.921875,224183.0,246138.9375,0.010009765625,0.991455078125,0.197265625,-0.1525878757238388,-1.9531248807907104,-0.5798339247703552,80.0,37891.0,0.0
14283.723186,290834.75,298376.5,371291.5625,367031.21875,288223.875,258276.921875,224183.0,246138.9375,0.010009765625,0.991455078125,0.197265625,-0.1525878757238388,-1.9531248807907104,-0.5798339247703552,80.0,37892.0,0.0
14283.7231861,290834.75,298376.5,371291.5625,367031.21875,288223.875,258276.921875,224183.0,246138.9375,0.010009765625,0.991455078125,0.197265625,-0.1525878757238388,-1.9531248807907104,-0.5798339247703552,80.0,37893.0,0.0
14283.7231863,290834.75,298376.5,371291.5625,367031.21875,288223.875,258276.921875,224183.0,246138.9375,0.010009765625,0.991455078125,0.197265625,-0.1525878757238388,-1.9531248807907104,-0.5798339247703552,80.0,37894.0,0.0
14283.7231865,290834.75,298376.5,371291.5625,367031.21875,288223.875,258276.921875,224183.0,246138.9375,0.010009765625,0.991455078125,0.197265625,-0.1525878757238388,-1.9531248807907104,-0.5798339247703552,80.0,37895.0,0.0
14283.7231866,290834.75,298376.5,371291.5625,367031.21875,288223.875,258276.921875,224183.0,246138.9375,0.010009765625,0.991455078125,0.197265625,-0.1525878757238388,-1.9531248807907104,-0.5798339247703552,80.0,37896.0,0.0
14283.7231868,290728.34375,298157.53125,371050.25,366909.1875,288116.78125,258203.609375,224103.609375,246108.28125,0.01416015625,0.996337890625,0.190185546875,0.5187987685203552,-1.2817381620407104,-0.7629393935203552,80.0,37897.0,1.0
14283.7694415,290751.25,298065.09375,371050.6875,366946.0,288107.46875,258185.546875,224104.328125,246117.484375,0.014404296875,0.99755859375,0.191650390625,0.5187987685203552,-1.4038084745407104,-0.7324218153953552,80.0,37898.0,1.0
14283.7694486,290784.84375,298330.34375,371229.3125,366951.1875,288193.5625,258246.34375,224136.6875,246087.0,0.01611328125,0.99755859375,0.194091796875,0.4577636420726776,-1.4343260526657104,-0.8544921278953552,80.0,37899.0,1.0
14283.7850448,290771.625,298569.53125,371313.28125,366906.5,288239.09375,258260.03125,224136.953125,246071.625,0.015380859375,0.9970703125,0.193359375,0.2746581733226776,-1.5258787870407104,-0.8850097060203552,80.0,37900.0,1.0
14283.7850648,290735.9375,298460.09375,371198.5625,366875.125,288181.9375,258219.34375,224095.46875,246057.484375,0.01513671875,0.99609375,0.194091796875,0.1220703050494194,-1.5258787870407104,-1.0070799589157104,80.0,37901.0,1.0
14283.7850661,290729.15625,298152.09375,371031.28125,366904.09375,288101.125,258195.390625,224076.96875,246070.015625,0.01611328125,0.994873046875,0.196044921875,0.0915527269244194,-1.4038084745407104,-0.8544921278953552,80.0,37902.0,1.0
14283.7969315,290759.65625,298062.125,371040.75,366940.28125,288099.0625,258195.828125,224089.65625,246078.0625,0.014404296875,0.99462890625,0.194091796875,0.0915527269244194,-1.4343260526657104,-0.7629393935203552,80.0,37903.0,1.0
14283.7969502,290793.78125,298328.21875,371219.5625,366947.09375,288188.9375,258233.109375,224130.875,246091.640625,0.014892578125,0.994873046875,0.194580078125,0.0610351525247097,-1.4038084745407104,-0.7629393935203552,80.0,37904.0,1.0
14283.8006937,290787.8125,298580.96875,371320.25,366913.5625,288250.96875,258273.34375,224157.515625,246087.71875,0.014892578125,0.994873046875,0.19189453125,0.1525878757238388,-1.5258787870407104,-0.6408690810203552,80.0,37905.0,1.0
14283.8007063,290755.875,298477.875,371212.96875,366881.90625,288201.875,258246.53125,224130.609375,246075.375,0.013427734375,0.99658203125,0.191162109375,0.1220703050494194,-1.4953612089157104,-0.7324218153953552,80.0,37906.0,1.0
14283.8025482,290738.53125,298153.40625,371030.5625,366890.3125,288100.21875,258186.890625,224078.484375,246071.703125,0.0126953125,0.995849609375,0.1962890625,0.1220703050494194,-1.5258787870407104,-0.6713866591453552,80.0,37907.0,1.0
14283.8051169,290761.34375,298056.78125,371024.5,366927.3125,288087.90625,258176.34375,224078.75,246080.734375,0.010986328125,0.99609375,0.196044921875,0.1525878757238388,-1.7395018339157104,-0.6713866591453552,80.0,37908.0,1.0
14283.8076079,290792.0,298321.0625,371200.625,366935.375,288178.46875,258234.546875,224129.984375,246086.8125,0.010498046875,0.9951171875,0.193359375,0.3051757514476776,-1.7089842557907104,-0.5493163466453552,80.0,37909.0,1.0
14283.8150465,290784.125,298574.25,371300.03125,366904.0,288240.59375,258268.25,224154.21875,246084.578125,0.0087890625,0.99560546875,0.189453125,0.1220703050494194,-1.8920897245407104,-0.6103515028953552,80.0,37910.0,1.0
14283.8150603,290759.03125,298485.9375,371209.03125,366883.0625,288202.78125,258253.140625,224132.03125,246078.953125,0.008056640625,0.99658203125,0.19091796875,0.1525878757238388,-1.9836424589157104,-0.6103515028953552,80.0,37911.0,1.0
14283.815066,290748.09375,298179.625,371046.65625,366898.4375,288114.09375,258203.703125,224090.46875,246074.921875,0.008544921875,0.994140625,0.190673828125,0.1220703050494194,-2.166747808456421,-0.6103515028953552,80.0,37912.0,1.0
14283.8150672,290776.8125,298091.90625,371062.125,366944.21875,288115.34375,258193.59375,224097.703125,246093.703125,0.010986328125,0.994384765625,0.1904296875,0.0915527269244194,-2.227782964706421,-0.7629393935203552,80.0,37913.0,1.0
14283.8150685,290798.25,298338.03125,371220.28125,366945.84375,288196.78125,258234.546875,224139.8125,246114.0,0.009765625,0.994873046875,0.190185546875,0.2136230319738388,-2.563476324081421,-0.7934569716453552,80.0,37914.0,1.0
14283.8150696,290774.65625,298563.1875,371289.21875,366891.75,288235.3125,258245.90625,224148.125,246088.609375,0.011474609375,0.996826171875,0.191162109375,0.2746581733226776,-2.563476324081421,-0.8850097060203552,80.0,37915.0,1.0
14283.8150708,290733.1875,298446.0625,371164.0625,366851.96875,288171.5,258209.953125,224102.4375,246048.109375,0.0126953125,0.995361328125,0.193359375,0.1525878757238388,-2.655029058456421,-0.8544921278953552,80.0,37916.0,1.0
14283.8150721,290723.6875,298134.8125,370992.9375,366876.375,288087.34375,258174.640625,224076.34375,246063.296875,0.013427734375,0.995361328125,0.19091796875,0.0610351525247097,-2.746581792831421,-0.9155272841453552,80.0,37917.0,1.0
14283.8176142,290763.3125,298061.34375,371014.46875,366932.5,288100.21875,258184.46875,224101.375,246100.5,0.0146484375,0.997802734375,0.193115234375,-0.0610351525247097,-2.929687261581421,-0.8544921278953552,80.0,37918.0,1.0
14283.8201109,290797.1875,298324.375,371200.90625,366938.15625,288190.71875,258232.21875,224130.15625,246085.03125,0.013916015625,0.999755859375,0.193359375,-0.0915527269244194,-2.990722417831421,-0.9460448622703552,80.0,37919.0,1.0
14283.8226128,290785.21875,298574.25,371294.3125,366896.3125,288244.53125,258256.8125,224147.859375,246077.875,0.013671875,0.999267578125,0.195556640625,-0.1525878757238388,-3.021239995956421,-0.9460448622703552,80.0,37920.0,1.0
14283.8741645,290747.40625,298466.6875,371189.90625,366870.65625,288191.0625,258211.390625,224109.953125,246068.578125,0.014892578125,0.9970703125,0.197021484375,-0.03051757626235485,-3.021239995956421,-0.9155272841453552,80.0,37921.0,1.0
14283.8741869,290729.875,298145.375,371017.4375,366874.3125,288095.59375,258161.3125,224058.640625,246050.34375,0.015625,0.9951171875,0.196044921875,-0.0915527269244194,-2.929687261581421,-0.9460448622703552,80.0,37922.0,1.0
14283.8741884,290760.90625,298062.9375,371027.71875,366912.5625,288096.46875,258171.15625,224079.28125,246077.703125,0.01611328125,0.995849609375,0.1943359375,-0.0915527269244194,-2.990722417831421,-0.9460448622703552,80.0,37923.0,1.0
14283.8741898,290783.96875,298314.71875,371195.78125,366918.9375,288178.28125,258225.0625,224125.0625,246085.203125,0.01806640625,0.99609375,0.1962890625,-0.1831054538488388,-3.051757574081421,-0.9765624403953552,80.0,37924.0,1.0
14283.874191,290771.1875,298552.09375,371275.28125,366877.25,288228.34375,258259.3125,224143.84375,246076.71875,0.01708984375,0.99462890625,0.194580078125,-0.0915527269244194,-3.021239995956421,-1.0070799589157104,80.0,37925.0,1.0
14283.8741922,290733.90625,298452.03125,371166.03125,366844.09375,288176.9375,258222.65625,224108.703125,246064.5625,0.017333984375,0.994873046875,0.191162109375,0.1525878757238388,-2.990722417831421,-1.1291502714157104,80.0,37926.0,1.0
14283.8741934,290720.75,298143.9375,370998.5625,366859.90625,288089.59375,258180.0,224078.03125,246072.953125,0.016357421875,0.994873046875,0.194580078125,0.2136230319738388,-2.960204839706421,-1.1596678495407104,80.0,37927.0,1.0
14283.8741946,290749.09375,298054.8125,371007.59375,366902.84375,288087.1875,258182.6875,224087.25,246088.96875,0.015869140625,0.997802734375,0.197021484375,0.2746581733226776,-2.899169683456421,-1.1901854276657104,80.0,37928.0,1.0
14283.8741958,290776.625,298316.3125,371185.59375,366908.90625,288175.0625,258228.28125,224129.09375,246090.578125,0.017822265625,0.995849609375,0.19580078125,0.3051757514476776,-2.868652105331421,-1.1901854276657104,80.0,37929.0,1.0
14283.874197,290757.84375,298552.53125,371263.75,366858.40625,288216.09375,258236.875,224126.9375,246070.90625,0.01806640625,0.99462890625,0.193115234375,0.3051757514476776,-2.746581792831421,-1.1291502714157104,80.0,37930.0,1.0
14283.8741982,290716.46875,298428.53125,371128.90625,366817.53125,288150.46875,258199.5,224085.28125,246051.5,0.016357421875,0.99462890625,0.193115234375,0.3662109076976776,-2.685546636581421,-1.0986326932907104,80.0,37931.0,1.0
14283.8813436,290709.03125,298122.75,370964.9375,366831.65625,288062.84375,258153.1875,224042.359375,246037.90625,0.0166015625,0.99658203125,0.195556640625,0.3662109076976776,-2.624511480331421,-1.1901854276657104,80.0,37932.0,1.0
14283.8862744,290744.96875,298042.90625,370983.90625,366882.71875,288072.34375,258174.1875,224068.109375,246067.5,0.01806640625,0.993896484375,0.19580078125,0.3967284858226776,-2.593993902206421,-1.2512205839157104,80.0,37933.0,1.0
14283.890119,290774.65625,298308.4375,371165.5625,366891.375,288164.4375,258228.375,224119.4375,246081.359375,0.017333984375,0.992431640625,0.19384765625,0.5798339247703552,-2.624511480331421,-1.1596678495407104,80.0,37934.0,1.0
14283.8926095,290763.84375,298558.0,371266.4375,366853.9375,288224.15625,258265.125,224138.296875,246071.53125,0.014404296875,0.993896484375,0.197265625,0.6713866591453552,-2.471923589706421,-1.3427733182907104,80.0,37935.0,1.0
14283.8951171,290725.5,298450.6875,371154.5,366822.1875,288171.125,258230.515625,224104.234375,246058.125,0.0126953125,0.995361328125,0.19482421875,0.8239745497703552,-2.410888433456421,-1.4038084745407104,80.0,37936.0,1.0
14283.899354,290711.53125,298130.1875,370977.65625,366839.625,288077.96875,258174.546875,224063.546875,246070.359375,0.012451171875,0.9951171875,0.195068359375,0.9155272841453552,-2.380370855331421,-1.3732908964157104,80.0,37937.0,1.0
14283.8993576,290739.4375,298039.34375,370982.90625,366879.5,288071.1875,258170.34375,224071.953125,246074.75,0.012939453125,0.99609375,0.191162109375,1.0375975370407104,-2.410888433456421,-1.4038084745407104,80.0,37938.0,1.0
14283.8993589,290771.625,298307.28125,371167.90625,366899.0625,288171.3125,258235.171875,224132.03125,246091.640625,0.013427734375,0.99560546875,0.1923828125,1.0070799589157104,-2.380370855331421,-1.4343260526657104,80.0,37939.0,1.0
14283.899361,290771.625,298307.28125,371167.90625,366899.0625,288171.3125,258235.171875,224132.03125,246091.640625,0.013427734375,0.99560546875,0.1923828125,1.0070799589157104,-2.380370855331421,-1.4343260526657104,80.0,37940.0,0.0
14283.8993612,290771.625,298307.28125,371167.90625,366899.0625,288171.3125,258235.171875,224132.03125,246091.640625,0.013427734375,0.99560546875,0.1923828125,1.0070799589157104,-2.380370855331421,-1.4343260526657104,80.0,37941.0,0.0
14283.8993614,290771.625,298307.28125,371167.90625,366899.0625,288171.3125,258235.171875,224132.03125,246091.640625,0.013427734375,0.99560546875,0.1923828125,1.0070799589157104,-2.380370855331421,-1.4343260526657104,80.0,37942.0,0.0
14283.8993616,290771.625,298307.28125,371167.90625,366899.0625,288171.3125,258235.171875,224132.03125,246091.640625,0.013427734375,0.99560546875,0.1923828125,1.0070799589157104,-2.380370855331421,-1.4343260526657104,80.0,37943.0,0.0
14283.8993617,290771.625,298307.28125,371167.90625,366899.0625,288171.3125,258235.171875,224132.03125,246091.640625,0.013427734375,0.99560546875,0.1923828125,1.0070799589157104,-2.380370855331421,-1.4343260526657104,80.0,37944.0,0.0
14283.8993619,290771.625,298307.28125,371167.90625,366899.0625,288171.3125,258235.171875,224132.03125,246091.640625,0.013427734375,0.99560546875,0.1923828125,1.0070799589157104,-2.380370855331421,-1.4343260526657104,80.0,37945.0,0.0
14283.8993621,290771.625,298307.28125,371167.90625,366899.0625,288171.3125,258235.171875,224132.03125,246091.640625,0.013427734375,0.99560546875,0.1923828125,1.0070799589157104,-2.380370855331421,-1.4343260526657104,80.0,37946.0,0.0
14283.8993623,290771.625,298307.28125,371167.90625,366899.0625,288171.3125,258235.171875,224132.03125,246091.640625,0.013427734375,0.99560546875,0.1923828125,1.0070799589157104,-2.380370855331421,-1.4343260526657104,80.0,37947.0,0.0
14283.8993625,290771.625,298307.28125,371167.90625,366899.0625,288171.3125,258235.171875,224132.03125,246091.640625,0.013427734375,0.99560546875,0.1923828125,1.0070799589157104,-2.380370855331421,-1.4343260526657104,80.0,37948.0,0.0
14283.8993627,290771.625,298307.28125,371167.90625,366899.0625,288171.3125,258235.171875,224132.03125,246091.640625,0.013427734375,0.99560546875,0.1923828125,1.0070799589157104,-2.380370855331421,-1.4343260526657104,80.0,37949.0,0.0
14283.8993629,290771.625,298307.28125,371167.90625,366899.0625,288171.3125,258235.171875,224132.03125,246091.640625,0.013427734375,0.99560546875,0.1923828125,1.0070799589157104,-2.380370855331421,-1.4343260526657104,80.0,37950.0,0.0
14283.8993631,290771.625,298307.28125,371167.90625,366899.0625,288171.3125,258235.171875,224132.03125,246091.640625,0.013427734375,0.99560546875,0.1923828125,1.0070799589157104,-2.380370855331421,-1.4343260526657104,80.0,37951.0,0.0
