Time,FZ,C3,CZ,C4,PZ,PO7,OZ,PO8,AccX,AccY,AccZ,Gyro1,Gyro2,Gyro3,Battery,Counter,Validation
14259.429371,290846.375,298898.90625,378229.0,373375.4375,288475.90625,258393.859375,224208.921875,246580.078125,0.021484375,0.998291015625,0.18408203125,-0.0915527269244194,-1.5258787870407104,-1.1596678495407104,80.0,31808.0,0.0
14259.4293759,290846.375,298898.90625,378229.0,373375.4375,288475.90625,258393.859375,224208.921875,246580.078125,0.021484375,0.998291015625,0.18408203125,-0.0915527269244194,-1.5258787870407104,-1.1596678495407104,80.0,31809.0,0.0
14259.4293762,290846.375,298898.90625,378229.0,373375.4375,288475.90625,258393.859375,224208.921875,246580.078125,0.021484375,0.998291015625,0.18408203125,-0.0915527269244194,-1.5258787870407104,-1.1596678495407104,80.0,31810.0,0.0
14259.4293766,290846.375,298898.90625,378229.0,373375.4375,288475.90625,258393.859375,224208.921875,246580.078125,0.021484375,0.998291015625,0.18408203125,-0.0915527269244194,-1.5258787870407104,-1.1596678495407104,80.0,31811.0,0.0
14259.429377,290846.375,298898.90625,378229.0,373375.4375,288475.90625,258393.859375,224208.921875,246580.078125,0.021484375,0.998291015625,0.18408203125,-0.0915527269244194,-1.5258787870407104,-1.1596678495407104,80.0,31812.0,0.0
14259.4293773,290846.375,298898.90625,378229.0,373375.4375,288475.90625,258393.859375,224208.921875,246580.078125,0.021484375,0.998291015625,0.18408203125,-0.0915527269244194,-1.5258787870407104,-1.1596678495407104,80.0,31813.0,0.0
14259.4293777,290846.375,298898.90625,378229.0,373375.4375,288475.90625,258393.859375,224208.921875,246580.078125,0.021484375,0.998291015625,0.18408203125,-0.0915527269244194,-1.5258787870407104,-1.1596678495407104,80.0,31814.0,0.0
14259.429378,290846.375,298898.90625,378229.0,373375.4375,288475.90625,258393.859375,224208.921875,246580.078125,0.021484375,0.998291015625,0.18408203125,-0.0915527269244194,-1.5258787870407104,-1.1596678495407104,80.0,31815.0,0.0
14259.4293783,290846.375,298898.90625,378229.0,373375.4375,288475.90625,258393.859375,224208.921875,246580.078125,0.021484375,0.998291015625,0.18408203125,-0.0915527269244194,-1.5258787870407104,-1.1596678495407104,80.0,31816.0,0.0
14259.4293787,290846.375,298898.90625,378229.0,373375.4375,288475.90625,258393.859375,224208.921875,246580.078125,0.021484375,0.998291015625,0.18408203125,-0.0915527269244194,-1.5258787870407104,-1.1596678495407104,80.0,31817.0,0.0
14259.4293791,290846.375,298898.90625,378229.0,373375.4375,288475.90625,258393.859375,224208.921875,246580.078125,0.021484375,0.998291015625,0.18408203125,-0.0915527269244194,-1.5258787870407104,-1.1596678495407104,80.0,31818.0,0.0
14259.4293794,290846.375,298898.90625,378229.0,373375.4375,288475.90625,258393.859375,224208.921875,246580.078125,0.021484375,0.998291015625,0.18408203125,-0.0915527269244194,-1.5258787870407104,-1.1596678495407104,80.0,31819.0,0.0
14259.4293797,290846.375,298898.90625,378229.0,373375.4375,288475.90625,258393.859375,224208.921875,246580.078125,0.021484375,0.998291015625,0.18408203125,-0.0915527269244194,-1.5258787870407104,-1.1596678495407104,80.0,31820.0,0.0
14259.4293801,290846.375,298898.90625,378229.0,373375.4375,288475.90625,258393.859375,224208.921875,246580.078125,0.021484375,0.998291015625,0.18408203125,-0.0915527269244194,-1.5258787870407104,-1.1596678495407104,80.0,31821.0,0.0
14259.4293804,290846.375,298898.90625,378229.0,373375.4375,288475.90625,258393.859375,224208.921875,246580.078125,0.021484375,0.998291015625,0.18408203125,-0.0915527269244194,-1.5258787870407104,-1.1596678495407104,80.0,31822.0,0.0
14259.4293811,290846.375,298898.90625,378229.0,373375.4375,288475.90625,258393.859375,224208.921875,246580.078125,0.021484375,0.998291015625,0.18408203125,-0.0915527269244194,-1.5258787870407104,-1.1596678495407104,80.0,31823.0,0.0
14259.4293814,290846.375,298898.90625,378229.0,373375.4375,288475.90625,258393.859375,224208.921875,246580.078125,0.021484375,0.998291015625,0.18408203125,-0.0915527269244194,-1.5258787870407104,-1.1596678495407104,80.0,31824.0,0.0
14259.4293817,290846.375,298898.90625,378229.0,373375.4375,288475.90625,258393.859375,224208.921875,246580.078125,0.021484375,0.998291015625,0.18408203125,-0.0915527269244194,-1.5258787870407104,-1.1596678495407104,80.0,31825.0,0.0
14259.4293819,290846.375,298898.90625,378229.0,373375.4375,288475.90625,258393.859375,224208.921875,246580.078125,0.021484375,0.998291015625,0.18408203125,-0.0915527269244194,-1.5258787870407104,-1.1596678495407104,80.0,31826.0,0.0
14259.4293822,290846.375,298898.90625,378229.0,373375.4375,288475.90625,258393.859375,224208.921875,246580.078125,0.021484375,0.998291015625,0.18408203125,-0.0915527269244194,-1.5258787870407104,-1.1596678495407104,80.0,31827.0,0.0
14259.4293825,290846.375,298898.90625,378229.0,373375.4375,288475.90625,258393.859375,224208.921875,246580.078125,0.021484375,0.998291015625,0.18408203125,-0.0915527269244194,-1.5258787870407104,-1.1596678495407104,80.0,31828.0,0.0
14259.4293829,290846.375,298898.90625,378229.0,373375.4375,288475.90625,258393.859375,224208.921875,246580.078125,0.021484375,0.998291015625,0.18408203125,-0.0915527269244194,-1.5258787870407104,-1.1596678495407104,80.0,31829.0,0.0
14259.4293833,290846.375,298898.90625,378229.0,373375.4375,288475.90625,258393.859375,224208.921875,246580.078125,0.021484375,0.998291015625,0.18408203125,-0.0915527269244194,-1.5258787870407104,-1.1596678495407104,80.0,31830.0,0.0
14259.4293836,290846.375,298898.90625,378229.0,373375.4375,288475.90625,258393.859375,224208.921875,246580.078125,0.021484375,0.998291015625,0.18408203125,-0.0915527269244194,-1.5258787870407104,-1.1596678495407104,80.0,31831.0,0.0
14259.429384,290846.375,298898.90625,378229.0,373375.4375,288475.90625,258393.859375,224208.921875,246580.078125,0.021484375,0.998291015625,0.18408203125,-0.0915527269244194,-1.5258787870407104,-1.1596678495407104,80.0,31832.0,0.0
14259.4293843,290846.375,298898.90625,378229.0,373375.4375,288475.90625,258393.859375,224208.921875,246580.078125,0.021484375,0.998291015625,0.18408203125,-0.0915527269244194,-1.5258787870407104,-1.1596678495407104,80.0,31833.0,0.0
14259.4293847,290846.375,298898.90625,378229.0,373375.4375,288475.90625,258393.859375,224208.921875,246580.078125,0.021484375,0.998291015625,0.18408203125,-0.0915527269244194,-1.5258787870407104,-1.1596678495407104,80.0,31834.0,0.0
14259.429385,290846.375,298898.90625,378229.0,373375.4375,288475.90625,258393.859375,224208.921875,246580.078125,0.021484375,0.998291015625,0.18408203125,-0.0915527269244194,-1.5258787870407104,-1.1596678495407104,80.0,31835.0,0.0
14259.4293854,290846.375,298898.90625,378229.0,373375.4375,288475.90625,258393.859375,224208.921875,246580.078125,0.021484375,0.998291015625,0.18408203125,-0.0915527269244194,-1.5258787870407104,-1.1596678495407104,80.0,31836.0,0.0
14259.4293857,290846.375,298898.90625,378229.0,373375.4375,288475.90625,258393.859375,224208.921875,246580.078125,0.021484375,0.998291015625,0.18408203125,-0.0915527269244194,-1.5258787870407104,-1.1596678495407104,80.0,31837.0,0.0
14259.429386,290846.375,298898.90625,378229.0,373375.4375,288475.90625,258393.859375,224208.921875,246580.078125,0.021484375,0.998291015625,0.18408203125,-0.0915527269244194,-1.5258787870407104,-1.1596678495407104,80.0,31838.0,0.0
14259.4293863,290846.375,298898.90625,378229.0,373375.4375,288475.90625,258393.859375,224208.921875,246580.078125,0.021484375,0.998291015625,0.18408203125,-0.0915527269244194,-1.5258787870407104,-1.1596678495407104,80.0,31839.0,0.0
14259.4293867,290791.125,298910.59375,378105.34375,373271.46875,288439.71875,258357.125,224169.40625,246550.390625,0.02099609375,0.9951171875,0.18408203125,0.3967284858226776,-1.0986326932907104,-0.1525878757238388,80.0,31840.0,1.0
14259.4318208,290814.53125,298719.28125,378044.625,373322.6875,288406.71875,258344.0625,224173.796875,246574.4375,0.02197265625,0.993896484375,0.185302734375,0.5187987685203552,-1.0070799589157104,-0.1525878757238388,80.0,31841.0,1.0
14259.434334,290846.0,298897.28125,378187.34375,373344.0625,288480.9375,258400.484375,224226.09375,246589.46875,0.021728515625,0.9931640625,0.183837890625,0.6103515028953552,-0.9460448622703552,-0.1220703050494194,80.0,31842.0,1.0
14259.4368478,290842.625,299176.59375,378315.09375,373299.71875,288550.21875,258438.65625,224245.765625,246573.453125,0.023193359375,0.9951171875,0.186279296875,0.6713866591453552,-0.9765624403953552,-0.1525878757238388,80.0,31843.0,1.0
14259.4393449,290811.9375,299187.59375,378260.28125,373259.03125,288522.21875,258401.28125,224205.625,246548.34375,0.02587890625,0.99560546875,0.182373046875,0.5798339247703552,-0.9460448622703552,-0.2441406100988388,80.0,31844.0,1.0
14259.4418338,290796.75,298909.34375,378094.15625,373267.34375,288437.03125,258347.015625,224164.40625,246551.46875,0.023681640625,0.993408203125,0.18212890625,0.6103515028953552,-0.7934569716453552,-0.1831054538488388,80.0,31845.0,1.0
14259.444343,290817.03125,298712.84375,378032.75,373309.90625,288401.71875,258340.046875,224163.78125,246563.453125,0.02197265625,0.99609375,0.18017578125,0.6103515028953552,-0.7324218153953552,-0.2441406100988388,80.0,31846.0,1.0
14259.4513693,290852.0,298895.5,378181.25,373332.25,288474.40625,258383.765625,224206.15625,246582.125,0.0224609375,0.99462890625,0.182373046875,0.6103515028953552,-0.6408690810203552,-0.2136230319738388,80.0,31847.0,1.0
14259.4513766,290848.59375,299179.0,378311.59375,373296.3125,288542.34375,258417.296875,224229.40625,246572.203125,0.022705078125,0.995361328125,0.1826171875,0.5493163466453552,-0.6713866591453552,-0.3356933295726776,80.0,31848.0,1.0
14259.4513787,290818.125,299192.875,378254.65625,373252.78125,288520.90625,258405.3125,224202.84375,246548.34375,0.022216796875,0.99609375,0.18115234375,0.6713866591453552,-0.6713866591453552,-0.4882812201976776,80.0,31849.0,1.0
14259.4513805,290796.3125,298916.40625,378090.25,373259.40625,288442.125,258363.203125,224170.75,246560.859375,0.02001953125,0.99755859375,0.17919921875,0.6713866591453552,-0.6713866591453552,-0.5798339247703552,80.0,31850.0,1.0
14259.4513824,290816.875,298725.28125,378037.5625,373300.78125,288404.9375,258340.671875,224157.15625,246556.46875,0.020751953125,0.9990234375,0.182861328125,0.7019042372703552,-0.6408690810203552,-0.5798339247703552,80.0,31851.0,1.0
14259.4513842,290857.375,298908.46875,378196.1875,373329.03125,288482.0,258387.875,224198.109375,246563.09375,0.01953125,0.9990234375,0.1806640625,0.5798339247703552,-0.6408690810203552,-0.6713866591453552,80.0,31852.0,1.0
14259.451386,290853.4375,299188.03125,378323.15625,373293.5625,288550.75,258423.734375,224226.0,246557.984375,0.019287109375,0.9970703125,0.18115234375,0.5187987685203552,-0.6103515028953552,-0.7324218153953552,80.0,31853.0,1.0
14259.4513878,290814.28125,299190.0,378247.3125,373247.78125,288519.8125,258404.421875,224205.171875,246547.984375,0.01953125,0.9970703125,0.18310546875,0.5187987685203552,-0.6713866591453552,-0.8850097060203552,80.0,31854.0,1.0
14259.4513896,290798.96875,298905.78125,378069.59375,373255.03125,288431.5625,258355.15625,224166.375,246543.59375,0.016845703125,0.998779296875,0.182373046875,0.4577636420726776,-0.7934569716453552,-0.9155272841453552,80.0,31855.0,1.0
14259.4513914,290818.375,298709.96875,378011.125,373297.21875,288395.4375,258323.234375,224159.75,246560.234375,0.018798828125,0.999755859375,0.18310546875,0.4882812201976776,-0.8239745497703552,-1.0681151151657104,80.0,31856.0,1.0
14259.4513932,290853.0625,298892.09375,378163.90625,373318.75,288471.4375,258371.34375,224202.046875,246570.859375,0.017822265625,1.00146484375,0.181884765625,0.4272460639476776,-0.9460448622703552,-1.0986326932907104,80.0,31857.0,1.0
14259.4763899,290845.90625,299173.90625,378295.0625,373286.21875,288539.75,258408.34375,224224.484375,246565.140625,0.018798828125,1.00048828125,0.1845703125,0.3662109076976776,-1.0375975370407104,-1.1596678495407104,80.0,31858.0,1.0
14259.4764053,290810.59375,299188.3125,378240.4375,373240.96875,288516.34375,258390.65625,224201.6875,246552.1875,0.01953125,1.0,0.184326171875,0.2136230319738388,-1.0681151151657104,-1.1596678495407104,80.0,31859.0,1.0
14259.5006525,290790.03125,298913.375,378081.65625,373239.5625,288435.15625,258358.28125,224166.8125,246541.90625,0.02001953125,1.0,0.184814453125,0.1220703050494194,-1.1291502714157104,-1.2207030057907104,80.0,31860.0,1.0
14259.5524952,290811.6875,298723.21875,378026.65625,373287.03125,288405.46875,258349.4375,224167.71875,246553.078125,0.01708984375,0.998046875,0.18505859375,0.0610351525247097,-1.2817381620407104,-1.0681151151657104,80.0,31861.0,1.0
14259.5525125,290844.59375,298899.875,378166.6875,373307.78125,288472.625,258385.828125,224194.984375,246562.640625,0.02001953125,0.998779296875,0.1884765625,0.03051757626235485,-1.2207030057907104,-0.9765624403953552,80.0,31862.0,1.0
14259.5769277,290833.40625,299170.78125,378277.1875,373269.5,288533.59375,258418.8125,224219.125,246557.984375,0.01953125,0.99755859375,0.188232421875,-0.0610351525247097,-1.3427733182907104,-0.9155272841453552,80.0,31863.0,1.0
14259.6019506,290799.0625,299191.4375,378222.65625,373228.5625,288514.09375,258396.109375,224198.203125,246551.90625,0.016845703125,0.996337890625,0.188232421875,-0.1220703050494194,-1.4343260526657104,-0.9765624403953552,80.0,31864.0,1.0
14259.6269727,290779.3125,298920.25,378061.96875,373233.75,288433.625,258366.78125,224167.265625,246549.046875,0.01708984375,0.9970703125,0.187744140625,-0.2136230319738388,-1.5563963651657104,-0.8544921278953552,80.0,31865.0,1.0
14259.6607913,290798.1875,298724.8125,378007.8125,373276.75,288399.75,258346.84375,224166.90625,246557.546875,0.01611328125,0.996826171875,0.188232421875,-0.3356933295726776,-1.7089842557907104,-0.8850097060203552,80.0,31866.0,1.0
14259.6608001,290836.71875,298905.5,378162.3125,373299.375,288468.15625,258370.703125,224185.328125,246557.90625,0.01806640625,0.99560546875,0.185546875,-0.4272460639476776,-1.7395018339157104,-0.8544921278953552,80.0,31867.0,1.0
14259.6608014,290837.34375,299195.0,378296.5,373268.6875,288542.09375,258418.8125,224214.734375,246557.09375,0.019775390625,0.996826171875,0.18408203125,-0.3967284858226776,-1.8920897245407104,-0.7019042372703552,80.0,31868.0,1.0
14259.6608027,290803.90625,299201.90625,378229.53125,373229.71875,288520.0,258406.734375,224195.609375,246552.1875,0.017333984375,0.994140625,0.187744140625,-0.3662109076976776,-1.8615721464157104,-0.6103515028953552,80.0,31869.0,1.0
14259.6608039,290772.875,298905.0625,378034.90625,373228.8125,288423.53125,258351.84375,224156.984375,246561.84375,0.018798828125,0.992919921875,0.188232421875,-0.3967284858226776,-1.8920897245407104,-0.5493163466453552,80.0,31870.0,1.0
14259.684988,290797.0,298713.09375,377971.78125,373275.3125,288386.78125,258332.171875,224147.0625,246567.921875,0.01806640625,0.993408203125,0.189697265625,-0.3662109076976776,-1.9531248807907104,-0.4882812201976776,80.0,31871.0,1.0
14259.6849948,290836.96875,298900.15625,378131.53125,373299.90625,288464.5625,258375.09375,224183.625,246563.09375,0.020263671875,0.99365234375,0.187744140625,-0.3356933295726776,-2.014159917831421,-0.3967284858226776,80.0,31872.0,1.0
14259.7094462,290836.96875,298900.15625,378131.53125,373299.90625,288464.5625,258375.09375,224183.625,246563.09375,0.020263671875,0.99365234375,0.187744140625,-0.3356933295726776,-2.014159917831421,-0.3967284858226776,80.0,31873.0,0.0
14259.7094515,290836.96875,298900.15625,378131.53125,373299.90625,288464.5625,258375.09375,224183.625,246563.09375,0.020263671875,0.99365234375,0.187744140625,-0.3356933295726776,-2.014159917831421,-0.3967284858226776,80.0,31874.0,0.0
14259.7094528,290836.96875,298900.15625,378131.53125,373299.90625,288464.5625,258375.09375,224183.625,246563.09375,0.020263671875,0.99365234375,0.187744140625,-0.3356933295726776,-2.014159917831421,-0.3967284858226776,80.0,31875.0,0.0
14259.709454,290836.96875,298900.15625,378131.53125,373299.90625,288464.5625,258375.09375,224183.625,246563.09375,0.020263671875,0.99365234375,0.187744140625,-0.3356933295726776,-2.014159917831421,-0.3967284858226776,80.0,31876.0,0.0
14259.7094554,290836.96875,298900.15625,378131.53125,373299.90625,288464.5625,258375.09375,224183.625,246563.09375,0.020263671875,0.99365234375,0.187744140625,-0.3356933295726776,-2.014159917831421,-0.3967284858226776,80.0,31877.0,0.0
14259.7094572,290836.96875,298900.15625,378131.53125,373299.90625,288464.5625,258375.09375,224183.625,246563.09375,0.020263671875,0.99365234375,0.187744140625,-0.3356933295726776,-2.014159917831421,-0.3967284858226776,80.0,31878.0,0.0
14259.7094574,290836.96875,298900.15625,378131.53125,373299.90625,288464.5625,258375.09375,224183.625,246563.09375,0.020263671875,0.99365234375,0.187744140625,-0.3356933295726776,-2.014159917831421,-0.3967284858226776,80.0,31879.0,0.0
14259.7094576,290836.96875,298900.15625,378131.53125,373299.90625,288464.5625,258375.09375,224183.625,246563.09375,0.020263671875,0.99365234375,0.187744140625,-0.3356933295726776,-2.014159917831421,-0.3967284858226776,80.0,31880.0,0.0
14259.7094578,290836.96875,298900.15625,378131.53125,373299.90625,288464.5625,258375.09375,224183.625,246563.09375,0.020263671875,0.99365234375,0.187744140625,-0.3356933295726776,-2.014159917831421,-0.3967284858226776,80.0,31881.0,0.0
14259.7094579,290836.96875,298900.15625,378131.53125,373299.90625,288464.5625,258375.09375,224183.625,246563.09375,0.020263671875,0.99365234375,0.187744140625,-0.3356933295726776,-2.014159917831421,-0.3967284858226776,80.0,31882.0,0.0
14259.7094581,290836.96875,298900.15625,378131.53125,373299.90625,288464.5625,258375.09375,224183.625,246563.09375,0.020263671875,0.99365234375,0.187744140625,-0.3356933295726776,-2.014159917831421,-0.3967284858226776,80.0,31883.0,0.0
14259.7094583,290783.5,299195.28125,378202.0,373201.65625,288520.4375,258412.640625,224205.359375,246550.296875,0.02783203125,0.99365234375,0.189453125,0.0610351525247097,-2.014159917831421,-0.5798339247703552,80.0,31884.0,1.0
14259.7658936,290760.8125,298909.53125,378028.46875,373205.125,288427.8125,258358.46875,224155.46875,246555.21875,0.026123046875,0.993408203125,0.1875,0.0915527269244194,-1.8615721464157104,-0.6103515028953552,80.0,31885.0,1.0
14259.7659011,290772.0625,298700.59375,377952.46875,373238.125,288380.0625,258323.5,224136.859375,246555.9375,0.02685546875,0.992919921875,0.191162109375,0.2136230319738388,-1.8005369901657104,-0.6713866591453552,80.0,31886.0,1.0
14259.7659032,290802.8125,298863.9375,378083.71875,373253.0625,288440.96875,258359.359375,224166.640625,246547.078125,0.028564453125,0.996337890625,0.1884765625,0.0610351525247097,-1.6479490995407104,-0.7629393935203552,80.0,31887.0,1.0
14259.7659049,290809.1875,299156.125,378220.21875,373225.4375,288521.15625,258416.671875,224210.0,246548.34375,0.02734375,0.993896484375,0.191650390625,0.2746581733226776,-1.4953612089157104,-0.7934569716453552,80.0,31888.0,1.0
14259.7659065,290780.5625,299180.625,378174.90625,373184.375,288503.28125,258396.734375,224191.046875,246536.09375,0.026123046875,0.990966796875,0.188720703125,0.2136230319738388,-1.4953612089157104,-0.7324218153953552,80.0,31889.0,1.0
14259.7659082,290755.875,298901.21875,378006.0,373184.125,288414.84375,258346.65625,224150.359375,246529.65625,0.023193359375,0.992431640625,0.18701171875,0.2136230319738388,-1.4038084745407104,-0.7324218153953552,80.0,31890.0,1.0
14259.7659099,290776.53125,298703.375,377943.96875,373229.71875,288380.25,258330.390625,224142.765625,246548.25,0.0263671875,0.9921875,0.1875,0.3967284858226776,-1.2512205839157104,-0.7934569716453552,80.0,31891.0,1.0
14259.7659115,290817.75,298885.40625,378099.71875,373264.40625,288461.34375,258372.046875,224191.21875,246571.046875,0.026611328125,0.993408203125,0.186767578125,0.4272460639476776,-1.1596678495407104,-0.8544921278953552,80.0,31892.0,1.0
14259.765913,290820.25,299175.53125,378236.0625,373238.46875,288535.71875,258407.90625,224211.703125,246559.0625,0.02587890625,0.996826171875,0.18701171875,0.4577636420726776,-1.0375975370407104,-0.9155272841453552,80.0,31893.0,1.0
14259.7913176,290787.09375,299192.875,378183.03125,373188.21875,288511.15625,258385.46875,224176.5625,246534.75,0.025390625,0.99609375,0.187255859375,0.5493163466453552,-1.1291502714157104,-0.8544921278953552,80.0,31894.0,1.0
14259.7913397,290772.4375,298915.96875,378021.40625,373190.46875,288433.09375,258343.4375,224151.0,246545.828125,0.02490234375,0.998046875,0.186767578125,0.5493163466453552,-1.0986326932907104,-0.9155272841453552,80.0,31895.0,1.0
14259.8163311,290792.8125,298714.8125,377958.53125,373237.75,288396.625,258334.765625,224153.3125,246563.171875,0.0224609375,0.996826171875,0.18505859375,0.6713866591453552,-1.0375975370407104,-1.0070799589157104,80.0,31896.0,1.0
14259.816353,290792.8125,298714.8125,377958.53125,373237.75,288396.625,258334.765625,224153.3125,246563.171875,0.0224609375,0.996826171875,0.18505859375,0.6713866591453552,-1.0375975370407104,-1.0070799589157104,80.0,31897.0,0.0
14259.8163532,290792.8125,298714.8125,377958.53125,373237.75,288396.625,258334.765625,224153.3125,246563.171875,0.0224609375,0.996826171875,0.18505859375,0.6713866591453552,-1.0375975370407104,-1.0070799589157104,80.0,31898.0,0.0
14259.8163534,290792.8125,298714.8125,377958.53125,373237.75,288396.625,258334.765625,224153.3125,246563.171875,0.0224609375,0.996826171875,0.18505859375,0.6713866591453552,-1.0375975370407104,-1.0070799589157104,80.0,31899.0,0.0
14259.8163536,290792.8125,298714.8125,377958.53125,373237.75,288396.625,258334.765625,224153.3125,246563.171875,0.0224609375,0.996826171875,0.18505859375,0.6713866591453552,-1.0375975370407104,-1.0070799589157104,80.0,31900.0,0.0
14259.8163539,290792.8125,298714.8125,377958.53125,373237.75,288396.625,258334.765625,224153.3125,246563.171875,0.0224609375,0.996826171875,0.18505859375,0.6713866591453552,-1.0375975370407104,-1.0070799589157104,80.0,31901.0,0.0
14259.8163541,290792.8125,298714.8125,377958.53125,373237.75,288396.625,258334.765625,224153.3125,246563.171875,0.0224609375,0.996826171875,0.18505859375,0.6713866591453552,-1.0375975370407104,-1.0070799589157104,80.0,31902.0,0.0
14259.8163543,290792.8125,298714.8125,377958.53125,373237.75,288396.625,258334.765625,224153.3125,246563.171875,0.0224609375,0.996826171875,0.18505859375,0.6713866591453552,-1.0375975370407104,-1.0070799589157104,80.0,31903.0,0.0
14259.8163545,290792.8125,298714.8125,377958.53125,373237.75,288396.625,258334.765625,224153.3125,246563.171875,0.0224609375,0.996826171875,0.18505859375,0.6713866591453552,-1.0375975370407104,-1.0070799589157104,80.0,31904.0,0.0
14259.8163546,290772.96875,298900.40625,378003.15625,373175.1875,288417.0,258330.203125,224136.515625,246528.9375,0.02490234375,0.990234375,0.185791015625,0.8239745497703552,-1.4038084745407104,-0.7019042372703552,80.0,31905.0,1.0
14259.8450163,290795.75,298700.15625,377933.78125,373219.0,288379.4375,258317.6875,224130.25,246548.609375,0.02294921875,0.993896484375,0.188720703125,0.8544921278953552,-1.4038084745407104,-0.5493163466453552,80.0,31906.0,1.0
14259.8450347,290827.40625,298873.5,378081.65625,373240.4375,288448.75,258349.078125,224166.8125,246552.625,0.022705078125,0.996826171875,0.188720703125,0.7324218153953552,-1.4343260526657104,-0.4272460639476776,80.0,31907.0,1.0
14259.845036,290827.40625,299162.75,378222.75,373213.4375,288525.8125,258393.859375,224207.140625,246554.59375,0.020263671875,0.997802734375,0.1875,0.7324218153953552,-1.4343260526657104,-0.4577636420726776,80.0,31908.0,1.0
14259.8694803,290801.21875,299185.8125,378174.90625,373178.5,288513.90625,258405.21875,224202.671875,246544.9375,0.020751953125,0.99951171875,0.181640625,0.7019042372703552,-1.4038084745407104,-0.4882812201976776,80.0,31909.0,1.0
14259.9453331,290780.21875,298915.4375,378009.21875,373187.5,288434.0,258367.046875,224165.5625,246544.84375,0.02294921875,0.997314453125,0.184326171875,0.5493163466453552,-1.4648436307907104,-0.5187987685203552,80.0,31910.0,1.0
14259.9453488,290797.0,298715.875,377948.4375,373232.40625,288395.28125,258330.203125,224143.125,246554.5,0.022216796875,0.994384765625,0.185791015625,0.6103515028953552,-1.5563963651657104,-0.4577636420726776,80.0,31911.0,1.0
14259.9453502,290825.1875,298877.4375,378086.65625,373240.625,288460.09375,258369.734375,224181.921875,246559.953125,0.0234375,0.992431640625,0.18359375,0.7324218153953552,-1.4953612089157104,-0.4577636420726776,80.0,31912.0,1.0
14259.9453514,290825.96875,299161.40625,378210.5625,373206.46875,288525.90625,258401.015625,224202.40625,246547.796875,0.023193359375,0.99560546875,0.183837890625,0.7019042372703552,-1.4343260526657104,-0.6408690810203552,80.0,31913.0,1.0
14259.9453526,290797.46875,299187.40625,378165.4375,373168.5625,288511.40625,258394.5,224190.59375,246543.515625,0.020263671875,0.99658203125,0.18017578125,0.8544921278953552,-1.4648436307907104,-0.7019042372703552,80.0,31914.0,1.0
14259.9453538,290774.21875,298906.6875,377994.46875,373173.375,288422.71875,258343.359375,224149.921875,246545.203125,0.019287109375,0.9970703125,0.182861328125,0.9460448622703552,-1.6479490995407104,-0.9155272841453552,80.0,31915.0,1.0
14259.945355,290788.875,298696.03125,377919.125,373213.25,288382.03125,258324.125,224141.875,246556.734375,0.0224609375,0.999267578125,0.181396484375,0.9460448622703552,-1.6479490995407104,-0.9460448622703552,80.0,31916.0,1.0
14259.9453563,290822.5,298868.21875,378062.25,373234.28125,288452.125,258363.921875,224173.96875,246558.265625,0.023681640625,0.999267578125,0.18408203125,0.9155272841453552,-1.6479490995407104,-1.0986326932907104,80.0,31917.0,1.0
14259.9453575,290824.0,299166.75,378209.5,373205.65625,288532.59375,258411.484375,224201.234375,246551.28125,0.026611328125,1.001708984375,0.185791015625,0.8544921278953552,-1.8005369901657104,-1.0681151151657104,80.0,31918.0,1.0
14259.9453588,290796.5625,299194.375,378163.46875,373167.5625,288516.875,258398.0625,224186.75,246540.015625,0.027587890625,0.998779296875,0.1884765625,0.6713866591453552,-1.8310545682907104,-1.0375975370407104,80.0,31919.0,1.0
14259.94536,290774.9375,298911.875,377990.8125,373171.875,288427.0,258340.40625,224140.53125,246534.390625,0.026611328125,0.9970703125,0.1826171875,0.6408690810203552,-1.7089842557907104,-1.1291502714157104,80.0,31920.0,1.0
14259.9699802,290788.96875,298701.75,377916.96875,373209.59375,288385.34375,258320.46875,224129.71875,246545.390625,0.026611328125,0.994384765625,0.181640625,0.6408690810203552,-1.7395018339157104,-1.0681151151657104,80.0,31921.0,1.0
14259.9699866,290788.96875,298701.75,377916.96875,373209.59375,288385.34375,258320.46875,224129.71875,246545.390625,0.026611328125,0.994384765625,0.181640625,0.6408690810203552,-1.7395018339157104,-1.0681151151657104,80.0,31922.0,0.0
14259.9699869,290788.96875,298701.75,377916.96875,373209.59375,288385.34375,258320.46875,224129.71875,246545.390625,0.026611328125,0.994384765625,0.181640625,0.6408690810203552,-1.7395018339157104,-1.0681151151657104,80.0,31923.0,0.0
14259.9699871,290788.96875,298701.75,377916.96875,373209.59375,288385.34375,258320.46875,224129.71875,246545.390625,0.026611328125,0.994384765625,0.181640625,0.6408690810203552,-1.7395018339157104,-1.0681151151657104,80.0,31924.0,0.0
14259.9699873,290772.875,298905.34375,377964.875,373164.34375,288428.34375,258359.453125,224150.546875,246544.21875,0.027587890625,0.99462890625,0.17919921875,1.0986326932907104,-1.4343260526657104,-1.2512205839157104,80.0,31925.0,1.0
14259.9965503,290781.1875,298698.53125,377896.21875,373200.21875,288382.40625,258319.390625,224140.265625,246557.640625,0.0283203125,0.995849609375,0.181640625,1.2207030057907104,-1.3427733182907104,-1.2512205839157104,80.0,31926.0,1.0
14259.9965562,290818.65625,298876.8125,378053.9375,373233.28125,288455.8125,258341.46875,224168.875,246567.5625,0.02880859375,0.995361328125,0.184326171875,1.1596678495407104,-1.2817381620407104,-1.2207030057907104,80.0,31927.0,1.0
14259.9965576,290820.96875,299166.40625,378196.09375,373195.28125,288530.71875,258383.234375,224189.890625,246552.71875,0.02783203125,0.995361328125,0.18701171875,1.1291502714157104,-1.2817381620407104,-1.1596678495407104,80.0,31928.0,1.0
14259.9965589,290794.59375,299186.34375,378144.0625,373147.90625,288512.03125,258385.109375,224179.15625,246534.484375,0.0283203125,0.99462890625,0.1826171875,1.0986326932907104,-1.2512205839157104,-1.1596678495407104,80.0,31929.0,1.0
14260.0213586,290776.28125,298904.4375,377967.84375,373153.8125,288425.5,258349.875,224149.03125,246536.71875,0.02685546875,0.994384765625,0.18212890625,1.0681151151657104,-1.1596678495407104,-1.0070799589157104,80.0,31930.0,1.0
14260.021365,290796.9375,298706.75,377900.875,373198.5,288389.0,258335.125,224142.046875,246549.953125,0.025146484375,0.994384765625,0.180419921875,1.1291502714157104,-1.0681151151657104,-0.9155272841453552,80.0,31931.0,1.0
14260.0213664,290830.09375,298872.625,378037.65625,373222.5625,288455.28125,258371.6875,224181.65625,246569.171875,0.02392578125,0.994384765625,0.1796875,1.1596678495407104,-1.0681151151657104,-0.8544921278953552,80.0,31932.0,1.0
14260.0463869,290831.625,299157.1875,378168.1875,373188.9375,288524.90625,258402.359375,224200.875,246561.125,0.021728515625,0.992431640625,0.182861328125,1.1596678495407104,-1.1291502714157104,-0.9460448622703552,80.0,31933.0,1.0
14260.0464064,290798.34375,299180.625,378125.71875,373147.71875,288510.25,258381.34375,224178.796875,246543.78125,0.022216796875,0.9951171875,0.179931640625,1.2817381620407104,-1.2207030057907104,-0.8850097060203552,80.0,31934.0,1.0
14260.0487647,290775.1875,298906.40625,377959.875,373147.8125,288426.125,258339.78125,224143.125,246536.0,0.019775390625,0.994873046875,0.182861328125,1.2207030057907104,-1.1596678495407104,-0.9765624403953552,80.0,31935.0,1.0
14260.0487782,290789.9375,298709.71875,377900.5,373188.21875,288393.21875,258327.34375,224140.265625,246554.140625,0.0185546875,0.99267578125,0.1806640625,1.2817381620407104,-1.2207030057907104,-0.9460448622703552,80.0,31936.0,1.0
14260.0487848,290824.90625,298881.1875,378048.125,373215.9375,288469.65625,258380.90625,224188.546875,246574.796875,0.0185546875,0.9951171875,0.17919921875,1.2207030057907104,-1.2817381620407104,-0.9460448622703552,80.0,31937.0,1.0
14260.0512776,290815.34375,299155.40625,378171.5,373176.59375,288528.75,258406.46875,224204.8125,246555.484375,0.0185546875,0.998046875,0.18310546875,1.2207030057907104,-1.4038084745407104,-0.9460448622703552,80.0,31938.0,1.0
14260.0512899,290782.53125,299173.375,378116.53125,373132.71875,288508.03125,258390.015625,224181.484375,246540.375,0.019287109375,0.998779296875,0.179931640625,1.1596678495407104,-1.4953612089157104,-0.9765624403953552,80.0,31939.0,1.0
14260.0561327,290756.34375,298885.3125,377934.03125,373132.34375,288416.90625,258339.234375,224139.8125,246536.71875,0.01953125,0.998291015625,0.1796875,1.0681151151657104,-1.4953612089157104,-0.9460448622703552,80.0,31940.0,1.0
14260.056151,290778.96875,298686.65625,377875.5625,373182.34375,288386.0625,258320.375,224139.109375,246554.0625,0.020751953125,0.998046875,0.18017578125,1.0375975370407104,-1.6479490995407104,-1.0375975370407104,80.0,31941.0,1.0
14260.0561522,290819.375,298869.5625,378031.5,373213.96875,288463.9375,258367.484375,224190.515625,246580.875,0.020751953125,0.997314453125,0.180908203125,0.9460448622703552,-1.6479490995407104,-1.0375975370407104,80.0,31942.0,1.0
14260.0561534,290822.5,299166.59375,378176.4375,373182.875,288539.03125,258409.421875,224214.46875,246562.46875,0.023193359375,0.999755859375,0.1806640625,0.9460448622703552,-1.7700194120407104,-1.0375975370407104,80.0,31943.0,1.0
14260.0561546,290781.53125,299179.53125,378119.65625,373127.4375,288503.46875,258376.875,224168.515625,246518.390625,0.021728515625,0.996337890625,0.182861328125,0.7019042372703552,-1.8005369901657104,-1.1901854276657104,80.0,31944.0,1.0
14260.0561559,290753.28125,298886.5625,377935.03125,373125.8125,288405.5625,258321.453125,224123.90625,246522.671875,0.022705078125,0.99658203125,0.182861328125,0.6408690810203552,-1.7700194120407104,-1.0375975370407104,80.0,31945.0,1.0
14260.0581876,290772.875,298686.71875,377876.65625,373175.34375,288373.09375,258309.203125,224123.1875,246536.71875,0.02490234375,0.99658203125,0.18017578125,0.5798339247703552,-1.8615721464157104,-1.0681151151657104,80.0,31946.0,1.0
14260.0606466,290804.34375,298856.34375,378025.15625,373192.625,288448.28125,258350.765625,224170.390625,246557.359375,0.026123046875,0.99365234375,0.180908203125,0.4577636420726776,-1.7700194120407104,-1.0681151151657104,80.0,31947.0,1.0
14260.0631945,290803.4375,299139.21875,378150.75,373158.0,288514.8125,258392.078125,224189.609375,246545.203125,0.02734375,0.993896484375,0.18115234375,0.5187987685203552,-1.8005369901657104,-1.0070799589157104,80.0,31948.0,1.0
14260.0675178,290770.8125,299154.5,378084.96875,373113.03125,288489.78125,258381.703125,224172.890625,246529.109375,0.026123046875,0.992919921875,0.18017578125,0.4882812201976776,-1.7700194120407104,-1.0986326932907104,80.0,31949.0,1.0
14260.0675202,290744.09375,298874.75,377913.75,373108.5625,288400.09375,258329.40625,224132.671875,246522.3125,0.024658203125,0.99365234375,0.177734375,0.5493163466453552,-1.7700194120407104,-1.0986326932907104,80.0,31950.0,1.0
14260.0925298,290764.28125,298674.21875,377853.40625,373156.03125,288366.84375,258313.765625,224130.078125,246541.8125,0.0234375,0.9921875,0.175537109375,0.7019042372703552,-1.5869139432907104,-1.1291502714157104,80.0,31951.0,1.0
14260.092553,290804.625,298857.40625,378009.9375,373188.59375,288448.90625,258363.296875,224180.59375,246564.078125,0.0224609375,0.99658203125,0.177978515625,0.6408690810203552,-1.6479490995407104,-1.0681151151657104,80.0,31952.0,1.0
14260.1175306,290810.78125,299150.9375,378154.6875,373158.90625,288527.40625,258408.796875,224213.484375,246551.015625,0.0234375,0.9951171875,0.177978515625,0.6408690810203552,-1.6784666776657104,-1.1291502714157104,80.0,31953.0,1.0
14260.1175509,290775.09375,299168.09375,378096.75,373109.71875,288498.71875,258380.1875,224174.15625,246526.609375,0.02197265625,0.99462890625,0.18115234375,0.6103515028953552,-1.6784666776657104,-1.0986326932907104,80.0,31954.0,1.0
14260.1175522,290761.6875,298894.5,377932.0625,373121.4375,288417.71875,258338.078125,224136.859375,246540.734375,0.022216796875,0.9951171875,0.181884765625,0.5798339247703552,-1.6479490995407104,-1.0986326932907104,80.0,31955.0,1.0
14260.1419567,290779.84375,298686.71875,377861.34375,373163.03125,288377.5625,258329.5,224135.796875,246551.640625,0.020751953125,0.99462890625,0.17822265625,0.6103515028953552,-1.7089842557907104,-1.0986326932907104,80.0,31956.0,1.0
14260.1761605,290812.84375,298856.34375,378003.6875,373184.375,288447.21875,258375.359375,224177.1875,246555.484375,0.022216796875,0.995361328125,0.180419921875,0.6713866591453552,-1.7089842557907104,-1.1596678495407104,80.0,31957.0,1.0
14260.1761718,290811.9375,299144.21875,378143.0625,373149.96875,288518.65625,258402.8125,224195.78125,246545.296875,0.02099609375,0.994873046875,0.180419921875,0.7629393935203552,-1.8005369901657104,-1.1291502714157104,80.0,31958.0,1.0
14260.1761731,290777.34375,299161.9375,378092.1875,373107.40625,288499.15625,258371.515625,224174.5,246536.265625,0.021240234375,0.994140625,0.180908203125,0.8544921278953552,-1.8310545682907104,-1.1596678495407104,80.0,31959.0,1.0
14260.1761743,290754.0,298884.3125,377924.5625,373111.875,288418.4375,258319.921875,224134.90625,246534.65625,0.021484375,0.99462890625,0.177734375,0.8239745497703552,-1.8920897245407104,-1.0681151151657104,80.0,31960.0,1.0
14260.1761754,290774.9375,298686.46875,377858.9375,373158.625,288384.375,258308.390625,224135.34375,246559.6875,0.020263671875,0.998046875,0.175048828125,0.8544921278953552,-1.8310545682907104,-1.1901854276657104,80.0,31961.0,1.0
14260.1761768,290811.78125,298861.0625,378013.0625,373191.625,288456.59375,258345.859375,224165.75,246566.21875,0.0224609375,0.9990234375,0.176025390625,0.8239745497703552,-1.9531248807907104,-1.2207030057907104,80.0,31962.0,1.0
14260.2000245,290805.5,299137.4375,378134.5,373150.59375,288520.25,258386.53125,224188.90625,246557.8125,0.021240234375,0.99853515625,0.1796875,0.8544921278953552,-2.044677495956421,-1.1596678495407104,80.0,31963.0,1.0
14260.2000459,290805.5,299137.4375,378134.5,373150.59375,288520.25,258386.53125,224188.90625,246557.8125,0.021240234375,0.99853515625,0.1796875,0.8544921278953552,-2.044677495956421,-1.1596678495407104,80.0,31964.0,0.0
14260.2000461,290805.5,299137.4375,378134.5,373150.59375,288520.25,258386.53125,224188.90625,246557.8125,0.021240234375,0.99853515625,0.1796875,0.8544921278953552,-2.044677495956421,-1.1596678495407104,80.0,31965.0,0.0
14260.2000466,290805.5,299137.4375,378134.5,373150.59375,288520.25,258386.53125,224188.90625,246557.8125,0.021240234375,0.99853515625,0.1796875,0.8544921278953552,-2.044677495956421,-1.1596678495407104,80.0,31966.0,0.0
14260.2000468,290805.5,299137.4375,378134.5,373150.59375,288520.25,258386.53125,224188.90625,246557.8125,0.021240234375,0.99853515625,0.1796875,0.8544921278953552,-2.044677495956421,-1.1596678495407104,80.0,31967.0,0.0
14260.200047,290805.5,299137.4375,378134.5,373150.59375,288520.25,258386.53125,224188.90625,246557.8125,0.021240234375,0.99853515625,0.1796875,0.8544921278953552,-2.044677495956421,-1.1596678495407104,80.0,31968.0,0.0
14260.2000471,290805.5,299137.4375,378134.5,373150.59375,288520.25,258386.53125,224188.90625,246557.8125,0.021240234375,0.99853515625,0.1796875,0.8544921278953552,-2.044677495956421,-1.1596678495407104,80.0,31969.0,0.0
14260.2000473,290805.5,299137.4375,378134.5,373150.59375,288520.25,258386.53125,224188.90625,246557.8125,0.021240234375,0.99853515625,0.1796875,0.8544921278953552,-2.044677495956421,-1.1596678495407104,80.0,31970.0,0.0
14260.2000475,290805.5,299137.4375,378134.5,373150.59375,288520.25,258386.53125,224188.90625,246557.8125,0.021240234375,0.99853515625,0.1796875,0.8544921278953552,-2.044677495956421,-1.1596678495407104,80.0,31971.0,0.0
14260.2000477,290805.5,299137.4375,378134.5,373150.59375,288520.25,258386.53125,224188.90625,246557.8125,0.021240234375,0.99853515625,0.1796875,0.8544921278953552,-2.044677495956421,-1.1596678495407104,80.0,31972.0,0.0
14260.2000478,290805.5,299137.4375,378134.5,373150.59375,288520.25,258386.53125,224188.90625,246557.8125,0.021240234375,0.99853515625,0.1796875,0.8544921278953552,-2.044677495956421,-1.1596678495407104,80.0,31973.0,0.0
14260.200048,290805.5,299137.4375,378134.5,373150.59375,288520.25,258386.53125,224188.90625,246557.8125,0.021240234375,0.99853515625,0.1796875,0.8544921278953552,-2.044677495956421,-1.1596678495407104,80.0,31974.0,0.0
14260.2000482,290805.5,299137.4375,378134.5,373150.59375,288520.25,258386.53125,224188.90625,246557.8125,0.021240234375,0.99853515625,0.1796875,0.8544921278953552,-2.044677495956421,-1.1596678495407104,80.0,31975.0,0.0
14260.2000484,290805.5,299137.4375,378134.5,373150.59375,288520.25,258386.53125,224188.90625,246557.8125,0.021240234375,0.99853515625,0.1796875,0.8544921278953552,-2.044677495956421,-1.1596678495407104,80.0,31976.0,0.0
14260.2000485,290805.5,299137.4375,378134.5,373150.59375,288520.25,258386.53125,224188.90625,246557.8125,0.021240234375,0.99853515625,0.1796875,0.8544921278953552,-2.044677495956421,-1.1596678495407104,80.0,31977.0,0.0
14260.2000487,290805.5,299137.4375,378134.5,373150.59375,288520.25,258386.53125,224188.90625,246557.8125,0.021240234375,0.99853515625,0.1796875,0.8544921278953552,-2.044677495956421,-1.1596678495407104,80.0,31978.0,0.0
14260.2000489,290805.5,299137.4375,378134.5,373150.59375,288520.25,258386.53125,224188.90625,246557.8125,0.021240234375,0.99853515625,0.1796875,0.8544921278953552,-2.044677495956421,-1.1596678495407104,80.0,31979.0,0.0
14260.200049,290805.5,299137.4375,378134.5,373150.59375,288520.25,258386.53125,224188.90625,246557.8125,0.021240234375,0.99853515625,0.1796875,0.8544921278953552,-2.044677495956421,-1.1596678495407104,80.0,31980.0,0.0
14260.2000492,290805.5,299137.4375,378134.5,373150.59375,288520.25,258386.53125,224188.90625,246557.8125,0.021240234375,0.99853515625,0.1796875,0.8544921278953552,-2.044677495956421,-1.1596678495407104,80.0,31981.0,0.0
14260.2000494,290805.5,299137.4375,378134.5,373150.59375,288520.25,258386.53125,224188.90625,246557.8125,0.021240234375,0.99853515625,0.1796875,0.8544921278953552,-2.044677495956421,-1.1596678495407104,80.0,31982.0,0.0
14260.2000495,290805.5,299137.4375,378134.5,373150.59375,288520.25,258386.53125,224188.90625,246557.8125,0.021240234375,0.99853515625,0.1796875,0.8544921278953552,-2.044677495956421,-1.1596678495407104,80.0,31983.0,0.0
14260.2000497,290805.5,299137.4375,378134.5,373150.59375,288520.25,258386.53125,224188.90625,246557.8125,0.021240234375,0.99853515625,0.1796875,0.8544921278953552,-2.044677495956421,-1.1596678495407104,80.0,31984.0,0.0
14260.2000499,290805.5,299137.4375,378134.5,373150.59375,288520.25,258386.53125,224188.90625,246557.8125,0.021240234375,0.99853515625,0.1796875,0.8544921278953552,-2.044677495956421,-1.1596678495407104,80.0,31985.0,0.0
14260.2000501,290805.5,299137.4375,378134.5,373150.59375,288520.25,258386.53125,224188.90625,246557.8125,0.021240234375,0.99853515625,0.1796875,0.8544921278953552,-2.044677495956421,-1.1596678495407104,80.0,31986.0,0.0
14260.2000503,290805.5,299137.4375,378134.5,373150.59375,288520.25,258386.53125,224188.90625,246557.8125,0.021240234375,0.99853515625,0.1796875,0.8544921278953552,-2.044677495956421,-1.1596678495407104,80.0,31987.0,0.0
14260.2000504,290805.5,299137.4375,378134.5,373150.59375,288520.25,258386.53125,224188.90625,246557.8125,0.021240234375,0.99853515625,0.1796875,0.8544921278953552,-2.044677495956421,-1.1596678495407104,80.0,31988.0,0.0
14260.2000506,290805.5,299137.4375,378134.5,373150.59375,288520.25,258386.53125,224188.90625,246557.8125,0.021240234375,0.99853515625,0.1796875,0.8544921278953552,-2.044677495956421,-1.1596678495407104,80.0,31989.0,0.0
14260.2000508,290805.5,299137.4375,378134.5,373150.59375,288520.25,258386.53125,224188.90625,246557.8125,0.021240234375,0.99853515625,0.1796875,0.8544921278953552,-2.044677495956421,-1.1596678495407104,80.0,31990.0,0.0
14260.2000509,290805.5,299137.4375,378134.5,373150.59375,288520.25,258386.53125,224188.90625,246557.8125,0.021240234375,0.99853515625,0.1796875,0.8544921278953552,-2.044677495956421,-1.1596678495407104,80.0,31991.0,0.0
14260.2000511,290805.5,299137.4375,378134.5,373150.59375,288520.25,258386.53125,224188.90625,246557.8125,0.021240234375,0.99853515625,0.1796875,0.8544921278953552,-2.044677495956421,-1.1596678495407104,80.0,31992.0,0.0
14260.2000513,290805.5,299137.4375,378134.5,373150.59375,288520.25,258386.53125,224188.90625,246557.8125,0.021240234375,0.99853515625,0.1796875,0.8544921278953552,-2.044677495956421,-1.1596678495407104,80.0,31993.0,0.0
14260.2000515,290768.40625,299153.71875,378045.875,373061.8125,288501.65625,258384.65625,224182.46875,246548.34375,0.016357421875,0.997314453125,0.184326171875,-0.4882812201976776,-1.7395018339157104,-1.3427733182907104,80.0,31994.0,1.0
14260.2000528,290740.59375,298866.96875,377859.5625,373052.40625,288400.09375,258321.453125,224124.171875,246526.4375,0.016357421875,0.997802734375,0.1845703125,-0.3967284858226776,-1.8920897245407104,-1.3732908964157104,80.0,31995.0,1.0
14260.2250381,290756.0625,298646.15625,377771.84375,373086.3125,288345.5625,258290.875,224102.0,246519.453125,0.013427734375,0.99755859375,0.18701171875,-0.4882812201976776,-1.8310545682907104,-1.4038084745407104,80.0,31996.0,1.0
14260.2250556,290800.40625,298821.65625,377926.25,373121.53125,288428.25,258346.03125,224157.4375,246547.984375,0.01220703125,0.998291015625,0.188720703125,-0.5187987685203552,-1.7700194120407104,-1.4343260526657104,80.0,31997.0,1.0
14260.2494549,290809.0,299125.625,378079.875,373097.03125,288517.125,258408.0,224206.875,246552.984375,0.0087890625,0.998046875,0.18603515625,-0.5187987685203552,-1.9531248807907104,-1.4343260526657104,80.0,31998.0,1.0
14260.3094645,290780.21875,299161.5625,378040.34375,373056.96875,288507.65625,258411.921875,224197.484375,246539.21875,0.009033203125,0.99951171875,0.18701171875,-0.5493163466453552,-2.075195074081421,-1.5869139432907104,80.0,31999.0,1.0
14260.3365517,290754.71875,298885.125,377870.28125,373052.6875,288412.4375,258329.9375,224127.125,246522.9375,0.008056640625,0.9990234375,0.18505859375,-0.3356933295726776,-2.166747808456421,-1.5869139432907104,80.0,32000.0,1.0
14260.3365588,290772.6875,298674.03125,377799.75,373092.46875,288366.03125,258298.015625,224108.25,246530.640625,0.0068359375,0.994873046875,0.185302734375,-0.2441406100988388,-2.349853277206421,-1.6479490995407104,80.0,32001.0,1.0
14260.3365602,290807.28125,298838.71875,377941.90625,373117.34375,288438.0,258338.609375,224149.734375,246545.65625,0.007568359375,0.996337890625,0.185791015625,-0.2441406100988388,-2.410888433456421,-1.6174315214157104,80.0,32002.0,1.0
14260.3365614,290811.3125,299139.3125,378093.09375,373092.46875,288523.84375,258387.4375,224191.046875,246550.484375,0.008544921875,0.9921875,0.18310546875,0.03051757626235485,-2.563476324081421,-1.6174315214157104,80.0,32003.0,1.0
14260.3613268,290781.625,299173.28125,378053.9375,373053.21875,288511.15625,258376.703125,224172.453125,246539.03125,0.010498046875,0.989990234375,0.18359375,0.1525878757238388,-2.532958745956421,-1.7700194120407104,80.0,32004.0,1.0
14260.3613316,290754.1875,298886.46875,377869.75,373056.25,288419.40625,258321.625,224130.96875,246549.671875,0.0078125,0.990478515625,0.17431640625,0.5187987685203552,-2.532958745956421,-1.9226073026657104,80.0,32005.0,1.0
14260.3613328,290766.15625,298669.5625,377787.875,373099.90625,288374.25,258307.671875,224123.90625,246557.359375,0.009765625,0.9892578125,0.17431640625,0.7629393935203552,-2.563476324081421,-1.9836424589157104,80.0,32006.0,1.0
14260.3870629,290797.90625,298830.3125,377932.4375,373119.03125,288441.59375,258348.453125,224155.28125,246548.0625,0.008544921875,0.98876953125,0.173828125,1.1596678495407104,-2.624511480331421,-2.105712652206421,80.0,32007.0,1.0
14260.3870679,290793.34375,299117.21875,378064.21875,373073.96875,288509.0,258373.484375,224172.890625,246535.1875,0.009033203125,0.989990234375,0.176025390625,1.3122557401657104,-2.655029058456421,-2.044677495956421,80.0,32008.0,1.0
14260.3870691,290764.5625,299158.8125,378026.21875,373036.96875,288499.25,258376.703125,224167.4375,246527.0625,0.010986328125,0.98876953125,0.17333984375,1.4343260526657104,-2.502441167831421,-2.075195074081421,80.0,32009.0,1.0
14260.3870703,290735.0625,298880.84375,377858.03125,373034.90625,288411.46875,258328.875,224124.796875,246522.5,0.0107421875,0.988525390625,0.1767578125,1.8005369901657104,-2.380370855331421,-2.136230230331421,80.0,32010.0,1.0
14260.3870715,290757.5,298678.40625,377794.84375,373082.71875,288380.4375,258316.34375,224123.71875,246544.046875,0.010498046875,0.9873046875,0.17431640625,2.044677495956421,-2.227782964706421,-2.258300542831421,80.0,32011.0,1.0
14260.400035,290793.15625,298836.75,377930.8125,373107.0625,288446.78125,258344.875,224159.484375,246565.0625,0.01123046875,0.990234375,0.170166015625,2.349853277206421,-2.166747808456421,-2.349853277206421,80.0,32012.0,1.0
14260.4000492,290794.5,299119.71875,378061.4375,373077.53125,288518.46875,258382.515625,224191.578125,246555.21875,0.0146484375,0.98974609375,0.172119140625,2.563476324081421,-1.9531248807907104,-2.258300542831421,80.0,32013.0,1.0
14260.4050877,290765.0,299152.28125,378013.625,373036.875,288504.96875,258383.578125,224183.8125,246537.15625,0.016357421875,0.989013671875,0.16650390625,2.655029058456421,-1.8310545682907104,-2.288818120956421,80.0,32014.0,1.0
14260.4050918,290744.875,298880.3125,377842.40625,373037.5,288422.8125,258347.828125,224148.3125,246536.265625,0.020751953125,0.9853515625,0.16552734375,2.960204839706421,-1.6479490995407104,-2.288818120956421,80.0,32015.0,1.0
14260.405093,290766.78125,298676.8125,377777.3125,373086.65625,288391.4375,258344.328125,224155.015625,246565.859375,0.02392578125,0.9853515625,0.1640625,3.204345464706421,-1.2512205839157104,-2.136230230331421,80.0,32016.0,1.0
14260.4050943,290802.125,298843.65625,377921.0,373116.71875,288466.34375,258389.84375,224199.1875,246589.015625,0.02880859375,0.984619140625,0.163330078125,3.417968511581421,-1.0375975370407104,-2.166747808456421,80.0,32017.0,1.0
14260.407715,290799.59375,299128.65625,378055.46875,373077.71875,288529.65625,258407.28125,224200.4375,246561.296875,0.03076171875,0.985107421875,0.161865234375,3.540038824081421,-0.6103515028953552,-2.075195074081421,80.0,32018.0,1.0
14260.4077352,290799.59375,299128.65625,378055.46875,373077.71875,288529.65625,258407.28125,224200.4375,246561.296875,0.03076171875,0.985107421875,0.161865234375,3.540038824081421,-0.6103515028953552,-2.075195074081421,80.0,32019.0,0.0
14260.4077354,290799.59375,299128.65625,378055.46875,373077.71875,288529.65625,258407.28125,224200.4375,246561.296875,0.03076171875,0.985107421875,0.161865234375,3.540038824081421,-0.6103515028953552,-2.075195074081421,80.0,32020.0,0.0
14260.4077356,290799.59375,299128.65625,378055.46875,373077.71875,288529.65625,258407.28125,224200.4375,246561.296875,0.03076171875,0.985107421875,0.161865234375,3.540038824081421,-0.6103515028953552,-2.075195074081421,80.0,32021.0,0.0
14260.4077358,290799.59375,299128.65625,378055.46875,373077.71875,288529.65625,258407.28125,224200.4375,246561.296875,0.03076171875,0.985107421875,0.161865234375,3.540038824081421,-0.6103515028953552,-2.075195074081421,80.0,32022.0,0.0
14260.407736,290799.59375,299128.65625,378055.46875,373077.71875,288529.65625,258407.28125,224200.4375,246561.296875,0.03076171875,0.985107421875,0.161865234375,3.540038824081421,-0.6103515028953552,-2.075195074081421,80.0,32023.0,0.0
14260.4077361,290799.59375,299128.65625,378055.46875,373077.71875,288529.65625,258407.28125,224200.4375,246561.296875,0.03076171875,0.985107421875,0.161865234375,3.540038824081421,-0.6103515028953552,-2.075195074081421,80.0,32024.0,0.0
14260.4077363,290799.59375,299128.65625,378055.46875,373077.71875,288529.65625,258407.28125,224200.4375,246561.296875,0.03076171875,0.985107421875,0.161865234375,3.540038824081421,-0.6103515028953552,-2.075195074081421,80.0,32025.0,0.0
14260.4077365,290799.59375,299128.65625,378055.46875,373077.71875,288529.65625,258407.28125,224200.4375,246561.296875,0.03076171875,0.985107421875,0.161865234375,3.540038824081421,-0.6103515028953552,-2.075195074081421,80.0,32026.0,0.0
14260.4077367,290799.59375,299128.65625,378055.46875,373077.71875,288529.65625,258407.28125,224200.4375,246561.296875,0.03076171875,0.985107421875,0.161865234375,3.540038824081421,-0.6103515028953552,-2.075195074081421,80.0,32027.0,0.0
14260.4077369,290799.59375,299128.65625,378055.46875,373077.71875,288529.65625,258407.28125,224200.4375,246561.296875,0.03076171875,0.985107421875,0.161865234375,3.540038824081421,-0.6103515028953552,-2.075195074081421,80.0,32028.0,0.0
14260.407737,290799.59375,299128.65625,378055.46875,373077.71875,288529.65625,258407.28125,224200.4375,246561.296875,0.03076171875,0.985107421875,0.161865234375,3.540038824081421,-0.6103515028953552,-2.075195074081421,80.0,32029.0,0.0
14260.4077372,290799.59375,299128.65625,378055.46875,373077.71875,288529.65625,258407.28125,224200.4375,246561.296875,0.03076171875,0.985107421875,0.161865234375,3.540038824081421,-0.6103515028953552,-2.075195074081421,80.0,32030.0,0.0
14260.4077374,290799.59375,299128.65625,378055.46875,373077.71875,288529.65625,258407.28125,224200.4375,246561.296875,0.03076171875,0.985107421875,0.161865234375,3.540038824081421,-0.6103515028953552,-2.075195074081421,80.0,32031.0,0.0
14260.4077376,290799.59375,299128.65625,378055.46875,373077.71875,288529.65625,258407.28125,224200.4375,246561.296875,0.03076171875,0.985107421875,0.161865234375,3.540038824081421,-0.6103515028953552,-2.075195074081421,80.0,32032.0,0.0
14260.4077377,290799.59375,299128.65625,378055.46875,373077.71875,288529.65625,258407.28125,224200.4375,246561.296875,0.03076171875,0.985107421875,0.161865234375,3.540038824081421,-0.6103515028953552,-2.075195074081421,80.0,32033.0,0.0
14260.4077379,290799.59375,299128.65625,378055.46875,373077.71875,288529.65625,258407.28125,224200.4375,246561.296875,0.03076171875,0.985107421875,0.161865234375,3.540038824081421,-0.6103515028953552,-2.075195074081421,80.0,32034.0,0.0
14260.4077381,290799.59375,299128.65625,378055.46875,373077.71875,288529.65625,258407.28125,224200.4375,246561.296875,0.03076171875,0.985107421875,0.161865234375,3.540038824081421,-0.6103515028953552,-2.075195074081421,80.0,32035.0,0.0
14260.4077382,290799.59375,299128.65625,378055.46875,373077.71875,288529.65625,258407.28125,224200.4375,246561.296875,0.03076171875,0.985107421875,0.161865234375,3.540038824081421,-0.6103515028953552,-2.075195074081421,80.0,32036.0,0.0
14260.4077384,290799.59375,299128.65625,378055.46875,373077.71875,288529.65625,258407.28125,224200.4375,246561.296875,0.03076171875,0.985107421875,0.161865234375,3.540038824081421,-0.6103515028953552,-2.075195074081421,80.0,32037.0,0.0
14260.4077386,290799.59375,299128.65625,378055.46875,373077.71875,288529.65625,258407.28125,224200.4375,246561.296875,0.03076171875,0.985107421875,0.161865234375,3.540038824081421,-0.6103515028953552,-2.075195074081421,80.0,32038.0,0.0
14260.4077388,290799.59375,299128.65625,378055.46875,373077.71875,288529.65625,258407.28125,224200.4375,246561.296875,0.03076171875,0.985107421875,0.161865234375,3.540038824081421,-0.6103515028953552,-2.075195074081421,80.0,32039.0,0.0
14260.4077389,290799.59375,299128.65625,378055.46875,373077.71875,288529.65625,258407.28125,224200.4375,246561.296875,0.03076171875,0.985107421875,0.161865234375,3.540038824081421,-0.6103515028953552,-2.075195074081421,80.0,32040.0,0.0
14260.4077391,290799.59375,299128.65625,378055.46875,373077.71875,288529.65625,258407.28125,224200.4375,246561.296875,0.03076171875,0.985107421875,0.161865234375,3.540038824081421,-0.6103515028953552,-2.075195074081421,80.0,32041.0,0.0
14260.4077393,290799.59375,299128.65625,378055.46875,373077.71875,288529.65625,258407.28125,224200.4375,246561.296875,0.03076171875,0.985107421875,0.161865234375,3.540038824081421,-0.6103515028953552,-2.075195074081421,80.0,32042.0,0.0
14260.4077394,290799.59375,299128.65625,378055.46875,373077.71875,288529.65625,258407.28125,224200.4375,246561.296875,0.03076171875,0.985107421875,0.161865234375,3.540038824081421,-0.6103515028953552,-2.075195074081421,80.0,32043.0,0.0
14260.4077396,290799.59375,299128.65625,378055.46875,373077.71875,288529.65625,258407.28125,224200.4375,246561.296875,0.03076171875,0.985107421875,0.161865234375,3.540038824081421,-0.6103515028953552,-2.075195074081421,80.0,32044.0,0.0
14260.4077398,290750.625,298895.5,377797.0625,373003.4375,288412.71875,258324.390625,224112.640625,246511.859375,-0.017822265625,1.013671875,0.18994140625,-2.532958745956421,-1.0070799589157104,-1.7089842557907104,80.0,32045.0,1.0
14260.4077411,290767.15625,298684.40625,377732.15625,373044.71875,288374.53125,258303.03125,224108.25,246523.296875,-0.01953125,1.013916015625,0.189697265625,-2.929687261581421,-1.6784666776657104,-1.2817381620407104,80.0,32046.0,1.0
14260.4077423,290799.53125,298853.21875,377879.59375,373066.28125,288443.1875,258337.265625,224147.0625,246537.875,-0.02001953125,1.010986328125,0.19140625,-3.234863042831421,-2.532958745956421,-1.0681151151657104,80.0,32047.0,1.0
14260.409425,290797.0,299134.5625,378007.96875,373034.625,288515.96875,258383.40625,224182.734375,246538.046875,-0.02099609375,1.007080078125,0.192138671875,-3.479003667831421,-3.295898199081421,-0.7629393935203552,80.0,32048.0,1.0
14260.4137896,290764.5625,299157.46875,377942.96875,372993.0625,288495.6875,258380.71875,224169.59375,246528.484375,-0.020263671875,1.003662109375,0.1923828125,-3.723144292831421,-4.058837413787842,-0.5798339247703552,80.0,32049.0,1.0
14260.4138033,290740.78125,298883.0625,377768.46875,372999.5,288407.6875,258319.21875,224123.8125,246527.5,-0.01953125,1.00146484375,0.1962890625,-3.814697027206421,-4.882812023162842,-0.2746581733226776,80.0,32050.0,1.0
14260.4873507,290760.34375,298681.09375,377708.03125,373034.0,288372.21875,258303.828125,224113.890625,246530.546875,-0.015625,0.998779296875,0.19775390625,-3.875732183456421,-5.554198741912842,0.0610351525247097,80.0,32051.0,1.0
14260.4873627,290797.1875,298843.375,377857.875,373062.78125,288449.1875,258350.765625,224160.109375,246551.734375,-0.01318359375,0.994140625,0.1943359375,-3.936767339706421,-6.225585460662842,0.2441406100988388,80.0,32052.0,1.0
14260.4873647,290797.90625,299137.15625,377997.96875,373034.71875,288525.1875,258382.875,224187.203125,246546.546875,-0.0087890625,0.99365234375,0.19580078125,-3.967284917831421,-6.774901866912842,0.3356933295726776,80.0,32053.0,1.0
14260.4873664,290768.84375,299161.9375,377945.65625,372991.28125,288503.53125,258366.953125,224162.796875,246528.3125,-0.002685546875,0.9931640625,0.194580078125,-3.875732183456421,-7.324218273162842,0.5187987685203552,80.0,32054.0,1.0
14260.4873683,290749.1875,298877.53125,377767.84375,372993.9375,288413.5,258319.484375,224121.75,246526.15625,0.000244140625,0.9912109375,0.191650390625,-3.906249761581421,-7.720946788787842,0.7019042372703552,80.0,32055.0,1.0
14260.48737,290766.34375,298660.34375,377691.65625,373035.96875,288372.125,258303.390625,224112.375,246539.21875,0.004638671875,0.990234375,0.194580078125,-3.784179449081421,-7.904052257537842,0.6408690810203552,80.0,32056.0,1.0
14260.4873716,290800.9375,298824.0625,377832.125,373059.40625,288438.09375,258340.21875,224149.921875,246551.640625,0.009765625,0.986083984375,0.190673828125,-3.540038824081421,-8.087157249450684,0.6713866591453552,80.0,32057.0,1.0
14260.4873735,290807.75,299118.03125,377974.53125,373036.15625,288517.21875,258385.109375,224190.59375,246553.609375,0.01416015625,0.984375,0.189697265625,-3.417968511581421,-8.209227561950684,0.6408690810203552,80.0,32058.0,1.0
14260.4873775,290807.75,299118.03125,377974.53125,373036.15625,288517.21875,258385.109375,224190.59375,246553.609375,0.01416015625,0.984375,0.189697265625,-3.417968511581421,-8.209227561950684,0.6408690810203552,80.0,32059.0,0.0
14260.4873777,290807.75,299118.03125,377974.53125,373036.15625,288517.21875,258385.109375,224190.59375,246553.609375,0.01416015625,0.984375,0.189697265625,-3.417968511581421,-8.209227561950684,0.6408690810203552,80.0,32060.0,0.0
14260.487378,290807.75,299118.03125,377974.53125,373036.15625,288517.21875,258385.109375,224190.59375,246553.609375,0.01416015625,0.984375,0.189697265625,-3.417968511581421,-8.209227561950684,0.6408690810203552,80.0,32061.0,0.0
14260.4873783,290807.75,299118.03125,377974.53125,373036.15625,288517.21875,258385.109375,224190.59375,246553.609375,0.01416015625,0.984375,0.189697265625,-3.417968511581421,-8.209227561950684,0.6408690810203552,80.0,32062.0,0.0
14260.4873786,290807.75,299118.03125,377974.53125,373036.15625,288517.21875,258385.109375,224190.59375,246553.609375,0.01416015625,0.984375,0.189697265625,-3.417968511581421,-8.209227561950684,0.6408690810203552,80.0,32063.0,0.0
14260.4873789,290807.75,299118.03125,377974.53125,373036.15625,288517.21875,258385.109375,224190.59375,246553.609375,0.01416015625,0.984375,0.189697265625,-3.417968511581421,-8.209227561950684,0.6408690810203552,80.0,32064.0,0.0
14260.4873791,290807.75,299118.03125,377974.53125,373036.15625,288517.21875,258385.109375,224190.59375,246553.609375,0.01416015625,0.984375,0.189697265625,-3.417968511581421,-8.209227561950684,0.6408690810203552,80.0,32065.0,0.0
14260.4873794,290807.75,299118.03125,377974.53125,373036.15625,288517.21875,258385.109375,224190.59375,246553.609375,0.01416015625,0.984375,0.189697265625,-3.417968511581421,-8.209227561950684,0.6408690810203552,80.0,32066.0,0.0
14260.4873796,290807.75,299118.03125,377974.53125,373036.15625,288517.21875,258385.109375,224190.59375,246553.609375,0.01416015625,0.984375,0.189697265625,-3.417968511581421,-8.209227561950684,0.6408690810203552,80.0,32067.0,0.0
14260.4873799,290807.75,299118.03125,377974.53125,373036.15625,288517.21875,258385.109375,224190.59375,246553.609375,0.01416015625,0.984375,0.189697265625,-3.417968511581421,-8.209227561950684,0.6408690810203552,80.0,32068.0,0.0
14260.4873801,290807.75,299118.03125,377974.53125,373036.15625,288517.21875,258385.109375,224190.59375,246553.609375,0.01416015625,0.984375,0.189697265625,-3.417968511581421,-8.209227561950684,0.6408690810203552,80.0,32069.0,0.0
14260.4873804,290807.75,299118.03125,377974.53125,373036.15625,288517.21875,258385.109375,224190.59375,246553.609375,0.01416015625,0.984375,0.189697265625,-3.417968511581421,-8.209227561950684,0.6408690810203552,80.0,32070.0,0.0
14260.4873806,290807.75,299118.03125,377974.53125,373036.15625,288517.21875,258385.109375,224190.59375,246553.609375,0.01416015625,0.984375,0.189697265625,-3.417968511581421,-8.209227561950684,0.6408690810203552,80.0,32071.0,0.0
14260.4873809,290807.75,299118.03125,377974.53125,373036.15625,288517.21875,258385.109375,224190.59375,246553.609375,0.01416015625,0.984375,0.189697265625,-3.417968511581421,-8.209227561950684,0.6408690810203552,80.0,32072.0,0.0
14260.4873811,290807.75,299118.03125,377974.53125,373036.15625,288517.21875,258385.109375,224190.59375,246553.609375,0.01416015625,0.984375,0.189697265625,-3.417968511581421,-8.209227561950684,0.6408690810203552,80.0,32073.0,0.0
14260.4873814,290807.75,299118.03125,377974.53125,373036.15625,288517.21875,258385.109375,224190.59375,246553.609375,0.01416015625,0.984375,0.189697265625,-3.417968511581421,-8.209227561950684,0.6408690810203552,80.0,32074.0,0.0
14260.4873816,290807.75,299118.03125,377974.53125,373036.15625,288517.21875,258385.109375,224190.59375,246553.609375,0.01416015625,0.984375,0.189697265625,-3.417968511581421,-8.209227561950684,0.6408690810203552,80.0,32075.0,0.0
14260.4873819,290807.75,299118.03125,377974.53125,373036.15625,288517.21875,258385.109375,224190.59375,246553.609375,0.01416015625,0.984375,0.189697265625,-3.417968511581421,-8.209227561950684,0.6408690810203552,80.0,32076.0,0.0
14260.4873822,290807.75,299118.03125,377974.53125,373036.15625,288517.21875,258385.109375,224190.59375,246553.609375,0.01416015625,0.984375,0.189697265625,-3.417968511581421,-8.209227561950684,0.6408690810203552,80.0,32077.0,0.0
14260.4873824,290807.75,299118.03125,377974.53125,373036.15625,288517.21875,258385.109375,224190.59375,246553.609375,0.01416015625,0.984375,0.189697265625,-3.417968511581421,-8.209227561950684,0.6408690810203552,80.0,32078.0,0.0
14260.4873827,290807.75,299118.03125,377974.53125,373036.15625,288517.21875,258385.109375,224190.59375,246553.609375,0.01416015625,0.984375,0.189697265625,-3.417968511581421,-8.209227561950684,0.6408690810203552,80.0,32079.0,0.0
14260.487383,290807.75,299118.03125,377974.53125,373036.15625,288517.21875,258385.109375,224190.59375,246553.609375,0.01416015625,0.984375,0.189697265625,-3.417968511581421,-8.209227561950684,0.6408690810203552,80.0,32080.0,0.0
14260.4873832,290807.75,299118.03125,377974.53125,373036.15625,288517.21875,258385.109375,224190.59375,246553.609375,0.01416015625,0.984375,0.189697265625,-3.417968511581421,-8.209227561950684,0.6408690810203552,80.0,32081.0,0.0
14260.4873835,290807.75,299118.03125,377974.53125,373036.15625,288517.21875,258385.109375,224190.59375,246553.609375,0.01416015625,0.984375,0.189697265625,-3.417968511581421,-8.209227561950684,0.6408690810203552,80.0,32082.0,0.0
14260.4873837,290807.75,299118.03125,377974.53125,373036.15625,288517.21875,258385.109375,224190.59375,246553.609375,0.01416015625,0.984375,0.189697265625,-3.417968511581421,-8.209227561950684,0.6408690810203552,80.0,32083.0,0.0
14260.487384,290807.75,299118.03125,377974.53125,373036.15625,288517.21875,258385.109375,224190.59375,246553.609375,0.01416015625,0.984375,0.189697265625,-3.417968511581421,-8.209227561950684,0.6408690810203552,80.0,32084.0,0.0
14260.4873843,290733.28125,298853.375,377741.625,372949.6875,288397.40625,258314.109375,224109.59375,246519.71875,0.016845703125,1.017822265625,0.17822265625,-1.2817381620407104,-0.3662109076976776,-2.136230230331421,80.0,32085.0,1.0
14260.4873861,290753.46875,298648.46875,377676.625,372990.5625,288360.59375,258297.75,224097.96875,246533.765625,0.015380859375,1.013427734375,0.1787109375,-1.5563963651657104,-0.5798339247703552,-2.105712652206421,80.0,32086.0,1.0
14260.487388,290792.90625,298819.40625,377825.21875,373017.03125,288431.03125,258337.0,224131.140625,246544.140625,0.013916015625,1.009033203125,0.179443359375,-1.8615721464157104,-0.9460448622703552,-2.044677495956421,80.0,32087.0,1.0
14260.4873898,290797.0,299110.0625,377961.75,372990.8125,288508.03125,258381.96875,224174.5,246549.671875,0.014404296875,1.0029296875,0.181640625,-1.9226073026657104,-1.0070799589157104,-1.9226073026657104,80.0,32088.0,1.0
14260.4873916,290762.15625,299140.65625,377907.65625,372942.71875,288483.6875,258360.078125,224140.0,246523.03125,0.011962890625,1.001953125,0.185546875,-2.105712652206421,-1.1901854276657104,-1.9226073026657104,80.0,32089.0,1.0
14260.4873935,290741.9375,298876.1875,377743.25,372942.53125,288394.8125,258311.25,224091.71875,246506.765625,0.01123046875,1.002197265625,0.185546875,-2.075195074081421,-1.3732908964157104,-1.7700194120407104,80.0,32090.0,1.0
14260.4873954,290759.8125,298660.96875,377669.9375,372988.5,288354.15625,258283.53125,224082.5,246519.546875,0.009765625,1.001708984375,0.184326171875,-1.9226073026657104,-1.6174315214157104,-1.6784666776657104,80.0,32091.0,1.0
14260.4873972,290790.5625,298811.8125,377802.71875,373005.5625,288424.25,258323.953125,224131.5,246548.15625,0.010009765625,1.001220703125,0.18212890625,-1.9836424589157104,-1.9226073026657104,-1.6784666776657104,80.0,32092.0,1.0
14260.4873994,290796.03125,299108.8125,377950.21875,372984.75,288506.84375,258372.3125,224169.5,246548.0625,0.0126953125,1.0,0.185302734375,-1.9836424589157104,-2.258300542831421,-1.6174315214157104,80.0,32093.0,1.0
14260.491272,290762.9375,299142.34375,377904.28125,372935.65625,288486.125,258361.234375,224135.25,246511.234375,0.014892578125,0.998779296875,0.18994140625,-2.014159917831421,-2.532958745956421,-1.5258787870407104,80.0,32094.0,1.0
14260.4912804,290743.5625,298865.46875,377733.59375,372939.59375,288402.15625,258317.875,224099.40625,246509.71875,0.0166015625,0.99951171875,0.192138671875,-2.044677495956421,-2.716064214706421,-1.3732908964157104,80.0,32095.0,1.0
14260.4912825,290765.71875,298647.5625,377649.625,372987.5,288359.5,258304.453125,224102.984375,246536.171875,0.01904296875,0.99951171875,0.195556640625,-2.075195074081421,-2.807616949081421,-1.3427733182907104,80.0,32096.0,1.0
14260.4912846,290803.375,298811.90625,377792.5,373016.9375,288428.53125,258334.5,224138.03125,246548.15625,0.02001953125,0.998779296875,0.19482421875,-2.044677495956421,-2.868652105331421,-1.2817381620407104,80.0,32097.0,1.0
14260.4931793,290805.875,299108.09375,377939.9375,372986.625,288507.3125,258373.65625,224164.140625,246535.46875,0.020263671875,1.001953125,0.19873046875,-1.9836424589157104,-2.899169683456421,-1.0986326932907104,80.0,32098.0,1.0
14260.4956055,290769.65625,299143.6875,377892.65625,372941.8125,288492.90625,258368.828125,224151.703125,246524.828125,0.02001953125,1.001953125,0.20166015625,-2.044677495956421,-2.868652105331421,-1.0375975370407104,80.0,32099.0,1.0
14260.4981315,290744.4375,298870.71875,377719.375,372944.5,288407.78125,258323.421875,224116.921875,246532.6875,0.019287109375,0.999755859375,0.1982421875,-2.105712652206421,-2.960204839706421,-1.1901854276657104,80.0,32100.0,1.0
14260.5006766,290764.75,298657.21875,377646.0625,372988.21875,288369.25,258302.21875,224104.953125,246546.375,0.01806640625,1.001220703125,0.19970703125,-1.9836424589157104,-2.960204839706421,-1.2817381620407104,80.0,32101.0,1.0
14260.5031467,290804.625,298818.34375,377785.34375,373011.90625,288437.125,258343.625,224142.953125,246547.265625,0.018798828125,1.002197265625,0.199951171875,-1.8615721464157104,-2.960204839706421,-1.2817381620407104,80.0,32102.0,1.0
14260.5078619,290806.21875,299110.875,377924.84375,372984.125,288512.5625,258385.375,224176.296875,246540.734375,0.015380859375,1.00341796875,0.2041015625,-1.7700194120407104,-2.990722417831421,-1.3427733182907104,80.0,32103.0,1.0
14260.5078684,290775.03125,299148.15625,377879.59375,372944.40625,288498.71875,258372.140625,224158.765625,246528.390625,0.014892578125,1.00537109375,0.205322265625,-1.9531248807907104,-3.021239995956421,-1.2512205839157104,80.0,32104.0,1.0
14260.5078822,290752.9375,298873.40625,377708.125,372934.3125,288412.09375,258315.8125,224113.359375,246522.234375,0.0126953125,1.00439453125,0.21044921875,-1.9531248807907104,-2.990722417831421,-1.1901854276657104,80.0,32105.0,1.0
14260.5078848,290777.78125,298667.875,377644.71875,372982.9375,288374.71875,258307.140625,224105.75,246533.578125,0.010009765625,1.001953125,0.209228515625,-1.9531248807907104,-3.143310308456421,-1.1291502714157104,80.0,32106.0,1.0
14260.5094254,290811.21875,298827.0,377792.0625,373013.71875,288445.0625,258348.890625,224152.0625,246554.140625,0.007080078125,1.003662109375,0.211181640625,-1.9226073026657104,-3.295898199081421,-1.0986326932907104,80.0,32107.0,1.0
14260.5362792,290810.0625,299118.5625,377934.59375,372981.53125,288520.90625,258384.03125,224184.078125,246557.71875,0.00537109375,1.00146484375,0.214599609375,-1.7395018339157104,-3.479003667831421,-1.0070799589157104,80.0,32108.0,1.0
14260.5363045,290782.53125,299162.28125,377895.25,372938.25,288505.34375,258371.34375,224164.046875,246528.75,0.005615234375,1.00048828125,0.213134765625,-1.6174315214157104,-3.570556402206421,-0.8850097060203552,80.0,32109.0,1.0
14260.5638594,290758.21875,298886.90625,377722.0625,372941.8125,288421.8125,258340.578125,224135.890625,246543.78125,0.005615234375,0.999755859375,0.21240234375,-1.5869139432907104,-3.784179449081421,-0.7324218153953552,80.0,32110.0,1.0
14260.5638845,290773.21875,298664.5625,377643.65625,372977.59375,288373.375,258307.859375,224104.5,246531.53125,0.004638671875,0.997314453125,0.214599609375,-1.5258787870407104,-3.784179449081421,-0.5798339247703552,80.0,32111.0,1.0
14260.5638867,290803.0,298810.90625,377769.34375,372996.1875,288429.78125,258321.71875,224127.5625,246536.796875,0.001953125,0.997314453125,0.217529296875,-1.4038084745407104,-3.997802495956421,-0.2441406100988388,80.0,32112.0,1.0
14260.5638889,290804.78125,299103.8125,377899.875,372969.4375,288507.75,258369.28125,224170.84375,246550.578125,0.000244140625,0.99560546875,0.220703125,-1.2512205839157104,-4.180907726287842,0.03051757626235485,80.0,32113.0,1.0
14260.5864623,290773.84375,299154.25,377863.9375,372928.875,288496.75,258374.375,224154.390625,246513.828125,0.00048828125,0.996337890625,0.22265625,-1.3732908964157104,-4.364013195037842,0.3051757514476776,80.0,32114.0,1.0
14260.5864777,290744.71875,298879.59375,377697.5625,372929.3125,288412.25,258332.71875,224114.34375,246513.28125,0.000732421875,0.99609375,0.22314453125,-1.2207030057907104,-4.608153820037842,0.6103515028953552,80.0,32115.0,1.0
14260.5864795,290758.21875,298658.9375,377622.1875,372958.53125,288369.34375,258314.5625,224108.609375,246530.0,-0.001220703125,0.995361328125,0.22705078125,-1.1596678495407104,-4.699706554412842,0.8239745497703552,80.0,32116.0,1.0
14260.5864813,290792.46875,298821.125,377758.4375,372987.0625,288436.21875,258350.328125,224149.828125,246549.671875,-0.003662109375,0.9951171875,0.2236328125,-1.0986326932907104,-4.882812023162842,1.0375975370407104,80.0,32117.0,1.0
14260.5881131,290791.75,299111.40625,377898.46875,372960.59375,288513.5625,258386.53125,224177.8125,246548.515625,-0.004150390625,0.9951171875,0.22265625,-1.0986326932907104,-5.126952648162842,1.2512205839157104,80.0,32118.0,1.0
14260.5912837,290759.28125,299144.5,377851.59375,372913.03125,288493.96875,258374.015625,224157.25,246521.515625,-0.005859375,0.993896484375,0.22412109375,-1.1291502714157104,-5.157470226287842,1.3732908964157104,80.0,32119.0,1.0
14260.5912906,290735.5,298868.5,377677.71875,372913.03125,288406.53125,258330.921875,224124.34375,246523.75,-0.00341796875,0.994384765625,0.228271484375,-1.0986326932907104,-5.371093273162842,1.6784666776657104,80.0,32120.0,1.0
14260.5987793,290745.96875,298642.65625,377594.125,372949.4375,288356.65625,258298.828125,224110.046875,246535.109375,-0.001708984375,0.993408203125,0.23095703125,-1.1291502714157104,-5.554198741912842,1.8615721464157104,80.0,32121.0,1.0
14260.5987946,290786.71875,298805.03125,377736.375,372979.71875,288424.96875,258332.0,224140.265625,246544.484375,-0.001708984375,0.9921875,0.232177734375,-1.1596678495407104,-5.706786632537842,2.166747808456421,80.0,32122.0,1.0
14260.5988065,290786.71875,298805.03125,377736.375,372979.71875,288424.96875,258332.0,224140.265625,246544.484375,-0.001708984375,0.9921875,0.232177734375,-1.1596678495407104,-5.706786632537842,2.166747808456421,80.0,32123.0,0.0
14260.5988067,290786.71875,298805.03125,377736.375,372979.71875,288424.96875,258332.0,224140.265625,246544.484375,-0.001708984375,0.9921875,0.232177734375,-1.1596678495407104,-5.706786632537842,2.166747808456421,80.0,32124.0,0.0
14260.5988069,290786.71875,298805.03125,377736.375,372979.71875,288424.96875,258332.0,224140.265625,246544.484375,-0.001708984375,0.9921875,0.232177734375,-1.1596678495407104,-5.706786632537842,2.166747808456421,80.0,32125.0,0.0
14260.5988071,290786.71875,298805.03125,377736.375,372979.71875,288424.96875,258332.0,224140.265625,246544.484375,-0.001708984375,0.9921875,0.232177734375,-1.1596678495407104,-5.706786632537842,2.166747808456421,80.0,32126.0,0.0
14260.5988073,290786.71875,298805.03125,377736.375,372979.71875,288424.96875,258332.0,224140.265625,246544.484375,-0.001708984375,0.9921875,0.232177734375,-1.1596678495407104,-5.706786632537842,2.166747808456421,80.0,32127.0,0.0
14260.5988075,290786.71875,298805.03125,377736.375,372979.71875,288424.96875,258332.0,224140.265625,246544.484375,-0.001708984375,0.9921875,0.232177734375,-1.1596678495407104,-5.706786632537842,2.166747808456421,80.0,32128.0,0.0
14260.5988076,290786.71875,298805.03125,377736.375,372979.71875,288424.96875,258332.0,224140.265625,246544.484375,-0.001708984375,0.9921875,0.232177734375,-1.1596678495407104,-5.706786632537842,2.166747808456421,80.0,32129.0,0.0
14260.5988078,290786.71875,298805.03125,377736.375,372979.71875,288424.96875,258332.0,224140.265625,246544.484375,-0.001708984375,0.9921875,0.232177734375,-1.1596678495407104,-5.706786632537842,2.166747808456421,80.0,32130.0,0.0
14260.598808,290786.71875,298805.03125,377736.375,372979.71875,288424.96875,258332.0,224140.265625,246544.484375,-0.001708984375,0.9921875,0.232177734375,-1.1596678495407104,-5.706786632537842,2.166747808456421,80.0,32131.0,0.0
14260.5988082,290786.71875,298805.03125,377736.375,372979.71875,288424.96875,258332.0,224140.265625,246544.484375,-0.001708984375,0.9921875,0.232177734375,-1.1596678495407104,-5.706786632537842,2.166747808456421,80.0,32132.0,0.0
14260.5988083,290786.71875,298805.03125,377736.375,372979.71875,288424.96875,258332.0,224140.265625,246544.484375,-0.001708984375,0.9921875,0.232177734375,-1.1596678495407104,-5.706786632537842,2.166747808456421,80.0,32133.0,0.0
14260.5988085,290786.71875,298805.03125,377736.375,372979.71875,288424.96875,258332.0,224140.265625,246544.484375,-0.001708984375,0.9921875,0.232177734375,-1.1596678495407104,-5.706786632537842,2.166747808456421,80.0,32134.0,0.0
14260.5988087,290786.71875,298805.03125,377736.375,372979.71875,288424.96875,258332.0,224140.265625,246544.484375,-0.001708984375,0.9921875,0.232177734375,-1.1596678495407104,-5.706786632537842,2.166747808456421,80.0,32135.0,0.0
14260.5988089,290786.71875,298805.03125,377736.375,372979.71875,288424.96875,258332.0,224140.265625,246544.484375,-0.001708984375,0.9921875,0.232177734375,-1.1596678495407104,-5.706786632537842,2.166747808456421,80.0,32136.0,0.0
14260.5988091,290786.71875,298805.03125,377736.375,372979.71875,288424.96875,258332.0,224140.265625,246544.484375,-0.001708984375,0.9921875,0.232177734375,-1.1596678495407104,-5.706786632537842,2.166747808456421,80.0,32137.0,0.0
14260.5988092,290786.71875,298805.03125,377736.375,372979.71875,288424.96875,258332.0,224140.265625,246544.484375,-0.001708984375,0.9921875,0.232177734375,-1.1596678495407104,-5.706786632537842,2.166747808456421,80.0,32138.0,0.0
14260.5988094,290786.71875,298805.03125,377736.375,372979.71875,288424.96875,258332.0,224140.265625,246544.484375,-0.001708984375,0.9921875,0.232177734375,-1.1596678495407104,-5.706786632537842,2.166747808456421,80.0,32139.0,0.0
14260.5988096,290786.71875,298805.03125,377736.375,372979.71875,288424.96875,258332.0,224140.265625,246544.484375,-0.001708984375,0.9921875,0.232177734375,-1.1596678495407104,-5.706786632537842,2.166747808456421,80.0,32140.0,0.0
14260.5988098,290786.71875,298805.03125,377736.375,372979.71875,288424.96875,258332.0,224140.265625,246544.484375,-0.001708984375,0.9921875,0.232177734375,-1.1596678495407104,-5.706786632537842,2.166747808456421,80.0,32141.0,0.0
14260.59881,290786.71875,298805.03125,377736.375,372979.71875,288424.96875,258332.0,224140.265625,246544.484375,-0.001708984375,0.9921875,0.232177734375,-1.1596678495407104,-5.706786632537842,2.166747808456421,80.0,32142.0,0.0
14260.5988101,290786.71875,298805.03125,377736.375,372979.71875,288424.96875,258332.0,224140.265625,246544.484375,-0.001708984375,0.9921875,0.232177734375,-1.1596678495407104,-5.706786632537842,2.166747808456421,80.0,32143.0,0.0
14260.5988103,290786.71875,298805.03125,377736.375,372979.71875,288424.96875,258332.0,224140.265625,246544.484375,-0.001708984375,0.9921875,0.232177734375,-1.1596678495407104,-5.706786632537842,2.166747808456421,80.0,32144.0,0.0
14260.5988105,290786.71875,298805.03125,377736.375,372979.71875,288424.96875,258332.0,224140.265625,246544.484375,-0.001708984375,0.9921875,0.232177734375,-1.1596678495407104,-5.706786632537842,2.166747808456421,80.0,32145.0,0.0
14260.5988107,290786.71875,298805.03125,377736.375,372979.71875,288424.96875,258332.0,224140.265625,246544.484375,-0.001708984375,0.9921875,0.232177734375,-1.1596678495407104,-5.706786632537842,2.166747808456421,80.0,32146.0,0.0
14260.5988111,290786.71875,298805.03125,377736.375,372979.71875,288424.96875,258332.0,224140.265625,246544.484375,-0.001708984375,0.9921875,0.232177734375,-1.1596678495407104,-5.706786632537842,2.166747808456421,80.0,32147.0,0.0
14260.5988113,290786.71875,298805.03125,377736.375,372979.71875,288424.96875,258332.0,224140.265625,246544.484375,-0.001708984375,0.9921875,0.232177734375,-1.1596678495407104,-5.706786632537842,2.166747808456421,80.0,32148.0,0.0
14260.5988115,290786.71875,298805.03125,377736.375,372979.71875,288424.96875,258332.0,224140.265625,246544.484375,-0.001708984375,0.9921875,0.232177734375,-1.1596678495407104,-5.706786632537842,2.166747808456421,80.0,32149.0,0.0
14260.5988116,290786.71875,298805.03125,377736.375,372979.71875,288424.96875,258332.0,224140.265625,246544.484375,-0.001708984375,0.9921875,0.232177734375,-1.1596678495407104,-5.706786632537842,2.166747808456421,80.0,32150.0,0.0
14260.5988118,290786.71875,298805.03125,377736.375,372979.71875,288424.96875,258332.0,224140.265625,246544.484375,-0.001708984375,0.9921875,0.232177734375,-1.1596678495407104,-5.706786632537842,2.166747808456421,80.0,32151.0,0.0
14260.598812,290786.71875,298805.03125,377736.375,372979.71875,288424.96875,258332.0,224140.265625,246544.484375,-0.001708984375,0.9921875,0.232177734375,-1.1596678495407104,-5.706786632537842,2.166747808456421,80.0,32152.0,0.0
14260.5988121,290786.71875,298805.03125,377736.375,372979.71875,288424.96875,258332.0,224140.265625,246544.484375,-0.001708984375,0.9921875,0.232177734375,-1.1596678495407104,-5.706786632537842,2.166747808456421,80.0,32153.0,0.0
14260.5988123,290786.71875,298805.03125,377736.375,372979.71875,288424.96875,258332.0,224140.265625,246544.484375,-0.001708984375,0.9921875,0.232177734375,-1.1596678495407104,-5.706786632537842,2.166747808456421,80.0,32154.0,0.0
14260.5988125,290786.71875,298805.03125,377736.375,372979.71875,288424.96875,258332.0,224140.265625,246544.484375,-0.001708984375,0.9921875,0.232177734375,-1.1596678495407104,-5.706786632537842,2.166747808456421,80.0,32155.0,0.0
14260.5988127,290744.0,298627.0,377578.5625,372900.25,288349.40625,258291.5,224093.5,246519.09375,0.05029296875,1.002197265625,0.190673828125,3.753661870956421,1.0986326932907104,1.9226073026657104,80.0,32156.0,1.0
14260.5988139,290785.40625,298787.9375,377711.96875,372928.875,288416.375,258343.890625,224141.78125,246538.40625,0.05029296875,1.007080078125,0.190673828125,3.845214605331421,1.3122557401657104,1.5563963651657104,80.0,32157.0,1.0
14260.5988151,290801.75,299104.96875,377876.71875,372911.5,288510.15625,258406.734375,224190.515625,246542.796875,0.045654296875,1.01025390625,0.18798828125,3.845214605331421,1.6174315214157104,1.2207030057907104,80.0,32158.0,1.0
14260.5988163,290771.25,299156.125,377854.125,372867.71875,288500.6875,258389.84375,224171.734375,246525.625,0.041748046875,1.011962890625,0.19189453125,3.784179449081421,1.7395018339157104,0.8544921278953552,80.0,32159.0,1.0
14260.5988175,290743.71875,298871.0,377680.40625,372862.96875,288406.1875,258322.703125,224119.515625,246519.375,0.0380859375,1.0107421875,0.188232421875,3.845214605331421,1.8615721464157104,0.3356933295726776,80.0,32160.0,1.0
14260.5988186,290753.5625,298632.5625,377588.3125,372900.0625,288351.28125,258286.125,224102.53125,246531.890625,0.033935546875,1.011962890625,0.1875,3.845214605331421,1.8615721464157104,-0.1525878757238388,80.0,32161.0,1.0
14260.5988198,290784.3125,298775.875,377716.4375,372926.53125,288412.1875,258321.265625,224148.3125,246553.515625,0.029541015625,1.014404296875,0.189208984375,3.845214605331421,1.7700194120407104,-0.7324218153953552,80.0,32162.0,1.0
14260.598821,290790.40625,299090.125,377873.5,372901.40625,288497.75,258374.5625,224184.4375,246547.625,0.02783203125,1.011474609375,0.188720703125,3.723144292831421,1.5563963651657104,-1.2207030057907104,80.0,32163.0,1.0
14260.5988222,290755.8125,299146.28125,377849.1875,372856.09375,288488.53125,258372.671875,224164.765625,246526.4375,0.02099609375,1.01025390625,0.19091796875,3.662109136581421,1.3427733182907104,-1.7700194120407104,80.0,32164.0,1.0
14260.5988235,290727.625,298870.71875,377680.9375,372857.0625,288396.53125,258314.390625,224108.875,246516.859375,0.015380859375,1.0078125,0.187744140625,3.631591558456421,1.1596678495407104,-2.197265386581421,80.0,32165.0,1.0
14260.6024089,290741.21875,298630.75,377579.625,372890.0625,288342.0625,258292.390625,224094.390625,246525.359375,0.01123046875,1.006103515625,0.186279296875,3.692626714706421,0.8544921278953552,-2.716064214706421,80.0,32166.0,1.0
14260.6024243,290741.21875,298630.75,377579.625,372890.0625,288342.0625,258292.390625,224094.390625,246525.359375,0.01123046875,1.006103515625,0.186279296875,3.692626714706421,0.8544921278953552,-2.716064214706421,80.0,32167.0,0.0
14260.6024256,290741.21875,298630.75,377579.625,372890.0625,288342.0625,258292.390625,224094.390625,246525.359375,0.01123046875,1.006103515625,0.186279296875,3.692626714706421,0.8544921278953552,-2.716064214706421,80.0,32168.0,0.0
14260.6024268,290741.21875,298630.75,377579.625,372890.0625,288342.0625,258292.390625,224094.390625,246525.359375,0.01123046875,1.006103515625,0.186279296875,3.692626714706421,0.8544921278953552,-2.716064214706421,80.0,32169.0,0.0
14260.602428,290741.21875,298630.75,377579.625,372890.0625,288342.0625,258292.390625,224094.390625,246525.359375,0.01123046875,1.006103515625,0.186279296875,3.692626714706421,0.8544921278953552,-2.716064214706421,80.0,32170.0,0.0
14260.6024291,290741.21875,298630.75,377579.625,372890.0625,288342.0625,258292.390625,224094.390625,246525.359375,0.01123046875,1.006103515625,0.186279296875,3.692626714706421,0.8544921278953552,-2.716064214706421,80.0,32171.0,0.0
14260.6024302,290766.53125,298752.0,377663.9375,372896.6875,288393.03125,258335.75,224149.734375,246548.875,0.006591796875,0.986572265625,0.171630859375,5.096435070037842,-1.4953612089157104,-4.760741710662842,80.0,32172.0,1.0
14260.6024372,290776.625,299073.0625,377833.625,372874.3125,288484.15625,258388.40625,224191.046875,246544.671875,0.0029296875,0.987060546875,0.166748046875,5.340575695037842,-1.8615721464157104,-4.943847179412842,80.0,32173.0,1.0
14260.6024385,290746.3125,299133.6875,377815.21875,372831.84375,288477.78125,258386.265625,224174.234375,246527.0625,0.000244140625,0.98779296875,0.164794921875,5.554198741912842,-2.075195074081421,-4.974364757537842,80.0,32174.0,1.0
14260.6044614,290716.375,298850.78125,377636.5,372822.71875,288379.90625,258322.25,224116.125,246506.578125,-0.001220703125,0.9873046875,0.164794921875,5.737304210662842,-2.349853277206421,-5.065917491912842,80.0,32175.0,1.0
14260.6068634,290728.09375,298608.0625,377532.4375,372858.5,288322.75,258291.140625,224097.265625,246517.84375,-0.001953125,0.98779296875,0.162353515625,5.920409679412842,-2.655029058456421,-5.157470226287842,80.0,32176.0,1.0
14260.6319005,290769.65625,298762.71875,377663.40625,372892.28125,288392.0625,258331.015625,224136.421875,246540.828125,-0.00341796875,0.989013671875,0.162841796875,6.011962413787842,-2.838134527206421,-5.187987804412842,80.0,32177.0,1.0
14260.656918,290776.375,299076.375,377829.53125,372871.46875,288481.28125,258372.59375,224174.15625,246541.1875,-0.00341796875,0.991943359375,0.160400390625,6.164550304412842,-2.960204839706421,-5.065917491912842,80.0,32178.0,1.0
14260.68195,290745.6875,299132.4375,377809.59375,372829.25,288472.0625,258352.296875,224154.84375,246526.15625,-0.006591796875,0.99609375,0.1591796875,6.256103038787842,-3.234863042831421,-5.004882335662842,80.0,32179.0,1.0
14260.691912,290712.875,298844.0,377629.0625,372827.21875,288377.75,258294.171875,224110.140625,246526.4375,-0.00732421875,1.00146484375,0.16015625,6.347655773162842,-3.479003667831421,-4.943847179412842,80.0,32180.0,1.0
14260.6944257,290730.75,298605.375,377532.78125,372864.21875,288327.59375,258270.390625,224094.046875,246527.59375,-0.00537109375,1.0048828125,0.155517578125,6.256103038787842,-3.784179449081421,-4.730224132537842,80.0,32181.0,1.0
14260.6969174,290771.4375,298762.1875,377672.78125,372889.96875,288403.40625,258328.0625,224145.359375,246550.390625,-0.004150390625,1.006103515625,0.154541015625,5.950927257537842,-3.906249761581421,-4.547118663787842,80.0,32182.0,1.0
14260.699421,290780.90625,299098.0,377853.65625,372870.375,288496.75,258383.140625,224184.78125,246539.578125,-0.00634765625,1.006591796875,0.15478515625,5.645751476287842,-4.180907726287842,-4.302978038787842,80.0,32183.0,1.0
14260.7018781,290749.90625,299151.75,377836.15625,372829.4375,288487.625,258358.734375,224160.296875,246528.21875,-0.00439453125,1.005859375,0.15625,5.249022960662842,-4.394530773162842,-3.997802495956421,80.0,32184.0,1.0
14260.706133,290722.09375,298858.5625,377654.09375,372820.84375,288387.40625,258290.421875,224090.28125,246504.078125,-0.00390625,1.002197265625,0.150634765625,5.004882335662842,-4.486083507537842,-3.784179449081421,80.0,32185.0,1.0
14260.7061556,290730.75,298591.96875,377524.46875,372854.46875,288321.5,258267.625,224082.859375,246523.65625,-0.002685546875,0.99853515625,0.148681640625,4.699706554412842,-4.486083507537842,-3.631591558456421,80.0,32186.0,1.0
14260.7081208,290767.25,298736.4375,377637.75,372884.96875,288386.5,258314.46875,224137.578125,246559.328125,-0.0009765625,0.9931640625,0.141845703125,4.516601085662842,-4.364013195037842,-3.479003667831421,80.0,32187.0,1.0
14260.7164289,290783.6875,299066.90625,377821.9375,372868.0625,288487.71875,258373.921875,224185.140625,246547.796875,0.0009765625,0.9873046875,0.138671875,4.516601085662842,-4.455565929412842,-3.295898199081421,80.0,32188.0,1.0
14260.7164427,290763.75,299141.71875,377811.5625,372829.34375,288487.8125,258387.609375,224173.53125,246516.328125,0.002685546875,0.98583984375,0.138427734375,4.577636241912842,-4.333495616912842,-3.082275152206421,80.0,32189.0,1.0
14260.7164441,290732.5625,298856.15625,377629.4375,372821.3125,288391.6875,258328.875,224114.0625,246500.0625,0.00341796875,0.9853515625,0.138427734375,4.699706554412842,-4.272460460662842,-3.021239995956421,80.0,32190.0,1.0
14260.7164454,290739.625,298599.28125,377510.0,372852.6875,288325.8125,258271.5625,224081.875,246514.625,0.007080078125,0.98486328125,0.135009765625,4.638671398162842,-4.058837413787842,-2.990722417831421,80.0,32191.0,1.0
14260.7164467,290781.625,298758.15625,377638.1875,372880.65625,288395.09375,258302.578125,224123.71875,246532.421875,0.010498046875,0.9833984375,0.130615234375,4.730224132537842,-3.814697027206421,-2.868652105331421,80.0,32192.0,1.0
14260.7164479,290792.46875,299083.625,377810.3125,372864.3125,288492.625,258357.5625,224174.6875,246542.96875,0.010009765625,0.984130859375,0.13427734375,4.852294445037842,-3.479003667831421,-2.685546636581421,80.0,32193.0,1.0
14260.7164492,290768.75,299153.0,377813.875,372832.125,288502.46875,258372.046875,224178.171875,246539.65625,0.012939453125,0.986328125,0.133544921875,4.943847179412842,-3.051757574081421,-2.624511480331421,80.0,32194.0,1.0
14260.7164505,290739.78125,298866.34375,377636.59375,372821.65625,288403.78125,258317.515625,224117.828125,246515.53125,0.01123046875,0.992431640625,0.134521484375,4.974364757537842,-2.777099370956421,-2.410888433456421,80.0,32195.0,1.0
14260.7164517,290745.59375,298598.03125,377502.84375,372852.6875,288334.3125,258283.453125,224107.453125,246537.078125,0.009033203125,0.99755859375,0.1328125,4.913329601287842,-2.441406011581421,-2.410888433456421,80.0,32196.0,1.0
14260.716453,290780.21875,298740.375,377612.90625,372881.46875,288393.125,258330.296875,224151.796875,246541.8125,0.00634765625,0.99951171875,0.134033203125,4.760741710662842,-2.197265386581421,-2.380370855331421,80.0,32197.0,1.0
14260.7164542,290799.4375,299088.625,377808.875,372867.875,288505.4375,258400.390625,224205.171875,246555.671875,0.00341796875,1.001708984375,0.1298828125,4.486083507537842,-1.9836424589157104,-2.319335699081421,80.0,32198.0,1.0
14260.7164555,290769.03125,299164.15625,377814.40625,372823.375,288507.46875,258384.296875,224182.828125,246544.046875,0.001708984375,1.00341796875,0.12841796875,4.180907726287842,-1.7395018339157104,-2.227782964706421,80.0,32199.0,1.0
14260.7394414,290738.625,298878.0625,377637.84375,372812.0,288407.78125,258321.09375,224123.984375,246526.875,0.001953125,1.0068359375,0.1298828125,3.814697027206421,-1.6174315214157104,-2.197265386581421,80.0,32200.0,1.0
14260.7644809,290740.6875,298602.78125,377502.125,372834.90625,288333.75,258273.796875,224089.75,246526.875,0.001220703125,1.00830078125,0.1328125,3.417968511581421,-1.5258787870407104,-2.166747808456421,80.0,32201.0,1.0
14260.789473,290783.78125,298758.71875,377629.96875,372865.125,288406.8125,258328.421875,224140.171875,246530.546875,0.0,1.01123046875,0.135009765625,3.112792730331421,-1.4038084745407104,-2.044677495956421,80.0,32202.0,1.0
14260.8144555,290798.8125,299098.90625,377823.90625,372851.6875,288510.78125,258391.1875,224194.53125,246537.515625,-0.004150390625,1.012939453125,0.136962890625,2.655029058456421,-1.3732908964157104,-1.9531248807907104,80.0,32203.0,1.0
14260.8394619,290764.125,299163.28125,377823.1875,372807.96875,288498.8125,258359.09375,224159.75,246523.296875,-0.009765625,1.01220703125,0.13623046875,2.197265386581421,-1.4038084745407104,-1.9836424589157104,80.0,32204.0,1.0
14260.8644822,290728.625,298864.65625,377634.71875,372795.71875,288395.90625,258313.21875,224107.359375,246506.765625,-0.01123046875,1.01220703125,0.13671875,1.7089842557907104,-1.5258787870407104,-1.9531248807907104,80.0,32205.0,1.0
14260.8894895,290731.65625,298584.09375,377489.0625,372826.3125,288324.09375,258287.734375,224096.640625,246519.015625,-0.014404296875,1.011962890625,0.138427734375,1.2512205839157104,-1.7395018339157104,-1.8920897245407104,80.0,32206.0,1.0
14260.9163048,290776.625,298741.53125,377606.46875,372860.65625,288392.15625,258328.421875,224145.453125,246549.765625,-0.013671875,1.010009765625,0.142822265625,0.9765624403953552,-1.8920897245407104,-1.8310545682907104,80.0,32207.0,1.0
14260.91631,290785.84375,299072.96875,377779.53125,372843.125,288486.5625,258366.421875,224180.765625,246559.421875,-0.01220703125,1.0087890625,0.13720703125,0.5798339247703552,-2.136230230331421,-1.7700194120407104,80.0,32208.0,1.0
14260.9163114,290758.9375,299148.4375,377778.28125,372804.75,288486.90625,258362.578125,224168.609375,246537.703125,-0.010986328125,1.007568359375,0.1396484375,0.3051757514476776,-2.288818120956421,-1.8005369901657104,80.0,32209.0,1.0
14260.9163126,290730.21875,298863.75,377603.3125,372792.15625,288390.09375,258308.296875,224113.703125,246511.765625,-0.009765625,1.004150390625,0.140625,0.0,-2.532958745956421,-1.6784666776657104,80.0,32210.0,1.0
14260.9163138,290741.5,298597.59375,377475.5625,372827.84375,288325.34375,258281.75,224095.921875,246536.265625,-0.007568359375,1.001708984375,0.144775390625,-0.3051757514476776,-2.685546636581421,-1.5869139432907104,80.0,32211.0,1.0
14260.9163156,290782.96875,298746.625,377601.0,372866.71875,288395.90625,258328.6875,224143.75,246551.203125,-0.00439453125,0.99951171875,0.143310546875,-0.5493163466453552,-2.777099370956421,-1.4953612089157104,80.0,32212.0,1.0
14260.9394694,290788.96875,299074.75,377777.59375,372833.65625,288482.625,258368.390625,224169.59375,246533.21875,-0.003662109375,0.99853515625,0.144775390625,-0.8544921278953552,-2.838134527206421,-1.3122557401657104,80.0,32213.0,1.0
14260.9644868,290767.6875,299163.28125,377782.6875,372795.65625,288485.9375,258373.03125,224161.28125,246516.15625,0.00048828125,0.998046875,0.146240234375,-1.1291502714157104,-2.868652105331421,-1.0681151151657104,80.0,32214.0,1.0
14260.9894955,290739.34375,298878.40625,377605.125,372792.6875,288395.53125,258329.140625,224115.3125,246509.0,0.00341796875,0.996337890625,0.1474609375,-1.2817381620407104,-2.868652105331421,-0.8850097060203552,80.0,32215.0,1.0
14261.0399227,290745.15625,298608.6875,377470.75,372829.25,288330.90625,258303.296875,224105.65625,246542.34375,0.006103515625,0.995361328125,0.148193359375,-1.4343260526657104,-2.807616949081421,-0.5798339247703552,80.0,32216.0,1.0
14261.0399316,290787.1875,298762.1875,377596.25,372858.3125,288395.71875,258334.6875,224140.0,246542.25,0.008544921875,0.99560546875,0.152587890625,-1.5869139432907104,-2.777099370956421,-0.2746581733226776,80.0,32217.0,1.0
14261.0399329,290798.53125,299094.78125,377778.75,372841.34375,288491.21875,258377.328125,224165.921875,246534.203125,0.0107421875,0.997314453125,0.156005859375,-1.7700194120407104,-2.746581792831421,-0.03051757626235485,80.0,32218.0,1.0
14261.0399344,290770.8125,299162.8125,377772.75,372804.21875,288494.53125,258376.609375,224161.28125,246530.8125,0.010009765625,0.99755859375,0.161865234375,-1.8310545682907104,-2.624511480331421,0.1525878757238388,80.0,32219.0,1.0
14261.0632119,290742.84375,298876.625,377592.6875,372796.34375,288398.75,258334.046875,224116.65625,246516.328125,0.01171875,0.998046875,0.162841796875,-2.166747808456421,-2.471923589706421,0.3662109076976776,80.0,32220.0,1.0
14261.0882136,290748.1875,298610.375,377466.09375,372826.59375,288329.28125,258284.875,224092.703125,246531.890625,0.01220703125,0.9970703125,0.16357421875,-2.258300542831421,-2.441406011581421,0.5493163466453552,80.0,32221.0,1.0
14261.114475,290783.34375,298749.3125,377572.03125,372849.03125,288383.65625,258307.328125,224128.640625,246539.125,0.01416015625,0.99755859375,0.1640625,-2.380370855331421,-2.197265386581421,0.7629393935203552,80.0,32222.0,1.0
14261.1191447,290802.8125,299094.34375,377758.71875,372833.1875,288483.34375,258353.640625,224158.328125,246532.953125,0.01611328125,0.997314453125,0.16796875,-2.532958745956421,-1.9226073026657104,0.8850097060203552,80.0,32223.0,1.0
14261.1191625,290778.15625,299185.0,377772.3125,372799.3125,288493.875,258354.703125,224157.25,246531.96875,0.016357421875,0.998291015625,0.170654296875,-2.685546636581421,-1.8005369901657104,1.1901854276657104,80.0,32224.0,1.0
14261.1191706,290741.125,298879.3125,377573.375,372790.09375,288390.90625,258303.921875,224114.0625,246534.5625,0.018310546875,1.00146484375,0.172607421875,-2.777099370956421,-1.6479490995407104,1.2207030057907104,80.0,32225.0,1.0
14261.1191719,290747.9375,298603.59375,377435.25,372830.6875,288324.65625,258283.8125,224106.015625,246551.734375,0.017333984375,1.003173828125,0.174560546875,-2.960204839706421,-1.5563963651657104,1.3122557401657104,80.0,32226.0,1.0
14261.1191731,290784.21875,298754.15625,377557.90625,372845.90625,288384.09375,258325.03125,224133.828125,246534.296875,0.01904296875,1.002197265625,0.178955078125,-3.265380620956421,-1.5869139432907104,1.3732908964157104,80.0,32227.0,1.0
14261.1191743,290803.4375,299097.03125,377752.375,372828.53125,288485.03125,258375.8125,224166.640625,246528.046875,0.021240234375,0.9990234375,0.177490234375,-3.448486089706421,-1.4648436307907104,1.5869139432907104,80.0,32228.0,1.0
14261.1191758,290776.8125,299174.4375,377760.6875,372791.71875,288488.53125,258360.78125,224150.8125,246515.96875,0.022705078125,0.9921875,0.17626953125,-3.784179449081421,-1.3732908964157104,1.6479490995407104,80.0,32229.0,1.0
14261.1206646,290742.9375,298875.375,377575.34375,372779.375,288389.65625,258301.78125,224100.03125,246503.359375,0.0263671875,0.985107421875,0.177001953125,-3.845214605331421,-1.3427733182907104,1.7089842557907104,80.0,32230.0,1.0
14261.1244391,290746.0625,298602.25,377435.40625,372805.9375,288315.96875,258269.953125,224077.5,246508.546875,0.030029296875,0.98095703125,0.175048828125,-3.570556402206421,-1.0375975370407104,1.5258787870407104,80.0,32231.0,1.0
14261.1349721,290787.8125,298758.71875,377563.71875,372841.5,288391.96875,258328.78125,224137.046875,246539.390625,0.032470703125,0.978515625,0.175048828125,-3.173827886581421,-0.7934569716453552,1.4343260526657104,80.0,32232.0,1.0
14261.1349811,290797.5625,299092.1875,377745.5625,372821.9375,288489.5,258371.6875,224173.53125,246539.21875,0.03466796875,0.978759765625,0.17431640625,-2.899169683456421,-0.3662109076976776,1.4343260526657104,80.0,32233.0,1.0
14261.1349824,290779.5,299179.71875,377758.1875,372792.6875,288503.28125,258369.734375,224167.171875,246534.75,0.0380859375,0.9775390625,0.17626953125,-2.807616949081421,-0.1831054538488388,1.3122557401657104,80.0,32234.0,1.0
14261.1349836,290741.9375,298880.84375,377568.09375,372781.6875,288404.40625,258309.109375,224114.609375,246532.0625,0.043701171875,0.976318359375,0.175537109375,-2.563476324081421,0.03051757626235485,1.4648436307907104,80.0,32235.0,1.0
14261.1349848,290741.40625,298602.25,377430.59375,372804.59375,288330.375,258277.375,224088.859375,246522.3125,0.050537109375,0.97216796875,0.175048828125,-2.227782964706421,0.4577636420726776,1.3732908964157104,80.0,32236.0,1.0
14261.134986,290780.5625,298748.15625,377548.15625,372830.96875,288391.78125,258318.5,224128.90625,246534.03125,0.054931640625,0.973876953125,0.176513671875,-1.7700194120407104,0.9460448622703552,1.5258787870407104,80.0,32237.0,1.0
14261.1349872,290794.6875,299084.78125,377728.40625,372818.875,288492.28125,258371.25,224177.1875,246551.203125,0.058349609375,0.975830078125,0.173583984375,-1.4343260526657104,1.4343260526657104,1.6174315214157104,80.0,32238.0,1.0
14261.1349884,290766.625,299162.28125,377727.15625,372785.4375,288498.09375,258373.484375,224170.84375,246543.953125,0.063232421875,0.977294921875,0.174560546875,-1.1596678495407104,1.8920897245407104,1.8615721464157104,80.0,32239.0,1.0
14261.1349895,290734.59375,298868.84375,377541.71875,372777.40625,288401.8125,258322.96875,224126.234375,246530.90625,0.06884765625,0.981689453125,0.173095703125,-0.9460448622703552,2.502441167831421,2.166747808456421,80.0,32240.0,1.0
14261.1349907,290741.75,298600.375,377408.6875,372805.46875,288329.90625,258292.21875,224098.953125,246530.1875,0.071044921875,0.985107421875,0.176025390625,-0.9460448622703552,2.990722417831421,2.441406011581421,80.0,32241.0,1.0
14261.1349919,290789.15625,298755.65625,377540.125,372843.21875,288402.15625,258334.328125,224146.078125,246549.3125,0.071533203125,0.9892578125,0.181884765625,-0.9155272841453552,3.448486089706421,2.807616949081421,80.0,32242.0,1.0
14261.1349931,290809.71875,299092.375,377728.21875,372841.96875,288510.34375,258398.609375,224207.859375,246575.34375,0.06982421875,0.994873046875,0.1796875,-0.9765624403953552,3.967284917831421,3.143310308456421,80.0,32243.0,1.0
14261.1349944,290809.71875,299092.375,377728.21875,372841.96875,288510.34375,258398.609375,224207.859375,246575.34375,0.06982421875,0.994873046875,0.1796875,-0.9765624403953552,3.967284917831421,3.143310308456421,80.0,32244.0,0.0
14261.1349946,290736.65625,298862.875,377542.09375,372765.96875,288396.78125,258308.484375,224109.953125,246504.53125,0.061767578125,1.00634765625,0.185791015625,-1.1291502714157104,4.791259288787842,3.601073980331421,80.0,32245.0,1.0
14261.1349958,290741.9375,298591.875,377410.5625,372799.84375,288331.25,258290.421875,224104.046875,246527.953125,0.05810546875,1.00927734375,0.18896484375,-1.4953612089157104,4.943847179412842,3.784179449081421,80.0,32246.0,1.0
14261.134997,290787.09375,298757.8125,377547.09375,372836.6875,288407.96875,258338.796875,224158.40625,246560.5,0.0556640625,1.012451171875,0.189697265625,-1.9836424589157104,4.913329601287842,4.089354991912842,80.0,32247.0,1.0
14261.1349981,290803.625,299105.15625,377749.25,372822.03125,288513.90625,258388.59375,224191.671875,246556.5625,0.050048828125,1.014892578125,0.1943359375,-2.410888433456421,4.791259288787842,4.364013195037842,80.0,32248.0,1.0
14261.1349994,290769.75,299171.3125,377744.15625,372777.21875,288511.59375,258377.5,224175.40625,246537.609375,0.04833984375,1.0166015625,0.19580078125,-2.929687261581421,4.669188976287842,4.821776866912842,80.0,32249.0,1.0
14261.1594352,290734.6875,298863.9375,377542.25,372764.53125,288401.53125,258322.078125,224116.84375,246519.640625,0.04541015625,1.018798828125,0.202392578125,-3.509521245956421,4.364013195037842,4.974364757537842,80.0,32250.0,1.0
14261.1844739,290750.875,298607.59375,377413.34375,372802.34375,288340.90625,258319.484375,224109.515625,246538.5,0.0390625,1.0166015625,0.200927734375,-4.180907726287842,3.997802495956421,5.401610851287842,80.0,32251.0,1.0
14261.2094832,290787.53125,298760.5,377538.875,372827.90625,288405.03125,258353.546875,224145.625,246552.359375,0.03466796875,1.0146484375,0.205078125,-4.669188976287842,3.540038824081421,5.493163585662842,80.0,32252.0,1.0
14261.2200307,290796.65625,299102.84375,377734.75,372809.3125,288506.40625,258390.5625,224183.09375,246549.671875,0.031005859375,1.0126953125,0.20556640625,-4.943847179412842,2.899169683456421,5.554198741912842,80.0,32253.0,1.0
14261.2200433,290761.0625,299175.0625,377738.34375,372767.5625,288506.84375,258373.578125,224168.15625,246537.34375,0.025146484375,1.013427734375,0.207275390625,-5.187987804412842,2.197265386581421,5.462646007537842,80.0,32254.0,1.0
14261.2225371,290724.3125,298869.75,377544.6875,372754.59375,288403.21875,258316.984375,224114.609375,246526.96875,0.0244140625,1.011962890625,0.211181640625,-5.462646007537842,1.4343260526657104,5.493163585662842,80.0,32255.0,1.0
14261.2225406,290737.03125,298601.34375,377411.8125,372786.96875,288336.25,258297.046875,224095.921875,246534.03125,0.021240234375,1.013671875,0.211181640625,-5.828856945037842,0.4577636420726776,5.401610851287842,80.0,32256.0,1.0
14261.2250672,290777.96875,298756.46875,377540.90625,372825.6875,288404.125,258329.140625,224138.65625,246553.875,0.019287109375,1.00927734375,0.217041015625,-6.195067882537842,-0.4272460639476776,5.401610851287842,80.0,32257.0,1.0
14261.2250798,290798.96875,299109.375,377741.0,372816.21875,288512.40625,258391.453125,224192.5625,246561.5625,0.018798828125,1.005126953125,0.222412109375,-6.530761241912842,-1.4343260526657104,5.187987804412842,80.0,32258.0,1.0
14261.2270012,290767.40625,299181.96875,377736.375,372762.84375,288513.46875,258398.25,224185.421875,246553.4375,0.017822265625,1.00244140625,0.21875,-6.652831554412842,-2.380370855331421,5.035399913787842,80.0,32259.0,1.0
14261.2294618,290732.1875,298875.5625,377533.78125,372746.5625,288406.1875,258350.140625,224129.890625,246529.46875,0.019287109375,1.000244140625,0.21923828125,-6.713866710662842,-3.295898199081421,4.943847179412842,80.0,32260.0,1.0
14261.2375208,290736.3125,298598.125,377395.53125,372776.25,288330.90625,258301.6875,224095.65625,246534.828125,0.020751953125,1.0009765625,0.219482421875,-6.744384288787842,-4.302978038787842,4.943847179412842,80.0,32261.0,1.0
14261.2375259,290772.4375,298743.0625,377519.71875,372807.09375,288393.21875,258318.859375,224131.328125,246554.0625,0.021728515625,0.999755859375,0.21728515625,-6.866454601287842,-5.126952648162842,4.852294445037842,80.0,32262.0,1.0
14261.2375277,290786.28125,299078.34375,377705.0625,372791.71875,288494.875,258373.484375,224179.6875,246560.671875,0.02392578125,0.998046875,0.21923828125,-6.805419445037842,-6.103515148162842,4.730224132537842,80.0,32263.0,1.0
14261.2375289,290763.84375,299159.6875,377701.0625,372749.6875,288497.65625,258382.421875,224168.703125,246535.46875,0.0234375,0.997802734375,0.21923828125,-6.652831554412842,-6.927489757537842,4.547118663787842,80.0,32264.0,1.0
14261.2394701,290740.40625,298879.40625,377524.65625,372748.25,288409.21875,258339.0625,224127.5625,246537.34375,0.029541015625,0.999755859375,0.220947265625,-6.652831554412842,-7.629394054412842,4.364013195037842,80.0,32265.0,1.0
14261.2419659,290755.34375,298623.4375,377410.46875,372789.03125,288352.1875,258317.609375,224117.90625,246560.578125,0.0341796875,0.998046875,0.217529296875,-6.652831554412842,-8.361815452575684,4.089354991912842,80.0,32266.0,1.0
14261.266979,290798.25,298771.65625,377531.875,372816.75,288415.65625,258367.671875,224162.609375,246555.3125,0.03662109375,0.994384765625,0.216796875,-6.561278820037842,-9.002684593200684,3.936767339706421,80.0,32267.0,1.0
14261.2941402,290808.5625,299110.0625,377723.125,372798.875,288513.46875,258408.890625,224204.015625,246561.484375,0.04296875,0.994873046875,0.21630859375,-6.408690929412842,-9.521483421325684,3.723144292831421,80.0,32268.0,1.0
14261.2941577,290777.6875,299172.84375,377716.78125,372761.3125,288511.15625,258386.09375,224186.578125,246562.46875,0.04833984375,0.995361328125,0.220458984375,-6.317138195037842,-9.887694358825684,3.509521245956421,80.0,32269.0,1.0
14261.294159,290745.5,298872.0625,377521.78125,372747.1875,288404.46875,258330.390625,224123.28125,246530.28125,0.05419921875,0.993896484375,0.218017578125,-6.134032726287842,-10.131834983825684,3.326415777206421,80.0,32270.0,1.0
14261.2941602,290759.46875,298611.90625,377401.09375,372782.3125,288340.375,258318.140625,224105.3125,246533.578125,0.0595703125,0.99462890625,0.218505859375,-6.042479991912842,-10.253905296325684,3.082275152206421,80.0,32271.0,1.0
14261.2941614,290800.5,298765.40625,377535.09375,372817.375,288412.34375,258357.5625,224150.71875,246557.359375,0.064208984375,0.9912109375,0.220947265625,-5.828856945037842,-10.253905296325684,2.868652105331421,80.0,32272.0,1.0
14261.2941626,290812.21875,299104.71875,377724.03125,372799.21875,288514.1875,258390.296875,224190.328125,246561.03125,0.06787109375,0.98583984375,0.219970703125,-5.432128429412842,-10.131834983825684,2.593993902206421,80.0,32273.0,1.0
14261.2941638,290779.03125,299173.375,377712.65625,372755.9375,288512.21875,258390.015625,224181.5625,246549.953125,0.0732421875,0.983154296875,0.213134765625,-5.065917491912842,-10.009764671325684,2.410888433456421,80.0,32274.0,1.0
14261.3169015,290753.65625,298879.75,377529.125,372757.8125,288419.15625,258336.921875,224129.09375,246541.71875,0.08056640625,0.980712890625,0.211669921875,-4.730224132537842,-9.643553733825684,2.227782964706421,80.0,32275.0,1.0
14261.3519595,290761.25,298611.8125,377404.03125,372777.5,288350.5625,258300.796875,224108.703125,246546.546875,0.0849609375,0.979736328125,0.215576171875,-4.272460460662842,-9.216307640075684,2.014159917831421,80.0,32276.0,1.0
14261.4026769,290801.84375,298763.71875,377531.8125,372809.6875,288414.0625,258327.796875,224149.921875,246571.578125,0.0888671875,0.98046875,0.21630859375,-3.875732183456421,-8.789061546325684,1.8310545682907104,80.0,32277.0,1.0
14261.4026855,290801.84375,298763.71875,377531.8125,372809.6875,288414.0625,258327.796875,224149.921875,246571.578125,0.0888671875,0.98046875,0.21630859375,-3.875732183456421,-8.789061546325684,1.8310545682907104,80.0,32278.0,0.0
14261.4026858,290801.84375,298763.71875,377531.8125,372809.6875,288414.0625,258327.796875,224149.921875,246571.578125,0.0888671875,0.98046875,0.21630859375,-3.875732183456421,-8.789061546325684,1.8310545682907104,80.0,32279.0,0.0
14261.402686,290801.84375,298763.71875,377531.8125,372809.6875,288414.0625,258327.796875,224149.921875,246571.578125,0.0888671875,0.98046875,0.21630859375,-3.875732183456421,-8.789061546325684,1.8310545682907104,80.0,32280.0,0.0
14261.4026865,290801.84375,298763.71875,377531.8125,372809.6875,288414.0625,258327.796875,224149.921875,246571.578125,0.0888671875,0.98046875,0.21630859375,-3.875732183456421,-8.789061546325684,1.8310545682907104,80.0,32281.0,0.0
14261.4026868,290801.84375,298763.71875,377531.8125,372809.6875,288414.0625,258327.796875,224149.921875,246571.578125,0.0888671875,0.98046875,0.21630859375,-3.875732183456421,-8.789061546325684,1.8310545682907104,80.0,32282.0,0.0
14261.402687,290801.84375,298763.71875,377531.8125,372809.6875,288414.0625,258327.796875,224149.921875,246571.578125,0.0888671875,0.98046875,0.21630859375,-3.875732183456421,-8.789061546325684,1.8310545682907104,80.0,32283.0,0.0
14261.4026871,290801.84375,298763.71875,377531.8125,372809.6875,288414.0625,258327.796875,224149.921875,246571.578125,0.0888671875,0.98046875,0.21630859375,-3.875732183456421,-8.789061546325684,1.8310545682907104,80.0,32284.0,0.0
14261.4026873,290801.84375,298763.71875,377531.8125,372809.6875,288414.0625,258327.796875,224149.921875,246571.578125,0.0888671875,0.98046875,0.21630859375,-3.875732183456421,-8.789061546325684,1.8310545682907104,80.0,32285.0,0.0
14261.4026875,290801.84375,298763.71875,377531.8125,372809.6875,288414.0625,258327.796875,224149.921875,246571.578125,0.0888671875,0.98046875,0.21630859375,-3.875732183456421,-8.789061546325684,1.8310545682907104,80.0,32286.0,0.0
14261.4026877,290801.84375,298763.71875,377531.8125,372809.6875,288414.0625,258327.796875,224149.921875,246571.578125,0.0888671875,0.98046875,0.21630859375,-3.875732183456421,-8.789061546325684,1.8310545682907104,80.0,32287.0,0.0
14261.4026878,290801.84375,298763.71875,377531.8125,372809.6875,288414.0625,258327.796875,224149.921875,246571.578125,0.0888671875,0.98046875,0.21630859375,-3.875732183456421,-8.789061546325684,1.8310545682907104,80.0,32288.0,0.0
14261.402688,290801.84375,298763.71875,377531.8125,372809.6875,288414.0625,258327.796875,224149.921875,246571.578125,0.0888671875,0.98046875,0.21630859375,-3.875732183456421,-8.789061546325684,1.8310545682907104,80.0,32289.0,0.0
14261.4026882,290801.84375,298763.71875,377531.8125,372809.6875,288414.0625,258327.796875,224149.921875,246571.578125,0.0888671875,0.98046875,0.21630859375,-3.875732183456421,-8.789061546325684,1.8310545682907104,80.0,32290.0,0.0
14261.4026883,290801.84375,298763.71875,377531.8125,372809.6875,288414.0625,258327.796875,224149.921875,246571.578125,0.0888671875,0.98046875,0.21630859375,-3.875732183456421,-8.789061546325684,1.8310545682907104,80.0,32291.0,0.0
14261.4026885,290801.84375,298763.71875,377531.8125,372809.6875,288414.0625,258327.796875,224149.921875,246571.578125,0.0888671875,0.98046875,0.21630859375,-3.875732183456421,-8.789061546325684,1.8310545682907104,80.0,32292.0,0.0
14261.4026887,290801.84375,298763.71875,377531.8125,372809.6875,288414.0625,258327.796875,224149.921875,246571.578125,0.0888671875,0.98046875,0.21630859375,-3.875732183456421,-8.789061546325684,1.8310545682907104,80.0,32293.0,0.0
14261.4026888,290801.84375,298763.71875,377531.8125,372809.6875,288414.0625,258327.796875,224149.921875,246571.578125,0.0888671875,0.98046875,0.21630859375,-3.875732183456421,-8.789061546325684,1.8310545682907104,80.0,32294.0,0.0
14261.402689,290801.84375,298763.71875,377531.8125,372809.6875,288414.0625,258327.796875,224149.921875,246571.578125,0.0888671875,0.98046875,0.21630859375,-3.875732183456421,-8.789061546325684,1.8310545682907104,80.0,32295.0,0.0
14261.4026892,290801.84375,298763.71875,377531.8125,372809.6875,288414.0625,258327.796875,224149.921875,246571.578125,0.0888671875,0.98046875,0.21630859375,-3.875732183456421,-8.789061546325684,1.8310545682907104,80.0,32296.0,0.0
14261.4026893,290801.84375,298763.71875,377531.8125,372809.6875,288414.0625,258327.796875,224149.921875,246571.578125,0.0888671875,0.98046875,0.21630859375,-3.875732183456421,-8.789061546325684,1.8310545682907104,80.0,32297.0,0.0
14261.4026895,290801.84375,298763.71875,377531.8125,372809.6875,288414.0625,258327.796875,224149.921875,246571.578125,0.0888671875,0.98046875,0.21630859375,-3.875732183456421,-8.789061546325684,1.8310545682907104,80.0,32298.0,0.0
14261.4026897,290801.84375,298763.71875,377531.8125,372809.6875,288414.0625,258327.796875,224149.921875,246571.578125,0.0888671875,0.98046875,0.21630859375,-3.875732183456421,-8.789061546325684,1.8310545682907104,80.0,32299.0,0.0
14261.4026898,290747.40625,298867.25,377507.5625,372711.78125,288408.59375,258336.375,224127.921875,246523.921875,0.059814453125,0.9833984375,0.196533203125,2.288818120956421,4.211425304412842,-3.082275152206421,80.0,32300.0,1.0
14261.4026913,290761.25,298605.8125,377389.09375,372748.4375,288345.46875,258301.15625,224106.203125,246539.484375,0.0625,0.985107421875,0.19921875,2.319335699081421,4.364013195037842,-3.112792730331421,80.0,32301.0,1.0
14261.4026925,290806.9375,298767.8125,377527.34375,372786.96875,288418.78125,258341.75,224151.4375,246567.828125,0.05908203125,0.9892578125,0.196044921875,2.319335699081421,4.455565929412842,-2.990722417831421,80.0,32302.0,1.0
14261.4026937,290805.59375,299088.15625,377697.28125,372757.75,288506.125,258383.3125,224181.125,246556.46875,0.05712890625,0.989501953125,0.19677734375,2.380370855331421,4.638671398162842,-3.021239995956421,80.0,32303.0,1.0
14261.4026949,290786.46875,299171.9375,377698.53125,372725.1875,288516.59375,258389.671875,224178.4375,246548.515625,0.054931640625,0.99169921875,0.194091796875,2.258300542831421,4.882812023162842,-3.112792730331421,80.0,32304.0,1.0
14261.4026961,290754.375,298883.53125,377518.5625,372714.46875,288419.3125,258336.203125,224125.78125,246525.1875,0.053466796875,0.993896484375,0.19580078125,2.227782964706421,4.943847179412842,-3.204345464706421,80.0,32305.0,1.0
14261.4026973,290764.75,298615.84375,377396.34375,372749.15625,288355.21875,258319.390625,224118.1875,246540.46875,0.05224609375,0.992919921875,0.191650390625,2.197265386581421,4.974364757537842,-3.387450933456421,80.0,32306.0,1.0
14261.4026985,290805.875,298762.71875,377526.34375,372781.0625,288423.25,258359.171875,224159.484375,246558.4375,0.050537109375,0.98974609375,0.19140625,2.136230230331421,4.821776866912842,-3.479003667831421,80.0,32307.0,1.0
14261.4027011,290815.6875,299089.5,377696.65625,372763.0,288518.125,258402.984375,224195.25,246568.453125,0.049560546875,0.98779296875,0.19287109375,1.9226073026657104,4.760741710662842,-3.570556402206421,80.0,32308.0,1.0
14261.4027025,290781.0,299159.78125,377686.65625,372719.1875,288514.0,258380.90625,224173.796875,246545.828125,0.050048828125,0.98779296875,0.194580078125,1.9226073026657104,4.791259288787842,-3.601073980331421,80.0,32309.0,1.0
14261.426931,290750.6875,298872.53125,377509.1875,372714.1875,288419.78125,258327.890625,224127.484375,246537.875,0.047119140625,0.9873046875,0.195068359375,1.8615721464157104,4.852294445037842,-3.631591558456421,80.0,32310.0,1.0
14261.4519855,290750.6875,298872.53125,377509.1875,372714.1875,288419.78125,258327.890625,224127.484375,246537.875,0.047119140625,0.9873046875,0.195068359375,1.8615721464157104,4.852294445037842,-3.631591558456421,80.0,32311.0,0.0
14261.4519871,290750.6875,298872.53125,377509.1875,372714.1875,288419.78125,258327.890625,224127.484375,246537.875,0.047119140625,0.9873046875,0.195068359375,1.8615721464157104,4.852294445037842,-3.631591558456421,80.0,32312.0,0.0
14261.4519872,290750.6875,298872.53125,377509.1875,372714.1875,288419.78125,258327.890625,224127.484375,246537.875,0.047119140625,0.9873046875,0.195068359375,1.8615721464157104,4.852294445037842,-3.631591558456421,80.0,32313.0,0.0
14261.4519874,290750.6875,298872.53125,377509.1875,372714.1875,288419.78125,258327.890625,224127.484375,246537.875,0.047119140625,0.9873046875,0.195068359375,1.8615721464157104,4.852294445037842,-3.631591558456421,80.0,32314.0,0.0
14261.4519876,290750.6875,298872.53125,377509.1875,372714.1875,288419.78125,258327.890625,224127.484375,246537.875,0.047119140625,0.9873046875,0.195068359375,1.8615721464157104,4.852294445037842,-3.631591558456421,80.0,32315.0,0.0
14261.4519878,290750.6875,298872.53125,377509.1875,372714.1875,288419.78125,258327.890625,224127.484375,246537.875,0.047119140625,0.9873046875,0.195068359375,1.8615721464157104,4.852294445037842,-3.631591558456421,80.0,32316.0,0.0
14261.451988,290750.6875,298872.53125,377509.1875,372714.1875,288419.78125,258327.890625,224127.484375,246537.875,0.047119140625,0.9873046875,0.195068359375,1.8615721464157104,4.852294445037842,-3.631591558456421,80.0,32317.0,0.0
14261.4519881,290750.6875,298872.53125,377509.1875,372714.1875,288419.78125,258327.890625,224127.484375,246537.875,0.047119140625,0.9873046875,0.195068359375,1.8615721464157104,4.852294445037842,-3.631591558456421,80.0,32318.0,0.0
14261.4519883,290750.6875,298872.53125,377509.1875,372714.1875,288419.78125,258327.890625,224127.484375,246537.875,0.047119140625,0.9873046875,0.195068359375,1.8615721464157104,4.852294445037842,-3.631591558456421,80.0,32319.0,0.0
14261.4519885,290750.6875,298872.53125,377509.1875,372714.1875,288419.78125,258327.890625,224127.484375,246537.875,0.047119140625,0.9873046875,0.195068359375,1.8615721464157104,4.852294445037842,-3.631591558456421,80.0,32320.0,0.0
14261.4519887,290750.6875,298872.53125,377509.1875,372714.1875,288419.78125,258327.890625,224127.484375,246537.875,0.047119140625,0.9873046875,0.195068359375,1.8615721464157104,4.852294445037842,-3.631591558456421,80.0,32321.0,0.0
14261.4519889,290750.6875,298872.53125,377509.1875,372714.1875,288419.78125,258327.890625,224127.484375,246537.875,0.047119140625,0.9873046875,0.195068359375,1.8615721464157104,4.852294445037842,-3.631591558456421,80.0,32322.0,0.0
14261.451989,290750.6875,298872.53125,377509.1875,372714.1875,288419.78125,258327.890625,224127.484375,246537.875,0.047119140625,0.9873046875,0.195068359375,1.8615721464157104,4.852294445037842,-3.631591558456421,80.0,32323.0,0.0
14261.4519892,290750.6875,298872.53125,377509.1875,372714.1875,288419.78125,258327.890625,224127.484375,246537.875,0.047119140625,0.9873046875,0.195068359375,1.8615721464157104,4.852294445037842,-3.631591558456421,80.0,32324.0,0.0
14261.4519894,290750.6875,298872.53125,377509.1875,372714.1875,288419.78125,258327.890625,224127.484375,246537.875,0.047119140625,0.9873046875,0.195068359375,1.8615721464157104,4.852294445037842,-3.631591558456421,80.0,32325.0,0.0
14261.45199,290750.6875,298872.53125,377509.1875,372714.1875,288419.78125,258327.890625,224127.484375,246537.875,0.047119140625,0.9873046875,0.195068359375,1.8615721464157104,4.852294445037842,-3.631591558456421,80.0,32326.0,0.0
14261.4519911,290750.6875,298872.53125,377509.1875,372714.1875,288419.78125,258327.890625,224127.484375,246537.875,0.047119140625,0.9873046875,0.195068359375,1.8615721464157104,4.852294445037842,-3.631591558456421,80.0,32327.0,0.0
14261.4519912,290750.6875,298872.53125,377509.1875,372714.1875,288419.78125,258327.890625,224127.484375,246537.875,0.047119140625,0.9873046875,0.195068359375,1.8615721464157104,4.852294445037842,-3.631591558456421,80.0,32328.0,0.0
