Time,FZ,C3,CZ,C4,PZ,PO7,OZ,PO8,AccX,AccY,AccZ,Gyro1,Gyro2,Gyro3,Battery,Counter,Validation
14781.7188334,294056.875,295438.125,330180.15625,324189.1875,285349.34375,256119.0,222705.109375,246264.828125,0.0478515625,0.98974609375,0.068603515625,0.3662109076976776,-1.5869139432907104,-0.9155272841453552,80.0,162353.0,1.0
14781.7188349,294015.84375,295284.625,330010.46875,324145.71875,285254.59375,256078.140625,222653.0625,246238.09375,0.04833984375,0.988525390625,0.0693359375,0.3051757514476776,-1.5563963651657104,-0.7934569716453552,80.0,162354.0,1.0
14781.7188441,294000.03125,294983.21875,329802.40625,324160.21875,285121.28125,256030.75,222609.078125,246240.234375,0.0478515625,0.989501953125,0.068359375,0.3051757514476776,-1.6174315214157104,-0.7324218153953552,80.0,162355.0,1.0
14781.7188456,294038.09375,294968.21875,329856.59375,324218.78125,285142.03125,256040.140625,222638.671875,246265.1875,0.048583984375,0.990966796875,0.0693359375,0.2441406100988388,-1.5563963651657104,-0.7934569716453552,80.0,162356.0,1.0
14781.7188469,294066.0,295253.3125,330090.3125,324229.40625,285284.1875,256084.3125,222692.765625,246273.140625,0.047607421875,0.991455078125,0.070556640625,0.2746581733226776,-1.5563963651657104,-0.7629393935203552,80.0,162357.0,1.0
14781.768485,294053.21875,295445.625,330172.28125,324182.5625,285352.03125,256114.25,222704.921875,246259.375,0.046630859375,0.989501953125,0.068359375,0.2441406100988388,-1.4953612089157104,-0.6713866591453552,80.0,162358.0,1.0
14781.7684967,294012.28125,295285.59375,329996.78125,324140.8125,285255.375,256068.390625,222654.40625,246238.265625,0.049072265625,0.98974609375,0.07177734375,0.2136230319738388,-1.4953612089157104,-0.7324218153953552,80.0,162359.0,1.0
14781.8462737,294003.15625,294994.3125,329801.78125,324163.875,285132.46875,256026.109375,222618.828125,246241.3125,0.050537109375,0.989013671875,0.07177734375,0.1525878757238388,-1.4648436307907104,-0.6713866591453552,80.0,162360.0,1.0
14781.8462837,294038.03125,294968.65625,329859.0,324223.5,285153.09375,256035.21875,222638.859375,246269.03125,0.0498046875,0.98876953125,0.069091796875,0.0610351525247097,-1.3122557401657104,-0.7019042372703552,80.0,162361.0,1.0
14781.8462934,294065.8125,295245.46875,330090.3125,324233.53125,285288.46875,256076.890625,222685.34375,246271.890625,0.049560546875,0.987548828125,0.069091796875,0.0,-1.1901854276657104,-0.6103515028953552,80.0,162362.0,1.0
14781.846295,294050.71875,295443.40625,330173.46875,324182.9375,285350.96875,256089.765625,222690.703125,246253.296875,0.048583984375,0.987548828125,0.0693359375,-0.0610351525247097,-1.1901854276657104,-0.6408690810203552,80.0,162363.0,1.0
14781.8462964,294010.75,295281.125,329998.03125,324141.96875,285255.46875,256049.4375,222645.828125,246237.5625,0.048828125,0.987548828125,0.070556640625,0.03051757626235485,-1.1901854276657104,-0.7629393935203552,80.0,162364.0,1.0
14781.8646926,293996.34375,294971.34375,329783.28125,324157.625,285115.8125,255995.796875,222598.4375,246242.75,0.049560546875,0.987548828125,0.072509765625,0.0915527269244194,-1.1291502714157104,-0.7934569716453552,80.0,162365.0,1.0
14781.8646985,293996.34375,294971.34375,329783.28125,324157.625,285115.8125,255995.796875,222598.4375,246242.75,0.049560546875,0.987548828125,0.072509765625,0.0915527269244194,-1.1291502714157104,-0.7934569716453552,80.0,162366.0,0.0
14781.8646988,293996.34375,294971.34375,329783.28125,324157.625,285115.8125,255995.796875,222598.4375,246242.75,0.049560546875,0.987548828125,0.072509765625,0.0915527269244194,-1.1291502714157104,-0.7934569716453552,80.0,162367.0,0.0
14781.864699,293996.34375,294971.34375,329783.28125,324157.625,285115.8125,255995.796875,222598.4375,246242.75,0.049560546875,0.987548828125,0.072509765625,0.0915527269244194,-1.1291502714157104,-0.7934569716453552,80.0,162368.0,0.0
14781.8646992,293996.34375,294971.34375,329783.28125,324157.625,285115.8125,255995.796875,222598.4375,246242.75,0.049560546875,0.987548828125,0.072509765625,0.0915527269244194,-1.1291502714157104,-0.7934569716453552,80.0,162369.0,0.0
14781.8646994,293996.34375,294971.34375,329783.28125,324157.625,285115.8125,255995.796875,222598.4375,246242.75,0.049560546875,0.987548828125,0.072509765625,0.0915527269244194,-1.1291502714157104,-0.7934569716453552,80.0,162370.0,0.0
14781.8646996,293996.34375,294971.34375,329783.28125,324157.625,285115.8125,255995.796875,222598.4375,246242.75,0.049560546875,0.987548828125,0.072509765625,0.0915527269244194,-1.1291502714157104,-0.7934569716453552,80.0,162371.0,0.0
14781.8646998,294067.0,295242.25,330082.4375,324229.0625,285280.0625,256080.46875,222679.796875,246270.015625,0.0478515625,0.988037109375,0.072998046875,-0.1831054538488388,-0.8850097060203552,-0.8544921278953552,80.0,162372.0,1.0
14781.866589,294046.96875,295430.34375,330153.0625,324178.09375,285338.625,256104.15625,222693.84375,246256.875,0.046875,0.986328125,0.0732421875,-0.1220703050494194,-0.8850097060203552,-0.7934569716453552,80.0,162373.0,1.0
14781.8690766,294005.21875,295272.375,329983.1875,324135.71875,285245.375,256062.3125,222645.203125,246228.703125,0.047119140625,0.986328125,0.071044921875,-0.0915527269244194,-1.0375975370407104,-0.7934569716453552,80.0,162374.0,1.0
14781.8715592,293991.0,294973.40625,329784.625,324153.96875,285114.5625,256009.46875,222599.25,246224.953125,0.049560546875,0.988525390625,0.07421875,0.03051757626235485,-1.0375975370407104,-0.9155272841453552,80.0,162375.0,1.0
14781.8841513,294030.96875,294959.28125,329849.625,324211.53125,285142.28125,256025.921875,222629.203125,246256.78125,0.050048828125,0.989013671875,0.07373046875,0.0915527269244194,-1.0681151151657104,-1.0070799589157104,80.0,162376.0,1.0
14781.8841568,294075.5625,295256.53125,330093.34375,324234.78125,285297.9375,256101.828125,222702.59375,246281.640625,0.04736328125,0.98974609375,0.070068359375,0.1220703050494194,-1.1291502714157104,-0.8850097060203552,80.0,162377.0,1.0
14781.8841581,294060.8125,295451.71875,330173.5625,324186.0625,285362.6875,256127.40625,222716.09375,246264.5625,0.04638671875,0.990478515625,0.073486328125,0.0915527269244194,-1.1901854276657104,-0.7934569716453552,80.0,162378.0,1.0
14781.8841593,294020.3125,295295.4375,330008.78125,324145.375,285268.625,256079.296875,222662.09375,246238.09375,0.046142578125,0.990234375,0.072998046875,0.1220703050494194,-1.2512205839157104,-0.7934569716453552,80.0,162379.0,1.0
14781.8841606,294004.40625,294985.375,329801.4375,324161.90625,285129.59375,256018.59375,222606.84375,246237.828125,0.046875,0.989990234375,0.07373046875,0.1220703050494194,-1.2512205839157104,-0.8239745497703552,80.0,162380.0,1.0
14781.8841618,294039.4375,294971.5,329858.375,324215.03125,285149.34375,256032.453125,222638.3125,246268.5,0.048095703125,0.98876953125,0.07177734375,0.1220703050494194,-1.1291502714157104,-0.8544921278953552,80.0,162381.0,1.0
14781.884163,294067.0,295260.375,330098.625,324227.09375,285299.46875,256101.296875,222704.390625,246283.25,0.045654296875,0.990234375,0.070068359375,0.1220703050494194,-1.1901854276657104,-0.8544921278953552,80.0,162382.0,1.0
14781.8841643,294046.25,295451.90625,330178.375,324175.6875,285364.375,256135.09375,222717.890625,246264.015625,0.046630859375,0.9892578125,0.068359375,0.2136230319738388,-1.2817381620407104,-0.7934569716453552,80.0,162383.0,1.0
14781.8841656,294000.90625,295285.6875,330001.53125,324130.09375,285262.46875,256090.46875,222663.171875,246234.875,0.047119140625,0.991943359375,0.070068359375,0.2441406100988388,-1.3732908964157104,-0.7324218153953552,80.0,162384.0,1.0
14781.8841668,293982.59375,294970.71875,329789.09375,324140.8125,285118.5,256016.09375,222602.46875,246229.875,0.047607421875,0.990966796875,0.071533203125,0.2746581733226776,-1.3732908964157104,-0.7019042372703552,80.0,162385.0,1.0
14781.884168,294012.96875,294938.4375,329837.65625,324192.125,285127.28125,255999.28125,222609.4375,246244.0,0.050048828125,0.9892578125,0.07470703125,0.2136230319738388,-1.3732908964157104,-0.7629393935203552,80.0,162386.0,1.0
14781.9377403,294043.5625,295215.96875,330055.625,324202.59375,285257.8125,256056.140625,222665.765625,246251.59375,0.05029296875,0.988525390625,0.07373046875,0.2441406100988388,-1.4038084745407104,-0.7934569716453552,80.0,162387.0,1.0
14781.9377926,294028.625,295408.1875,330129.28125,324155.84375,285319.21875,256081.890625,222676.3125,246240.515625,0.048583984375,0.990478515625,0.07373046875,0.2136230319738388,-1.4038084745407104,-0.7019042372703552,80.0,162388.0,1.0
14781.9377943,294028.625,295408.1875,330129.28125,324155.84375,285319.21875,256081.890625,222676.3125,246240.515625,0.048583984375,0.990478515625,0.07373046875,0.2136230319738388,-1.4038084745407104,-0.7019042372703552,80.0,162389.0,0.0
14781.9377945,294028.625,295408.1875,330129.28125,324155.84375,285319.21875,256081.890625,222676.3125,246240.515625,0.048583984375,0.990478515625,0.07373046875,0.2136230319738388,-1.4038084745407104,-0.7019042372703552,80.0,162390.0,0.0
14781.9377947,294028.625,295408.1875,330129.28125,324155.84375,285319.21875,256081.890625,222676.3125,246240.515625,0.048583984375,0.990478515625,0.07373046875,0.2136230319738388,-1.4038084745407104,-0.7019042372703552,80.0,162391.0,0.0
14781.9377949,294058.125,295248.78125,330089.875,324221.1875,285291.5,256085.640625,222687.84375,246270.90625,0.049072265625,0.98974609375,0.069091796875,0.2746581733226776,-1.3732908964157104,-0.6713866591453552,80.0,162392.0,1.0
14781.9377965,294034.09375,295437.15625,330163.90625,324163.4375,285348.46875,256108.796875,222694.375,246247.21875,0.0478515625,0.99169921875,0.069091796875,0.2441406100988388,-1.3427733182907104,-0.7019042372703552,80.0,162393.0,1.0
14781.9377978,293997.96875,295276.3125,329994.375,324126.5,285255.9375,256072.5,222649.40625,246231.828125,0.048828125,0.99365234375,0.0693359375,0.1525878757238388,-1.3427733182907104,-0.6103515028953552,80.0,162394.0,1.0
14781.9377992,293990.53125,294976.875,329789.90625,324147.59375,285124.6875,256024.765625,222607.921875,246240.234375,0.047119140625,0.9921875,0.072265625,0.2441406100988388,-1.3122557401657104,-0.5798339247703552,80.0,162395.0,1.0
14781.9378005,294030.40625,294967.5,329856.34375,324207.40625,285150.875,256040.59375,222639.84375,246269.296875,0.048583984375,0.99169921875,0.073486328125,0.3356933295726776,-1.2817381620407104,-0.6408690810203552,80.0,162396.0,1.0
14781.9378018,294060.375,295250.8125,330088.625,324216.09375,285289.90625,256094.859375,222690.34375,246273.859375,0.050048828125,0.990478515625,0.0751953125,0.2746581733226776,-1.3427733182907104,-0.6713866591453552,80.0,162397.0,1.0
14781.9616589,294040.625,295432.125,330161.9375,324165.65625,285348.71875,256116.765625,222699.296875,246256.59375,0.048828125,0.990966796875,0.072265625,0.2746581733226776,-1.4343260526657104,-0.7934569716453552,80.0,162398.0,1.0
14781.9977275,294004.125,295270.40625,329988.9375,324127.125,285250.5625,256073.484375,222649.671875,246235.234375,0.049072265625,0.99267578125,0.069580078125,0.2441406100988388,-1.4648436307907104,-0.7629393935203552,80.0,162399.0,1.0
14781.9977341,293997.78125,294979.90625,329794.0,324149.3125,285122.09375,256028.421875,222606.671875,246240.421875,0.048828125,0.989990234375,0.06982421875,0.1831054538488388,-1.4343260526657104,-0.8239745497703552,80.0,162400.0,1.0
14782.0210537,294031.3125,294960.0625,329847.03125,324203.21875,285141.5625,256033.796875,222629.015625,246260.71875,0.050537109375,0.989013671875,0.074462890625,0.2136230319738388,-1.3732908964157104,-0.9155272841453552,80.0,162401.0,1.0
14782.0484796,294031.3125,294960.0625,329847.03125,324203.21875,285141.5625,256033.796875,222629.015625,246260.71875,0.050537109375,0.989013671875,0.074462890625,0.2136230319738388,-1.3732908964157104,-0.9155272841453552,80.0,162402.0,0.0
14782.0484809,294031.3125,294960.0625,329847.03125,324203.21875,285141.5625,256033.796875,222629.015625,246260.71875,0.050537109375,0.989013671875,0.074462890625,0.2136230319738388,-1.3732908964157104,-0.9155272841453552,80.0,162403.0,0.0
14782.0484811,294031.3125,294960.0625,329847.03125,324203.21875,285141.5625,256033.796875,222629.015625,246260.71875,0.050537109375,0.989013671875,0.074462890625,0.2136230319738388,-1.3732908964157104,-0.9155272841453552,80.0,162404.0,0.0
14782.0484813,294031.3125,294960.0625,329847.03125,324203.21875,285141.5625,256033.796875,222629.015625,246260.71875,0.050537109375,0.989013671875,0.074462890625,0.2136230319738388,-1.3732908964157104,-0.9155272841453552,80.0,162405.0,0.0
14782.0484814,294031.3125,294960.0625,329847.03125,324203.21875,285141.5625,256033.796875,222629.015625,246260.71875,0.050537109375,0.989013671875,0.074462890625,0.2136230319738388,-1.3732908964157104,-0.9155272841453552,80.0,162406.0,0.0
14782.0484816,294031.3125,294960.0625,329847.03125,324203.21875,285141.5625,256033.796875,222629.015625,246260.71875,0.050537109375,0.989013671875,0.074462890625,0.2136230319738388,-1.3732908964157104,-0.9155272841453552,80.0,162407.0,0.0
14782.0484818,294031.3125,294960.0625,329847.03125,324203.21875,285141.5625,256033.796875,222629.015625,246260.71875,0.050537109375,0.989013671875,0.074462890625,0.2136230319738388,-1.3732908964157104,-0.9155272841453552,80.0,162408.0,0.0
14782.0484819,294031.3125,294960.0625,329847.03125,324203.21875,285141.5625,256033.796875,222629.015625,246260.71875,0.050537109375,0.989013671875,0.074462890625,0.2136230319738388,-1.3732908964157104,-0.9155272841453552,80.0,162409.0,0.0
14782.0484821,294031.3125,294960.0625,329847.03125,324203.21875,285141.5625,256033.796875,222629.015625,246260.71875,0.050537109375,0.989013671875,0.074462890625,0.2136230319738388,-1.3732908964157104,-0.9155272841453552,80.0,162410.0,0.0
14782.0484823,294031.3125,294960.0625,329847.03125,324203.21875,285141.5625,256033.796875,222629.015625,246260.71875,0.050537109375,0.989013671875,0.074462890625,0.2136230319738388,-1.3732908964157104,-0.9155272841453552,80.0,162411.0,0.0
14782.0484825,294031.3125,294960.0625,329847.03125,324203.21875,285141.5625,256033.796875,222629.015625,246260.71875,0.050537109375,0.989013671875,0.074462890625,0.2136230319738388,-1.3732908964157104,-0.9155272841453552,80.0,162412.0,0.0
14782.0484826,294031.3125,294960.0625,329847.03125,324203.21875,285141.5625,256033.796875,222629.015625,246260.71875,0.050537109375,0.989013671875,0.074462890625,0.2136230319738388,-1.3732908964157104,-0.9155272841453552,80.0,162413.0,0.0
14782.0484828,294031.3125,294960.0625,329847.03125,324203.21875,285141.5625,256033.796875,222629.015625,246260.71875,0.050537109375,0.989013671875,0.074462890625,0.2136230319738388,-1.3732908964157104,-0.9155272841453552,80.0,162414.0,0.0
14782.048483,294031.3125,294960.0625,329847.03125,324203.21875,285141.5625,256033.796875,222629.015625,246260.71875,0.050537109375,0.989013671875,0.074462890625,0.2136230319738388,-1.3732908964157104,-0.9155272841453552,80.0,162415.0,0.0
14782.0484832,294031.3125,294960.0625,329847.03125,324203.21875,285141.5625,256033.796875,222629.015625,246260.71875,0.050537109375,0.989013671875,0.074462890625,0.2136230319738388,-1.3732908964157104,-0.9155272841453552,80.0,162416.0,0.0
14782.0484833,294031.3125,294960.0625,329847.03125,324203.21875,285141.5625,256033.796875,222629.015625,246260.71875,0.050537109375,0.989013671875,0.074462890625,0.2136230319738388,-1.3732908964157104,-0.9155272841453552,80.0,162417.0,0.0
14782.0484835,294031.3125,294960.0625,329847.03125,324203.21875,285141.5625,256033.796875,222629.015625,246260.71875,0.050537109375,0.989013671875,0.074462890625,0.2136230319738388,-1.3732908964157104,-0.9155272841453552,80.0,162418.0,0.0
14782.0484837,294031.3125,294960.0625,329847.03125,324203.21875,285141.5625,256033.796875,222629.015625,246260.71875,0.050537109375,0.989013671875,0.074462890625,0.2136230319738388,-1.3732908964157104,-0.9155272841453552,80.0,162419.0,0.0
14782.0484839,294031.3125,294960.0625,329847.03125,324203.21875,285141.5625,256033.796875,222629.015625,246260.71875,0.050537109375,0.989013671875,0.074462890625,0.2136230319738388,-1.3732908964157104,-0.9155272841453552,80.0,162420.0,0.0
14782.048484,294031.3125,294960.0625,329847.03125,324203.21875,285141.5625,256033.796875,222629.015625,246260.71875,0.050537109375,0.989013671875,0.074462890625,0.2136230319738388,-1.3732908964157104,-0.9155272841453552,80.0,162421.0,0.0
14782.0484842,294031.3125,294960.0625,329847.03125,324203.21875,285141.5625,256033.796875,222629.015625,246260.71875,0.050537109375,0.989013671875,0.074462890625,0.2136230319738388,-1.3732908964157104,-0.9155272841453552,80.0,162422.0,0.0
14782.0484844,294031.3125,294960.0625,329847.03125,324203.21875,285141.5625,256033.796875,222629.015625,246260.71875,0.050537109375,0.989013671875,0.074462890625,0.2136230319738388,-1.3732908964157104,-0.9155272841453552,80.0,162423.0,0.0
14782.0484846,294031.3125,294960.0625,329847.03125,324203.21875,285141.5625,256033.796875,222629.015625,246260.71875,0.050537109375,0.989013671875,0.074462890625,0.2136230319738388,-1.3732908964157104,-0.9155272841453552,80.0,162424.0,0.0
14782.0484847,294031.3125,294960.0625,329847.03125,324203.21875,285141.5625,256033.796875,222629.015625,246260.71875,0.050537109375,0.989013671875,0.074462890625,0.2136230319738388,-1.3732908964157104,-0.9155272841453552,80.0,162425.0,0.0
14782.0484849,294031.3125,294960.0625,329847.03125,324203.21875,285141.5625,256033.796875,222629.015625,246260.71875,0.050537109375,0.989013671875,0.074462890625,0.2136230319738388,-1.3732908964157104,-0.9155272841453552,80.0,162426.0,0.0
14782.0484851,294063.40625,295252.53125,330075.03125,324211.96875,285280.875,256083.859375,222682.390625,246273.40625,0.0517578125,0.991943359375,0.069091796875,-0.03051757626235485,-1.4343260526657104,-1.3732908964157104,80.0,162427.0,1.0
14782.0484898,294048.75,295447.0625,330151.71875,324164.0625,285347.125,256122.296875,222695.71875,246257.3125,0.050048828125,0.991943359375,0.068359375,-0.03051757626235485,-1.4953612089157104,-1.3122557401657104,80.0,162428.0,1.0
14782.0728728,294010.03125,295287.375,329982.40625,324126.59375,285256.375,256084.390625,222649.84375,246239.171875,0.04833984375,0.990478515625,0.070556640625,0.0610351525247097,-1.4953612089157104,-1.3122557401657104,80.0,162429.0,1.0
14782.1316963,294000.1875,294989.84375,329785.6875,324148.5,285125.46875,256019.390625,222598.0,246238.546875,0.049072265625,0.9892578125,0.070556640625,0.0,-1.4953612089157104,-1.3427733182907104,80.0,162430.0,1.0
14782.1317064,294042.5,294985.46875,329855.78125,324211.25,285152.46875,256031.90625,222625.703125,246266.890625,0.049560546875,0.989013671875,0.07275390625,0.1525878757238388,-1.5258787870407104,-1.2512205839157104,80.0,162431.0,1.0
14782.1317077,294070.5625,295269.5,330086.90625,324222.15625,285290.4375,256094.234375,222685.875,246280.5625,0.0517578125,0.98876953125,0.0732421875,0.03051757626235485,-1.4648436307907104,-1.2817381620407104,80.0,162432.0,1.0
14782.131709,294056.96875,295453.34375,330157.8125,324173.71875,285349.4375,256128.734375,222701.4375,246261.875,0.0498046875,0.988037109375,0.07568359375,0.0915527269244194,-1.5563963651657104,-1.2512205839157104,80.0,162433.0,1.0
14782.1317102,294017.375,295286.125,329977.84375,324130.96875,285247.25,256077.78125,222640.546875,246237.015625,0.0498046875,0.990966796875,0.0732421875,0.03051757626235485,-1.4648436307907104,-1.1901854276657104,80.0,162434.0,1.0
14782.1317115,294006.1875,294990.65625,329782.125,324152.0,285119.75,256015.8125,222599.25,246240.953125,0.049560546875,0.9912109375,0.074462890625,-0.03051757626235485,-1.4953612089157104,-1.1291502714157104,80.0,162435.0,1.0
14782.1572704,294039.28125,294978.65625,329845.875,324209.65625,285143.90625,256033.078125,222630.265625,246270.90625,0.051025390625,0.991455078125,0.073486328125,-0.1220703050494194,-1.5563963651657104,-1.0375975370407104,80.0,162436.0,1.0
14782.1572781,294069.40625,295265.5625,330082.8125,324220.65625,285288.5625,256086.453125,222685.609375,246280.46875,0.05029296875,0.99072265625,0.072998046875,-0.2746581733226776,-1.5563963651657104,-0.9155272841453552,80.0,162437.0,1.0
14782.2095572,294053.3125,295457.8125,330170.25,324172.625,285359.1875,256117.296875,222700.984375,246262.328125,0.0478515625,0.99072265625,0.073974609375,-0.1831054538488388,-1.6784666776657104,-0.8544921278953552,80.0,162438.0,1.0
14782.2095632,294007.15625,295282.125,329984.09375,324127.21875,285251.46875,256067.234375,222644.21875,246236.9375,0.046630859375,0.9873046875,0.072021484375,-0.1220703050494194,-1.6174315214157104,-0.8239745497703552,80.0,162439.0,1.0
14782.2095645,293992.78125,294975.625,329766.75,324140.625,285109.375,256014.921875,222595.484375,246234.78125,0.04931640625,0.98681640625,0.07275390625,-0.0915527269244194,-1.6174315214157104,-0.7324218153953552,80.0,162440.0,1.0
14782.2095668,293992.78125,294975.625,329766.75,324140.625,285109.375,256014.921875,222595.484375,246234.78125,0.04931640625,0.98681640625,0.07275390625,-0.0915527269244194,-1.6174315214157104,-0.7324218153953552,80.0,162441.0,0.0
14782.209567,293992.78125,294975.625,329766.75,324140.625,285109.375,256014.921875,222595.484375,246234.78125,0.04931640625,0.98681640625,0.07275390625,-0.0915527269244194,-1.6174315214157104,-0.7324218153953552,80.0,162442.0,0.0
14782.2095672,293992.78125,294975.625,329766.75,324140.625,285109.375,256014.921875,222595.484375,246234.78125,0.04931640625,0.98681640625,0.07275390625,-0.0915527269244194,-1.6174315214157104,-0.7324218153953552,80.0,162443.0,0.0
14782.2095674,293992.78125,294975.625,329766.75,324140.625,285109.375,256014.921875,222595.484375,246234.78125,0.04931640625,0.98681640625,0.07275390625,-0.0915527269244194,-1.6174315214157104,-0.7324218153953552,80.0,162444.0,0.0
14782.2095677,293992.78125,294975.625,329766.75,324140.625,285109.375,256014.921875,222595.484375,246234.78125,0.04931640625,0.98681640625,0.07275390625,-0.0915527269244194,-1.6174315214157104,-0.7324218153953552,80.0,162445.0,0.0
14782.2095679,293992.78125,294975.625,329766.75,324140.625,285109.375,256014.921875,222595.484375,246234.78125,0.04931640625,0.98681640625,0.07275390625,-0.0915527269244194,-1.6174315214157104,-0.7324218153953552,80.0,162446.0,0.0
14782.2095681,293992.78125,294975.625,329766.75,324140.625,285109.375,256014.921875,222595.484375,246234.78125,0.04931640625,0.98681640625,0.07275390625,-0.0915527269244194,-1.6174315214157104,-0.7324218153953552,80.0,162447.0,0.0
14782.2095682,293992.78125,294975.625,329766.75,324140.625,285109.375,256014.921875,222595.484375,246234.78125,0.04931640625,0.98681640625,0.07275390625,-0.0915527269244194,-1.6174315214157104,-0.7324218153953552,80.0,162448.0,0.0
14782.2095684,293992.78125,294975.625,329766.75,324140.625,285109.375,256014.921875,222595.484375,246234.78125,0.04931640625,0.98681640625,0.07275390625,-0.0915527269244194,-1.6174315214157104,-0.7324218153953552,80.0,162449.0,0.0
14782.2095686,293992.78125,294975.625,329766.75,324140.625,285109.375,256014.921875,222595.484375,246234.78125,0.04931640625,0.98681640625,0.07275390625,-0.0915527269244194,-1.6174315214157104,-0.7324218153953552,80.0,162450.0,0.0
14782.2095687,293992.78125,294975.625,329766.75,324140.625,285109.375,256014.921875,222595.484375,246234.78125,0.04931640625,0.98681640625,0.07275390625,-0.0915527269244194,-1.6174315214157104,-0.7324218153953552,80.0,162451.0,0.0
14782.2095689,293992.78125,294975.625,329766.75,324140.625,285109.375,256014.921875,222595.484375,246234.78125,0.04931640625,0.98681640625,0.07275390625,-0.0915527269244194,-1.6174315214157104,-0.7324218153953552,80.0,162452.0,0.0
14782.2095691,293992.78125,294975.625,329766.75,324140.625,285109.375,256014.921875,222595.484375,246234.78125,0.04931640625,0.98681640625,0.07275390625,-0.0915527269244194,-1.6174315214157104,-0.7324218153953552,80.0,162453.0,0.0
14782.2095693,293992.78125,294975.625,329766.75,324140.625,285109.375,256014.921875,222595.484375,246234.78125,0.04931640625,0.98681640625,0.07275390625,-0.0915527269244194,-1.6174315214157104,-0.7324218153953552,80.0,162454.0,0.0
14782.2095694,293992.78125,294975.625,329766.75,324140.625,285109.375,256014.921875,222595.484375,246234.78125,0.04931640625,0.98681640625,0.07275390625,-0.0915527269244194,-1.6174315214157104,-0.7324218153953552,80.0,162455.0,0.0
14782.2095696,293992.78125,294975.625,329766.75,324140.625,285109.375,256014.921875,222595.484375,246234.78125,0.04931640625,0.98681640625,0.07275390625,-0.0915527269244194,-1.6174315214157104,-0.7324218153953552,80.0,162456.0,0.0
14782.2095698,293992.78125,294975.625,329766.75,324140.625,285109.375,256014.921875,222595.484375,246234.78125,0.04931640625,0.98681640625,0.07275390625,-0.0915527269244194,-1.6174315214157104,-0.7324218153953552,80.0,162457.0,0.0
14782.20957,293992.78125,294975.625,329766.75,324140.625,285109.375,256014.921875,222595.484375,246234.78125,0.04931640625,0.98681640625,0.07275390625,-0.0915527269244194,-1.6174315214157104,-0.7324218153953552,80.0,162458.0,0.0
14782.2095701,293992.78125,294975.625,329766.75,324140.625,285109.375,256014.921875,222595.484375,246234.78125,0.04931640625,0.98681640625,0.07275390625,-0.0915527269244194,-1.6174315214157104,-0.7324218153953552,80.0,162459.0,0.0
14782.2095703,293992.78125,294975.625,329766.75,324140.625,285109.375,256014.921875,222595.484375,246234.78125,0.04931640625,0.98681640625,0.07275390625,-0.0915527269244194,-1.6174315214157104,-0.7324218153953552,80.0,162460.0,0.0
14782.2095705,293992.78125,294975.625,329766.75,324140.625,285109.375,256014.921875,222595.484375,246234.78125,0.04931640625,0.98681640625,0.07275390625,-0.0915527269244194,-1.6174315214157104,-0.7324218153953552,80.0,162461.0,0.0
14782.2095707,293992.78125,294975.625,329766.75,324140.625,285109.375,256014.921875,222595.484375,246234.78125,0.04931640625,0.98681640625,0.07275390625,-0.0915527269244194,-1.6174315214157104,-0.7324218153953552,80.0,162462.0,0.0
14782.2095708,294053.03125,295449.21875,330154.59375,324166.125,285350.4375,256104.0625,222689.640625,246251.859375,0.049560546875,0.987548828125,0.07666015625,0.7019042372703552,-1.3427733182907104,-1.0375975370407104,80.0,162463.0,1.0
14782.2095721,294018.96875,295287.75,329982.9375,324132.21875,285256.71875,256068.65625,222646.984375,246236.21875,0.04931640625,0.989013671875,0.07080078125,0.7324218153953552,-1.3122557401657104,-0.9460448622703552,80.0,162464.0,1.0
14782.2095733,294008.0625,294990.125,329775.25,324149.75,285117.78125,256016.796875,222600.40625,246240.328125,0.048583984375,0.989013671875,0.0712890625,0.7934569716453552,-1.4953612089157104,-0.9765624403953552,80.0,162465.0,1.0
14782.2095746,294044.0,294988.59375,329838.1875,324206.625,285142.28125,256038.4375,222629.015625,246267.15625,0.049560546875,0.98974609375,0.0732421875,0.8544921278953552,-1.4648436307907104,-1.0375975370407104,80.0,162466.0,1.0
14782.2095758,294086.21875,295293.75,330089.25,324229.40625,285300.71875,256112.640625,222700.28125,246286.109375,0.046630859375,0.990966796875,0.07373046875,0.8850097060203552,-1.5258787870407104,-1.0375975370407104,80.0,162467.0,1.0
14782.2095772,294066.4375,295472.28125,330161.5625,324175.9375,285359.46875,256127.40625,222702.875,246265.359375,0.046875,0.99169921875,0.072998046875,0.8850097060203552,-1.5258787870407104,-1.0986326932907104,80.0,162468.0,1.0
14782.234581,294024.59375,295301.78125,329986.6875,324136.59375,285259.59375,256073.3125,222650.03125,246250.34375,0.046630859375,0.991943359375,0.073486328125,0.8544921278953552,-1.6784666776657104,-1.1901854276657104,80.0,162469.0,1.0
14782.294223,294011.8125,295009.0625,329795.53125,324155.21875,285132.1875,256020.015625,222601.390625,246244.265625,0.047119140625,0.988525390625,0.072998046875,0.8850097060203552,-1.8005369901657104,-1.2512205839157104,80.0,162470.0,1.0
14782.2942299,294040.96875,294992.34375,329856.5,324207.875,285153.65625,256026.375,222619.359375,246262.765625,0.05126953125,0.98828125,0.07275390625,0.7629393935203552,-1.8920897245407104,-1.0986326932907104,80.0,162471.0,1.0
14782.2942312,294074.21875,295278.4375,330085.9375,324219.40625,285297.3125,256097.1875,222690.796875,246286.828125,0.052734375,0.9873046875,0.071044921875,0.7324218153953552,-1.9226073026657104,-1.0375975370407104,80.0,162472.0,1.0
14782.2942324,294060.8125,295466.5625,330162.625,324170.59375,285362.15625,256132.5,222707.0625,246268.3125,0.054931640625,0.9892578125,0.0732421875,0.8850097060203552,-1.8310545682907104,-1.0070799589157104,80.0,162473.0,1.0
14782.2942337,294016.28125,295289.4375,329985.4375,324126.96875,285258.6875,256072.953125,222640.640625,246238.359375,0.052978515625,0.989501953125,0.073974609375,0.9765624403953552,-1.7700194120407104,-0.9155272841453552,80.0,162474.0,1.0
14782.294235,294002.875,294982.25,329776.5,324143.9375,285120.03125,256013.140625,222587.625,246236.84375,0.051513671875,0.99267578125,0.076171875,0.9460448622703552,-1.7700194120407104,-0.8544921278953552,80.0,162475.0,1.0
14782.2942362,294041.40625,294978.125,329841.40625,324202.0625,285146.40625,256022.34375,222619.71875,246267.59375,0.053466796875,0.990966796875,0.07666015625,0.7629393935203552,-1.5869139432907104,-0.7934569716453552,80.0,162476.0,1.0
14782.2942374,294075.3125,295273.0,330086.375,324215.375,285296.53125,256090.75,222682.296875,246283.25,0.051513671875,0.990478515625,0.07373046875,0.7324218153953552,-1.5869139432907104,-0.8544921278953552,80.0,162477.0,1.0
14782.2942386,294054.8125,295451.90625,330160.40625,324161.1875,285356.15625,256112.734375,222693.03125,246261.34375,0.052490234375,0.98876953125,0.06982421875,0.6408690810203552,-1.5869139432907104,-0.7019042372703552,80.0,162478.0,1.0
14782.2942398,294015.03125,295279.625,329984.625,324124.8125,285258.15625,256079.125,222648.0625,246237.640625,0.051513671875,0.98681640625,0.069091796875,0.7019042372703552,-1.6479490995407104,-0.6713866591453552,80.0,162479.0,1.0
14782.2942411,294008.5,294982.6875,329787.9375,324149.46875,285126.71875,256024.9375,222597.375,246240.15625,0.0517578125,0.988525390625,0.07080078125,0.7324218153953552,-1.6479490995407104,-0.7629393935203552,80.0,162480.0,1.0
14782.3071051,294043.125,294970.0,329847.3125,324205.28125,285148.8125,256027.890625,222621.859375,246266.890625,0.0498046875,0.98974609375,0.0703125,0.7629393935203552,-1.5258787870407104,-0.7934569716453552,80.0,162481.0,1.0
14782.3071107,294072.875,295266.8125,330080.28125,324214.65625,285290.15625,256093.25,222685.34375,246278.5,0.048828125,0.989990234375,0.07080078125,0.7934569716453552,-1.5258787870407104,-0.9155272841453552,80.0,162482.0,1.0
14782.3071132,294072.875,295266.8125,330080.28125,324214.65625,285290.15625,256093.25,222685.34375,246278.5,0.048828125,0.989990234375,0.07080078125,0.7934569716453552,-1.5258787870407104,-0.9155272841453552,80.0,162483.0,0.0
14782.3071134,294072.875,295266.8125,330080.28125,324214.65625,285290.15625,256093.25,222685.34375,246278.5,0.048828125,0.989990234375,0.07080078125,0.7934569716453552,-1.5258787870407104,-0.9155272841453552,80.0,162484.0,0.0
14782.3071136,294072.875,295266.8125,330080.28125,324214.65625,285290.15625,256093.25,222685.34375,246278.5,0.048828125,0.989990234375,0.07080078125,0.7934569716453552,-1.5258787870407104,-0.9155272841453552,80.0,162485.0,0.0
14782.3071138,294072.875,295266.8125,330080.28125,324214.65625,285290.15625,256093.25,222685.34375,246278.5,0.048828125,0.989990234375,0.07080078125,0.7934569716453552,-1.5258787870407104,-0.9155272841453552,80.0,162486.0,0.0
14782.307114,294072.875,295266.8125,330080.28125,324214.65625,285290.15625,256093.25,222685.34375,246278.5,0.048828125,0.989990234375,0.07080078125,0.7934569716453552,-1.5258787870407104,-0.9155272841453552,80.0,162487.0,0.0
14782.3071141,294072.875,295266.8125,330080.28125,324214.65625,285290.15625,256093.25,222685.34375,246278.5,0.048828125,0.989990234375,0.07080078125,0.7934569716453552,-1.5258787870407104,-0.9155272841453552,80.0,162488.0,0.0
14782.3071143,294072.875,295266.8125,330080.28125,324214.65625,285290.15625,256093.25,222685.34375,246278.5,0.048828125,0.989990234375,0.07080078125,0.7934569716453552,-1.5258787870407104,-0.9155272841453552,80.0,162489.0,0.0
14782.3071145,294072.875,295266.8125,330080.28125,324214.65625,285290.15625,256093.25,222685.34375,246278.5,0.048828125,0.989990234375,0.07080078125,0.7934569716453552,-1.5258787870407104,-0.9155272841453552,80.0,162490.0,0.0
14782.3071147,294072.875,295266.8125,330080.28125,324214.65625,285290.15625,256093.25,222685.34375,246278.5,0.048828125,0.989990234375,0.07080078125,0.7934569716453552,-1.5258787870407104,-0.9155272841453552,80.0,162491.0,0.0
14782.3071148,294072.875,295266.8125,330080.28125,324214.65625,285290.15625,256093.25,222685.34375,246278.5,0.048828125,0.989990234375,0.07080078125,0.7934569716453552,-1.5258787870407104,-0.9155272841453552,80.0,162492.0,0.0
14782.307115,294072.875,295266.8125,330080.28125,324214.65625,285290.15625,256093.25,222685.34375,246278.5,0.048828125,0.989990234375,0.07080078125,0.7934569716453552,-1.5258787870407104,-0.9155272841453552,80.0,162493.0,0.0
14782.3071152,294072.875,295266.8125,330080.28125,324214.65625,285290.15625,256093.25,222685.34375,246278.5,0.048828125,0.989990234375,0.07080078125,0.7934569716453552,-1.5258787870407104,-0.9155272841453552,80.0,162494.0,0.0
14782.3071154,294072.875,295266.8125,330080.28125,324214.65625,285290.15625,256093.25,222685.34375,246278.5,0.048828125,0.989990234375,0.07080078125,0.7934569716453552,-1.5258787870407104,-0.9155272841453552,80.0,162495.0,0.0
14782.3071155,294072.875,295266.8125,330080.28125,324214.65625,285290.15625,256093.25,222685.34375,246278.5,0.048828125,0.989990234375,0.07080078125,0.7934569716453552,-1.5258787870407104,-0.9155272841453552,80.0,162496.0,0.0
14782.3071157,294072.875,295266.8125,330080.28125,324214.65625,285290.15625,256093.25,222685.34375,246278.5,0.048828125,0.989990234375,0.07080078125,0.7934569716453552,-1.5258787870407104,-0.9155272841453552,80.0,162497.0,0.0
14782.3071159,294072.875,295266.8125,330080.28125,324214.65625,285290.15625,256093.25,222685.34375,246278.5,0.048828125,0.989990234375,0.07080078125,0.7934569716453552,-1.5258787870407104,-0.9155272841453552,80.0,162498.0,0.0
14782.3071162,294072.875,295266.8125,330080.28125,324214.65625,285290.15625,256093.25,222685.34375,246278.5,0.048828125,0.989990234375,0.07080078125,0.7934569716453552,-1.5258787870407104,-0.9155272841453552,80.0,162499.0,0.0
14782.3071163,294072.875,295266.8125,330080.28125,324214.65625,285290.15625,256093.25,222685.34375,246278.5,0.048828125,0.989990234375,0.07080078125,0.7934569716453552,-1.5258787870407104,-0.9155272841453552,80.0,162500.0,0.0
14782.3071168,294072.875,295266.8125,330080.28125,324214.65625,285290.15625,256093.25,222685.34375,246278.5,0.048828125,0.989990234375,0.07080078125,0.7934569716453552,-1.5258787870407104,-0.9155272841453552,80.0,162501.0,0.0
14782.3071172,294072.875,295266.8125,330080.28125,324214.65625,285290.15625,256093.25,222685.34375,246278.5,0.048828125,0.989990234375,0.07080078125,0.7934569716453552,-1.5258787870407104,-0.9155272841453552,80.0,162502.0,0.0
14782.3071174,294072.875,295266.8125,330080.28125,324214.65625,285290.15625,256093.25,222685.34375,246278.5,0.048828125,0.989990234375,0.07080078125,0.7934569716453552,-1.5258787870407104,-0.9155272841453552,80.0,162503.0,0.0
14782.3071176,294072.875,295266.8125,330080.28125,324214.65625,285290.15625,256093.25,222685.34375,246278.5,0.048828125,0.989990234375,0.07080078125,0.7934569716453552,-1.5258787870407104,-0.9155272841453552,80.0,162504.0,0.0
14782.3071178,294072.875,295266.8125,330080.28125,324214.65625,285290.15625,256093.25,222685.34375,246278.5,0.048828125,0.989990234375,0.07080078125,0.7934569716453552,-1.5258787870407104,-0.9155272841453552,80.0,162505.0,0.0
14782.307118,294026.03125,294960.15625,329840.40625,324192.65625,285130.125,256022.34375,222613.90625,246264.375,0.04541015625,0.9912109375,0.070556640625,0.6103515028953552,-1.8615721464157104,-0.9155272841453552,80.0,162506.0,1.0
14782.3071192,294058.65625,295253.9375,330077.78125,324203.125,285273.375,256076.4375,222671.125,246267.515625,0.04638671875,0.991455078125,0.070556640625,0.5493163466453552,-1.8310545682907104,-0.9765624403953552,80.0,162507.0,1.0
14782.3071205,294038.09375,295427.75,330145.21875,324152.0625,285329.0625,256100.75,222674.265625,246246.234375,0.046630859375,0.9931640625,0.072509765625,0.5798339247703552,-1.8615721464157104,-0.9765624403953552,80.0,162508.0,1.0
14782.3071217,293995.09375,295251.71875,329968.0,324115.15625,285229.1875,256050.78125,222615.078125,246226.03125,0.04638671875,0.990234375,0.068359375,0.4882812201976776,-1.8615721464157104,-0.9765624403953552,80.0,162509.0,1.0
14782.3071229,293975.875,294950.3125,329764.6875,324128.5625,285093.65625,255995.703125,222572.25,246228.703125,0.047607421875,0.9892578125,0.06982421875,0.4882812201976776,-1.8920897245407104,-0.9460448622703552,80.0,162510.0,1.0
14782.3071241,294022.5625,294961.6875,329842.90625,324190.4375,285130.84375,256019.390625,222614.796875,246267.328125,0.0478515625,0.9892578125,0.067138671875,0.5493163466453552,-1.8615721464157104,-1.0375975370407104,80.0,162511.0,1.0
14782.3071253,294048.03125,295245.09375,330067.25,324193.125,285268.09375,256070.359375,222665.3125,246275.90625,0.04931640625,0.987548828125,0.06884765625,0.5493163466453552,-1.8920897245407104,-0.9765624403953552,80.0,162512.0,1.0
14782.309668,294025.84375,295424.28125,330132.25,324138.75,285324.3125,256094.5,222669.703125,246250.703125,0.047607421875,0.98779296875,0.069580078125,0.5493163466453552,-1.9226073026657104,-1.0375975370407104,80.0,162513.0,1.0
14782.309674,293992.40625,295256.1875,329958.96875,324108.28125,285229.1875,256058.921875,222626.875,246232.546875,0.050048828125,0.987060546875,0.06494140625,0.5187987685203552,-1.8920897245407104,-1.0375975370407104,80.0,162514.0,1.0
14782.3096756,293985.4375,294962.84375,329764.0625,324132.0625,285100.4375,256012.78125,222583.6875,246238.0,0.049560546875,0.98779296875,0.067626953125,0.4272460639476776,-1.8005369901657104,-1.0681151151657104,80.0,162515.0,1.0
14782.312194,294023.875,294969.375,329839.53125,324188.90625,285133.09375,256021.0,222608.984375,246267.421875,0.051513671875,0.98681640625,0.0693359375,0.4577636420726776,-1.6784666776657104,-0.9460448622703552,80.0,162516.0,1.0
14782.3121989,294023.875,294969.375,329839.53125,324188.90625,285133.09375,256021.0,222608.984375,246267.421875,0.051513671875,0.98681640625,0.0693359375,0.4577636420726776,-1.6784666776657104,-0.9460448622703552,80.0,162517.0,0.0
14782.3121991,294023.875,294969.375,329839.53125,324188.90625,285133.09375,256021.0,222608.984375,246267.421875,0.051513671875,0.98681640625,0.0693359375,0.4577636420726776,-1.6784666776657104,-0.9460448622703552,80.0,162518.0,0.0
14782.3121993,294023.875,294969.375,329839.53125,324188.90625,285133.09375,256021.0,222608.984375,246267.421875,0.051513671875,0.98681640625,0.0693359375,0.4577636420726776,-1.6784666776657104,-0.9460448622703552,80.0,162519.0,0.0
14782.3121995,294023.875,294969.375,329839.53125,324188.90625,285133.09375,256021.0,222608.984375,246267.421875,0.051513671875,0.98681640625,0.0693359375,0.4577636420726776,-1.6784666776657104,-0.9460448622703552,80.0,162520.0,0.0
14782.3121997,294023.875,294969.375,329839.53125,324188.90625,285133.09375,256021.0,222608.984375,246267.421875,0.051513671875,0.98681640625,0.0693359375,0.4577636420726776,-1.6784666776657104,-0.9460448622703552,80.0,162521.0,0.0
14782.3121998,294023.875,294969.375,329839.53125,324188.90625,285133.09375,256021.0,222608.984375,246267.421875,0.051513671875,0.98681640625,0.0693359375,0.4577636420726776,-1.6784666776657104,-0.9460448622703552,80.0,162522.0,0.0
14782.3122,294023.875,294969.375,329839.53125,324188.90625,285133.09375,256021.0,222608.984375,246267.421875,0.051513671875,0.98681640625,0.0693359375,0.4577636420726776,-1.6784666776657104,-0.9460448622703552,80.0,162523.0,0.0
14782.3122002,294023.875,294969.375,329839.53125,324188.90625,285133.09375,256021.0,222608.984375,246267.421875,0.051513671875,0.98681640625,0.0693359375,0.4577636420726776,-1.6784666776657104,-0.9460448622703552,80.0,162524.0,0.0
14782.3122004,294023.875,294969.375,329839.53125,324188.90625,285133.09375,256021.0,222608.984375,246267.421875,0.051513671875,0.98681640625,0.0693359375,0.4577636420726776,-1.6784666776657104,-0.9460448622703552,80.0,162525.0,0.0
14782.3122005,294053.40625,294984.3125,329850.6875,324205.71875,285149.4375,256022.890625,222607.296875,246267.15625,0.047119140625,0.99072265625,0.072021484375,0.6103515028953552,-1.3427733182907104,-1.0070799589157104,80.0,162526.0,1.0
14782.3371819,294082.90625,295273.8125,330090.5,324217.15625,285294.1875,256084.3125,222666.75,246281.1875,0.0478515625,0.991455078125,0.071044921875,0.5493163466453552,-1.3732908964157104,-1.0681151151657104,80.0,162527.0,1.0
14782.3371858,294062.59375,295444.75,330147.71875,324164.59375,285342.75,256108.171875,222673.8125,246262.328125,0.048583984375,0.9912109375,0.07470703125,0.5493163466453552,-1.3732908964157104,-1.0375975370407104,80.0,162528.0,1.0
14782.3616361,294021.375,295270.21875,329965.6875,324122.03125,285234.28125,256050.421875,222608.28125,246224.140625,0.048095703125,0.9921875,0.073486328125,0.5493163466453552,-1.4343260526657104,-0.9460448622703552,80.0,162529.0,1.0
14782.3866714,294022.09375,294987.53125,329785.6875,324154.65625,285116.28125,255998.921875,222570.640625,246232.015625,0.048828125,0.9921875,0.072998046875,0.5187987685203552,-1.4038084745407104,-1.0375975370407104,80.0,162530.0,1.0
14782.3966304,294062.6875,294997.71875,329866.875,324215.09375,285152.125,256014.296875,222596.296875,246262.6875,0.045654296875,0.990478515625,0.070556640625,0.4577636420726776,-1.4648436307907104,-1.0681151151657104,80.0,162531.0,1.0
14782.3991637,294084.96875,295282.125,330093.96875,324219.75,285289.375,256068.921875,222653.15625,246273.234375,0.04638671875,0.9892578125,0.071044921875,0.3967284858226776,-1.4038084745407104,-1.1291502714157104,80.0,162532.0,1.0
14782.401596,294066.09375,295452.15625,330153.15625,324166.375,285341.9375,256093.15625,222660.578125,246248.734375,0.04736328125,0.988525390625,0.0712890625,0.3356933295726776,-1.4343260526657104,-1.0986326932907104,80.0,162533.0,1.0
14782.4041463,294031.21875,295284.15625,329982.5,324134.5625,285248.0625,256055.703125,222612.75,246233.984375,0.04541015625,0.988525390625,0.07373046875,0.3967284858226776,-1.4038084745407104,-0.9765624403953552,80.0,162534.0,1.0
14782.4066039,294018.71875,294985.375,329788.21875,324152.625,285118.6875,256006.609375,222568.9375,246239.34375,0.04541015625,0.9892578125,0.070068359375,0.3967284858226776,-1.4953612089157104,-1.0375975370407104,80.0,162535.0,1.0
14782.414258,294053.5625,294989.5625,329863.125,324209.03125,285151.21875,256017.421875,222597.546875,246266.703125,0.04638671875,0.99072265625,0.072265625,0.3051757514476776,-1.4953612089157104,-1.0681151151657104,80.0,162536.0,1.0
14782.4142606,294084.0625,295288.375,330100.6875,324219.125,285294.625,256073.21875,222650.203125,246277.796875,0.04736328125,0.9912109375,0.069091796875,0.3051757514476776,-1.5258787870407104,-1.0375975370407104,80.0,162537.0,1.0
14782.4142619,294063.0625,295461.8125,330165.5,324167.625,285350.25,256090.46875,222655.21875,246257.765625,0.0458984375,0.989501953125,0.07275390625,0.3356933295726776,-1.5258787870407104,-0.9460448622703552,80.0,162538.0,1.0
14782.4142632,294026.40625,295286.5,329990.8125,324133.46875,285254.40625,256056.046875,222615.078125,246244.625,0.047119140625,0.990234375,0.070556640625,0.2136230319738388,-1.5869139432907104,-0.9155272841453552,80.0,162539.0,1.0
14782.4142647,294016.28125,294990.90625,329801.71875,324155.375,285128.0,256005.1875,222572.78125,246251.421875,0.048095703125,0.990478515625,0.070068359375,0.3356933295726776,-1.5563963651657104,-0.8850097060203552,80.0,162540.0,1.0
14782.4142659,294053.3125,294993.96875,329876.90625,324209.375,285158.03125,256018.328125,222596.390625,246268.578125,0.047607421875,0.991455078125,0.0703125,0.3051757514476776,-1.5869139432907104,-0.8239745497703552,80.0,162541.0,1.0
14782.4142672,294076.09375,295272.46875,330090.03125,324209.75,285285.53125,256075.359375,222647.96875,246276.8125,0.046630859375,0.989990234375,0.07275390625,0.3356933295726776,-1.6174315214157104,-0.7324218153953552,80.0,162542.0,1.0
14782.4142684,294053.21875,295443.0625,330138.9375,324152.96875,285330.59375,256094.140625,222649.578125,246250.609375,0.047607421875,0.989990234375,0.0693359375,0.2441406100988388,-1.5869139432907104,-0.6713866591453552,80.0,162543.0,1.0
14782.4142696,294018.25,295275.9375,329971.3125,324123.375,285240.71875,256055.703125,222610.78125,246244.890625,0.046630859375,0.98876953125,0.069091796875,0.1831054538488388,-1.5869139432907104,-0.6713866591453552,80.0,162544.0,1.0
14782.41819,294012.1875,294986.8125,329786.25,324147.4375,285118.5,256002.40625,222567.78125,246249.0,0.04833984375,0.98974609375,0.065185546875,0.1831054538488388,-1.5869139432907104,-0.6713866591453552,80.0,162545.0,1.0
14782.4685196,294053.84375,294995.46875,329864.5625,324205.625,285152.46875,256012.953125,222593.34375,246272.875,0.049072265625,0.990234375,0.068359375,0.1525878757238388,-1.5869139432907104,-0.7324218153953552,80.0,162546.0,1.0
14782.4685248,294079.9375,295280.25,330093.09375,324207.875,285290.625,256067.859375,222648.15625,246271.078125,0.0498046875,0.989990234375,0.066650390625,0.2441406100988388,-1.5563963651657104,-0.7019042372703552,80.0,162547.0,1.0
14782.4685261,294064.75,295449.125,330155.75,324159.125,285347.84375,256098.609375,222664.78125,246260.625,0.050048828125,0.990234375,0.068359375,0.2746581733226776,-1.4953612089157104,-0.6713866591453552,80.0,162548.0,1.0
14782.4685281,294064.75,295449.125,330155.75,324159.125,285347.84375,256098.609375,222664.78125,246260.625,0.050048828125,0.990234375,0.068359375,0.2746581733226776,-1.4953612089157104,-0.6713866591453552,80.0,162549.0,0.0
14782.4685284,294064.75,295449.125,330155.75,324159.125,285347.84375,256098.609375,222664.78125,246260.625,0.050048828125,0.990234375,0.068359375,0.2746581733226776,-1.4953612089157104,-0.6713866591453552,80.0,162550.0,0.0
14782.4685286,294064.75,295449.125,330155.75,324159.125,285347.84375,256098.609375,222664.78125,246260.625,0.050048828125,0.990234375,0.068359375,0.2746581733226776,-1.4953612089157104,-0.6713866591453552,80.0,162551.0,0.0
14782.4685288,294064.75,295449.125,330155.75,324159.125,285347.84375,256098.609375,222664.78125,246260.625,0.050048828125,0.990234375,0.068359375,0.2746581733226776,-1.4953612089157104,-0.6713866591453552,80.0,162552.0,0.0
14782.4685289,294064.75,295449.125,330155.75,324159.125,285347.84375,256098.609375,222664.78125,246260.625,0.050048828125,0.990234375,0.068359375,0.2746581733226776,-1.4953612089157104,-0.6713866591453552,80.0,162553.0,0.0
14782.4685291,294064.75,295449.125,330155.75,324159.125,285347.84375,256098.609375,222664.78125,246260.625,0.050048828125,0.990234375,0.068359375,0.2746581733226776,-1.4953612089157104,-0.6713866591453552,80.0,162554.0,0.0
14782.4685293,294064.75,295449.125,330155.75,324159.125,285347.84375,256098.609375,222664.78125,246260.625,0.050048828125,0.990234375,0.068359375,0.2746581733226776,-1.4953612089157104,-0.6713866591453552,80.0,162555.0,0.0
14782.4685295,294064.75,295449.125,330155.75,324159.125,285347.84375,256098.609375,222664.78125,246260.625,0.050048828125,0.990234375,0.068359375,0.2746581733226776,-1.4953612089157104,-0.6713866591453552,80.0,162556.0,0.0
14782.4685296,294064.75,295449.125,330155.75,324159.125,285347.84375,256098.609375,222664.78125,246260.625,0.050048828125,0.990234375,0.068359375,0.2746581733226776,-1.4953612089157104,-0.6713866591453552,80.0,162557.0,0.0
14782.4685298,294064.75,295449.125,330155.75,324159.125,285347.84375,256098.609375,222664.78125,246260.625,0.050048828125,0.990234375,0.068359375,0.2746581733226776,-1.4953612089157104,-0.6713866591453552,80.0,162558.0,0.0
14782.46853,294064.75,295449.125,330155.75,324159.125,285347.84375,256098.609375,222664.78125,246260.625,0.050048828125,0.990234375,0.068359375,0.2746581733226776,-1.4953612089157104,-0.6713866591453552,80.0,162559.0,0.0
14782.4685301,294064.75,295449.125,330155.75,324159.125,285347.84375,256098.609375,222664.78125,246260.625,0.050048828125,0.990234375,0.068359375,0.2746581733226776,-1.4953612089157104,-0.6713866591453552,80.0,162560.0,0.0
14782.4685303,294064.75,295449.125,330155.75,324159.125,285347.84375,256098.609375,222664.78125,246260.625,0.050048828125,0.990234375,0.068359375,0.2746581733226776,-1.4953612089157104,-0.6713866591453552,80.0,162561.0,0.0
14782.4685305,294064.75,295449.125,330155.75,324159.125,285347.84375,256098.609375,222664.78125,246260.625,0.050048828125,0.990234375,0.068359375,0.2746581733226776,-1.4953612089157104,-0.6713866591453552,80.0,162562.0,0.0
14782.4685307,294064.75,295449.125,330155.75,324159.125,285347.84375,256098.609375,222664.78125,246260.625,0.050048828125,0.990234375,0.068359375,0.2746581733226776,-1.4953612089157104,-0.6713866591453552,80.0,162563.0,0.0
14782.4685309,294064.75,295449.125,330155.75,324159.125,285347.84375,256098.609375,222664.78125,246260.625,0.050048828125,0.990234375,0.068359375,0.2746581733226776,-1.4953612089157104,-0.6713866591453552,80.0,162564.0,0.0
14782.468531,294025.40625,294986.09375,329775.96875,324149.9375,285117.96875,256008.484375,222581.1875,246246.765625,0.05078125,0.987548828125,0.074951171875,0.0610351525247097,-0.9765624403953552,-0.8544921278953552,80.0,162565.0,1.0
14782.4685323,294069.65625,294999.84375,329858.84375,324208.59375,285152.5625,256022.34375,222615.421875,246277.515625,0.049072265625,0.9892578125,0.0703125,-0.0915527269244194,-1.0986326932907104,-0.8544921278953552,80.0,162566.0,1.0
14782.4685335,294100.5,295290.4375,330091.125,324218.0625,285293.9375,256078.859375,222674.171875,246294.234375,0.049072265625,0.989990234375,0.0693359375,-0.0610351525247097,-1.0375975370407104,-1.0070799589157104,80.0,162567.0,1.0
14782.4685347,294092.09375,295465.59375,330154.25,324169.875,285349.8125,256102.359375,222676.40625,246266.703125,0.048583984375,0.990234375,0.071044921875,-0.0610351525247097,-1.0070799589157104,-0.9155272841453552,80.0,162568.0,1.0
14782.4685359,294059.5625,295272.71875,329962.8125,324132.59375,285236.34375,256042.375,222612.921875,246240.515625,0.04833984375,0.9892578125,0.073486328125,-0.1220703050494194,-0.9460448622703552,-0.9460448622703552,80.0,162569.0,1.0
14782.4685371,294060.09375,294981.0,329774.625,324158.0625,285109.21875,255991.59375,222570.359375,246247.296875,0.048095703125,0.990478515625,0.073974609375,-0.2746581733226776,-1.0070799589157104,-0.9765624403953552,80.0,162570.0,1.0
14782.4685384,294108.90625,295004.6875,329866.34375,324220.125,285152.75,256022.171875,222606.484375,246275.375,0.04931640625,0.989013671875,0.0732421875,-0.2746581733226776,-1.0375975370407104,-0.9155272841453552,80.0,162571.0,1.0
14782.4685396,294137.4375,295294.8125,330094.96875,324223.59375,285292.21875,256086.90625,222663.890625,246278.953125,0.04833984375,0.987060546875,0.0703125,-0.2746581733226776,-1.0681151151657104,-0.8239745497703552,80.0,162572.0,1.0
14782.5332069,294123.5,295460.3125,330153.15625,324172.625,285344.71875,256095.65625,222668.265625,246260.625,0.047607421875,0.984375,0.072265625,-0.1831054538488388,-1.0681151151657104,-0.8239745497703552,80.0,162573.0,1.0
14782.5332159,294095.875,295282.46875,329981.0625,324142.5,285249.21875,256050.6875,222621.78125,246249.53125,0.048828125,0.983642578125,0.070556640625,-0.0610351525247097,-1.1596678495407104,-1.0070799589157104,80.0,162574.0,1.0
14782.5332173,294095.875,295282.46875,329981.0625,324142.5,285249.21875,256050.6875,222621.78125,246249.53125,0.048828125,0.983642578125,0.070556640625,-0.0610351525247097,-1.1596678495407104,-1.0070799589157104,80.0,162575.0,0.0
14782.5332175,294137.625,295003.34375,329867.78125,324228.0625,285156.96875,256024.765625,222609.34375,246278.59375,0.049072265625,0.989013671875,0.074462890625,0.2136230319738388,-1.2512205839157104,-0.7629393935203552,80.0,162576.0,1.0
14782.5332187,294170.78125,295303.03125,330105.875,324240.9375,285307.96875,256087.875,222676.765625,246298.171875,0.04833984375,0.98828125,0.073974609375,0.3051757514476776,-1.4038084745407104,-0.7324218153953552,80.0,162577.0,1.0
14782.53322,294149.5,295472.71875,330170.0625,324188.46875,285364.1875,256108.796875,222687.671875,246281.453125,0.04833984375,0.989990234375,0.076171875,0.2746581733226776,-1.4648436307907104,-0.7934569716453552,80.0,162578.0,1.0
14782.5332212,294105.6875,295288.8125,329989.375,324150.03125,285262.28125,256071.25,222638.046875,246260.265625,0.04833984375,0.98876953125,0.0771484375,0.2746581733226776,-1.4038084745407104,-0.7629393935203552,80.0,162579.0,1.0
14782.5332224,294091.21875,294991.53125,329791.875,324168.625,285132.53125,256023.6875,222592.625,246255.96875,0.048583984375,0.991455078125,0.07568359375,0.2136230319738388,-1.4038084745407104,-0.7324218153953552,80.0,162580.0,1.0
14782.5332236,294120.1875,295001.65625,329870.09375,324220.84375,285163.03125,256039.15625,222620.078125,246280.296875,0.04931640625,0.992431640625,0.075927734375,0.2746581733226776,-1.4953612089157104,-0.7629393935203552,80.0,162581.0,1.0
14782.5332338,294135.03125,295286.5,330094.96875,324220.46875,285298.40625,256090.5625,222671.9375,246284.3125,0.048828125,0.99072265625,0.072509765625,0.3662109076976776,-1.4343260526657104,-0.7019042372703552,80.0,162582.0,1.0
14782.5600251,294103.46875,295443.125,330139.21875,324160.84375,285341.125,256102.1875,222676.21875,246265.984375,0.048828125,0.98779296875,0.0732421875,0.4577636420726776,-1.4953612089157104,-0.7019042372703552,80.0,162583.0,1.0
14782.5600305,294056.53125,295244.28125,329943.40625,324119.4375,285229.09375,256047.65625,222623.296875,246243.1875,0.04931640625,0.988525390625,0.073486328125,0.5187987685203552,-1.4953612089157104,-0.7629393935203552,80.0,162584.0,1.0
14782.5600318,294047.75,294953.90625,329746.0,324142.40625,285098.21875,255994.625,222576.265625,246245.421875,0.050537109375,0.989013671875,0.07373046875,0.5798339247703552,-1.4648436307907104,-0.7019042372703552,80.0,162585.0,1.0
14782.560033,294091.84375,294991.53125,329846.59375,324202.21875,285146.9375,256018.5,222606.390625,246260.625,0.0498046875,0.9892578125,0.0751953125,0.5187987685203552,-1.4038084745407104,-0.7324218153953552,80.0,162586.0,1.0
14782.560035,294091.84375,294991.53125,329846.59375,324202.21875,285146.9375,256018.5,222606.390625,246260.625,0.0498046875,0.9892578125,0.0751953125,0.5187987685203552,-1.4038084745407104,-0.7324218153953552,80.0,162587.0,0.0
14782.5600352,294091.84375,294991.53125,329846.59375,324202.21875,285146.9375,256018.5,222606.390625,246260.625,0.0498046875,0.9892578125,0.0751953125,0.5187987685203552,-1.4038084745407104,-0.7324218153953552,80.0,162588.0,0.0
14782.5600354,294091.84375,294991.53125,329846.59375,324202.21875,285146.9375,256018.5,222606.390625,246260.625,0.0498046875,0.9892578125,0.0751953125,0.5187987685203552,-1.4038084745407104,-0.7324218153953552,80.0,162589.0,0.0
14782.5600356,294091.84375,294991.53125,329846.59375,324202.21875,285146.9375,256018.5,222606.390625,246260.625,0.0498046875,0.9892578125,0.0751953125,0.5187987685203552,-1.4038084745407104,-0.7324218153953552,80.0,162590.0,0.0
14782.5600357,294091.84375,294991.53125,329846.59375,324202.21875,285146.9375,256018.5,222606.390625,246260.625,0.0498046875,0.9892578125,0.0751953125,0.5187987685203552,-1.4038084745407104,-0.7324218153953552,80.0,162591.0,0.0
14782.5600359,294091.84375,294991.53125,329846.59375,324202.21875,285146.9375,256018.5,222606.390625,246260.625,0.0498046875,0.9892578125,0.0751953125,0.5187987685203552,-1.4038084745407104,-0.7324218153953552,80.0,162592.0,0.0
14782.5600361,294091.84375,294991.53125,329846.59375,324202.21875,285146.9375,256018.5,222606.390625,246260.625,0.0498046875,0.9892578125,0.0751953125,0.5187987685203552,-1.4038084745407104,-0.7324218153953552,80.0,162593.0,0.0
14782.5600362,294091.84375,294991.53125,329846.59375,324202.21875,285146.9375,256018.5,222606.390625,246260.625,0.0498046875,0.9892578125,0.0751953125,0.5187987685203552,-1.4038084745407104,-0.7324218153953552,80.0,162594.0,0.0
14782.5600364,294091.84375,294991.53125,329846.59375,324202.21875,285146.9375,256018.5,222606.390625,246260.625,0.0498046875,0.9892578125,0.0751953125,0.5187987685203552,-1.4038084745407104,-0.7324218153953552,80.0,162595.0,0.0
14782.5600366,294091.84375,294991.53125,329846.59375,324202.21875,285146.9375,256018.5,222606.390625,246260.625,0.0498046875,0.9892578125,0.0751953125,0.5187987685203552,-1.4038084745407104,-0.7324218153953552,80.0,162596.0,0.0
14782.5600368,294091.84375,294991.53125,329846.59375,324202.21875,285146.9375,256018.5,222606.390625,246260.625,0.0498046875,0.9892578125,0.0751953125,0.5187987685203552,-1.4038084745407104,-0.7324218153953552,80.0,162597.0,0.0
14782.560037,294091.84375,294991.53125,329846.59375,324202.21875,285146.9375,256018.5,222606.390625,246260.625,0.0498046875,0.9892578125,0.0751953125,0.5187987685203552,-1.4038084745407104,-0.7324218153953552,80.0,162598.0,0.0
14782.5600374,294091.84375,294991.53125,329846.59375,324202.21875,285146.9375,256018.5,222606.390625,246260.625,0.0498046875,0.9892578125,0.0751953125,0.5187987685203552,-1.4038084745407104,-0.7324218153953552,80.0,162599.0,0.0
14782.5600376,294091.84375,294991.53125,329846.59375,324202.21875,285146.9375,256018.5,222606.390625,246260.625,0.0498046875,0.9892578125,0.0751953125,0.5187987685203552,-1.4038084745407104,-0.7324218153953552,80.0,162600.0,0.0
14782.5600378,294091.84375,294991.53125,329846.59375,324202.21875,285146.9375,256018.5,222606.390625,246260.625,0.0498046875,0.9892578125,0.0751953125,0.5187987685203552,-1.4038084745407104,-0.7324218153953552,80.0,162601.0,0.0
14782.5600379,294093.53125,295279.625,330084.59375,324207.96875,285297.6875,256089.40625,222679.890625,246287.359375,0.052978515625,0.98974609375,0.07373046875,0.9155272841453552,-1.6174315214157104,-1.1291502714157104,80.0,162602.0,1.0
14782.5600392,294068.5,295435.34375,330132.0625,324152.25,285340.6875,256104.875,222677.921875,246264.828125,0.052490234375,0.99169921875,0.07373046875,0.9155272841453552,-1.6479490995407104,-1.0681151151657104,80.0,162603.0,1.0
14782.5600404,294028.71875,295259.59375,329950.125,324116.84375,285240.46875,256070.1875,222631.796875,246251.0625,0.05322265625,0.992431640625,0.072265625,0.9460448622703552,-1.5258787870407104,-0.9765624403953552,80.0,162604.0,1.0
14782.5828983,294019.96875,294975.8125,329764.25,324141.625,285120.375,256029.59375,222601.21875,246264.296875,0.052490234375,0.989990234375,0.070068359375,0.8850097060203552,-1.5563963651657104,-0.9765624403953552,80.0,162605.0,1.0
14782.6079294,294057.875,294991.71875,329845.4375,324193.65625,285153.8125,256046.046875,222625.171875,246275.28125,0.05322265625,0.9892578125,0.071533203125,0.8239745497703552,-1.6174315214157104,-0.9155272841453552,80.0,162606.0,1.0
14782.6442376,294082.71875,295288.375,330082.0,324200.28125,285297.78125,256091.375,222672.375,246284.859375,0.05322265625,0.9892578125,0.070556640625,0.7934569716453552,-1.5563963651657104,-0.9460448622703552,80.0,162607.0,1.0
14782.6734753,294056.53125,295451.09375,330134.46875,324146.0,285346.6875,256110.59375,222677.75,246263.578125,0.0537109375,0.986572265625,0.068359375,0.7934569716453552,-1.5563963651657104,-0.7324218153953552,80.0,162608.0,1.0
14782.6734805,294016.8125,295260.65625,329944.3125,324111.40625,285241.53125,256069.734375,222630.0,246243.015625,0.05322265625,0.98779296875,0.07421875,0.8239745497703552,-1.5563963651657104,-0.6713866591453552,80.0,162609.0,1.0
14782.6986675,294013.15625,294974.46875,329759.5,324138.21875,285121.8125,256024.765625,222592.625,246254.8125,0.0546875,0.9873046875,0.074462890625,0.7629393935203552,-1.5258787870407104,-0.6103515028953552,80.0,162610.0,1.0
14782.6986738,294013.15625,294974.46875,329759.5,324138.21875,285121.8125,256024.765625,222592.625,246254.8125,0.0546875,0.9873046875,0.074462890625,0.7629393935203552,-1.5258787870407104,-0.6103515028953552,80.0,162611.0,0.0
14782.698674,294013.15625,294974.46875,329759.5,324138.21875,285121.8125,256024.765625,222592.625,246254.8125,0.0546875,0.9873046875,0.074462890625,0.7629393935203552,-1.5258787870407104,-0.6103515028953552,80.0,162612.0,0.0
14782.6986741,294013.15625,294974.46875,329759.5,324138.21875,285121.8125,256024.765625,222592.625,246254.8125,0.0546875,0.9873046875,0.074462890625,0.7629393935203552,-1.5258787870407104,-0.6103515028953552,80.0,162613.0,0.0
14782.6986743,294013.15625,294974.46875,329759.5,324138.21875,285121.8125,256024.765625,222592.625,246254.8125,0.0546875,0.9873046875,0.074462890625,0.7629393935203552,-1.5258787870407104,-0.6103515028953552,80.0,162614.0,0.0
14782.6986745,294013.15625,294974.46875,329759.5,324138.21875,285121.8125,256024.765625,222592.625,246254.8125,0.0546875,0.9873046875,0.074462890625,0.7629393935203552,-1.5258787870407104,-0.6103515028953552,80.0,162615.0,0.0
14782.6986747,294013.15625,294974.46875,329759.5,324138.21875,285121.8125,256024.765625,222592.625,246254.8125,0.0546875,0.9873046875,0.074462890625,0.7629393935203552,-1.5258787870407104,-0.6103515028953552,80.0,162616.0,0.0
14782.6986748,294013.15625,294974.46875,329759.5,324138.21875,285121.8125,256024.765625,222592.625,246254.8125,0.0546875,0.9873046875,0.074462890625,0.7629393935203552,-1.5258787870407104,-0.6103515028953552,80.0,162617.0,0.0
14782.698675,294013.15625,294974.46875,329759.5,324138.21875,285121.8125,256024.765625,222592.625,246254.8125,0.0546875,0.9873046875,0.074462890625,0.7629393935203552,-1.5258787870407104,-0.6103515028953552,80.0,162618.0,0.0
14782.6986752,294013.15625,294974.46875,329759.5,324138.21875,285121.8125,256024.765625,222592.625,246254.8125,0.0546875,0.9873046875,0.074462890625,0.7629393935203552,-1.5258787870407104,-0.6103515028953552,80.0,162619.0,0.0
14782.6986754,294013.15625,294974.46875,329759.5,324138.21875,285121.8125,256024.765625,222592.625,246254.8125,0.0546875,0.9873046875,0.074462890625,0.7629393935203552,-1.5258787870407104,-0.6103515028953552,80.0,162620.0,0.0
14782.6986755,294013.15625,294974.46875,329759.5,324138.21875,285121.8125,256024.765625,222592.625,246254.8125,0.0546875,0.9873046875,0.074462890625,0.7629393935203552,-1.5258787870407104,-0.6103515028953552,80.0,162621.0,0.0
14782.6986757,294013.15625,294974.46875,329759.5,324138.21875,285121.8125,256024.765625,222592.625,246254.8125,0.0546875,0.9873046875,0.074462890625,0.7629393935203552,-1.5258787870407104,-0.6103515028953552,80.0,162622.0,0.0
14782.6986759,294013.15625,294974.46875,329759.5,324138.21875,285121.8125,256024.765625,222592.625,246254.8125,0.0546875,0.9873046875,0.074462890625,0.7629393935203552,-1.5258787870407104,-0.6103515028953552,80.0,162623.0,0.0
14782.6986761,294013.15625,294974.46875,329759.5,324138.21875,285121.8125,256024.765625,222592.625,246254.8125,0.0546875,0.9873046875,0.074462890625,0.7629393935203552,-1.5258787870407104,-0.6103515028953552,80.0,162624.0,0.0
14782.6986762,294013.15625,294974.46875,329759.5,324138.21875,285121.8125,256024.765625,222592.625,246254.8125,0.0546875,0.9873046875,0.074462890625,0.7629393935203552,-1.5258787870407104,-0.6103515028953552,80.0,162625.0,0.0
14782.6986764,294013.15625,294974.46875,329759.5,324138.21875,285121.8125,256024.765625,222592.625,246254.8125,0.0546875,0.9873046875,0.074462890625,0.7629393935203552,-1.5258787870407104,-0.6103515028953552,80.0,162626.0,0.0
14782.6986766,294013.15625,294974.46875,329759.5,324138.21875,285121.8125,256024.765625,222592.625,246254.8125,0.0546875,0.9873046875,0.074462890625,0.7629393935203552,-1.5258787870407104,-0.6103515028953552,80.0,162627.0,0.0
14782.6986768,294013.15625,294974.46875,329759.5,324138.21875,285121.8125,256024.765625,222592.625,246254.8125,0.0546875,0.9873046875,0.074462890625,0.7629393935203552,-1.5258787870407104,-0.6103515028953552,80.0,162628.0,0.0
14782.6986771,294013.15625,294974.46875,329759.5,324138.21875,285121.8125,256024.765625,222592.625,246254.8125,0.0546875,0.9873046875,0.074462890625,0.7629393935203552,-1.5258787870407104,-0.6103515028953552,80.0,162629.0,0.0
14782.6986772,294013.15625,294974.46875,329759.5,324138.21875,285121.8125,256024.765625,222592.625,246254.8125,0.0546875,0.9873046875,0.074462890625,0.7629393935203552,-1.5258787870407104,-0.6103515028953552,80.0,162630.0,0.0
14782.6986774,294048.65625,295007.375,329842.375,324187.5625,285153.5625,256039.78125,222614.71875,246275.28125,0.051025390625,0.98974609375,0.07177734375,0.4577636420726776,-1.3732908964157104,-1.2512205839157104,80.0,162631.0,1.0
14782.7493179,294074.21875,295298.3125,330074.21875,324192.03125,285294.375,256091.09375,222669.96875,246284.9375,0.049072265625,0.989990234375,0.06982421875,0.2441406100988388,-1.3427733182907104,-1.0681151151657104,80.0,162632.0,1.0
14782.749323,294048.75,295452.875,330119.8125,324133.46875,285332.375,256104.15625,222666.390625,246256.15625,0.046630859375,0.98876953125,0.072509765625,0.2136230319738388,-1.3122557401657104,-1.0375975370407104,80.0,162633.0,1.0
14782.7493243,294017.09375,295275.78125,329938.84375,324104.4375,285230.96875,256069.828125,222621.859375,246237.921875,0.046630859375,0.98974609375,0.070068359375,0.0915527269244194,-1.4343260526657104,-0.8239745497703552,80.0,162634.0,1.0
14782.7493255,294010.03125,294989.125,329753.78125,324127.40625,285105.8125,256011.34375,222576.890625,246239.34375,0.04833984375,0.9892578125,0.070556640625,0.0,-1.4343260526657104,-0.7934569716453552,80.0,162635.0,1.0
14782.7493268,294048.03125,295009.5,329838.53125,324181.65625,285140.59375,256020.828125,222602.015625,246265.546875,0.04736328125,0.98974609375,0.07275390625,0.03051757626235485,-1.5869139432907104,-0.8239745497703552,80.0,162636.0,1.0
14782.749328,294075.3125,295300.4375,330069.375,324189.09375,285282.3125,256086.71875,222664.78125,246279.3125,0.047119140625,0.99072265625,0.072265625,-0.03051757626235485,-1.5869139432907104,-0.6713866591453552,80.0,162637.0,1.0
14782.7493292,294056.6875,295460.9375,330122.84375,324138.03125,285333.34375,256109.703125,222671.578125,246259.640625,0.048095703125,0.99072265625,0.072509765625,-0.1525878757238388,-1.6479490995407104,-0.6713866591453552,80.0,162638.0,1.0
14782.7493305,294012.96875,295269.25,329936.1875,324102.625,285226.96875,256060.171875,222619.546875,246241.9375,0.047119140625,0.991943359375,0.076171875,-0.1525878757238388,-1.5869139432907104,-0.7324218153953552,80.0,162639.0,1.0
14782.7493317,294005.21875,294979.65625,329749.40625,324129.09375,285103.5,256016.796875,222581.28125,246253.5625,0.04443359375,0.990234375,0.072509765625,-0.1831054538488388,-1.7395018339157104,-0.7019042372703552,80.0,162640.0,1.0
14782.7768942,294046.875,295003.96875,329841.21875,324187.75,285146.3125,256038.265625,222613.90625,246281.546875,0.044677734375,0.99169921875,0.070556640625,-0.1220703050494194,-1.8310545682907104,-0.6713866591453552,80.0,162641.0,1.0
14782.8271371,294072.09375,295293.1875,330073.40625,324189.34375,285285.53125,256086.265625,222662.09375,246280.5625,0.04638671875,0.990234375,0.0732421875,-0.0915527269244194,-1.8615721464157104,-0.7019042372703552,80.0,162642.0,1.0
14782.8271507,294050.4375,295458.6875,330132.5,324137.6875,285338.625,256107.015625,222670.40625,246260.453125,0.046142578125,0.99072265625,0.072021484375,-0.2136230319738388,-1.8615721464157104,-0.7019042372703552,80.0,162643.0,1.0
14782.8271521,294012.625,295270.03125,329949.40625,324101.75,285234.8125,256063.65625,222617.125,246238.359375,0.046142578125,0.99169921875,0.071533203125,-0.3051757514476776,-1.8615721464157104,-0.7934569716453552,80.0,162644.0,1.0
14782.827154,294012.625,295270.03125,329949.40625,324101.75,285234.8125,256063.65625,222617.125,246238.359375,0.046142578125,0.99169921875,0.071533203125,-0.3051757514476776,-1.8615721464157104,-0.7934569716453552,80.0,162645.0,0.0
14782.8271543,294012.625,295270.03125,329949.40625,324101.75,285234.8125,256063.65625,222617.125,246238.359375,0.046142578125,0.99169921875,0.071533203125,-0.3051757514476776,-1.8615721464157104,-0.7934569716453552,80.0,162646.0,0.0
14782.8271545,294012.625,295270.03125,329949.40625,324101.75,285234.8125,256063.65625,222617.125,246238.359375,0.046142578125,0.99169921875,0.071533203125,-0.3051757514476776,-1.8615721464157104,-0.7934569716453552,80.0,162647.0,0.0
14782.8271546,294049.5625,295454.21875,330124.1875,324133.21875,285330.65625,256113.8125,222670.6875,246264.109375,0.0517578125,0.98974609375,0.072265625,-0.03051757626235485,-1.8615721464157104,-0.7934569716453552,80.0,162648.0,1.0
14782.8271559,294009.75,295264.6875,329939.84375,324099.40625,285226.96875,256054.265625,222612.921875,246241.671875,0.05126953125,0.989990234375,0.070556640625,0.0,-1.8005369901657104,-0.6713866591453552,80.0,162649.0,1.0
14782.8271572,294004.3125,294972.84375,329755.21875,324127.03125,285104.1875,256003.125,222573.671875,246251.6875,0.052978515625,0.989013671875,0.072509765625,0.0915527269244194,-1.7700194120407104,-0.6408690810203552,80.0,162650.0,1.0
14782.8271584,294041.78125,294985.28125,329831.21875,324182.375,285133.25,256017.875,222601.125,246276.265625,0.055419921875,0.98876953125,0.068603515625,0.1220703050494194,-1.6784666776657104,-0.5493163466453552,80.0,162651.0,1.0
14782.8271597,294071.46875,295288.65625,330073.9375,324188.46875,285282.75,256083.765625,222660.3125,246276.53125,0.056396484375,0.987060546875,0.0712890625,0.2136230319738388,-1.5258787870407104,-0.4882812201976776,80.0,162652.0,1.0
14782.8271609,294042.9375,295439.375,330112.9375,324126.3125,285320.375,256096.5625,222657.8125,246248.828125,0.055908203125,0.9853515625,0.072998046875,0.2441406100988388,-1.4648436307907104,-0.5798339247703552,80.0,162653.0,1.0
14782.8271622,294001.71875,295241.15625,329910.25,324089.125,285206.125,256053.640625,222612.921875,246237.015625,0.055419921875,0.986572265625,0.07470703125,0.2441406100988388,-1.3122557401657104,-0.7324218153953552,80.0,162654.0,1.0
14782.8271639,294001.90625,294967.84375,329740.90625,324121.21875,285094.90625,256012.515625,222576.796875,246252.9375,0.054443359375,0.987060546875,0.072998046875,0.3662109076976776,-1.2512205839157104,-0.7324218153953552,80.0,162655.0,1.0
14782.8516848,294043.46875,295001.5625,329846.5,324179.15625,285143.375,256031.5625,222611.140625,246276.71875,0.053466796875,0.986083984375,0.0751953125,0.4272460639476776,-1.1596678495407104,-0.7019042372703552,80.0,162656.0,1.0
14782.8773721,294043.46875,295001.5625,329846.5,324179.15625,285143.375,256031.5625,222611.140625,246276.71875,0.053466796875,0.986083984375,0.0751953125,0.4272460639476776,-1.1596678495407104,-0.7019042372703552,80.0,162657.0,0.0
14782.8773858,294043.46875,295001.5625,329846.5,324179.15625,285143.375,256031.5625,222611.140625,246276.71875,0.053466796875,0.986083984375,0.0751953125,0.4272460639476776,-1.1596678495407104,-0.7019042372703552,80.0,162658.0,0.0
14782.877386,294005.125,295260.375,329942.96875,324088.0625,285225.25,256059.265625,222619.625,246241.9375,0.053466796875,0.986083984375,0.07275390625,0.4882812201976776,-0.9155272841453552,-0.8850097060203552,80.0,162659.0,1.0
14782.8773942,294000.03125,294973.3125,329761.03125,324114.96875,285105.375,256008.046875,222578.40625,246246.765625,0.0537109375,0.98876953125,0.07373046875,0.5187987685203552,-0.7629393935203552,-0.8544921278953552,80.0,162660.0,1.0
14782.8773959,294042.5,295001.65625,329845.96875,324173.1875,285145.40625,256028.609375,222608.640625,246271.625,0.0517578125,0.987060546875,0.06787109375,0.7324218153953552,-0.7324218153953552,-0.8239745497703552,80.0,162661.0,1.0
14782.9128602,294069.65625,295300.1875,330076.625,324179.78125,285287.84375,256086.453125,222663.703125,246278.78125,0.04931640625,0.98779296875,0.067138671875,0.7019042372703552,-0.8239745497703552,-0.8544921278953552,80.0,162662.0,1.0
14782.9379341,294049.90625,295463.78125,330132.6875,324128.28125,285338.0,256107.375,222671.84375,246257.5,0.04833984375,0.98681640625,0.069580078125,0.8544921278953552,-0.7629393935203552,-0.9765624403953552,80.0,162663.0,1.0
14782.9628602,294014.59375,295267.28125,329945.1875,324096.5625,285231.59375,256057.75,222619.984375,246240.953125,0.04638671875,0.988037109375,0.06884765625,0.9460448622703552,-0.8239745497703552,-1.0986326932907104,80.0,162664.0,1.0
14783.0179353,294006.46875,294972.0625,329757.625,324119.53125,285104.65625,256000.796875,222571.53125,246245.0625,0.046630859375,0.98974609375,0.070556640625,1.0070799589157104,-0.8544921278953552,-1.1596678495407104,80.0,162665.0,1.0
14783.0704594,294044.46875,294987.34375,329836.65625,324174.15625,285137.28125,256017.15625,222604.703125,246272.25,0.04736328125,0.994140625,0.070556640625,1.0070799589157104,-0.9155272841453552,-1.1596678495407104,80.0,162666.0,1.0
14783.1129037,294074.6875,295290.4375,330074.84375,324182.46875,285284.625,256081.0,222666.390625,246281.015625,0.046142578125,0.99169921875,0.07421875,0.9155272841453552,-0.9460448622703552,-1.1596678495407104,80.0,162667.0,1.0
14783.1379486,294049.0,295445.625,330129.46875,324123.1875,285328.96875,256093.6875,222660.75,246253.109375,0.047607421875,0.989990234375,0.07568359375,0.7934569716453552,-1.1291502714157104,-1.2817381620407104,80.0,162668.0,1.0
14783.1629542,294010.9375,295249.03125,329936.25,324088.34375,285216.6875,256049.796875,222607.65625,246235.6875,0.050048828125,0.986083984375,0.070068359375,0.7934569716453552,-1.1901854276657104,-1.1901854276657104,80.0,162669.0,1.0
14783.1879076,294002.875,294963.75,329748.875,324114.78125,285092.59375,256005.359375,222571.96875,246244.625,0.051025390625,0.98583984375,0.0693359375,0.8544921278953552,-1.2512205839157104,-1.0070799589157104,80.0,162670.0,1.0
14783.2216903,294040.4375,294992.53125,329845.15625,324172.375,285139.15625,256024.40625,222609.34375,246274.390625,0.05078125,0.98828125,0.0703125,0.8239745497703552,-1.1596678495407104,-0.8544921278953552,80.0,162671.0,1.0
14783.2241912,294065.65625,295287.9375,330079.03125,324175.0625,285285.25,256084.3125,222666.125,246283.78125,0.051025390625,0.990478515625,0.06982421875,0.8850097060203552,-1.2512205839157104,-0.7934569716453552,80.0,162672.0,1.0
14783.2266928,294042.3125,295444.03125,330130.0,324118.71875,285330.40625,256098.4375,222667.828125,246254.71875,0.048828125,0.991943359375,0.071533203125,0.9155272841453552,-1.2512205839157104,-0.7934569716453552,80.0,162673.0,1.0
14783.2297644,294004.21875,295245.625,329938.21875,324085.03125,285218.375,256050.875,222611.859375,246229.25,0.05078125,0.993408203125,0.071533203125,0.7934569716453552,-1.2207030057907104,-0.8850097060203552,80.0,162674.0,1.0
14783.2297697,293999.9375,294957.46875,329746.4375,324113.375,285090.78125,256006.96875,222574.390625,246238.625,0.050537109375,0.993896484375,0.069091796875,0.9155272841453552,-1.3427733182907104,-0.7324218153953552,80.0,162675.0,1.0
14783.2546743,294045.96875,294997.34375,329843.1875,324179.34375,285141.03125,256036.46875,222619.0,246277.171875,0.050048828125,0.991943359375,0.066162109375,0.8544921278953552,-1.4343260526657104,-0.7019042372703552,80.0,162676.0,1.0
14783.2546791,294067.0625,295288.5625,330071.1875,324178.375,285280.78125,256082.421875,222668.984375,246276.984375,0.050537109375,0.991943359375,0.06787109375,0.7629393935203552,-1.4343260526657104,-0.6713866591453552,80.0,162677.0,1.0
14783.279775,294046.78125,295443.84375,330121.25,324128.375,285328.15625,256095.84375,222671.671875,246261.96875,0.05126953125,0.989013671875,0.069580078125,0.7629393935203552,-1.4648436307907104,-0.7324218153953552,80.0,162678.0,1.0
14783.2797799,294009.84375,295250.5625,329935.0,324098.625,285222.65625,256048.09375,222616.328125,246248.015625,0.051025390625,0.989501953125,0.070068359375,0.7934569716453552,-1.4038084745407104,-0.6713866591453552,80.0,162679.0,1.0
14783.3004462,294010.9375,294968.65625,329753.875,324128.5625,285105.0,256008.3125,222578.140625,246252.75,0.048095703125,0.990478515625,0.068603515625,0.7934569716453552,-1.4038084745407104,-0.6713866591453552,80.0,162680.0,1.0
14783.3070621,294051.25,294992.0,329843.46875,324184.875,285147.65625,256026.1875,222607.46875,246275.828125,0.048095703125,0.993408203125,0.06787109375,0.7324218153953552,-1.5258787870407104,-0.8239745497703552,80.0,162681.0,1.0
14783.3070792,294075.375,295287.3125,330068.40625,324184.875,285285.0625,256074.46875,222659.6875,246281.28125,0.04833984375,0.9931640625,0.065673828125,0.5493163466453552,-1.5258787870407104,-0.8239745497703552,80.0,162682.0,1.0
14783.3070806,294056.34375,295453.34375,330127.6875,324135.53125,285339.4375,256096.109375,222664.609375,246257.578125,0.0478515625,0.990966796875,0.0673828125,0.5187987685203552,-1.6479490995407104,-1.0375975370407104,80.0,162683.0,1.0
14783.3070819,294016.90625,295252.96875,329931.25,324098.53125,285226.15625,256046.484375,222605.765625,246235.59375,0.04931640625,0.99072265625,0.066650390625,0.4577636420726776,-1.7395018339157104,-1.1596678495407104,80.0,162684.0,1.0
14783.3070831,294010.375,294964.625,329741.1875,324121.6875,285098.65625,255999.8125,222567.78125,246243.28125,0.048583984375,0.9892578125,0.065673828125,0.3967284858226776,-1.7395018339157104,-1.1596678495407104,80.0,162685.0,1.0
14783.3070844,294050.0,295002.90625,329841.9375,324178.625,285150.53125,256028.34375,222609.609375,246272.96875,0.05078125,0.98876953125,0.06396484375,0.4272460639476776,-1.8310545682907104,-1.1901854276657104,80.0,162686.0,1.0
14783.3070856,294075.65625,295306.15625,330084.0625,324184.0,285299.5625,256089.484375,222667.546875,246278.78125,0.052978515625,0.98779296875,0.0673828125,0.4272460639476776,-1.8310545682907104,-1.3427733182907104,80.0,162687.0,1.0
14783.3070869,294050.96875,295458.875,330136.875,324129.90625,285345.15625,256095.21875,222666.390625,246256.953125,0.05224609375,0.988037109375,0.066650390625,0.5493163466453552,-1.8310545682907104,-1.4343260526657104,80.0,162688.0,1.0
14783.3070882,294010.3125,295258.0625,329945.65625,324095.84375,285236.15625,256055.15625,222616.59375,246240.328125,0.05224609375,0.987548828125,0.067626953125,0.4882812201976776,-1.8920897245407104,-1.4038084745407104,80.0,162689.0,1.0
14783.3094054,293998.84375,294957.21875,329746.1875,324116.65625,285102.40625,256002.40625,222574.03125,246244.171875,0.05224609375,0.98583984375,0.07080078125,0.4577636420726776,-1.8920897245407104,-1.4343260526657104,80.0,162690.0,1.0
14783.3595905,294042.03125,294989.84375,329841.03125,324176.5,285145.96875,256012.421875,222604.25,246274.21875,0.052734375,0.987548828125,0.068115234375,0.5493163466453552,-1.8920897245407104,-1.5258787870407104,80.0,162691.0,1.0
14783.3595958,294073.5,295299.0,330083.59375,324183.71875,285295.71875,256072.859375,222665.578125,246279.125,0.051025390625,0.98828125,0.065185546875,0.5187987685203552,-1.8310545682907104,-1.4953612089157104,80.0,162692.0,1.0
14783.3595972,294053.21875,295453.15625,330130.625,324129.53125,285341.125,256092.625,222667.90625,246255.53125,0.04931640625,0.98974609375,0.06884765625,0.4882812201976776,-1.7395018339157104,-1.5869139432907104,80.0,162693.0,1.0
14783.3595984,294018.09375,295258.96875,329941.71875,324099.15625,285234.125,256051.671875,222617.03125,246239.25,0.05029296875,0.991943359375,0.07080078125,0.3967284858226776,-1.8005369901657104,-1.4343260526657104,80.0,162694.0,1.0
14783.3595996,294018.34375,294979.84375,329764.0625,324128.65625,285116.28125,256015.546875,222580.5625,246245.328125,0.052001953125,0.989990234375,0.06982421875,0.4272460639476776,-1.7700194120407104,-1.2512205839157104,80.0,162695.0,1.0
14783.3596008,294058.5,295012.71875,329857.9375,324182.84375,285158.90625,256036.46875,222612.921875,246269.828125,0.052734375,0.9873046875,0.071533203125,0.4882812201976776,-1.7395018339157104,-1.2207030057907104,80.0,162696.0,1.0
14783.359602,294082.375,295298.75,330084.6875,324186.21875,285296.6875,256084.75,222669.34375,246278.78125,0.05029296875,0.98974609375,0.0703125,0.3662109076976776,-1.7089842557907104,-1.2207030057907104,80.0,162697.0,1.0
14783.3596032,294058.3125,295450.65625,330122.0625,324127.40625,285333.53125,256104.0625,222668.53125,246256.25,0.049072265625,0.99072265625,0.06884765625,0.4272460639476776,-1.7089842557907104,-1.2207030057907104,80.0,162698.0,1.0
14783.3596045,294013.96875,295252.0625,329923.9375,324089.84375,285216.59375,256056.953125,222612.921875,246237.640625,0.0478515625,0.992919921875,0.0693359375,0.4882812201976776,-1.6479490995407104,-1.1596678495407104,80.0,162699.0,1.0
14783.3596057,294005.28125,294970.4375,329745.46875,324115.25,285097.21875,256013.859375,222577.609375,246240.328125,0.04736328125,0.9931640625,0.070068359375,0.4272460639476776,-1.6784666776657104,-1.0375975370407104,80.0,162700.0,1.0
14783.383709,294037.125,295000.21875,329834.78125,324166.65625,285134.96875,256018.234375,222603.625,246261.25,0.046142578125,0.98876953125,0.071533203125,0.3662109076976776,-1.8005369901657104,-1.0070799589157104,80.0,162701.0,1.0
14783.3873004,294037.125,295000.21875,329834.78125,324166.65625,285134.96875,256018.234375,222603.625,246261.25,0.046142578125,0.98876953125,0.071533203125,0.3662109076976776,-1.8005369901657104,-1.0070799589157104,80.0,162702.0,0.0
14783.3873016,294037.125,295000.21875,329834.78125,324166.65625,285134.96875,256018.234375,222603.625,246261.25,0.046142578125,0.98876953125,0.071533203125,0.3662109076976776,-1.8005369901657104,-1.0070799589157104,80.0,162703.0,0.0
14783.3873018,294037.125,295000.21875,329834.78125,324166.65625,285134.96875,256018.234375,222603.625,246261.25,0.046142578125,0.98876953125,0.071533203125,0.3662109076976776,-1.8005369901657104,-1.0070799589157104,80.0,162704.0,0.0
14783.387302,294037.125,295000.21875,329834.78125,324166.65625,285134.96875,256018.234375,222603.625,246261.25,0.046142578125,0.98876953125,0.071533203125,0.3662109076976776,-1.8005369901657104,-1.0070799589157104,80.0,162705.0,0.0
14783.3873022,294037.125,295000.21875,329834.78125,324166.65625,285134.96875,256018.234375,222603.625,246261.25,0.046142578125,0.98876953125,0.071533203125,0.3662109076976776,-1.8005369901657104,-1.0070799589157104,80.0,162706.0,0.0
14783.3873024,294037.125,295000.21875,329834.78125,324166.65625,285134.96875,256018.234375,222603.625,246261.25,0.046142578125,0.98876953125,0.071533203125,0.3662109076976776,-1.8005369901657104,-1.0070799589157104,80.0,162707.0,0.0
14783.3873026,294037.125,295000.21875,329834.78125,324166.65625,285134.96875,256018.234375,222603.625,246261.25,0.046142578125,0.98876953125,0.071533203125,0.3662109076976776,-1.8005369901657104,-1.0070799589157104,80.0,162708.0,0.0
14783.3873027,293998.78125,295230.625,329910.96875,324079.84375,285215.78125,256044.875,222606.125,246230.765625,0.04833984375,0.989013671875,0.072509765625,0.0915527269244194,-1.8310545682907104,-1.1291502714157104,80.0,162709.0,1.0
14783.3873068,293998.59375,294947.375,329729.03125,324109.53125,285094.5625,255998.390625,222568.3125,246235.859375,0.049072265625,0.9873046875,0.07177734375,0.03051757626235485,-1.8615721464157104,-1.1291502714157104,80.0,162710.0,1.0
14783.3873081,294037.75,294991.4375,329830.9375,324166.03125,285143.8125,256024.046875,222607.734375,246261.25,0.04931640625,0.9892578125,0.06689453125,0.0,-1.7089842557907104,-1.1901854276657104,80.0,162711.0,1.0
14783.3873094,294066.1875,295293.5625,330064.84375,324169.875,285289.53125,256080.640625,222664.15625,246270.734375,0.048583984375,0.98974609375,0.066650390625,0.0,-1.7395018339157104,-1.0986326932907104,80.0,162712.0,1.0
14783.4104328,294044.625,295449.21875,330113.90625,324116.21875,285334.15625,256097.625,222658.4375,246244.703125,0.048095703125,0.98828125,0.065673828125,-0.03051757626235485,-1.6479490995407104,-1.0681151151657104,80.0,162713.0,1.0
14783.4479271,294005.90625,295245.90625,329918.125,324082.0625,285221.25,256047.375,222600.765625,246227.453125,0.04833984375,0.987548828125,0.06640625,0.03051757626235485,-1.6479490995407104,-1.0070799589157104,80.0,162714.0,1.0
14783.4729427,294002.4375,294954.4375,329726.5,324108.53125,285093.5625,255995.703125,222561.0625,246238.8125,0.04833984375,0.989501953125,0.068115234375,-0.0610351525247097,-1.7089842557907104,-0.9765624403953552,80.0,162715.0,1.0
14783.4985137,294048.125,294995.75,329826.46875,324168.15625,285146.03125,256022.171875,222603.453125,246272.0625,0.050048828125,0.989501953125,0.072021484375,0.03051757626235485,-1.8005369901657104,-0.9765624403953552,80.0,162716.0,1.0
14783.4985189,294074.9375,295295.09375,330055.53125,324169.875,285288.03125,256083.765625,222661.46875,246278.5,0.0498046875,0.98876953125,0.070068359375,0.0610351525247097,-1.7395018339157104,-1.0070799589157104,80.0,162717.0,1.0
14783.4985202,294056.0625,295449.65625,330104.53125,324118.71875,285334.59375,256114.4375,222671.3125,246258.203125,0.05126953125,0.98876953125,0.068115234375,-0.0610351525247097,-1.6174315214157104,-0.8544921278953552,80.0,162718.0,1.0
14783.5178922,294016.90625,295253.875,329919.1875,324087.25,285229.1875,256070.1875,222616.40625,246236.578125,0.0498046875,0.98876953125,0.0693359375,-0.03051757626235485,-1.5563963651657104,-0.8239745497703552,80.0,162719.0,1.0
14783.5466866,294010.9375,294964.625,329733.3125,324110.0625,285102.0625,256009.828125,222568.75,246240.78125,0.04931640625,0.990234375,0.06787109375,0.0,-1.5563963651657104,-0.9765624403953552,80.0,162720.0,1.0
14783.5716976,294049.71875,294994.59375,329824.40625,324163.6875,285142.1875,256024.578125,222602.46875,246267.78125,0.049560546875,0.9912109375,0.071533203125,-0.03051757626235485,-1.5869139432907104,-1.0070799589157104,80.0,162721.0,1.0
14783.5966975,294049.71875,294994.59375,329824.40625,324163.6875,285142.1875,256024.578125,222602.46875,246267.78125,0.049560546875,0.9912109375,0.071533203125,-0.03051757626235485,-1.5869139432907104,-1.0070799589157104,80.0,162722.0,0.0
14783.5966986,294049.71875,294994.59375,329824.40625,324163.6875,285142.1875,256024.578125,222602.46875,246267.78125,0.049560546875,0.9912109375,0.071533203125,-0.03051757626235485,-1.5869139432907104,-1.0070799589157104,80.0,162723.0,0.0
14783.5966988,294049.71875,294994.59375,329824.40625,324163.6875,285142.1875,256024.578125,222602.46875,246267.78125,0.049560546875,0.9912109375,0.071533203125,-0.03051757626235485,-1.5869139432907104,-1.0070799589157104,80.0,162724.0,0.0
14783.5966989,294049.71875,294994.59375,329824.40625,324163.6875,285142.1875,256024.578125,222602.46875,246267.78125,0.049560546875,0.9912109375,0.071533203125,-0.03051757626235485,-1.5869139432907104,-1.0070799589157104,80.0,162725.0,0.0
14783.5966991,294049.71875,294994.59375,329824.40625,324163.6875,285142.1875,256024.578125,222602.46875,246267.78125,0.049560546875,0.9912109375,0.071533203125,-0.03051757626235485,-1.5869139432907104,-1.0070799589157104,80.0,162726.0,0.0
14783.5966993,294049.71875,294994.59375,329824.40625,324163.6875,285142.1875,256024.578125,222602.46875,246267.78125,0.049560546875,0.9912109375,0.071533203125,-0.03051757626235485,-1.5869139432907104,-1.0070799589157104,80.0,162727.0,0.0
14783.5966994,294049.71875,294994.59375,329824.40625,324163.6875,285142.1875,256024.578125,222602.46875,246267.78125,0.049560546875,0.9912109375,0.071533203125,-0.03051757626235485,-1.5869139432907104,-1.0070799589157104,80.0,162728.0,0.0
14783.5966996,294049.71875,294994.59375,329824.40625,324163.6875,285142.1875,256024.578125,222602.46875,246267.78125,0.049560546875,0.9912109375,0.071533203125,-0.03051757626235485,-1.5869139432907104,-1.0070799589157104,80.0,162729.0,0.0
14783.5966998,294049.71875,294994.59375,329824.40625,324163.6875,285142.1875,256024.578125,222602.46875,246267.78125,0.049560546875,0.9912109375,0.071533203125,-0.03051757626235485,-1.5869139432907104,-1.0070799589157104,80.0,162730.0,0.0
14783.5967,294049.71875,294994.59375,329824.40625,324163.6875,285142.1875,256024.578125,222602.46875,246267.78125,0.049560546875,0.9912109375,0.071533203125,-0.03051757626235485,-1.5869139432907104,-1.0070799589157104,80.0,162731.0,0.0
14783.5967001,294049.71875,294994.59375,329824.40625,324163.6875,285142.1875,256024.578125,222602.46875,246267.78125,0.049560546875,0.9912109375,0.071533203125,-0.03051757626235485,-1.5869139432907104,-1.0070799589157104,80.0,162732.0,0.0
14783.5967003,294049.71875,294994.59375,329824.40625,324163.6875,285142.1875,256024.578125,222602.46875,246267.78125,0.049560546875,0.9912109375,0.071533203125,-0.03051757626235485,-1.5869139432907104,-1.0070799589157104,80.0,162733.0,0.0
14783.5967005,294049.71875,294994.59375,329824.40625,324163.6875,285142.1875,256024.578125,222602.46875,246267.78125,0.049560546875,0.9912109375,0.071533203125,-0.03051757626235485,-1.5869139432907104,-1.0070799589157104,80.0,162734.0,0.0
14783.5967007,294049.71875,294994.59375,329824.40625,324163.6875,285142.1875,256024.578125,222602.46875,246267.78125,0.049560546875,0.9912109375,0.071533203125,-0.03051757626235485,-1.5869139432907104,-1.0070799589157104,80.0,162735.0,0.0
14783.5967008,294049.71875,294994.59375,329824.40625,324163.6875,285142.1875,256024.578125,222602.46875,246267.78125,0.049560546875,0.9912109375,0.071533203125,-0.03051757626235485,-1.5869139432907104,-1.0070799589157104,80.0,162736.0,0.0
14783.596701,294049.71875,294994.59375,329824.40625,324163.6875,285142.1875,256024.578125,222602.46875,246267.78125,0.049560546875,0.9912109375,0.071533203125,-0.03051757626235485,-1.5869139432907104,-1.0070799589157104,80.0,162737.0,0.0
14783.5967012,294049.71875,294994.59375,329824.40625,324163.6875,285142.1875,256024.578125,222602.46875,246267.78125,0.049560546875,0.9912109375,0.071533203125,-0.03051757626235485,-1.5869139432907104,-1.0070799589157104,80.0,162738.0,0.0
14783.5967013,294049.71875,294994.59375,329824.40625,324163.6875,285142.1875,256024.578125,222602.46875,246267.78125,0.049560546875,0.9912109375,0.071533203125,-0.03051757626235485,-1.5869139432907104,-1.0070799589157104,80.0,162739.0,0.0
14783.5967015,294049.71875,294994.59375,329824.40625,324163.6875,285142.1875,256024.578125,222602.46875,246267.78125,0.049560546875,0.9912109375,0.071533203125,-0.03051757626235485,-1.5869139432907104,-1.0070799589157104,80.0,162740.0,0.0
14783.5967017,294049.71875,294994.59375,329824.40625,324163.6875,285142.1875,256024.578125,222602.46875,246267.78125,0.049560546875,0.9912109375,0.071533203125,-0.03051757626235485,-1.5869139432907104,-1.0070799589157104,80.0,162741.0,0.0
14783.5967019,294049.71875,294994.59375,329824.40625,324163.6875,285142.1875,256024.578125,222602.46875,246267.78125,0.049560546875,0.9912109375,0.071533203125,-0.03051757626235485,-1.5869139432907104,-1.0070799589157104,80.0,162742.0,0.0
14783.596702,294049.71875,294994.59375,329824.40625,324163.6875,285142.1875,256024.578125,222602.46875,246267.78125,0.049560546875,0.9912109375,0.071533203125,-0.03051757626235485,-1.5869139432907104,-1.0070799589157104,80.0,162743.0,0.0
14783.5967022,294049.71875,294994.59375,329824.40625,324163.6875,285142.1875,256024.578125,222602.46875,246267.78125,0.049560546875,0.9912109375,0.071533203125,-0.03051757626235485,-1.5869139432907104,-1.0070799589157104,80.0,162744.0,0.0
14783.5967024,294049.71875,294994.59375,329824.40625,324163.6875,285142.1875,256024.578125,222602.46875,246267.78125,0.049560546875,0.9912109375,0.071533203125,-0.03051757626235485,-1.5869139432907104,-1.0070799589157104,80.0,162745.0,0.0
14783.5967026,294049.71875,294994.59375,329824.40625,324163.6875,285142.1875,256024.578125,222602.46875,246267.78125,0.049560546875,0.9912109375,0.071533203125,-0.03051757626235485,-1.5869139432907104,-1.0070799589157104,80.0,162746.0,0.0
14783.5967027,294049.71875,294994.59375,329824.40625,324163.6875,285142.1875,256024.578125,222602.46875,246267.78125,0.049560546875,0.9912109375,0.071533203125,-0.03051757626235485,-1.5869139432907104,-1.0070799589157104,80.0,162747.0,0.0
14783.5967029,294049.71875,294994.59375,329824.40625,324163.6875,285142.1875,256024.578125,222602.46875,246267.78125,0.049560546875,0.9912109375,0.071533203125,-0.03051757626235485,-1.5869139432907104,-1.0070799589157104,80.0,162748.0,0.0
14783.5967031,294049.71875,294994.59375,329824.40625,324163.6875,285142.1875,256024.578125,222602.46875,246267.78125,0.049560546875,0.9912109375,0.071533203125,-0.03051757626235485,-1.5869139432907104,-1.0070799589157104,80.0,162749.0,0.0
14783.5967032,294049.71875,294994.59375,329824.40625,324163.6875,285142.1875,256024.578125,222602.46875,246267.78125,0.049560546875,0.9912109375,0.071533203125,-0.03051757626235485,-1.5869139432907104,-1.0070799589157104,80.0,162750.0,0.0
14783.5967034,294049.71875,294994.59375,329824.40625,324163.6875,285142.1875,256024.578125,222602.46875,246267.78125,0.049560546875,0.9912109375,0.071533203125,-0.03051757626235485,-1.5869139432907104,-1.0070799589157104,80.0,162751.0,0.0
14783.5967036,294049.71875,294994.59375,329824.40625,324163.6875,285142.1875,256024.578125,222602.46875,246267.78125,0.049560546875,0.9912109375,0.071533203125,-0.03051757626235485,-1.5869139432907104,-1.0070799589157104,80.0,162752.0,0.0
14783.5967038,294049.71875,294994.59375,329824.40625,324163.6875,285142.1875,256024.578125,222602.46875,246267.78125,0.049560546875,0.9912109375,0.071533203125,-0.03051757626235485,-1.5869139432907104,-1.0070799589157104,80.0,162753.0,0.0
14783.5967039,294049.71875,294994.59375,329824.40625,324163.6875,285142.1875,256024.578125,222602.46875,246267.78125,0.049560546875,0.9912109375,0.071533203125,-0.03051757626235485,-1.5869139432907104,-1.0070799589157104,80.0,162754.0,0.0
14783.5967041,294049.71875,294994.59375,329824.40625,324163.6875,285142.1875,256024.578125,222602.46875,246267.78125,0.049560546875,0.9912109375,0.071533203125,-0.03051757626235485,-1.5869139432907104,-1.0070799589157104,80.0,162755.0,0.0
14783.5967044,294049.71875,294994.59375,329824.40625,324163.6875,285142.1875,256024.578125,222602.46875,246267.78125,0.049560546875,0.9912109375,0.071533203125,-0.03051757626235485,-1.5869139432907104,-1.0070799589157104,80.0,162756.0,0.0
14783.5967045,294065.09375,295282.90625,330049.8125,324158.0625,285281.6875,256072.0625,222651.09375,246271.0,0.05224609375,0.989990234375,0.0703125,0.03051757626235485,-0.9460448622703552,-0.8850097060203552,80.0,162757.0,1.0
14783.621643,294046.25,295428.84375,330091.46875,324108.28125,285326.75,256097.984375,222658.609375,246254.453125,0.05029296875,0.98974609375,0.071044921875,-0.1220703050494194,-0.9765624403953552,-0.9155272841453552,80.0,162758.0,1.0
14783.6416882,294016.1875,295240.8125,329904.875,324080.90625,285221.0625,256053.8125,222611.3125,246238.546875,0.049560546875,0.98974609375,0.071533203125,-0.03051757626235485,-1.0375975370407104,-0.7934569716453552,80.0,162759.0,1.0
14783.6447885,294015.5625,294965.0625,329732.78125,324110.3125,285104.65625,256007.421875,222575.015625,246244.078125,0.05078125,0.988037109375,0.0703125,-0.1220703050494194,-1.0986326932907104,-0.9460448622703552,80.0,162760.0,1.0
14783.6447937,294056.25,295005.84375,329834.96875,324168.09375,285153.65625,256029.765625,222610.6875,246273.859375,0.052001953125,0.98779296875,0.071533203125,-0.1525878757238388,-1.0070799589157104,-0.8239745497703552,80.0,162761.0,1.0
14783.6472697,294080.21875,295300.71875,330064.1875,324168.4375,285298.3125,256086.625,222667.640625,246283.515625,0.051513671875,0.988037109375,0.07373046875,-0.1220703050494194,-1.0681151151657104,-0.8544921278953552,80.0,162762.0,1.0
14783.6472747,294061.25,295452.25,330108.5625,324116.59375,285347.75,256108.53125,222677.390625,246263.390625,0.05029296875,0.98779296875,0.0693359375,-0.03051757626235485,-1.0986326932907104,-0.8850097060203552,80.0,162763.0,1.0
14783.6497639,294020.125,295242.34375,329913.8125,324083.9375,285234.90625,256060.796875,222621.953125,246244.984375,0.05029296875,0.98876953125,0.070556640625,-0.0610351525247097,-1.0986326932907104,-0.9765624403953552,80.0,162764.0,1.0
14783.6497692,294012.0,294957.75,329730.90625,324110.21875,285109.46875,256012.953125,222577.703125,246254.453125,0.050537109375,0.990234375,0.0712890625,-0.03051757626235485,-1.1901854276657104,-1.0375975370407104,80.0,162765.0,1.0
14783.6516324,294052.9375,295003.53125,329836.21875,324166.65625,285158.84375,256040.40625,222617.03125,246280.65625,0.052490234375,0.98974609375,0.07470703125,0.0,-1.2207030057907104,-0.9155272841453552,80.0,162766.0,1.0
14783.6792072,294052.9375,295003.53125,329836.21875,324166.65625,285158.84375,256040.40625,222617.03125,246280.65625,0.052490234375,0.98974609375,0.07470703125,0.0,-1.2207030057907104,-0.9155272841453552,80.0,162767.0,0.0
14783.6792083,294052.9375,295003.53125,329836.21875,324166.65625,285158.84375,256040.40625,222617.03125,246280.65625,0.052490234375,0.98974609375,0.07470703125,0.0,-1.2207030057907104,-0.9155272841453552,80.0,162768.0,0.0
14783.6792085,294052.9375,295003.53125,329836.21875,324166.65625,285158.84375,256040.40625,222617.03125,246280.65625,0.052490234375,0.98974609375,0.07470703125,0.0,-1.2207030057907104,-0.9155272841453552,80.0,162769.0,0.0
14783.6792087,294052.9375,295003.53125,329836.21875,324166.65625,285158.84375,256040.40625,222617.03125,246280.65625,0.052490234375,0.98974609375,0.07470703125,0.0,-1.2207030057907104,-0.9155272841453552,80.0,162770.0,0.0
14783.6792089,294052.9375,295003.53125,329836.21875,324166.65625,285158.84375,256040.40625,222617.03125,246280.65625,0.052490234375,0.98974609375,0.07470703125,0.0,-1.2207030057907104,-0.9155272841453552,80.0,162771.0,0.0
14783.6792091,294052.9375,295003.53125,329836.21875,324166.65625,285158.84375,256040.40625,222617.03125,246280.65625,0.052490234375,0.98974609375,0.07470703125,0.0,-1.2207030057907104,-0.9155272841453552,80.0,162772.0,0.0
14783.6792093,294052.9375,295003.53125,329836.21875,324166.65625,285158.84375,256040.40625,222617.03125,246280.65625,0.052490234375,0.98974609375,0.07470703125,0.0,-1.2207030057907104,-0.9155272841453552,80.0,162773.0,0.0
14783.6792094,294052.9375,295003.53125,329836.21875,324166.65625,285158.84375,256040.40625,222617.03125,246280.65625,0.052490234375,0.98974609375,0.07470703125,0.0,-1.2207030057907104,-0.9155272841453552,80.0,162774.0,0.0
14783.6792096,294052.9375,295003.53125,329836.21875,324166.65625,285158.84375,256040.40625,222617.03125,246280.65625,0.052490234375,0.98974609375,0.07470703125,0.0,-1.2207030057907104,-0.9155272841453552,80.0,162775.0,0.0
14783.6792098,294052.9375,295003.53125,329836.21875,324166.65625,285158.84375,256040.40625,222617.03125,246280.65625,0.052490234375,0.98974609375,0.07470703125,0.0,-1.2207030057907104,-0.9155272841453552,80.0,162776.0,0.0
14783.67921,294052.9375,295003.53125,329836.21875,324166.65625,285158.84375,256040.40625,222617.03125,246280.65625,0.052490234375,0.98974609375,0.07470703125,0.0,-1.2207030057907104,-0.9155272841453552,80.0,162777.0,0.0
14783.6792101,294052.9375,295003.53125,329836.21875,324166.65625,285158.84375,256040.40625,222617.03125,246280.65625,0.052490234375,0.98974609375,0.07470703125,0.0,-1.2207030057907104,-0.9155272841453552,80.0,162778.0,0.0
14783.6792103,294052.9375,295003.53125,329836.21875,324166.65625,285158.84375,256040.40625,222617.03125,246280.65625,0.052490234375,0.98974609375,0.07470703125,0.0,-1.2207030057907104,-0.9155272841453552,80.0,162779.0,0.0
14783.6792105,294052.9375,295003.53125,329836.21875,324166.65625,285158.84375,256040.40625,222617.03125,246280.65625,0.052490234375,0.98974609375,0.07470703125,0.0,-1.2207030057907104,-0.9155272841453552,80.0,162780.0,0.0
14783.6792107,294052.9375,295003.53125,329836.21875,324166.65625,285158.84375,256040.40625,222617.03125,246280.65625,0.052490234375,0.98974609375,0.07470703125,0.0,-1.2207030057907104,-0.9155272841453552,80.0,162781.0,0.0
14783.6792108,294052.9375,295003.53125,329836.21875,324166.65625,285158.84375,256040.40625,222617.03125,246280.65625,0.052490234375,0.98974609375,0.07470703125,0.0,-1.2207030057907104,-0.9155272841453552,80.0,162782.0,0.0
14783.679211,294052.9375,295003.53125,329836.21875,324166.65625,285158.84375,256040.40625,222617.03125,246280.65625,0.052490234375,0.98974609375,0.07470703125,0.0,-1.2207030057907104,-0.9155272841453552,80.0,162783.0,0.0
14783.6792112,294052.9375,295003.53125,329836.21875,324166.65625,285158.84375,256040.40625,222617.03125,246280.65625,0.052490234375,0.98974609375,0.07470703125,0.0,-1.2207030057907104,-0.9155272841453552,80.0,162784.0,0.0
14783.6792113,294052.9375,295003.53125,329836.21875,324166.65625,285158.84375,256040.40625,222617.03125,246280.65625,0.052490234375,0.98974609375,0.07470703125,0.0,-1.2207030057907104,-0.9155272841453552,80.0,162785.0,0.0
14783.6792115,294052.9375,295003.53125,329836.21875,324166.65625,285158.84375,256040.40625,222617.03125,246280.65625,0.052490234375,0.98974609375,0.07470703125,0.0,-1.2207030057907104,-0.9155272841453552,80.0,162786.0,0.0
14783.6792117,294052.9375,295003.53125,329836.21875,324166.65625,285158.84375,256040.40625,222617.03125,246280.65625,0.052490234375,0.98974609375,0.07470703125,0.0,-1.2207030057907104,-0.9155272841453552,80.0,162787.0,0.0
14783.6792119,294052.9375,295003.53125,329836.21875,324166.65625,285158.84375,256040.40625,222617.03125,246280.65625,0.052490234375,0.98974609375,0.07470703125,0.0,-1.2207030057907104,-0.9155272841453552,80.0,162788.0,0.0
14783.6792124,294052.9375,295003.53125,329836.21875,324166.65625,285158.84375,256040.40625,222617.03125,246280.65625,0.052490234375,0.98974609375,0.07470703125,0.0,-1.2207030057907104,-0.9155272841453552,80.0,162789.0,0.0
14783.6792125,294052.9375,295003.53125,329836.21875,324166.65625,285158.84375,256040.40625,222617.03125,246280.65625,0.052490234375,0.98974609375,0.07470703125,0.0,-1.2207030057907104,-0.9155272841453552,80.0,162790.0,0.0
14783.6792127,294052.9375,295003.53125,329836.21875,324166.65625,285158.84375,256040.40625,222617.03125,246280.65625,0.052490234375,0.98974609375,0.07470703125,0.0,-1.2207030057907104,-0.9155272841453552,80.0,162791.0,0.0
14783.6792129,294052.9375,295003.53125,329836.21875,324166.65625,285158.84375,256040.40625,222617.03125,246280.65625,0.052490234375,0.98974609375,0.07470703125,0.0,-1.2207030057907104,-0.9155272841453552,80.0,162792.0,0.0
14783.6792131,294052.9375,295003.53125,329836.21875,324166.65625,285158.84375,256040.40625,222617.03125,246280.65625,0.052490234375,0.98974609375,0.07470703125,0.0,-1.2207030057907104,-0.9155272841453552,80.0,162793.0,0.0
14783.6792132,294052.9375,295003.53125,329836.21875,324166.65625,285158.84375,256040.40625,222617.03125,246280.65625,0.052490234375,0.98974609375,0.07470703125,0.0,-1.2207030057907104,-0.9155272841453552,80.0,162794.0,0.0
14783.6792134,294052.9375,295003.53125,329836.21875,324166.65625,285158.84375,256040.40625,222617.03125,246280.65625,0.052490234375,0.98974609375,0.07470703125,0.0,-1.2207030057907104,-0.9155272841453552,80.0,162795.0,0.0
14783.6792136,294052.9375,295003.53125,329836.21875,324166.65625,285158.84375,256040.40625,222617.03125,246280.65625,0.052490234375,0.98974609375,0.07470703125,0.0,-1.2207030057907104,-0.9155272841453552,80.0,162796.0,0.0
14783.6792138,294052.9375,295003.53125,329836.21875,324166.65625,285158.84375,256040.40625,222617.03125,246280.65625,0.052490234375,0.98974609375,0.07470703125,0.0,-1.2207030057907104,-0.9155272841453552,80.0,162797.0,0.0
14783.6792139,294052.9375,295003.53125,329836.21875,324166.65625,285158.84375,256040.40625,222617.03125,246280.65625,0.052490234375,0.98974609375,0.07470703125,0.0,-1.2207030057907104,-0.9155272841453552,80.0,162798.0,0.0
14783.6792141,294052.9375,295003.53125,329836.21875,324166.65625,285158.84375,256040.40625,222617.03125,246280.65625,0.052490234375,0.98974609375,0.07470703125,0.0,-1.2207030057907104,-0.9155272841453552,80.0,162799.0,0.0
14783.6792143,294052.9375,295003.53125,329836.21875,324166.65625,285158.84375,256040.40625,222617.03125,246280.65625,0.052490234375,0.98974609375,0.07470703125,0.0,-1.2207030057907104,-0.9155272841453552,80.0,162800.0,0.0
14783.6792145,294052.9375,295003.53125,329836.21875,324166.65625,285158.84375,256040.40625,222617.03125,246280.65625,0.052490234375,0.98974609375,0.07470703125,0.0,-1.2207030057907104,-0.9155272841453552,80.0,162801.0,0.0
14783.6792146,294052.9375,295003.53125,329836.21875,324166.65625,285158.84375,256040.40625,222617.03125,246280.65625,0.052490234375,0.98974609375,0.07470703125,0.0,-1.2207030057907104,-0.9155272841453552,80.0,162802.0,0.0
14783.6792148,294052.9375,295003.53125,329836.21875,324166.65625,285158.84375,256040.40625,222617.03125,246280.65625,0.052490234375,0.98974609375,0.07470703125,0.0,-1.2207030057907104,-0.9155272841453552,80.0,162803.0,0.0
14783.679215,294052.9375,295003.53125,329836.21875,324166.65625,285158.84375,256040.40625,222617.03125,246280.65625,0.052490234375,0.98974609375,0.07470703125,0.0,-1.2207030057907104,-0.9155272841453552,80.0,162804.0,0.0
14783.6792152,294052.9375,295003.53125,329836.21875,324166.65625,285158.84375,256040.40625,222617.03125,246280.65625,0.052490234375,0.98974609375,0.07470703125,0.0,-1.2207030057907104,-0.9155272841453552,80.0,162805.0,0.0
14783.6792153,294052.9375,295003.53125,329836.21875,324166.65625,285158.84375,256040.40625,222617.03125,246280.65625,0.052490234375,0.98974609375,0.07470703125,0.0,-1.2207030057907104,-0.9155272841453552,80.0,162806.0,0.0
14783.6792155,294052.9375,295003.53125,329836.21875,324166.65625,285158.84375,256040.40625,222617.03125,246280.65625,0.052490234375,0.98974609375,0.07470703125,0.0,-1.2207030057907104,-0.9155272841453552,80.0,162807.0,0.0
14783.6792157,294052.9375,295003.53125,329836.21875,324166.65625,285158.84375,256040.40625,222617.03125,246280.65625,0.052490234375,0.98974609375,0.07470703125,0.0,-1.2207030057907104,-0.9155272841453552,80.0,162808.0,0.0
14783.6792159,294052.9375,295003.53125,329836.21875,324166.65625,285158.84375,256040.40625,222617.03125,246280.65625,0.052490234375,0.98974609375,0.07470703125,0.0,-1.2207030057907104,-0.9155272841453552,80.0,162809.0,0.0
14783.679216,294052.9375,295003.53125,329836.21875,324166.65625,285158.84375,256040.40625,222617.03125,246280.65625,0.052490234375,0.98974609375,0.07470703125,0.0,-1.2207030057907104,-0.9155272841453552,80.0,162810.0,0.0
14783.6792162,294052.9375,295003.53125,329836.21875,324166.65625,285158.84375,256040.40625,222617.03125,246280.65625,0.052490234375,0.98974609375,0.07470703125,0.0,-1.2207030057907104,-0.9155272841453552,80.0,162811.0,0.0
14783.6792164,294052.9375,295003.53125,329836.21875,324166.65625,285158.84375,256040.40625,222617.03125,246280.65625,0.052490234375,0.98974609375,0.07470703125,0.0,-1.2207030057907104,-0.9155272841453552,80.0,162812.0,0.0
14783.6792166,294052.9375,295003.53125,329836.21875,324166.65625,285158.84375,256040.40625,222617.03125,246280.65625,0.052490234375,0.98974609375,0.07470703125,0.0,-1.2207030057907104,-0.9155272841453552,80.0,162813.0,0.0
14783.6792168,294052.9375,295003.53125,329836.21875,324166.65625,285158.84375,256040.40625,222617.03125,246280.65625,0.052490234375,0.98974609375,0.07470703125,0.0,-1.2207030057907104,-0.9155272841453552,80.0,162814.0,0.0
14783.6792169,294052.9375,295003.53125,329836.21875,324166.65625,285158.84375,256040.40625,222617.03125,246280.65625,0.052490234375,0.98974609375,0.07470703125,0.0,-1.2207030057907104,-0.9155272841453552,80.0,162815.0,0.0
14783.6792171,294052.9375,295003.53125,329836.21875,324166.65625,285158.84375,256040.40625,222617.03125,246280.65625,0.052490234375,0.98974609375,0.07470703125,0.0,-1.2207030057907104,-0.9155272841453552,80.0,162816.0,0.0
14783.6792173,294052.9375,295003.53125,329836.21875,324166.65625,285158.84375,256040.40625,222617.03125,246280.65625,0.052490234375,0.98974609375,0.07470703125,0.0,-1.2207030057907104,-0.9155272841453552,80.0,162817.0,0.0
14783.6792175,294051.4375,295440.0,330110.34375,324106.46875,285348.65625,256113.09375,222677.75,246269.125,0.051025390625,0.98828125,0.069580078125,0.7324218153953552,-1.2817381620407104,-0.5187987685203552,80.0,162818.0,1.0
14783.6792219,294011.65625,295229.53125,329911.84375,324071.15625,285229.8125,256052.484375,222616.40625,246248.640625,0.049072265625,0.986572265625,0.067138671875,0.7629393935203552,-1.1291502714157104,-0.6408690810203552,80.0,162819.0,1.0
14783.6792233,294004.21875,294943.0,329720.6875,324096.8125,285100.625,255999.375,222574.5625,246256.875,0.051513671875,0.986083984375,0.066162109375,0.7629393935203552,-1.1901854276657104,-0.7324218153953552,80.0,162820.0,1.0
14783.6792246,294047.59375,294996.625,329828.71875,324154.5,285156.96875,256034.953125,222618.375,246284.765625,0.04931640625,0.98779296875,0.067138671875,0.8239745497703552,-1.1901854276657104,-1.0375975370407104,80.0,162821.0,1.0
14783.6792335,294075.75,295298.46875,330064.90625,324159.125,285304.90625,256093.96875,222675.328125,246299.875,0.0498046875,0.98779296875,0.06982421875,0.7629393935203552,-1.1901854276657104,-1.0986326932907104,80.0,162822.0,1.0
14783.6792349,294045.09375,295430.0,330095.59375,324096.09375,285336.40625,256096.109375,222665.5,246267.15625,0.051025390625,0.991943359375,0.072998046875,0.6713866591453552,-1.2207030057907104,-1.1901854276657104,80.0,162823.0,1.0
14783.6792361,294004.21875,295215.96875,329893.96875,324063.375,285217.84375,256048.0,222610.59375,246237.640625,0.050537109375,0.99267578125,0.072021484375,0.7324218153953552,-1.2512205839157104,-1.2512205839157104,80.0,162824.0,1.0
14783.6792374,294011.65625,294947.8125,329724.09375,324103.875,285107.875,256019.03125,222588.421875,246256.59375,0.049560546875,0.991943359375,0.068359375,0.6408690810203552,-1.3427733182907104,-1.3732908964157104,80.0,162825.0,1.0
14783.7040176,294053.3125,295012.09375,329837.65625,324160.9375,285165.34375,256050.0625,222631.25,246292.0,0.04931640625,0.989501953125,0.0703125,0.5493163466453552,-1.3427733182907104,-1.2512205839157104,80.0,162826.0,1.0
14783.7294967,294053.3125,295012.09375,329837.65625,324160.9375,285165.34375,256050.0625,222631.25,246292.0,0.04931640625,0.989501953125,0.0703125,0.5493163466453552,-1.3427733182907104,-1.2512205839157104,80.0,162827.0,0.0
14783.7294978,294053.3125,295012.09375,329837.65625,324160.9375,285165.34375,256050.0625,222631.25,246292.0,0.04931640625,0.989501953125,0.0703125,0.5493163466453552,-1.3427733182907104,-1.2512205839157104,80.0,162828.0,0.0
14783.729498,294053.3125,295012.09375,329837.65625,324160.9375,285165.34375,256050.0625,222631.25,246292.0,0.04931640625,0.989501953125,0.0703125,0.5493163466453552,-1.3427733182907104,-1.2512205839157104,80.0,162829.0,0.0
14783.7294982,294053.3125,295012.09375,329837.65625,324160.9375,285165.34375,256050.0625,222631.25,246292.0,0.04931640625,0.989501953125,0.0703125,0.5493163466453552,-1.3427733182907104,-1.2512205839157104,80.0,162830.0,0.0
14783.7294984,294053.3125,295012.09375,329837.65625,324160.9375,285165.34375,256050.0625,222631.25,246292.0,0.04931640625,0.989501953125,0.0703125,0.5493163466453552,-1.3427733182907104,-1.2512205839157104,80.0,162831.0,0.0
14783.7294986,294053.3125,295012.09375,329837.65625,324160.9375,285165.34375,256050.0625,222631.25,246292.0,0.04931640625,0.989501953125,0.0703125,0.5493163466453552,-1.3427733182907104,-1.2512205839157104,80.0,162832.0,0.0
14783.7294987,294053.3125,295012.09375,329837.65625,324160.9375,285165.34375,256050.0625,222631.25,246292.0,0.04931640625,0.989501953125,0.0703125,0.5493163466453552,-1.3427733182907104,-1.2512205839157104,80.0,162833.0,0.0
14783.7294989,294053.3125,295012.09375,329837.65625,324160.9375,285165.34375,256050.0625,222631.25,246292.0,0.04931640625,0.989501953125,0.0703125,0.5493163466453552,-1.3427733182907104,-1.2512205839157104,80.0,162834.0,0.0
14783.7294991,294053.3125,295012.09375,329837.65625,324160.9375,285165.34375,256050.0625,222631.25,246292.0,0.04931640625,0.989501953125,0.0703125,0.5493163466453552,-1.3427733182907104,-1.2512205839157104,80.0,162835.0,0.0
14783.7294993,294053.3125,295012.09375,329837.65625,324160.9375,285165.34375,256050.0625,222631.25,246292.0,0.04931640625,0.989501953125,0.0703125,0.5493163466453552,-1.3427733182907104,-1.2512205839157104,80.0,162836.0,0.0
14783.7294994,294053.3125,295012.09375,329837.65625,324160.9375,285165.34375,256050.0625,222631.25,246292.0,0.04931640625,0.989501953125,0.0703125,0.5493163466453552,-1.3427733182907104,-1.2512205839157104,80.0,162837.0,0.0
14783.7294996,294053.3125,295012.09375,329837.65625,324160.9375,285165.34375,256050.0625,222631.25,246292.0,0.04931640625,0.989501953125,0.0703125,0.5493163466453552,-1.3427733182907104,-1.2512205839157104,80.0,162838.0,0.0
14783.7294998,294053.3125,295012.09375,329837.65625,324160.9375,285165.34375,256050.0625,222631.25,246292.0,0.04931640625,0.989501953125,0.0703125,0.5493163466453552,-1.3427733182907104,-1.2512205839157104,80.0,162839.0,0.0
14783.7294999,294053.3125,295012.09375,329837.65625,324160.9375,285165.34375,256050.0625,222631.25,246292.0,0.04931640625,0.989501953125,0.0703125,0.5493163466453552,-1.3427733182907104,-1.2512205839157104,80.0,162840.0,0.0
14783.7295001,294053.3125,295012.09375,329837.65625,324160.9375,285165.34375,256050.0625,222631.25,246292.0,0.04931640625,0.989501953125,0.0703125,0.5493163466453552,-1.3427733182907104,-1.2512205839157104,80.0,162841.0,0.0
14783.7295003,294053.3125,295012.09375,329837.65625,324160.9375,285165.34375,256050.0625,222631.25,246292.0,0.04931640625,0.989501953125,0.0703125,0.5493163466453552,-1.3427733182907104,-1.2512205839157104,80.0,162842.0,0.0
14783.7295005,294053.3125,295012.09375,329837.65625,324160.9375,285165.34375,256050.0625,222631.25,246292.0,0.04931640625,0.989501953125,0.0703125,0.5493163466453552,-1.3427733182907104,-1.2512205839157104,80.0,162843.0,0.0
14783.7295006,294053.3125,295012.09375,329837.65625,324160.9375,285165.34375,256050.0625,222631.25,246292.0,0.04931640625,0.989501953125,0.0703125,0.5493163466453552,-1.3427733182907104,-1.2512205839157104,80.0,162844.0,0.0
14783.7295008,294053.3125,295012.09375,329837.65625,324160.9375,285165.34375,256050.0625,222631.25,246292.0,0.04931640625,0.989501953125,0.0703125,0.5493163466453552,-1.3427733182907104,-1.2512205839157104,80.0,162845.0,0.0
14783.729501,294053.3125,295012.09375,329837.65625,324160.9375,285165.34375,256050.0625,222631.25,246292.0,0.04931640625,0.989501953125,0.0703125,0.5493163466453552,-1.3427733182907104,-1.2512205839157104,80.0,162846.0,0.0
14783.7295011,294053.3125,295012.09375,329837.65625,324160.9375,285165.34375,256050.0625,222631.25,246292.0,0.04931640625,0.989501953125,0.0703125,0.5493163466453552,-1.3427733182907104,-1.2512205839157104,80.0,162847.0,0.0
14783.7295013,294053.3125,295012.09375,329837.65625,324160.9375,285165.34375,256050.0625,222631.25,246292.0,0.04931640625,0.989501953125,0.0703125,0.5493163466453552,-1.3427733182907104,-1.2512205839157104,80.0,162848.0,0.0
14783.7295015,294053.3125,295012.09375,329837.65625,324160.9375,285165.34375,256050.0625,222631.25,246292.0,0.04931640625,0.989501953125,0.0703125,0.5493163466453552,-1.3427733182907104,-1.2512205839157104,80.0,162849.0,0.0
14783.7295016,294053.3125,295012.09375,329837.65625,324160.9375,285165.34375,256050.0625,222631.25,246292.0,0.04931640625,0.989501953125,0.0703125,0.5493163466453552,-1.3427733182907104,-1.2512205839157104,80.0,162850.0,0.0
14783.7295018,294053.3125,295012.09375,329837.65625,324160.9375,285165.34375,256050.0625,222631.25,246292.0,0.04931640625,0.989501953125,0.0703125,0.5493163466453552,-1.3427733182907104,-1.2512205839157104,80.0,162851.0,0.0
14783.7295021,294053.3125,295012.09375,329837.65625,324160.9375,285165.34375,256050.0625,222631.25,246292.0,0.04931640625,0.989501953125,0.0703125,0.5493163466453552,-1.3427733182907104,-1.2512205839157104,80.0,162852.0,0.0
14783.7295022,294053.3125,295012.09375,329837.65625,324160.9375,285165.34375,256050.0625,222631.25,246292.0,0.04931640625,0.989501953125,0.0703125,0.5493163466453552,-1.3427733182907104,-1.2512205839157104,80.0,162853.0,0.0
14783.7295024,294004.9375,295219.625,329882.78125,324056.59375,285204.53125,256048.09375,222613.109375,246234.421875,0.056396484375,0.9873046875,0.07275390625,0.1220703050494194,-1.7089842557907104,-1.0681151151657104,80.0,162854.0,1.0
14783.754301,294008.875,294947.03125,329709.53125,324090.28125,285089.28125,256001.421875,222583.0625,246249.984375,0.055908203125,0.986083984375,0.072021484375,0.1220703050494194,-1.6479490995407104,-0.9765624403953552,80.0,162855.0,1.0
14783.7543188,294050.90625,295006.90625,329819.0625,324145.0,285142.1875,256014.921875,222619.984375,246275.828125,0.0546875,0.984619140625,0.07373046875,0.2441406100988388,-1.4038084745407104,-1.0375975370407104,80.0,162856.0,1.0
14783.7543203,294076.90625,295309.90625,330050.34375,324145.46875,285285.96875,256075.71875,222677.03125,246288.4375,0.056396484375,0.986328125,0.0712890625,0.3356933295726776,-1.3427733182907104,-1.0681151151657104,80.0,162857.0,1.0
14783.7543216,294051.53125,295444.21875,330080.28125,324089.5,285320.84375,256095.484375,222674.34375,246264.734375,0.057373046875,0.986083984375,0.073486328125,0.4577636420726776,-1.2817381620407104,-1.0375975370407104,80.0,162858.0,1.0
14783.7543229,294010.9375,295229.53125,329877.15625,324059.0,285203.71875,256047.203125,222620.078125,246245.875,0.056884765625,0.986572265625,0.072265625,0.6103515028953552,-1.1596678495407104,-1.1291502714157104,80.0,162859.0,1.0
14783.7543242,294007.15625,294950.9375,329701.75,324088.34375,285083.625,256002.859375,222581.28125,246254.90625,0.05224609375,0.98779296875,0.072998046875,0.7324218153953552,-1.1291502714157104,-1.1291502714157104,80.0,162860.0,1.0
14783.7543255,294050.8125,295017.1875,329824.6875,324146.625,285147.84375,256035.3125,222627.671875,246283.328125,0.051025390625,0.988525390625,0.0712890625,0.7629393935203552,-1.0070799589157104,-1.0986326932907104,80.0,162861.0,1.0
14783.7543268,294073.6875,295321.09375,330061.0625,324147.96875,285296.15625,256101.921875,222685.875,246286.734375,0.04833984375,0.989990234375,0.074951171875,0.7324218153953552,-1.0375975370407104,-1.1291502714157104,80.0,162862.0,1.0
14783.7543282,294044.8125,295447.34375,330087.09375,324094.0625,285328.78125,256117.46875,222683.828125,246267.15625,0.04736328125,0.990478515625,0.072509765625,0.6713866591453552,-0.9765624403953552,-1.1596678495407104,80.0,162863.0,1.0
14783.756653,294006.53125,295230.71875,329887.4375,324062.9375,285212.21875,256061.953125,222624.71875,246249.0,0.0478515625,0.989501953125,0.06982421875,0.7324218153953552,-1.0070799589157104,-1.1291502714157104,80.0,162864.0,1.0
14783.7626054,293999.3125,294951.125,329710.59375,324087.53125,285092.03125,256002.59375,222579.671875,246254.453125,0.045654296875,0.991455078125,0.073974609375,0.6713866591453552,-0.9460448622703552,-1.3122557401657104,80.0,162865.0,1.0
14783.7626076,294041.9375,295011.5625,329823.6875,324143.9375,285149.53125,256031.46875,222619.71875,246285.84375,0.044677734375,0.9912109375,0.07373046875,0.6713866591453552,-0.9765624403953552,-1.2207030057907104,80.0,162866.0,1.0
14783.762609,294075.21875,295320.5625,330065.0,324151.0,285304.46875,256108.53125,222689.71875,246292.71875,0.04443359375,0.9912109375,0.0732421875,0.6408690810203552,-1.0070799589157104,-1.3427733182907104,80.0,162867.0,1.0
14783.7626103,294043.5625,295439.46875,330083.59375,324086.375,285328.0,256105.140625,222673.984375,246256.6875,0.0439453125,0.989990234375,0.069580078125,0.6713866591453552,-1.1901854276657104,-1.4038084745407104,80.0,162868.0,1.0
14783.7626115,294007.25,295224.4375,329885.9375,324058.65625,285213.46875,256049.4375,222616.5,246241.140625,0.042724609375,0.991455078125,0.07177734375,0.7019042372703552,-1.3427733182907104,-1.4343260526657104,80.0,162869.0,1.0
14783.7641854,294003.5,294951.9375,329721.875,324089.125,285101.96875,256003.75,222584.765625,246251.859375,0.04296875,0.98974609375,0.072021484375,0.6713866591453552,-1.6174315214157104,-1.4343260526657104,80.0,162870.0,1.0
14783.7672657,294042.125,295009.875,329836.21875,324142.0625,285160.96875,256023.0625,222622.578125,246279.578125,0.046142578125,0.987548828125,0.073486328125,0.7019042372703552,-1.5869139432907104,-1.3732908964157104,80.0,162871.0,1.0
