Time,FZ,C3,CZ,C4,PZ,PO7,OZ,PO8,AccX,AccY,AccZ,Gyro1,Gyro2,Gyro3,Battery,Counter,Validation
14248.3154184,290648.5,298948.875,381819.84375,376619.40625,288403.40625,258253.9375,224116.21875,246460.890625,0.01953125,0.996826171875,0.18310546875,-0.2746581733226776,-1.6479490995407104,-1.2512205839157104,80.0,29000.0,1.0
14248.3154361,290690.09375,298942.4375,381880.03125,376667.6875,288433.0,258275.9375,224146.796875,246483.515625,0.01904296875,0.998046875,0.18212890625,-0.3051757514476776,-1.5869139432907104,-1.1901854276657104,80.0,29001.0,1.0
14248.3154385,290717.4375,299230.78125,382058.28125,376668.21875,288532.25,258340.578125,224196.953125,246494.609375,0.01806640625,0.998291015625,0.1826171875,-0.2441406100988388,-1.6479490995407104,-1.2207030057907104,80.0,29002.0,1.0
14248.3154406,290698.65625,299421.46875,382103.0,376622.09375,288564.96875,258353.640625,224203.125,246483.421875,0.0166015625,0.999267578125,0.18408203125,-0.2136230319738388,-1.7395018339157104,-1.2207030057907104,80.0,29003.0,1.0
14248.3154428,290666.03125,299261.25,381967.0,376598.125,288497.03125,258318.3125,224162.34375,246472.15625,0.017578125,0.999755859375,0.184814453125,-0.2746581733226776,-1.6784666776657104,-1.3122557401657104,80.0,29004.0,1.0
14248.3425836,290660.84375,298960.5,381811.96875,376622.34375,288417.8125,258286.40625,224139.375,246475.203125,0.016357421875,0.999755859375,0.188232421875,-0.3051757514476776,-1.6479490995407104,-1.3427733182907104,80.0,29005.0,1.0
14248.3425995,290691.5,298944.03125,381865.09375,376662.59375,288442.21875,258299.984375,224169.671875,246491.734375,0.017578125,0.99951171875,0.186279296875,-0.3662109076976776,-1.6174315214157104,-1.4953612089157104,80.0,29006.0,1.0
14248.3426008,290712.34375,299230.5,382043.90625,376658.28125,288529.375,258340.9375,224197.65625,246494.0625,0.014892578125,0.997802734375,0.184814453125,-0.3356933295726776,-1.6479490995407104,-1.4953612089157104,80.0,29007.0,1.0
14248.342602,290689.28125,299416.28125,382092.0,376611.8125,288559.15625,258357.484375,224199.359375,246478.78125,0.013671875,0.99658203125,0.184326171875,-0.3967284858226776,-1.6479490995407104,-1.5869139432907104,80.0,29008.0,1.0
14248.3426032,290663.4375,299264.46875,381962.09375,376592.3125,288495.6875,258322.703125,224159.046875,246460.09375,0.011962890625,0.99658203125,0.18701171875,-0.4882812201976776,-1.6174315214157104,-1.6784666776657104,80.0,29009.0,1.0
14248.3426043,290665.3125,298975.15625,381824.9375,376622.53125,288418.6875,258271.5625,224127.203125,246463.84375,0.012939453125,0.99560546875,0.1865234375,-0.5493163466453552,-1.6479490995407104,-1.8005369901657104,80.0,29010.0,1.0
14248.3426055,290702.0625,298964.15625,381886.53125,376670.09375,288446.15625,258293.1875,224154.125,246484.671875,0.015869140625,0.99462890625,0.185546875,-0.5187987685203552,-1.7395018339157104,-1.6784666776657104,80.0,29011.0,1.0
14248.3515982,290717.34375,299236.3125,382050.59375,376659.625,288527.875,258332.359375,224189.34375,246488.25,0.01416015625,0.991943359375,0.185302734375,-0.5187987685203552,-1.6479490995407104,-1.6479490995407104,80.0,29012.0,1.0
14248.3545865,290688.46875,299412.4375,382081.8125,376609.84375,288555.125,258342.546875,224202.40625,246486.828125,0.01611328125,0.992431640625,0.187255859375,-0.4272460639476776,-1.6479490995407104,-1.5869139432907104,80.0,29013.0,1.0
14248.3545928,290657.0,299260.625,381956.90625,376588.75,288494.25,258311.078125,224163.421875,246469.75,0.01611328125,0.99462890625,0.1865234375,-0.3356933295726776,-1.5869139432907104,-1.5869139432907104,80.0,29014.0,1.0
14248.3545945,290652.34375,298957.46875,381806.15625,376608.9375,288410.21875,258268.875,224119.4375,246462.78125,0.015380859375,0.995361328125,0.188232421875,-0.4272460639476776,-1.5869139432907104,-1.4343260526657104,80.0,29015.0,1.0
14248.3571866,290696.4375,298957.1875,381865.53125,376657.75,288440.78125,258294.453125,224156.625,246493.0,0.015625,0.997314453125,0.186767578125,-0.6103515028953552,-1.6479490995407104,-1.3732908964157104,80.0,29016.0,1.0
14248.3571918,290716.375,299236.59375,382033.875,376653.5625,288531.53125,258341.5625,224201.78125,246505.515625,0.01416015625,0.997314453125,0.1845703125,-0.6103515028953552,-1.5869139432907104,-1.2512205839157104,80.0,29017.0,1.0
14248.3571933,290716.375,299236.59375,382033.875,376653.5625,288531.53125,258341.5625,224201.78125,246505.515625,0.01416015625,0.997314453125,0.1845703125,-0.6103515028953552,-1.5869139432907104,-1.2512205839157104,80.0,29018.0,0.0
14248.3571935,290716.375,299236.59375,382033.875,376653.5625,288531.53125,258341.5625,224201.78125,246505.515625,0.01416015625,0.997314453125,0.1845703125,-0.6103515028953552,-1.5869139432907104,-1.2512205839157104,80.0,29019.0,0.0
14248.3571937,290716.375,299236.59375,382033.875,376653.5625,288531.53125,258341.5625,224201.78125,246505.515625,0.01416015625,0.997314453125,0.1845703125,-0.6103515028953552,-1.5869139432907104,-1.2512205839157104,80.0,29020.0,0.0
14248.3571939,290716.375,299236.59375,382033.875,376653.5625,288531.53125,258341.5625,224201.78125,246505.515625,0.01416015625,0.997314453125,0.1845703125,-0.6103515028953552,-1.5869139432907104,-1.2512205839157104,80.0,29021.0,0.0
14248.3571941,290754.28125,299251.96875,382053.65625,376665.28125,288555.75,258359.71875,224212.859375,246509.265625,0.01318359375,0.995361328125,0.18603515625,-0.5493163466453552,-1.6174315214157104,-0.7934569716453552,80.0,29022.0,1.0
14248.3648333,290731.9375,299439.28125,382097.09375,376617.25,288585.875,258372.40625,224219.5625,246496.484375,0.0126953125,0.993896484375,0.188720703125,-0.5187987685203552,-1.6174315214157104,-0.8544921278953552,80.0,29023.0,1.0
14248.3648467,290709.40625,299292.1875,381971.65625,376597.9375,288521.4375,258330.921875,224171.46875,246481.546875,0.012939453125,0.99609375,0.188720703125,-0.5187987685203552,-1.8005369901657104,-0.8239745497703552,80.0,29024.0,1.0
14248.3648529,290710.28125,298997.59375,381823.0625,376621.90625,288437.5625,258279.515625,224137.671875,246484.5,0.012939453125,0.99560546875,0.18994140625,-0.5493163466453552,-1.7700194120407104,-0.8850097060203552,80.0,29025.0,1.0
14248.3648543,290746.9375,298975.875,381868.84375,376664.03125,288454.5625,258292.125,224155.90625,246492.90625,0.0126953125,0.9951171875,0.18798828125,-0.5493163466453552,-1.7395018339157104,-0.9460448622703552,80.0,29026.0,1.0
14248.3648555,290767.6875,299248.84375,382029.25,376659.46875,288537.15625,258331.734375,224193.90625,246501.21875,0.01220703125,0.99658203125,0.18896484375,-0.4882812201976776,-1.8005369901657104,-0.9155272841453552,80.0,29027.0,1.0
14248.3648567,290748.28125,299436.9375,382074.3125,376614.40625,288571.6875,258356.671875,224208.21875,246494.515625,0.01318359375,0.998046875,0.188720703125,-0.4272460639476776,-1.8310545682907104,-1.0070799589157104,80.0,29028.0,1.0
14248.3648579,290724.0625,299288.25,381953.59375,376598.75,288517.6875,258339.5,224184.34375,246484.5,0.013671875,0.998779296875,0.186279296875,-0.3662109076976776,-1.8615721464157104,-1.0070799589157104,80.0,29029.0,1.0
14248.3648591,290718.96875,298993.03125,381813.78125,376620.75,288441.78125,258303.203125,224154.921875,246484.046875,0.013916015625,0.997314453125,0.183349609375,-0.2746581733226776,-1.8920897245407104,-1.0375975370407104,80.0,29030.0,1.0
14248.3648603,290754.0,298977.21875,381875.09375,376664.03125,288466.53125,258318.40625,224175.40625,246496.125,0.013427734375,0.9990234375,0.18408203125,-0.0610351525247097,-2.014159917831421,-1.1291502714157104,80.0,29031.0,1.0
14248.3648615,290777.96875,299262.6875,382053.75,376665.1875,288557.5625,258369.1875,224215.28125,246508.734375,0.014404296875,0.998291015625,0.185546875,-0.1525878757238388,-1.9836424589157104,-1.3427733182907104,80.0,29032.0,1.0
14248.3648627,290752.59375,299451.625,382099.78125,376614.3125,288583.75,258369.453125,224210.890625,246495.59375,0.0146484375,1.0,0.18212890625,-0.2746581733226776,-1.9531248807907104,-1.4648436307907104,80.0,29033.0,1.0
14248.3648639,290719.21875,299287.28125,381956.1875,376588.46875,288512.5625,258329.9375,224175.578125,246482.890625,0.01806640625,0.997802734375,0.18798828125,-0.2746581733226776,-1.9836424589157104,-1.5258787870407104,80.0,29034.0,1.0
14248.3665967,290712.53125,298982.65625,381798.3125,376613.3125,288427.375,258280.40625,224138.203125,246491.46875,0.01708984375,0.9970703125,0.185791015625,-0.2746581733226776,-1.9226073026657104,-1.4648436307907104,80.0,29035.0,1.0
14248.3691254,290712.53125,298982.65625,381798.3125,376613.3125,288427.375,258280.40625,224138.203125,246491.46875,0.01708984375,0.9970703125,0.185791015625,-0.2746581733226776,-1.9226073026657104,-1.4648436307907104,80.0,29036.0,0.0
14248.3691284,290712.53125,298982.65625,381798.3125,376613.3125,288427.375,258280.40625,224138.203125,246491.46875,0.01708984375,0.9970703125,0.185791015625,-0.2746581733226776,-1.9226073026657104,-1.4648436307907104,80.0,29037.0,0.0
14248.3691297,290712.53125,298982.65625,381798.3125,376613.3125,288427.375,258280.40625,224138.203125,246491.46875,0.01708984375,0.9970703125,0.185791015625,-0.2746581733226776,-1.9226073026657104,-1.4648436307907104,80.0,29038.0,0.0
14248.369131,290712.53125,298982.65625,381798.3125,376613.3125,288427.375,258280.40625,224138.203125,246491.46875,0.01708984375,0.9970703125,0.185791015625,-0.2746581733226776,-1.9226073026657104,-1.4648436307907104,80.0,29039.0,0.0
14248.3691321,290712.53125,298982.65625,381798.3125,376613.3125,288427.375,258280.40625,224138.203125,246491.46875,0.01708984375,0.9970703125,0.185791015625,-0.2746581733226776,-1.9226073026657104,-1.4648436307907104,80.0,29040.0,0.0
14248.3691331,290712.53125,298982.65625,381798.3125,376613.3125,288427.375,258280.40625,224138.203125,246491.46875,0.01708984375,0.9970703125,0.185791015625,-0.2746581733226776,-1.9226073026657104,-1.4648436307907104,80.0,29041.0,0.0
14248.3691342,290712.53125,298982.65625,381798.3125,376613.3125,288427.375,258280.40625,224138.203125,246491.46875,0.01708984375,0.9970703125,0.185791015625,-0.2746581733226776,-1.9226073026657104,-1.4648436307907104,80.0,29042.0,0.0
14248.3691353,290712.53125,298982.65625,381798.3125,376613.3125,288427.375,258280.40625,224138.203125,246491.46875,0.01708984375,0.9970703125,0.185791015625,-0.2746581733226776,-1.9226073026657104,-1.4648436307907104,80.0,29043.0,0.0
14248.3691364,290696.34375,299288.8125,381935.09375,376567.8125,288509.28125,258322.515625,224170.75,246479.3125,0.015380859375,0.99755859375,0.189697265625,0.2746581733226776,-1.4343260526657104,-1.1901854276657104,80.0,29044.0,1.0
14248.3715285,290691.59375,298998.75,381794.53125,376592.5,288434.0,258285.234375,224139.8125,246491.390625,0.016357421875,0.998046875,0.18896484375,0.3662109076976776,-1.4038084745407104,-1.0986326932907104,80.0,29045.0,1.0
14248.3740681,290725.21875,298980.78125,381844.4375,376633.09375,288454.5625,258305.0,224166.453125,246505.234375,0.015380859375,0.996826171875,0.19287109375,0.3356933295726776,-1.3732908964157104,-0.9155272841453552,80.0,29046.0,1.0
14248.4009387,290747.40625,299263.0625,382014.65625,376630.40625,288547.71875,258362.671875,224214.109375,246512.9375,0.013916015625,0.9970703125,0.189208984375,0.2441406100988388,-1.4648436307907104,-0.8239745497703552,80.0,29047.0,1.0
14248.4009656,290728.625,299457.78125,382063.3125,376582.3125,288579.4375,258376.96875,224210.625,246488.34375,0.01220703125,0.9970703125,0.188720703125,0.2746581733226776,-1.4038084745407104,-0.8239745497703552,80.0,29048.0,1.0
14248.4253336,290695.625,299302.46875,381936.625,376557.875,288512.40625,258323.0625,224167.265625,246469.5625,0.011474609375,0.9970703125,0.188720703125,0.1220703050494194,-1.4953612089157104,-0.7934569716453552,80.0,29049.0,1.0
14248.4509394,290689.0,298998.5,381778.8125,376579.71875,288428.96875,258287.921875,224142.328125,246474.21875,0.012939453125,0.994384765625,0.1904296875,0.2746581733226776,-1.4648436307907104,-0.6408690810203552,80.0,29050.0,1.0
14248.4509455,290725.65625,298984.8125,381832.90625,376623.78125,288454.09375,258314.921875,224167.53125,246487.71875,0.014404296875,0.993896484375,0.18798828125,0.3051757514476776,-1.4953612089157104,-0.7019042372703552,80.0,29051.0,1.0
14248.5078896,290749.09375,299268.25,382007.59375,376623.15625,288545.3125,258361.859375,224208.296875,246494.609375,0.01220703125,0.992919921875,0.185791015625,0.3967284858226776,-1.5258787870407104,-0.6103515028953552,80.0,29052.0,1.0
14248.5328938,290733.90625,299464.03125,382064.03125,376585.15625,288583.84375,258375.453125,224218.140625,246490.3125,0.011474609375,0.992431640625,0.1884765625,0.4882812201976776,-1.5258787870407104,-0.7324218153953552,80.0,29053.0,1.0
14248.5578755,290701.0,299313.03125,381941.8125,376562.8125,288522.5,258334.953125,224184.78125,246479.3125,0.01416015625,0.994140625,0.191162109375,0.6408690810203552,-1.5563963651657104,-0.7934569716453552,80.0,29054.0,1.0
14248.5828641,290686.96875,299008.96875,381785.4375,376581.125,288436.75,258291.765625,224150.71875,246485.75,0.014404296875,0.996337890625,0.189453125,0.6713866591453552,-1.5563963651657104,-0.7629393935203552,80.0,29055.0,1.0
14248.6168133,290720.125,298987.6875,381840.21875,376626.65625,288462.78125,258311.515625,224179.328125,246511.5,0.013671875,0.993408203125,0.185546875,0.7324218153953552,-1.5869139432907104,-0.7934569716453552,80.0,29056.0,1.0
14248.6168269,290738.1875,299264.40625,382010.28125,376624.78125,288548.875,258362.390625,224217.421875,246502.921875,0.0166015625,0.991943359375,0.189208984375,0.7934569716453552,-1.6784666776657104,-0.8850097060203552,80.0,29057.0,1.0
14248.6168283,290711.375,299448.65625,382050.6875,376569.0625,288574.71875,258373.21875,224212.234375,246478.859375,0.015380859375,0.993408203125,0.192626953125,0.7629393935203552,-1.6174315214157104,-0.8239745497703552,80.0,29058.0,1.0
14248.6168295,290677.84375,299292.375,381920.25,376538.65625,288511.25,258335.84375,224178.625,246472.25,0.01708984375,0.99462890625,0.1875,0.6713866591453552,-1.5869139432907104,-0.8239745497703552,80.0,29059.0,1.0
14248.6168307,290670.875,298987.125,381765.5,376563.53125,288429.6875,258297.75,224152.15625,246480.828125,0.014892578125,0.993896484375,0.185791015625,0.7324218153953552,-1.5563963651657104,-0.8239745497703552,80.0,29060.0,1.0
14248.643718,290703.125,298972.3125,381818.6875,376605.09375,288452.21875,258317.609375,224178.4375,246500.765625,0.013916015625,0.99462890625,0.185302734375,0.7629393935203552,-1.4953612089157104,-0.7324218153953552,80.0,29061.0,1.0
14248.6437348,290703.125,298972.3125,381818.6875,376605.09375,288452.21875,258317.609375,224178.4375,246500.765625,0.013916015625,0.99462890625,0.185302734375,0.7629393935203552,-1.4953612089157104,-0.7324218153953552,80.0,29062.0,0.0
14248.643735,290703.125,298972.3125,381818.6875,376605.09375,288452.21875,258317.609375,224178.4375,246500.765625,0.013916015625,0.99462890625,0.185302734375,0.7629393935203552,-1.4953612089157104,-0.7324218153953552,80.0,29063.0,0.0
14248.6437352,290703.125,298972.3125,381818.6875,376605.09375,288452.21875,258317.609375,224178.4375,246500.765625,0.013916015625,0.99462890625,0.185302734375,0.7629393935203552,-1.4953612089157104,-0.7324218153953552,80.0,29064.0,0.0
14248.6437354,290703.125,298972.3125,381818.6875,376605.09375,288452.21875,258317.609375,224178.4375,246500.765625,0.013916015625,0.99462890625,0.185302734375,0.7629393935203552,-1.4953612089157104,-0.7324218153953552,80.0,29065.0,0.0
14248.6437356,290703.125,298972.3125,381818.6875,376605.09375,288452.21875,258317.609375,224178.4375,246500.765625,0.013916015625,0.99462890625,0.185302734375,0.7629393935203552,-1.4953612089157104,-0.7324218153953552,80.0,29066.0,0.0
14248.6437358,290703.125,298972.3125,381818.6875,376605.09375,288452.21875,258317.609375,224178.4375,246500.765625,0.013916015625,0.99462890625,0.185302734375,0.7629393935203552,-1.4953612089157104,-0.7324218153953552,80.0,29067.0,0.0
14248.643736,290703.125,298972.3125,381818.6875,376605.09375,288452.21875,258317.609375,224178.4375,246500.765625,0.013916015625,0.99462890625,0.185302734375,0.7629393935203552,-1.4953612089157104,-0.7324218153953552,80.0,29068.0,0.0
14248.6437362,290703.125,298972.3125,381818.6875,376605.09375,288452.21875,258317.609375,224178.4375,246500.765625,0.013916015625,0.99462890625,0.185302734375,0.7629393935203552,-1.4953612089157104,-0.7324218153953552,80.0,29069.0,0.0
14248.6437363,290703.125,298972.3125,381818.6875,376605.09375,288452.21875,258317.609375,224178.4375,246500.765625,0.013916015625,0.99462890625,0.185302734375,0.7629393935203552,-1.4953612089157104,-0.7324218153953552,80.0,29070.0,0.0
14248.6437365,290703.125,298972.3125,381818.6875,376605.09375,288452.21875,258317.609375,224178.4375,246500.765625,0.013916015625,0.99462890625,0.185302734375,0.7629393935203552,-1.4953612089157104,-0.7324218153953552,80.0,29071.0,0.0
14248.6437367,290703.125,298972.3125,381818.6875,376605.09375,288452.21875,258317.609375,224178.4375,246500.765625,0.013916015625,0.99462890625,0.185302734375,0.7629393935203552,-1.4953612089157104,-0.7324218153953552,80.0,29072.0,0.0
14248.6437369,290703.125,298972.3125,381818.6875,376605.09375,288452.21875,258317.609375,224178.4375,246500.765625,0.013916015625,0.99462890625,0.185302734375,0.7629393935203552,-1.4953612089157104,-0.7324218153953552,80.0,29073.0,0.0
14248.6437371,290703.125,298972.3125,381818.6875,376605.09375,288452.21875,258317.609375,224178.4375,246500.765625,0.013916015625,0.99462890625,0.185302734375,0.7629393935203552,-1.4953612089157104,-0.7324218153953552,80.0,29074.0,0.0
14248.6437372,290703.125,298972.3125,381818.6875,376605.09375,288452.21875,258317.609375,224178.4375,246500.765625,0.013916015625,0.99462890625,0.185302734375,0.7629393935203552,-1.4953612089157104,-0.7324218153953552,80.0,29075.0,0.0
14248.6437374,290703.125,298972.3125,381818.6875,376605.09375,288452.21875,258317.609375,224178.4375,246500.765625,0.013916015625,0.99462890625,0.185302734375,0.7629393935203552,-1.4953612089157104,-0.7324218153953552,80.0,29076.0,0.0
14248.6437376,290703.125,298972.3125,381818.6875,376605.09375,288452.21875,258317.609375,224178.4375,246500.765625,0.013916015625,0.99462890625,0.185302734375,0.7629393935203552,-1.4953612089157104,-0.7324218153953552,80.0,29077.0,0.0
14248.6437377,290703.125,298972.3125,381818.6875,376605.09375,288452.21875,258317.609375,224178.4375,246500.765625,0.013916015625,0.99462890625,0.185302734375,0.7629393935203552,-1.4953612089157104,-0.7324218153953552,80.0,29078.0,0.0
14248.6437379,290703.125,298972.3125,381818.6875,376605.09375,288452.21875,258317.609375,224178.4375,246500.765625,0.013916015625,0.99462890625,0.185302734375,0.7629393935203552,-1.4953612089157104,-0.7324218153953552,80.0,29079.0,0.0
14248.6437381,290703.125,298972.3125,381818.6875,376605.09375,288452.21875,258317.609375,224178.4375,246500.765625,0.013916015625,0.99462890625,0.185302734375,0.7629393935203552,-1.4953612089157104,-0.7324218153953552,80.0,29080.0,0.0
14248.6437383,290703.125,298972.3125,381818.6875,376605.09375,288452.21875,258317.609375,224178.4375,246500.765625,0.013916015625,0.99462890625,0.185302734375,0.7629393935203552,-1.4953612089157104,-0.7324218153953552,80.0,29081.0,0.0
14248.6437384,290703.125,298972.3125,381818.6875,376605.09375,288452.21875,258317.609375,224178.4375,246500.765625,0.013916015625,0.99462890625,0.185302734375,0.7629393935203552,-1.4953612089157104,-0.7324218153953552,80.0,29082.0,0.0
14248.6437386,290703.125,298972.3125,381818.6875,376605.09375,288452.21875,258317.609375,224178.4375,246500.765625,0.013916015625,0.99462890625,0.185302734375,0.7629393935203552,-1.4953612089157104,-0.7324218153953552,80.0,29083.0,0.0
14248.6437388,290703.125,298972.3125,381818.6875,376605.09375,288452.21875,258317.609375,224178.4375,246500.765625,0.013916015625,0.99462890625,0.185302734375,0.7629393935203552,-1.4953612089157104,-0.7324218153953552,80.0,29084.0,0.0
14248.643739,290703.125,298972.3125,381818.6875,376605.09375,288452.21875,258317.609375,224178.4375,246500.765625,0.013916015625,0.99462890625,0.185302734375,0.7629393935203552,-1.4953612089157104,-0.7324218153953552,80.0,29085.0,0.0
14248.6437392,290703.125,298972.3125,381818.6875,376605.09375,288452.21875,258317.609375,224178.4375,246500.765625,0.013916015625,0.99462890625,0.185302734375,0.7629393935203552,-1.4953612089157104,-0.7324218153953552,80.0,29086.0,0.0
14248.6437394,290703.125,298972.3125,381818.6875,376605.09375,288452.21875,258317.609375,224178.4375,246500.765625,0.013916015625,0.99462890625,0.185302734375,0.7629393935203552,-1.4953612089157104,-0.7324218153953552,80.0,29087.0,0.0
14248.6437395,290703.125,298972.3125,381818.6875,376605.09375,288452.21875,258317.609375,224178.4375,246500.765625,0.013916015625,0.99462890625,0.185302734375,0.7629393935203552,-1.4953612089157104,-0.7324218153953552,80.0,29088.0,0.0
14248.6437397,290703.125,298972.3125,381818.6875,376605.09375,288452.21875,258317.609375,224178.4375,246500.765625,0.013916015625,0.99462890625,0.185302734375,0.7629393935203552,-1.4953612089157104,-0.7324218153953552,80.0,29089.0,0.0
14248.6437399,290703.125,298972.3125,381818.6875,376605.09375,288452.21875,258317.609375,224178.4375,246500.765625,0.013916015625,0.99462890625,0.185302734375,0.7629393935203552,-1.4953612089157104,-0.7324218153953552,80.0,29090.0,0.0
14248.64374,290703.125,298972.3125,381818.6875,376605.09375,288452.21875,258317.609375,224178.4375,246500.765625,0.013916015625,0.99462890625,0.185302734375,0.7629393935203552,-1.4953612089157104,-0.7324218153953552,80.0,29091.0,0.0
14248.6437402,290703.125,298972.3125,381818.6875,376605.09375,288452.21875,258317.609375,224178.4375,246500.765625,0.013916015625,0.99462890625,0.185302734375,0.7629393935203552,-1.4953612089157104,-0.7324218153953552,80.0,29092.0,0.0
14248.6437404,290703.125,298972.3125,381818.6875,376605.09375,288452.21875,258317.609375,224178.4375,246500.765625,0.013916015625,0.99462890625,0.185302734375,0.7629393935203552,-1.4953612089157104,-0.7324218153953552,80.0,29093.0,0.0
14248.6437405,290703.125,298972.3125,381818.6875,376605.09375,288452.21875,258317.609375,224178.4375,246500.765625,0.013916015625,0.99462890625,0.185302734375,0.7629393935203552,-1.4953612089157104,-0.7324218153953552,80.0,29094.0,0.0
14248.6437407,290703.125,298972.3125,381818.6875,376605.09375,288452.21875,258317.609375,224178.4375,246500.765625,0.013916015625,0.99462890625,0.185302734375,0.7629393935203552,-1.4953612089157104,-0.7324218153953552,80.0,29095.0,0.0
14248.6437409,290703.125,298972.3125,381818.6875,376605.09375,288452.21875,258317.609375,224178.4375,246500.765625,0.013916015625,0.99462890625,0.185302734375,0.7629393935203552,-1.4953612089157104,-0.7324218153953552,80.0,29096.0,0.0
14248.6437411,290738.4375,299239.625,381949.125,376562.0,288544.9375,258345.765625,224207.3125,246498.71875,0.014892578125,0.99462890625,0.186767578125,-0.0915527269244194,-1.2207030057907104,-1.3427733182907104,80.0,29097.0,1.0
14248.6437424,290711.1875,299420.6875,381988.125,376512.03125,288574.09375,258371.421875,224221.0,246495.140625,0.014892578125,0.99462890625,0.1845703125,-0.0915527269244194,-1.2207030057907104,-1.3122557401657104,80.0,29098.0,1.0
14248.6437441,290681.5,299273.25,381850.59375,376490.125,288507.03125,258341.390625,224187.375,246478.859375,0.01513671875,0.995849609375,0.185546875,-0.1525878757238388,-1.1596678495407104,-1.2817381620407104,80.0,29099.0,1.0
14248.6437453,290674.25,298974.625,381689.21875,376511.3125,288419.59375,258289.0,224144.5625,246472.609375,0.014892578125,0.994873046875,0.188720703125,0.0,-1.1596678495407104,-1.1901854276657104,80.0,29100.0,1.0
14248.6437465,290699.75,298949.78125,381741.34375,376552.15625,288436.40625,258298.375,224163.421875,246490.84375,0.012939453125,0.994873046875,0.1875,0.0610351525247097,-1.1596678495407104,-1.2207030057907104,80.0,29101.0,1.0
14248.6437477,290718.6875,299227.75,381914.34375,376549.40625,288526.15625,258350.421875,224209.015625,246503.0,0.015380859375,0.99560546875,0.185791015625,0.0610351525247097,-1.0986326932907104,-1.0375975370407104,80.0,29102.0,1.0
14248.6666326,290698.125,299425.40625,381963.4375,376502.71875,288563.8125,258378.671875,224221.265625,246495.859375,0.013671875,0.996337890625,0.18994140625,0.03051757626235485,-1.0986326932907104,-0.9460448622703552,80.0,29103.0,1.0
14248.6925383,290669.15625,299277.90625,381841.3125,376482.875,288506.84375,258341.828125,224187.109375,246485.75,0.01318359375,0.99560546875,0.18798828125,0.1831054538488388,-1.1596678495407104,-0.8850097060203552,80.0,29104.0,1.0
14248.6925657,290659.9375,298973.5625,381693.6875,376502.0,288424.96875,258289.703125,224152.953125,246483.25,0.0126953125,0.99658203125,0.189697265625,0.3967284858226776,-1.0681151151657104,-0.8239745497703552,80.0,29105.0,1.0
14248.6925705,290697.9375,298956.125,381753.875,376547.53125,288447.84375,258302.9375,224174.859375,246501.390625,0.01171875,0.997314453125,0.185546875,0.4882812201976776,-1.0375975370407104,-0.7629393935203552,80.0,29106.0,1.0
14248.7171884,290720.40625,299227.5625,381923.65625,376544.3125,288530.71875,258350.5,224218.5,246504.96875,0.0107421875,0.997802734375,0.18408203125,0.3967284858226776,-1.0986326932907104,-0.5798339247703552,80.0,29107.0,1.0
14248.7172049,290705.375,299423.1875,381973.0,376500.21875,288567.21875,258379.203125,224227.609375,246495.40625,0.009765625,0.996826171875,0.187744140625,0.3662109076976776,-1.2207030057907104,-0.5493163466453552,80.0,29108.0,1.0
14248.7172098,290705.375,299423.1875,381973.0,376500.21875,288567.21875,258379.203125,224227.609375,246495.40625,0.009765625,0.996826171875,0.187744140625,0.3662109076976776,-1.2207030057907104,-0.5493163466453552,80.0,29109.0,0.0
14248.7172101,290705.375,299423.1875,381973.0,376500.21875,288567.21875,258379.203125,224227.609375,246495.40625,0.009765625,0.996826171875,0.187744140625,0.3662109076976776,-1.2207030057907104,-0.5493163466453552,80.0,29110.0,0.0
14248.7172105,290705.375,299423.1875,381973.0,376500.21875,288567.21875,258379.203125,224227.609375,246495.40625,0.009765625,0.996826171875,0.187744140625,0.3662109076976776,-1.2207030057907104,-0.5493163466453552,80.0,29111.0,0.0
14248.7172107,290705.375,299423.1875,381973.0,376500.21875,288567.21875,258379.203125,224227.609375,246495.40625,0.009765625,0.996826171875,0.187744140625,0.3662109076976776,-1.2207030057907104,-0.5493163466453552,80.0,29112.0,0.0
14248.717211,290705.375,299423.1875,381973.0,376500.21875,288567.21875,258379.203125,224227.609375,246495.40625,0.009765625,0.996826171875,0.187744140625,0.3662109076976776,-1.2207030057907104,-0.5493163466453552,80.0,29113.0,0.0
14248.7172113,290705.375,299423.1875,381973.0,376500.21875,288567.21875,258379.203125,224227.609375,246495.40625,0.009765625,0.996826171875,0.187744140625,0.3662109076976776,-1.2207030057907104,-0.5493163466453552,80.0,29114.0,0.0
14248.7172115,290705.375,299423.1875,381973.0,376500.21875,288567.21875,258379.203125,224227.609375,246495.40625,0.009765625,0.996826171875,0.187744140625,0.3662109076976776,-1.2207030057907104,-0.5493163466453552,80.0,29115.0,0.0
14248.7172118,290705.375,299423.1875,381973.0,376500.21875,288567.21875,258379.203125,224227.609375,246495.40625,0.009765625,0.996826171875,0.187744140625,0.3662109076976776,-1.2207030057907104,-0.5493163466453552,80.0,29116.0,0.0
14248.717212,290705.375,299423.1875,381973.0,376500.21875,288567.21875,258379.203125,224227.609375,246495.40625,0.009765625,0.996826171875,0.187744140625,0.3662109076976776,-1.2207030057907104,-0.5493163466453552,80.0,29117.0,0.0
14248.7172123,290705.375,299423.1875,381973.0,376500.21875,288567.21875,258379.203125,224227.609375,246495.40625,0.009765625,0.996826171875,0.187744140625,0.3662109076976776,-1.2207030057907104,-0.5493163466453552,80.0,29118.0,0.0
14248.7172125,290705.375,299423.1875,381973.0,376500.21875,288567.21875,258379.203125,224227.609375,246495.40625,0.009765625,0.996826171875,0.187744140625,0.3662109076976776,-1.2207030057907104,-0.5493163466453552,80.0,29119.0,0.0
14248.7172128,290705.375,299423.1875,381973.0,376500.21875,288567.21875,258379.203125,224227.609375,246495.40625,0.009765625,0.996826171875,0.187744140625,0.3662109076976776,-1.2207030057907104,-0.5493163466453552,80.0,29120.0,0.0
14248.717213,290705.375,299423.1875,381973.0,376500.21875,288567.21875,258379.203125,224227.609375,246495.40625,0.009765625,0.996826171875,0.187744140625,0.3662109076976776,-1.2207030057907104,-0.5493163466453552,80.0,29121.0,0.0
14248.7172132,290705.375,299423.1875,381973.0,376500.21875,288567.21875,258379.203125,224227.609375,246495.40625,0.009765625,0.996826171875,0.187744140625,0.3662109076976776,-1.2207030057907104,-0.5493163466453552,80.0,29122.0,0.0
14248.7172135,290705.375,299423.1875,381973.0,376500.21875,288567.21875,258379.203125,224227.609375,246495.40625,0.009765625,0.996826171875,0.187744140625,0.3662109076976776,-1.2207030057907104,-0.5493163466453552,80.0,29123.0,0.0
14248.7172138,290705.375,299423.1875,381973.0,376500.21875,288567.21875,258379.203125,224227.609375,246495.40625,0.009765625,0.996826171875,0.187744140625,0.3662109076976776,-1.2207030057907104,-0.5493163466453552,80.0,29124.0,0.0
14248.717214,290705.375,299423.1875,381973.0,376500.21875,288567.21875,258379.203125,224227.609375,246495.40625,0.009765625,0.996826171875,0.187744140625,0.3662109076976776,-1.2207030057907104,-0.5493163466453552,80.0,29125.0,0.0
14248.7172142,290705.375,299423.1875,381973.0,376500.21875,288567.21875,258379.203125,224227.609375,246495.40625,0.009765625,0.996826171875,0.187744140625,0.3662109076976776,-1.2207030057907104,-0.5493163466453552,80.0,29126.0,0.0
14248.7172145,290705.375,299423.1875,381973.0,376500.21875,288567.21875,258379.203125,224227.609375,246495.40625,0.009765625,0.996826171875,0.187744140625,0.3662109076976776,-1.2207030057907104,-0.5493163466453552,80.0,29127.0,0.0
14248.7172147,290705.375,299423.1875,381973.0,376500.21875,288567.21875,258379.203125,224227.609375,246495.40625,0.009765625,0.996826171875,0.187744140625,0.3662109076976776,-1.2207030057907104,-0.5493163466453552,80.0,29128.0,0.0
14248.7172149,290705.375,299423.1875,381973.0,376500.21875,288567.21875,258379.203125,224227.609375,246495.40625,0.009765625,0.996826171875,0.187744140625,0.3662109076976776,-1.2207030057907104,-0.5493163466453552,80.0,29129.0,0.0
14248.7172151,290705.375,299423.1875,381973.0,376500.21875,288567.21875,258379.203125,224227.609375,246495.40625,0.009765625,0.996826171875,0.187744140625,0.3662109076976776,-1.2207030057907104,-0.5493163466453552,80.0,29130.0,0.0
14248.7172154,290705.375,299423.1875,381973.0,376500.21875,288567.21875,258379.203125,224227.609375,246495.40625,0.009765625,0.996826171875,0.187744140625,0.3662109076976776,-1.2207030057907104,-0.5493163466453552,80.0,29131.0,0.0
14248.7172156,290705.375,299423.1875,381973.0,376500.21875,288567.21875,258379.203125,224227.609375,246495.40625,0.009765625,0.996826171875,0.187744140625,0.3662109076976776,-1.2207030057907104,-0.5493163466453552,80.0,29132.0,0.0
14248.7172159,290705.375,299423.1875,381973.0,376500.21875,288567.21875,258379.203125,224227.609375,246495.40625,0.009765625,0.996826171875,0.187744140625,0.3662109076976776,-1.2207030057907104,-0.5493163466453552,80.0,29133.0,0.0
14248.7172162,290705.375,299423.1875,381973.0,376500.21875,288567.21875,258379.203125,224227.609375,246495.40625,0.009765625,0.996826171875,0.187744140625,0.3662109076976776,-1.2207030057907104,-0.5493163466453552,80.0,29134.0,0.0
14248.7172165,290705.375,299423.1875,381973.0,376500.21875,288567.21875,258379.203125,224227.609375,246495.40625,0.009765625,0.996826171875,0.187744140625,0.3662109076976776,-1.2207030057907104,-0.5493163466453552,80.0,29135.0,0.0
14248.7172168,290705.375,299423.1875,381973.0,376500.21875,288567.21875,258379.203125,224227.609375,246495.40625,0.009765625,0.996826171875,0.187744140625,0.3662109076976776,-1.2207030057907104,-0.5493163466453552,80.0,29136.0,0.0
14248.7172171,290732.28125,299223.96875,381881.09375,376504.5,288524.65625,258333.078125,224197.578125,246497.015625,0.015380859375,0.98974609375,0.1865234375,1.0681151151657104,-1.3427733182907104,-0.8239745497703552,80.0,29137.0,1.0
14248.7217005,290720.21875,299432.3125,381937.15625,376464.0,288568.28125,258366.953125,224217.59375,246491.390625,0.014404296875,0.99072265625,0.187744140625,1.1596678495407104,-1.3427733182907104,-0.7934569716453552,80.0,29138.0,1.0
14248.721725,290688.5625,299293.0,381816.90625,376442.71875,288509.71875,258336.015625,224185.953125,246484.59375,0.013671875,0.9892578125,0.188720703125,1.3732908964157104,-1.5258787870407104,-0.8544921278953552,80.0,29139.0,1.0
14248.7217292,290684.28125,298999.75,381676.71875,376471.625,288437.125,258300.265625,224159.484375,246498.984375,0.01318359375,0.991943359375,0.185546875,1.4648436307907104,-1.5563963651657104,-0.8850097060203552,80.0,29140.0,1.0
14248.7217304,290722.1875,298980.0625,381734.8125,376521.5,288463.65625,258318.9375,224189.265625,246520.984375,0.013427734375,0.9951171875,0.187744140625,1.5869139432907104,-1.5258787870407104,-0.8850097060203552,80.0,29141.0,1.0
14248.7217318,290746.84375,299256.625,381908.28125,376519.96875,288553.34375,258382.0625,224236.375,246530.8125,0.01416015625,0.99658203125,0.187255859375,1.6479490995407104,-1.5869139432907104,-0.7934569716453552,80.0,29142.0,1.0
14248.7241152,290717.34375,299432.75,381936.875,376460.53125,288570.78125,258381.53125,224229.671875,246498.890625,0.014892578125,0.995361328125,0.189697265625,1.5869139432907104,-1.5869139432907104,-0.8239745497703552,80.0,29143.0,1.0
14248.728437,290684.1875,299281.8125,381807.78125,376433.875,288505.78125,258334.953125,224185.59375,246479.9375,0.016357421875,0.99609375,0.18603515625,1.5563963651657104,-1.6784666776657104,-0.7324218153953552,80.0,29144.0,1.0
14248.7284393,290680.96875,298988.21875,381662.40625,376455.53125,288427.0,258294.453125,224147.6875,246471.171875,0.01611328125,0.996337890625,0.188720703125,1.4648436307907104,-1.7395018339157104,-0.7324218153953552,80.0,29145.0,1.0
14248.7284406,290713.34375,298958.09375,381709.6875,376500.75,288448.28125,258303.75,224170.21875,246498.71875,0.015380859375,0.996826171875,0.186767578125,1.5258787870407104,-1.7395018339157104,-0.7934569716453552,80.0,29146.0,1.0
14248.7284419,290739.78125,299234.34375,381878.40625,376502.28125,288539.5,258369.09375,224221.359375,246507.03125,0.015380859375,0.997802734375,0.185791015625,1.4953612089157104,-1.7395018339157104,-0.6408690810203552,80.0,29147.0,1.0
14248.7284432,290726.5625,299441.0625,381936.34375,376462.9375,288583.21875,258402.546875,224237.53125,246502.5625,0.016357421875,0.998291015625,0.1865234375,1.4343260526657104,-1.8005369901657104,-0.5493163466453552,80.0,29148.0,1.0
14248.7284445,290690.875,299289.96875,381805.625,376435.03125,288515.53125,258350.234375,224186.3125,246476.359375,0.016845703125,0.998046875,0.188720703125,1.3122557401657104,-1.7700194120407104,-0.6103515028953552,80.0,29149.0,1.0
14248.7304399,290677.75,298974.09375,381642.71875,376452.9375,288426.3125,258284.96875,224139.640625,246473.140625,0.016357421875,0.99755859375,0.187255859375,1.2207030057907104,-1.8005369901657104,-0.5493163466453552,80.0,29150.0,1.0
14248.7334628,290717.8125,298952.0,381693.4375,376500.84375,288451.875,258305.359375,224165.65625,246494.421875,0.017333984375,0.998291015625,0.186279296875,1.2512205839157104,-1.7700194120407104,-0.6408690810203552,80.0,29151.0,1.0
14248.7334671,290736.125,299230.875,381863.125,376496.75,288539.9375,258355.15625,224210.453125,246504.703125,0.01513671875,0.99853515625,0.18505859375,1.0070799589157104,-1.7395018339157104,-0.5798339247703552,80.0,29152.0,1.0
14248.7359955,290716.71875,299435.25,381918.5625,376454.53125,288583.375,258392.796875,224233.34375,246500.40625,0.014892578125,0.998291015625,0.182373046875,1.0681151151657104,-1.7395018339157104,-0.6408690810203552,80.0,29153.0,1.0
14248.7360028,290689.28125,299294.625,381797.84375,376436.375,288529.5625,258370.359375,224206.0625,246490.046875,0.01611328125,0.995849609375,0.182861328125,1.0681151151657104,-1.7395018339157104,-0.6713866591453552,80.0,29154.0,1.0
14248.7360045,290687.03125,298993.40625,381651.9375,376459.4375,288442.03125,258288.09375,224145.625,246479.9375,0.01513671875,0.994140625,0.182373046875,0.9155272841453552,-1.8005369901657104,-0.6408690810203552,80.0,29155.0,1.0
14248.7396046,290722.28125,298962.90625,381698.34375,376506.9375,288460.53125,258301.234375,224167.0,246506.5,0.015869140625,0.995361328125,0.18603515625,0.8239745497703552,-1.8920897245407104,-0.6713866591453552,80.0,29156.0,1.0
14248.7396085,290745.25,299234.96875,381867.40625,376509.53125,288554.78125,258358.640625,224226.546875,246529.734375,0.015869140625,0.99365234375,0.181640625,0.7934569716453552,-1.9226073026657104,-0.6713866591453552,80.0,29157.0,1.0
14248.7396098,290728.96875,299441.3125,381917.75,376460.09375,288585.71875,258379.828125,224230.46875,246494.875,0.018310546875,0.9921875,0.1806640625,0.8239745497703552,-1.8005369901657104,-0.5798339247703552,80.0,29158.0,1.0
14248.739611,290695.8125,299294.78125,381786.78125,376432.90625,288521.0625,258343.796875,224192.484375,246485.484375,0.020263671875,0.992431640625,0.183349609375,0.8239745497703552,-1.7700194120407104,-0.6408690810203552,80.0,29159.0,1.0
14248.7396122,290687.21875,298984.375,381629.15625,376453.71875,288440.78125,258308.9375,224161.0,246486.90625,0.0205078125,0.994140625,0.18408203125,0.9460448622703552,-1.7089842557907104,-0.5493163466453552,80.0,29160.0,1.0
14248.7396135,290720.5625,298957.53125,381678.75,376500.21875,288464.375,258325.828125,224185.140625,246511.40625,0.020263671875,0.99658203125,0.185546875,0.9765624403953552,-1.7395018339157104,-0.7019042372703552,80.0,29161.0,1.0
14248.7659191,290740.78125,299232.375,381850.875,376498.0625,288550.21875,258356.140625,224219.84375,246518.921875,0.018310546875,0.99560546875,0.18505859375,1.0070799589157104,-1.4953612089157104,-0.6713866591453552,80.0,29162.0,1.0
14248.7659361,290721.46875,299435.0625,381903.96875,376443.90625,288587.6875,258381.078125,224228.515625,246496.296875,0.01904296875,0.995361328125,0.18408203125,1.0375975370407104,-1.5258787870407104,-0.6408690810203552,80.0,29163.0,1.0
14248.7659375,290695.53125,299299.78125,381788.28125,376416.625,288534.46875,258353.640625,224195.421875,246485.75,0.018310546875,0.997314453125,0.182861328125,1.0681151151657104,-1.4953612089157104,-0.7324218153953552,80.0,29164.0,1.0
14248.7903715,290686.15625,298996.625,381635.84375,376436.9375,288449.53125,258306.515625,224158.40625,246489.328125,0.01953125,0.99755859375,0.182373046875,1.0986326932907104,-1.5258787870407104,-0.7629393935203552,80.0,29165.0,1.0
14248.8153821,290713.6875,298963.0,381673.75,376477.5,288461.53125,258312.0625,224180.3125,246517.21875,0.01953125,0.99658203125,0.1826171875,1.0375975370407104,-1.4648436307907104,-0.7324218153953552,80.0,29166.0,1.0
14248.8328873,290733.53125,299238.1875,381844.78125,376472.9375,288547.34375,258368.03125,224221.625,246505.515625,0.018798828125,0.995849609375,0.184814453125,1.0070799589157104,-1.3732908964157104,-0.7934569716453552,80.0,29167.0,1.0
14248.8937135,290721.65625,299445.1875,381909.0625,376435.21875,288595.09375,258410.671875,224248.890625,246502.921875,0.0166015625,0.997314453125,0.18505859375,0.9155272841453552,-1.3732908964157104,-0.7629393935203552,80.0,29168.0,1.0
14248.8937316,290682.75,299288.1875,381778.625,376406.96875,288528.75,258365.703125,224203.296875,246485.296875,0.016845703125,0.994873046875,0.18408203125,0.7934569716453552,-1.3732908964157104,-0.7324218153953552,80.0,29169.0,1.0
14248.8937329,290687.75,298991.78125,381632.09375,376436.46875,288448.5625,258312.5,224155.828125,246483.34375,0.015869140625,0.99462890625,0.18310546875,0.7629393935203552,-1.4038084745407104,-0.7629393935203552,80.0,29170.0,1.0
14248.8937341,290724.3125,298966.3125,381682.59375,376483.0625,288471.90625,258318.5,224182.90625,246515.796875,0.0166015625,0.994140625,0.180419921875,0.7629393935203552,-1.3122557401657104,-0.8239745497703552,80.0,29171.0,1.0
14248.8937354,290744.4375,299232.65625,381845.5,376476.875,288553.53125,258375.265625,224217.328125,246510.0625,0.0166015625,0.995849609375,0.18115234375,0.7019042372703552,-1.2512205839157104,-0.8544921278953552,80.0,29172.0,1.0
14248.8937366,290723.625,299434.96875,381897.375,376427.0,288584.375,258380.28125,224218.234375,246498.71875,0.0166015625,0.9931640625,0.180419921875,0.6408690810203552,-1.2817381620407104,-0.8850097060203552,80.0,29173.0,1.0
14248.8937377,290687.5,299283.0,381771.21875,376394.09375,288513.1875,258315.1875,224161.359375,246463.21875,0.0166015625,0.9912109375,0.181884765625,0.5187987685203552,-1.2817381620407104,-0.9155272841453552,80.0,29174.0,1.0
14248.9166008,290683.1875,298973.71875,381613.3125,376419.65625,288430.5,258272.71875,224130.078125,246471.453125,0.0166015625,0.991943359375,0.18505859375,0.5798339247703552,-1.2512205839157104,-0.9155272841453552,80.0,29175.0,1.0
14248.942511,290723.4375,298958.4375,381672.78125,376474.65625,288463.5,258302.9375,224164.9375,246500.0625,0.01806640625,0.993408203125,0.182373046875,0.5798339247703552,-1.4038084745407104,-0.8544921278953552,80.0,29176.0,1.0
14248.942516,290743.375,299236.3125,381844.71875,376472.59375,288553.0,258363.296875,224211.796875,246512.125,0.015869140625,0.993408203125,0.1806640625,0.6408690810203552,-1.3732908964157104,-0.8544921278953552,80.0,29177.0,1.0
14248.9425173,290725.03125,299429.71875,381890.75,376427.53125,288590.1875,258391.625,224233.875,246514.09375,0.016357421875,0.99462890625,0.181884765625,0.7019042372703552,-1.4038084745407104,-0.9155272841453552,80.0,29178.0,1.0
14248.9425185,290695.28125,299284.78125,381764.6875,376406.0,288532.96875,258357.84375,224206.609375,246508.109375,0.01708984375,0.9951171875,0.179443359375,0.7629393935203552,-1.3732908964157104,-0.7629393935203552,80.0,29179.0,1.0
14248.9759885,290685.6875,298981.25,381610.1875,376418.9375,288443.65625,258303.75,224146.796875,246484.234375,0.015380859375,0.99560546875,0.181884765625,0.7019042372703552,-1.3732908964157104,-0.8239745497703552,80.0,29180.0,1.0
14248.9760079,290716.09375,298953.15625,381655.25,376461.0625,288459.375,258313.3125,224171.375,246506.765625,0.015625,0.994384765625,0.18408203125,0.5493163466453552,-1.3427733182907104,-0.8239745497703552,80.0,29181.0,1.0
14248.980473,290734.34375,299228.1875,381826.90625,376458.75,288544.84375,258360.515625,224212.5,246507.203125,0.0166015625,0.99365234375,0.183837890625,0.5798339247703552,-1.4648436307907104,-0.8544921278953552,80.0,29182.0,1.0
14248.9804867,290705.8125,299413.53125,381863.46875,376402.6875,288566.65625,258367.140625,224207.859375,246489.0625,0.015869140625,0.9951171875,0.18408203125,0.5798339247703552,-1.4038084745407104,-0.8544921278953552,80.0,29183.0,1.0
14248.9804946,290667.65625,299253.84375,381723.375,376374.78125,288499.15625,258321.265625,224169.953125,246477.53125,0.016845703125,0.994873046875,0.184814453125,0.4577636420726776,-1.5258787870407104,-0.8239745497703552,80.0,29184.0,1.0
14248.9804996,290661.46875,298950.9375,381567.8125,376396.78125,288416.28125,258277.015625,224133.203125,246474.84375,0.015869140625,0.997802734375,0.182861328125,0.5187987685203552,-1.5258787870407104,-0.8239745497703552,80.0,29185.0,1.0
14248.9805008,290703.59375,298934.125,381622.15625,376454.71875,288443.90625,258292.65625,224155.1875,246500.5,0.015380859375,1.00048828125,0.1826171875,0.4882812201976776,-1.5563963651657104,-0.8239745497703552,80.0,29186.0,1.0
14248.9828693,290735.21875,299216.46875,381805.46875,376452.5625,288538.15625,258347.546875,224196.59375,246496.484375,0.01513671875,1.00146484375,0.182861328125,0.3967284858226776,-1.5258787870407104,-0.7934569716453552,80.0,29187.0,1.0
14249.0100877,290722.34375,299419.59375,381860.96875,376403.21875,288577.125,258377.328125,224213.671875,246492.546875,0.014892578125,0.999267578125,0.181396484375,0.2746581733226776,-1.6174315214157104,-0.7934569716453552,80.0,29188.0,1.0
14249.0101146,290722.34375,299419.59375,381860.96875,376403.21875,288577.125,258377.328125,224213.671875,246492.546875,0.014892578125,0.999267578125,0.181396484375,0.2746581733226776,-1.6174315214157104,-0.7934569716453552,80.0,29189.0,0.0
14249.0101148,290722.34375,299419.59375,381860.96875,376403.21875,288577.125,258377.328125,224213.671875,246492.546875,0.014892578125,0.999267578125,0.181396484375,0.2746581733226776,-1.6174315214157104,-0.7934569716453552,80.0,29190.0,0.0
14249.010115,290722.34375,299419.59375,381860.96875,376403.21875,288577.125,258377.328125,224213.671875,246492.546875,0.014892578125,0.999267578125,0.181396484375,0.2746581733226776,-1.6174315214157104,-0.7934569716453552,80.0,29191.0,0.0
14249.0101153,290722.34375,299419.59375,381860.96875,376403.21875,288577.125,258377.328125,224213.671875,246492.546875,0.014892578125,0.999267578125,0.181396484375,0.2746581733226776,-1.6174315214157104,-0.7934569716453552,80.0,29192.0,0.0
14249.0101155,290722.34375,299419.59375,381860.96875,376403.21875,288577.125,258377.328125,224213.671875,246492.546875,0.014892578125,0.999267578125,0.181396484375,0.2746581733226776,-1.6174315214157104,-0.7934569716453552,80.0,29193.0,0.0
14249.0101157,290722.34375,299419.59375,381860.96875,376403.21875,288577.125,258377.328125,224213.671875,246492.546875,0.014892578125,0.999267578125,0.181396484375,0.2746581733226776,-1.6174315214157104,-0.7934569716453552,80.0,29194.0,0.0
14249.0101159,290722.34375,299419.59375,381860.96875,376403.21875,288577.125,258377.328125,224213.671875,246492.546875,0.014892578125,0.999267578125,0.181396484375,0.2746581733226776,-1.6174315214157104,-0.7934569716453552,80.0,29195.0,0.0
14249.0101161,290722.34375,299419.59375,381860.96875,376403.21875,288577.125,258377.328125,224213.671875,246492.546875,0.014892578125,0.999267578125,0.181396484375,0.2746581733226776,-1.6174315214157104,-0.7934569716453552,80.0,29196.0,0.0
14249.0101162,290722.34375,299419.59375,381860.96875,376403.21875,288577.125,258377.328125,224213.671875,246492.546875,0.014892578125,0.999267578125,0.181396484375,0.2746581733226776,-1.6174315214157104,-0.7934569716453552,80.0,29197.0,0.0
14249.0101169,290722.34375,299419.59375,381860.96875,376403.21875,288577.125,258377.328125,224213.671875,246492.546875,0.014892578125,0.999267578125,0.181396484375,0.2746581733226776,-1.6174315214157104,-0.7934569716453552,80.0,29198.0,0.0
14249.0101171,290722.34375,299419.59375,381860.96875,376403.21875,288577.125,258377.328125,224213.671875,246492.546875,0.014892578125,0.999267578125,0.181396484375,0.2746581733226776,-1.6174315214157104,-0.7934569716453552,80.0,29199.0,0.0
14249.0101177,290722.34375,299419.59375,381860.96875,376403.21875,288577.125,258377.328125,224213.671875,246492.546875,0.014892578125,0.999267578125,0.181396484375,0.2746581733226776,-1.6174315214157104,-0.7934569716453552,80.0,29200.0,0.0
14249.0101179,290722.34375,299419.59375,381860.96875,376403.21875,288577.125,258377.328125,224213.671875,246492.546875,0.014892578125,0.999267578125,0.181396484375,0.2746581733226776,-1.6174315214157104,-0.7934569716453552,80.0,29201.0,0.0
14249.0101181,290722.34375,299419.59375,381860.96875,376403.21875,288577.125,258377.328125,224213.671875,246492.546875,0.014892578125,0.999267578125,0.181396484375,0.2746581733226776,-1.6174315214157104,-0.7934569716453552,80.0,29202.0,0.0
14249.0101183,290722.34375,299419.59375,381860.96875,376403.21875,288577.125,258377.328125,224213.671875,246492.546875,0.014892578125,0.999267578125,0.181396484375,0.2746581733226776,-1.6174315214157104,-0.7934569716453552,80.0,29203.0,0.0
14249.0101184,290722.34375,299419.59375,381860.96875,376403.21875,288577.125,258377.328125,224213.671875,246492.546875,0.014892578125,0.999267578125,0.181396484375,0.2746581733226776,-1.6174315214157104,-0.7934569716453552,80.0,29204.0,0.0
14249.0101186,290722.34375,299419.59375,381860.96875,376403.21875,288577.125,258377.328125,224213.671875,246492.546875,0.014892578125,0.999267578125,0.181396484375,0.2746581733226776,-1.6174315214157104,-0.7934569716453552,80.0,29205.0,0.0
14249.0101188,290722.34375,299419.59375,381860.96875,376403.21875,288577.125,258377.328125,224213.671875,246492.546875,0.014892578125,0.999267578125,0.181396484375,0.2746581733226776,-1.6174315214157104,-0.7934569716453552,80.0,29206.0,0.0
14249.010119,290722.34375,299419.59375,381860.96875,376403.21875,288577.125,258377.328125,224213.671875,246492.546875,0.014892578125,0.999267578125,0.181396484375,0.2746581733226776,-1.6174315214157104,-0.7934569716453552,80.0,29207.0,0.0
14249.0101191,290722.34375,299419.59375,381860.96875,376403.21875,288577.125,258377.328125,224213.671875,246492.546875,0.014892578125,0.999267578125,0.181396484375,0.2746581733226776,-1.6174315214157104,-0.7934569716453552,80.0,29208.0,0.0
14249.0101193,290722.34375,299419.59375,381860.96875,376403.21875,288577.125,258377.328125,224213.671875,246492.546875,0.014892578125,0.999267578125,0.181396484375,0.2746581733226776,-1.6174315214157104,-0.7934569716453552,80.0,29209.0,0.0
14249.0101195,290722.34375,299419.59375,381860.96875,376403.21875,288577.125,258377.328125,224213.671875,246492.546875,0.014892578125,0.999267578125,0.181396484375,0.2746581733226776,-1.6174315214157104,-0.7934569716453552,80.0,29210.0,0.0
14249.0101196,290722.34375,299419.59375,381860.96875,376403.21875,288577.125,258377.328125,224213.671875,246492.546875,0.014892578125,0.999267578125,0.181396484375,0.2746581733226776,-1.6174315214157104,-0.7934569716453552,80.0,29211.0,0.0
14249.0101198,290722.34375,299419.59375,381860.96875,376403.21875,288577.125,258377.328125,224213.671875,246492.546875,0.014892578125,0.999267578125,0.181396484375,0.2746581733226776,-1.6174315214157104,-0.7934569716453552,80.0,29212.0,0.0
14249.01012,290722.34375,299419.59375,381860.96875,376403.21875,288577.125,258377.328125,224213.671875,246492.546875,0.014892578125,0.999267578125,0.181396484375,0.2746581733226776,-1.6174315214157104,-0.7934569716453552,80.0,29213.0,0.0
14249.0101248,290722.34375,299419.59375,381860.96875,376403.21875,288577.125,258377.328125,224213.671875,246492.546875,0.014892578125,0.999267578125,0.181396484375,0.2746581733226776,-1.6174315214157104,-0.7934569716453552,80.0,29214.0,0.0
14249.0101251,290722.34375,299419.59375,381860.96875,376403.21875,288577.125,258377.328125,224213.671875,246492.546875,0.014892578125,0.999267578125,0.181396484375,0.2746581733226776,-1.6174315214157104,-0.7934569716453552,80.0,29215.0,0.0
14249.0101254,290722.34375,299419.59375,381860.96875,376403.21875,288577.125,258377.328125,224213.671875,246492.546875,0.014892578125,0.999267578125,0.181396484375,0.2746581733226776,-1.6174315214157104,-0.7934569716453552,80.0,29216.0,0.0
14249.0101256,290722.34375,299419.59375,381860.96875,376403.21875,288577.125,258377.328125,224213.671875,246492.546875,0.014892578125,0.999267578125,0.181396484375,0.2746581733226776,-1.6174315214157104,-0.7934569716453552,80.0,29217.0,0.0
14249.0101259,290753.21875,299434.8125,381826.71875,376396.5,288592.25,258362.125,224226.09375,246520.0,0.016845703125,0.99560546875,0.18505859375,1.0681151151657104,-1.2512205839157104,-0.9460448622703552,80.0,29218.0,1.0
14249.0101279,290723.625,299300.4375,381708.625,376370.9375,288533.59375,258339.6875,224183.71875,246482.265625,0.016357421875,1.0009765625,0.1826171875,0.9765624403953552,-1.4038084745407104,-1.0070799589157104,80.0,29219.0,1.0
14249.0101295,290720.65625,299002.53125,381560.46875,376397.40625,288455.90625,258297.484375,224151.0,246492.015625,0.01513671875,1.001953125,0.184326171875,0.8239745497703552,-1.4953612089157104,-1.1901854276657104,80.0,29220.0,1.0
14249.0101315,290752.9375,298971.6875,381607.78125,376441.21875,288473.9375,258306.0625,224171.734375,246515.875,0.015380859375,1.0,0.1845703125,0.8239745497703552,-1.4953612089157104,-1.1291502714157104,80.0,29221.0,1.0
14249.0101331,290780.65625,299251.53125,381782.84375,376442.09375,288565.78125,258359.453125,224218.3125,246523.75,0.0146484375,1.000244140625,0.18212890625,0.7019042372703552,-1.4343260526657104,-1.1291502714157104,80.0,29222.0,1.0
14249.0101347,290768.75,299461.34375,381843.90625,376404.03125,288612.1875,258390.5625,224238.4375,246525.53125,0.015869140625,1.0009765625,0.18212890625,0.7324218153953552,-1.4953612089157104,-1.1901854276657104,80.0,29223.0,1.0
14249.0341827,290735.40625,299317.21875,381714.96875,376381.40625,288551.5625,258354.890625,224210.0,246528.046875,0.017578125,0.998291015625,0.182861328125,0.6713866591453552,-1.5869139432907104,-1.1596678495407104,80.0,29224.0,1.0
14249.0341908,290725.40625,299008.59375,381555.75,376394.71875,288456.6875,258293.46875,224153.859375,246497.375,0.015869140625,0.999267578125,0.184814453125,0.6103515028953552,-1.5869139432907104,-1.1901854276657104,80.0,29225.0,1.0
14249.0341921,290754.90625,298972.21875,381600.09375,376436.375,288471.28125,258301.515625,224167.71875,246510.609375,0.01708984375,0.99853515625,0.183349609375,0.6103515028953552,-1.5869139432907104,-1.0681151151657104,80.0,29226.0,1.0
14249.0341933,290774.65625,299246.59375,381766.75,376432.375,288552.0,258337.0,224206.15625,246524.46875,0.020263671875,0.996826171875,0.18310546875,0.5798339247703552,-1.5869139432907104,-1.0681151151657104,80.0,29227.0,1.0
14249.0341948,290750.0,299438.09375,381809.3125,376378.71875,288579.375,258354.890625,224210.625,246499.078125,0.017822265625,0.997314453125,0.184326171875,0.5187987685203552,-1.6479490995407104,-1.0070799589157104,80.0,29228.0,1.0
14249.0604667,290719.21875,299299.625,381685.375,376356.0,288524.46875,258337.265625,224185.59375,246483.25,0.016845703125,0.99658203125,0.18505859375,0.5187987685203552,-1.5869139432907104,-0.8544921278953552,80.0,29229.0,1.0
14249.0604871,290719.21875,299299.625,381685.375,376356.0,288524.46875,258337.265625,224185.59375,246483.25,0.016845703125,0.99658203125,0.18505859375,0.5187987685203552,-1.5869139432907104,-0.8544921278953552,80.0,29230.0,0.0
14249.0604874,290719.21875,299299.625,381685.375,376356.0,288524.46875,258337.265625,224185.59375,246483.25,0.016845703125,0.99658203125,0.18505859375,0.5187987685203552,-1.5869139432907104,-0.8544921278953552,80.0,29231.0,0.0
14249.0604876,290719.21875,299299.625,381685.375,376356.0,288524.46875,258337.265625,224185.59375,246483.25,0.016845703125,0.99658203125,0.18505859375,0.5187987685203552,-1.5869139432907104,-0.8544921278953552,80.0,29232.0,0.0
14249.0604881,290719.21875,299299.625,381685.375,376356.0,288524.46875,258337.265625,224185.59375,246483.25,0.016845703125,0.99658203125,0.18505859375,0.5187987685203552,-1.5869139432907104,-0.8544921278953552,80.0,29233.0,0.0
14249.0604883,290719.21875,299299.625,381685.375,376356.0,288524.46875,258337.265625,224185.59375,246483.25,0.016845703125,0.99658203125,0.18505859375,0.5187987685203552,-1.5869139432907104,-0.8544921278953552,80.0,29234.0,0.0
14249.0604885,290719.21875,299299.625,381685.375,376356.0,288524.46875,258337.265625,224185.59375,246483.25,0.016845703125,0.99658203125,0.18505859375,0.5187987685203552,-1.5869139432907104,-0.8544921278953552,80.0,29235.0,0.0
14249.0604887,290719.21875,299299.625,381685.375,376356.0,288524.46875,258337.265625,224185.59375,246483.25,0.016845703125,0.99658203125,0.18505859375,0.5187987685203552,-1.5869139432907104,-0.8544921278953552,80.0,29236.0,0.0
14249.0604888,290719.21875,299299.625,381685.375,376356.0,288524.46875,258337.265625,224185.59375,246483.25,0.016845703125,0.99658203125,0.18505859375,0.5187987685203552,-1.5869139432907104,-0.8544921278953552,80.0,29237.0,0.0
14249.060489,290719.21875,299299.625,381685.375,376356.0,288524.46875,258337.265625,224185.59375,246483.25,0.016845703125,0.99658203125,0.18505859375,0.5187987685203552,-1.5869139432907104,-0.8544921278953552,80.0,29238.0,0.0
14249.0604892,290719.21875,299299.625,381685.375,376356.0,288524.46875,258337.265625,224185.59375,246483.25,0.016845703125,0.99658203125,0.18505859375,0.5187987685203552,-1.5869139432907104,-0.8544921278953552,80.0,29239.0,0.0
14249.0604894,290705.28125,299015.46875,381527.5,376367.28125,288457.40625,258310.546875,224157.078125,246504.796875,0.018798828125,0.997802734375,0.1845703125,0.3967284858226776,-1.8310545682907104,-0.4882812201976776,80.0,29240.0,1.0
14249.0604906,290743.28125,298990.71875,381583.09375,376413.9375,288482.28125,258322.703125,224178.265625,246524.28125,0.01611328125,0.99560546875,0.185302734375,0.3356933295726776,-1.8310545682907104,-0.6103515028953552,80.0,29241.0,1.0
14249.0604918,290768.75,299262.34375,381749.5625,376412.59375,288570.78125,258366.59375,224222.703125,246538.5,0.0166015625,0.995849609375,0.18408203125,0.4272460639476776,-1.8005369901657104,-0.7019042372703552,80.0,29242.0,1.0
14249.0604931,290750.53125,299463.40625,381800.34375,376362.90625,288606.1875,258384.75,224225.203125,246517.9375,0.01708984375,0.998046875,0.185302734375,0.3662109076976776,-1.7395018339157104,-0.7019042372703552,80.0,29243.0,1.0
14249.1066241,290718.875,299319.5625,381676.09375,376337.3125,288545.3125,258343.796875,224187.203125,246501.671875,0.018798828125,0.997314453125,0.186767578125,0.3356933295726776,-1.7089842557907104,-0.7629393935203552,80.0,29244.0,1.0
14249.1346867,290710.46875,299015.03125,381522.21875,376358.34375,288463.65625,258305.09375,224159.046875,246503.453125,0.019775390625,0.99658203125,0.1865234375,0.2441406100988388,-1.7395018339157104,-0.7019042372703552,80.0,29245.0,1.0
14249.1347061,290743.09375,298987.59375,381566.46875,376405.71875,288483.0625,258319.75,224186.3125,246534.75,0.021240234375,0.99609375,0.185791015625,0.1831054538488388,-1.7700194120407104,-0.8239745497703552,80.0,29246.0,1.0
14249.1347074,290758.75,299256.625,381733.3125,376397.6875,288562.1875,258354.796875,224212.59375,246529.46875,0.021484375,0.99560546875,0.185546875,0.1525878757238388,-1.7395018339157104,-0.7629393935203552,80.0,29247.0,1.0
14249.1347086,290734.6875,299454.03125,381786.5,376341.96875,288590.4375,258372.5,224212.234375,246493.890625,0.02197265625,0.995361328125,0.187255859375,0.2136230319738388,-1.5869139432907104,-0.8239745497703552,80.0,29248.0,1.0
14249.1347098,290696.6875,299301.84375,381651.59375,376314.15625,288526.0,258337.09375,224175.578125,246480.828125,0.01953125,0.9951171875,0.187744140625,0.3356933295726776,-1.4953612089157104,-0.8544921278953552,80.0,29249.0,1.0
14249.1347111,290696.25,299004.75,381505.84375,376345.625,288454.71875,258306.703125,224157.25,246500.765625,0.0205078125,0.99462890625,0.18505859375,0.2136230319738388,-1.4953612089157104,-0.7934569716453552,80.0,29250.0,1.0
14249.1583687,290734.15625,298972.75,381560.46875,376395.4375,288478.59375,258328.515625,224178.0,246514.0,0.020751953125,0.994873046875,0.18603515625,0.1525878757238388,-1.3122557401657104,-0.8850097060203552,80.0,29251.0,1.0
14249.1583731,290758.03125,299245.71875,381732.59375,376393.75,288568.625,258381.96875,224216.53125,246519.546875,0.020263671875,0.994140625,0.1826171875,0.1220703050494194,-1.2207030057907104,-0.8544921278953552,80.0,29252.0,1.0
14249.1583745,290733.0,299442.84375,381780.59375,376339.375,288597.78125,258381.53125,224214.375,246504.265625,0.018310546875,0.994140625,0.18310546875,0.1525878757238388,-1.2817381620407104,-0.8239745497703552,80.0,29253.0,1.0
14249.1841679,290700.625,299289.5,381643.34375,376317.5625,288534.125,258337.09375,224186.75,246506.046875,0.01904296875,0.994873046875,0.1845703125,0.1220703050494194,-1.2207030057907104,-0.7934569716453552,80.0,29254.0,1.0
14249.2079022,290697.6875,298990.90625,381487.875,376337.9375,288448.28125,258298.296875,224146.171875,246490.40625,0.0185546875,0.994140625,0.187255859375,0.1220703050494194,-1.2207030057907104,-0.6713866591453552,80.0,29255.0,1.0
14249.2103944,290730.75,298962.90625,381543.40625,376381.84375,288469.9375,258305.359375,224163.78125,246505.328125,0.018798828125,0.9951171875,0.18603515625,-0.0610351525247097,-1.1901854276657104,-0.7019042372703552,80.0,29256.0,1.0
14249.212867,290745.4375,299230.96875,381706.125,376373.25,288542.78125,258330.390625,224186.578125,246498.625,0.018798828125,0.99365234375,0.18359375,-0.1831054538488388,-1.1901854276657104,-0.7934569716453552,80.0,29257.0,1.0
14249.2153995,290722.4375,299433.1875,381755.375,376326.15625,288575.6875,258353.71875,224194.796875,246486.90625,0.017578125,0.992431640625,0.18310546875,-0.3356933295726776,-1.0986326932907104,-0.7019042372703552,80.0,29258.0,1.0
14249.2195713,290698.5625,299303.1875,381641.46875,376311.84375,288531.625,258348.71875,224183.0,246494.6875,0.017578125,0.991455078125,0.18359375,-0.1831054538488388,-1.0681151151657104,-0.6408690810203552,80.0,29259.0,1.0
14249.2195769,290693.125,299002.25,381490.03125,376339.375,288454.90625,258301.953125,224154.21875,246510.15625,0.0185546875,0.993408203125,0.185302734375,-0.0915527269244194,-1.1291502714157104,-0.7629393935203552,80.0,29260.0,1.0
14249.2195791,290726.28125,298973.1875,381542.875,376387.03125,288474.84375,258308.75,224166.546875,246518.203125,0.015869140625,0.99267578125,0.18603515625,0.03051757626235485,-1.1291502714157104,-0.7324218153953552,80.0,29261.0,1.0
14249.2215995,290746.3125,299245.625,381716.9375,376374.15625,288565.875,258360.515625,224211.078125,246525.0,0.01416015625,0.995361328125,0.18505859375,0.03051757626235485,-1.2207030057907104,-0.8239745497703552,80.0,29262.0,1.0
14249.2497386,290724.5,299440.0,381768.34375,376329.8125,288600.46875,258376.171875,224219.5625,246513.640625,0.0146484375,0.99609375,0.189208984375,0.0610351525247097,-1.3122557401657104,-0.7629393935203552,80.0,29263.0,1.0
14249.2497606,290689.46875,299300.59375,381643.8125,376304.59375,288536.4375,258329.765625,224179.6875,246502.921875,0.014404296875,0.997314453125,0.1865234375,0.0610351525247097,-1.3122557401657104,-0.8850097060203552,80.0,29264.0,1.0
14249.275869,290684.8125,298995.46875,381486.53125,376325.6875,288451.5,258293.546875,224143.578125,246495.40625,0.01416015625,0.999267578125,0.1875,0.03051757626235485,-1.4038084745407104,-0.9460448622703552,80.0,29265.0,1.0
14249.2758738,290718.0625,298960.21875,381528.75,376366.90625,288466.09375,258302.046875,224159.390625,246503.8125,0.013916015625,0.999755859375,0.188720703125,0.0,-1.4953612089157104,-0.9765624403953552,80.0,29266.0,1.0
14249.275875,290738.4375,299233.0,381698.96875,376363.4375,288553.53125,258350.421875,224207.859375,246511.765625,0.012939453125,0.997314453125,0.187255859375,0.0,-1.7089842557907104,-1.0070799589157104,80.0,29267.0,1.0
14249.2758762,290727.0,299442.84375,381762.28125,376323.03125,288598.84375,258388.5,224224.578125,246501.125,0.0146484375,0.994140625,0.188720703125,-0.03051757626235485,-1.8005369901657104,-0.8544921278953552,80.0,29268.0,1.0
14249.2758775,290704.375,299312.5,381651.75,376308.34375,288551.90625,258366.234375,224197.9375,246500.765625,0.015380859375,0.99169921875,0.189697265625,-0.0610351525247097,-1.8310545682907104,-0.9155272841453552,80.0,29269.0,1.0
14249.2758787,290694.375,299002.78125,381490.03125,376325.78125,288463.125,258316.0,224159.671875,246503.90625,0.017822265625,0.989013671875,0.188232421875,0.0610351525247097,-1.9531248807907104,-0.7629393935203552,80.0,29270.0,1.0
14249.3008646,290731.75,298965.59375,381528.90625,376369.875,288477.78125,258324.75,224178.703125,246523.484375,0.020263671875,0.991943359375,0.185791015625,0.1831054538488388,-1.8615721464157104,-0.6408690810203552,80.0,29271.0,1.0
14249.3008814,290761.59375,299240.59375,381701.90625,376369.78125,288568.0,258366.515625,224223.859375,246532.421875,0.02001953125,0.993408203125,0.1865234375,0.1831054538488388,-1.8920897245407104,-0.6408690810203552,80.0,29272.0,1.0
14249.3008827,290749.375,299447.40625,381760.3125,376325.15625,288605.375,258389.75,224230.828125,246516.78125,0.02001953125,0.99560546875,0.187255859375,0.2136230319738388,-1.8310545682907104,-0.6103515028953552,80.0,29273.0,1.0
14249.3008839,290724.59375,299310.625,381640.78125,376306.46875,288546.09375,258359.09375,224194.53125,246506.140625,0.019775390625,0.99658203125,0.18701171875,0.1831054538488388,-1.8005369901657104,-0.7019042372703552,80.0,29274.0,1.0
14249.3008851,290723.4375,299003.9375,381483.21875,376331.34375,288461.25,258317.609375,224160.296875,246511.234375,0.01806640625,0.998779296875,0.18310546875,0.2746581733226776,-1.9531248807907104,-0.6103515028953552,80.0,29275.0,1.0
14249.3008864,290759.1875,298960.6875,381515.59375,376373.8125,288473.875,258325.375,224178.359375,246530.90625,0.02001953125,0.99560546875,0.18359375,0.2136230319738388,-2.075195074081421,-0.6103515028953552,80.0,29276.0,1.0
14249.3241498,290792.90625,299249.90625,381700.21875,376377.375,288568.625,258372.765625,224220.28125,246535.8125,0.019287109375,0.995361328125,0.18896484375,0.1831054538488388,-2.105712652206421,-0.6713866591453552,80.0,29277.0,1.0
14249.3554944,290792.90625,299249.90625,381700.21875,376377.375,288568.625,258372.765625,224220.28125,246535.8125,0.019287109375,0.995361328125,0.18896484375,0.1831054538488388,-2.105712652206421,-0.6713866591453552,80.0,29278.0,0.0
14249.3554965,290792.90625,299249.90625,381700.21875,376377.375,288568.625,258372.765625,224220.28125,246535.8125,0.019287109375,0.995361328125,0.18896484375,0.1831054538488388,-2.105712652206421,-0.6713866591453552,80.0,29279.0,0.0
14249.3554969,290792.90625,299249.90625,381700.21875,376377.375,288568.625,258372.765625,224220.28125,246535.8125,0.019287109375,0.995361328125,0.18896484375,0.1831054538488388,-2.105712652206421,-0.6713866591453552,80.0,29280.0,0.0
14249.3554972,290792.90625,299249.90625,381700.21875,376377.375,288568.625,258372.765625,224220.28125,246535.8125,0.019287109375,0.995361328125,0.18896484375,0.1831054538488388,-2.105712652206421,-0.6713866591453552,80.0,29281.0,0.0
14249.3554975,290792.90625,299249.90625,381700.21875,376377.375,288568.625,258372.765625,224220.28125,246535.8125,0.019287109375,0.995361328125,0.18896484375,0.1831054538488388,-2.105712652206421,-0.6713866591453552,80.0,29282.0,0.0
14249.3554978,290792.90625,299249.90625,381700.21875,376377.375,288568.625,258372.765625,224220.28125,246535.8125,0.019287109375,0.995361328125,0.18896484375,0.1831054538488388,-2.105712652206421,-0.6713866591453552,80.0,29283.0,0.0
14249.3554982,290792.90625,299249.90625,381700.21875,376377.375,288568.625,258372.765625,224220.28125,246535.8125,0.019287109375,0.995361328125,0.18896484375,0.1831054538488388,-2.105712652206421,-0.6713866591453552,80.0,29284.0,0.0
14249.3554985,290792.90625,299249.90625,381700.21875,376377.375,288568.625,258372.765625,224220.28125,246535.8125,0.019287109375,0.995361328125,0.18896484375,0.1831054538488388,-2.105712652206421,-0.6713866591453552,80.0,29285.0,0.0
14249.3554988,290792.90625,299249.90625,381700.21875,376377.375,288568.625,258372.765625,224220.28125,246535.8125,0.019287109375,0.995361328125,0.18896484375,0.1831054538488388,-2.105712652206421,-0.6713866591453552,80.0,29286.0,0.0
14249.3554991,290792.90625,299249.90625,381700.21875,376377.375,288568.625,258372.765625,224220.28125,246535.8125,0.019287109375,0.995361328125,0.18896484375,0.1831054538488388,-2.105712652206421,-0.6713866591453552,80.0,29287.0,0.0
14249.3554994,290850.125,299476.65625,381785.96875,376355.84375,288623.625,258399.5,224231.1875,246527.6875,0.018310546875,0.998291015625,0.18505859375,0.4272460639476776,-2.471923589706421,-1.4343260526657104,80.0,29288.0,1.0
14249.3555064,290818.21875,299329.46875,381658.65625,376332.6875,288563.625,258376.171875,224205.890625,246519.015625,0.01806640625,0.99755859375,0.18505859375,0.4272460639476776,-2.471923589706421,-1.5258787870407104,80.0,29289.0,1.0
14249.3555086,290804.34375,299026.46875,381491.1875,376352.53125,288476.90625,258331.28125,224173.53125,246525.265625,0.018310546875,0.996826171875,0.1875,0.3967284858226776,-2.410888433456421,-1.5258787870407104,80.0,29290.0,1.0
14249.3555104,290827.59375,298986.875,381528.75,376391.5,288487.09375,258323.0625,224174.234375,246536.359375,0.01904296875,0.996337890625,0.18701171875,0.4272460639476776,-2.380370855331421,-1.4038084745407104,80.0,29291.0,1.0
14249.3555122,290847.09375,299266.625,381707.71875,376391.0625,288577.75,258367.046875,224216.53125,246541.1875,0.018798828125,0.99560546875,0.184814453125,0.5187987685203552,-2.288818120956421,-1.3427733182907104,80.0,29292.0,1.0
14249.3804002,290820.875,299471.1875,381768.96875,376344.03125,288616.46875,258387.875,224230.5625,246534.65625,0.0205078125,0.9970703125,0.185302734375,0.6408690810203552,-2.227782964706421,-1.3732908964157104,80.0,29293.0,1.0
14249.3804083,290792.28125,299332.96875,381649.4375,376319.09375,288558.25,258358.734375,224196.40625,246514.71875,0.01904296875,0.99755859375,0.183837890625,0.7324218153953552,-2.227782964706421,-1.2817381620407104,80.0,29294.0,1.0
14249.3804103,290781.625,299021.03125,381489.84375,376338.9375,288475.90625,258314.828125,224161.8125,246522.3125,0.021728515625,0.998779296875,0.186279296875,0.7324218153953552,-2.258300542831421,-1.3122557401657104,80.0,29295.0,1.0
14249.3804122,290808.46875,298981.78125,381519.8125,376376.40625,288488.15625,258328.59375,224183.453125,246538.59375,0.0205078125,0.997802734375,0.18505859375,0.7629393935203552,-2.166747808456421,-1.3427733182907104,80.0,29296.0,1.0
14249.3804143,290823.21875,299251.59375,381683.3125,376369.0625,288570.5,258377.953125,224225.5625,246540.296875,0.022705078125,0.99951171875,0.182861328125,0.7324218153953552,-2.075195074081421,-1.2512205839157104,80.0,29297.0,1.0
14249.4064053,290800.15625,299456.4375,381741.25,376317.21875,288601.28125,258382.328125,224220.46875,246517.21875,0.02099609375,0.998291015625,0.184326171875,0.6408690810203552,-1.8920897245407104,-1.1596678495407104,80.0,29298.0,1.0
14249.4064228,290767.34375,299319.65625,381624.59375,376295.3125,288549.3125,258350.5,224194.171875,246514.09375,0.020263671875,0.998291015625,0.18798828125,0.6103515028953552,-1.8920897245407104,-0.9765624403953552,80.0,29299.0,1.0
14249.4064249,290757.40625,299016.1875,381468.5625,376315.59375,288466.875,258305.796875,224155.828125,246511.59375,0.017822265625,0.998046875,0.188232421875,0.5187987685203552,-1.9226073026657104,-1.1291502714157104,80.0,29300.0,1.0
14249.4064275,290757.40625,299016.1875,381468.5625,376315.59375,288466.875,258305.796875,224155.828125,246511.59375,0.017822265625,0.998046875,0.188232421875,0.5187987685203552,-1.9226073026657104,-1.1291502714157104,80.0,29301.0,0.0
14249.4064279,290757.40625,299016.1875,381468.5625,376315.59375,288466.875,258305.796875,224155.828125,246511.59375,0.017822265625,0.998046875,0.188232421875,0.5187987685203552,-1.9226073026657104,-1.1291502714157104,80.0,29302.0,0.0
14249.4064283,290757.40625,299016.1875,381468.5625,376315.59375,288466.875,258305.796875,224155.828125,246511.59375,0.017822265625,0.998046875,0.188232421875,0.5187987685203552,-1.9226073026657104,-1.1291502714157104,80.0,29303.0,0.0
14249.4064287,290757.40625,299016.1875,381468.5625,376315.59375,288466.875,258305.796875,224155.828125,246511.59375,0.017822265625,0.998046875,0.188232421875,0.5187987685203552,-1.9226073026657104,-1.1291502714157104,80.0,29304.0,0.0
14249.4064291,290757.40625,299016.1875,381468.5625,376315.59375,288466.875,258305.796875,224155.828125,246511.59375,0.017822265625,0.998046875,0.188232421875,0.5187987685203552,-1.9226073026657104,-1.1291502714157104,80.0,29305.0,0.0
14249.4064294,290757.40625,299016.1875,381468.5625,376315.59375,288466.875,258305.796875,224155.828125,246511.59375,0.017822265625,0.998046875,0.188232421875,0.5187987685203552,-1.9226073026657104,-1.1291502714157104,80.0,29306.0,0.0
14249.4064298,290784.9375,299240.34375,381679.21875,376337.15625,288568.71875,258371.421875,224224.3125,246538.140625,0.015380859375,0.996826171875,0.18408203125,0.4577636420726776,-1.5563963651657104,-1.2207030057907104,80.0,29307.0,1.0
14249.4064317,290763.03125,299445.34375,381737.59375,376291.0,288608.0625,258400.9375,224238.796875,246521.78125,0.016845703125,0.99609375,0.18212890625,0.5187987685203552,-1.5869139432907104,-1.2817381620407104,80.0,29308.0,1.0
14249.4064336,290732.1875,299310.78125,381615.46875,376267.75,288550.65625,258367.671875,224201.0625,246506.578125,0.017578125,0.995849609375,0.1845703125,0.5187987685203552,-1.5869139432907104,-1.3427733182907104,80.0,29309.0,1.0
14249.4064354,290721.65625,299001.90625,381457.40625,376289.21875,288466.96875,258300.890625,224162.171875,246519.015625,0.017333984375,0.994384765625,0.18505859375,0.5798339247703552,-1.5563963651657104,-1.2207030057907104,80.0,29310.0,1.0
14249.4295661,290748.71875,298951.375,381485.90625,376326.59375,288475.125,258297.484375,224172.890625,246527.953125,0.0166015625,0.99267578125,0.182373046875,0.6103515028953552,-1.6174315214157104,-1.1901854276657104,80.0,29311.0,1.0
14249.4295828,290768.84375,299213.34375,381641.75,376321.6875,288557.71875,258349.796875,224211.515625,246531.265625,0.016357421875,0.994140625,0.181640625,0.7324218153953552,-1.5563963651657104,-1.1596678495407104,80.0,29312.0,1.0
14249.4295851,290751.5,299427.1875,381705.3125,376275.53125,288600.1875,258386.53125,224229.5,246512.484375,0.01708984375,0.99462890625,0.184814453125,0.7324218153953552,-1.5258787870407104,-1.1291502714157104,80.0,29313.0,1.0
14249.4478762,290715.90625,299287.5625,381579.96875,376249.0625,288537.4375,258349.34375,224191.9375,246494.515625,0.019287109375,0.99462890625,0.18603515625,0.8239745497703552,-1.4953612089157104,-1.0070799589157104,80.0,29314.0,1.0
14249.4508976,290713.40625,298985.4375,381429.75,376275.0,288457.15625,258307.59375,224160.921875,246500.765625,0.01708984375,0.99462890625,0.184814453125,0.7934569716453552,-1.3122557401657104,-1.0681151151657104,80.0,29315.0,1.0
14249.4509058,290713.40625,298985.4375,381429.75,376275.0,288457.15625,258307.59375,224160.921875,246500.765625,0.01708984375,0.99462890625,0.184814453125,0.7934569716453552,-1.3122557401657104,-1.0681151151657104,80.0,29316.0,0.0
14249.4509061,290713.40625,298985.4375,381429.75,376275.0,288457.15625,258307.59375,224160.921875,246500.765625,0.01708984375,0.99462890625,0.184814453125,0.7934569716453552,-1.3122557401657104,-1.0681151151657104,80.0,29317.0,0.0
14249.4509063,290751.3125,299431.6875,381697.90625,376272.3125,288598.0625,258385.46875,224231.1875,246524.28125,0.016357421875,0.996337890625,0.182373046875,1.1291502714157104,-1.4648436307907104,-1.0070799589157104,80.0,29318.0,1.0
14249.4533876,290722.1875,299301.59375,381580.6875,376253.71875,288545.46875,258373.578125,224208.390625,246517.578125,0.01513671875,0.995361328125,0.183349609375,1.1596678495407104,-1.4953612089157104,-1.0681151151657104,80.0,29319.0,1.0
14249.4533966,290714.75,298994.21875,381425.28125,376271.96875,288460.375,258330.203125,224170.65625,246513.734375,0.01318359375,0.998291015625,0.188232421875,1.1596678495407104,-1.4953612089157104,-0.8544921278953552,80.0,29320.0,1.0
14249.4599207,290749.90625,298959.15625,381474.1875,376315.15625,288476.53125,258322.34375,224178.890625,246524.015625,0.0146484375,0.9970703125,0.183349609375,1.0986326932907104,-1.5563963651657104,-0.9765624403953552,80.0,29321.0,1.0
14249.4599311,290773.9375,299233.71875,381649.25,376315.78125,288562.28125,258362.84375,224215.1875,246530.28125,0.015625,0.997314453125,0.182861328125,1.0070799589157104,-1.6784666776657104,-0.8850097060203552,80.0,29322.0,1.0
14249.459933,290760.96875,299442.40625,381709.34375,376275.4375,288602.875,258396.546875,224232.796875,246525.453125,0.01611328125,0.998291015625,0.183349609375,1.0986326932907104,-1.6479490995407104,-0.9155272841453552,80.0,29323.0,1.0
14249.4599348,290735.0625,299304.0,381596.59375,376255.6875,288548.875,258369.734375,224205.0,246512.21875,0.015380859375,0.998291015625,0.181396484375,1.0681151151657104,-1.7089842557907104,-0.9460448622703552,80.0,29324.0,1.0
14249.463403,290730.6875,299006.71875,381445.3125,376279.375,288464.03125,258318.59375,224160.203125,246513.46875,0.01416015625,0.9990234375,0.179931640625,1.0986326932907104,-1.7395018339157104,-1.0681151151657104,80.0,29325.0,1.0
14249.4634122,290758.5625,298956.28125,381477.25,376325.875,288470.46875,258309.828125,224164.40625,246527.234375,0.014892578125,0.998046875,0.18017578125,1.0681151151657104,-1.8005369901657104,-1.0986326932907104,80.0,29326.0,1.0
14249.4670768,290775.90625,299214.6875,381638.875,376310.21875,288549.78125,258351.40625,224203.03125,246529.109375,0.013916015625,0.996337890625,0.181640625,0.9460448622703552,-1.8310545682907104,-1.0070799589157104,80.0,29327.0,1.0
14249.4670854,290751.6875,299414.0625,381689.40625,376254.875,288585.875,258379.03125,224220.46875,246514.359375,0.013916015625,0.997314453125,0.18359375,0.9765624403953552,-1.9226073026657104,-1.0070799589157104,80.0,29328.0,1.0
14249.4670875,290721.90625,299284.5,381571.375,376235.03125,288533.125,258356.765625,224190.6875,246502.921875,0.013427734375,0.997314453125,0.18212890625,0.8239745497703552,-1.9531248807907104,-1.0375975370407104,80.0,29329.0,1.0
14249.4670943,290721.90625,299284.5,381571.375,376235.03125,288533.125,258356.765625,224190.6875,246502.921875,0.013427734375,0.997314453125,0.18212890625,0.8239745497703552,-1.9531248807907104,-1.0375975370407104,80.0,29330.0,0.0
14249.4671109,290721.90625,299284.5,381571.375,376235.03125,288533.125,258356.765625,224190.6875,246502.921875,0.013427734375,0.997314453125,0.18212890625,0.8239745497703552,-1.9531248807907104,-1.0375975370407104,80.0,29331.0,0.0
14249.4671112,290721.90625,299284.5,381571.375,376235.03125,288533.125,258356.765625,224190.6875,246502.921875,0.013427734375,0.997314453125,0.18212890625,0.8239745497703552,-1.9531248807907104,-1.0375975370407104,80.0,29332.0,0.0
14249.4671115,290721.90625,299284.5,381571.375,376235.03125,288533.125,258356.765625,224190.6875,246502.921875,0.013427734375,0.997314453125,0.18212890625,0.8239745497703552,-1.9531248807907104,-1.0375975370407104,80.0,29333.0,0.0
14249.4671118,290721.90625,299284.5,381571.375,376235.03125,288533.125,258356.765625,224190.6875,246502.921875,0.013427734375,0.997314453125,0.18212890625,0.8239745497703552,-1.9531248807907104,-1.0375975370407104,80.0,29334.0,0.0
14249.4671121,290721.90625,299284.5,381571.375,376235.03125,288533.125,258356.765625,224190.6875,246502.921875,0.013427734375,0.997314453125,0.18212890625,0.8239745497703552,-1.9531248807907104,-1.0375975370407104,80.0,29335.0,0.0
14249.4671124,290721.90625,299284.5,381571.375,376235.03125,288533.125,258356.765625,224190.6875,246502.921875,0.013427734375,0.997314453125,0.18212890625,0.8239745497703552,-1.9531248807907104,-1.0375975370407104,80.0,29336.0,0.0
14249.4671127,290721.90625,299284.5,381571.375,376235.03125,288533.125,258356.765625,224190.6875,246502.921875,0.013427734375,0.997314453125,0.18212890625,0.8239745497703552,-1.9531248807907104,-1.0375975370407104,80.0,29337.0,0.0
14249.467113,290721.90625,299284.5,381571.375,376235.03125,288533.125,258356.765625,224190.6875,246502.921875,0.013427734375,0.997314453125,0.18212890625,0.8239745497703552,-1.9531248807907104,-1.0375975370407104,80.0,29338.0,0.0
14249.4671133,290721.90625,299284.5,381571.375,376235.03125,288533.125,258356.765625,224190.6875,246502.921875,0.013427734375,0.997314453125,0.18212890625,0.8239745497703552,-1.9531248807907104,-1.0375975370407104,80.0,29339.0,0.0
14249.4671136,290721.90625,299284.5,381571.375,376235.03125,288533.125,258356.765625,224190.6875,246502.921875,0.013427734375,0.997314453125,0.18212890625,0.8239745497703552,-1.9531248807907104,-1.0375975370407104,80.0,29340.0,0.0
14249.4671139,290721.90625,299284.5,381571.375,376235.03125,288533.125,258356.765625,224190.6875,246502.921875,0.013427734375,0.997314453125,0.18212890625,0.8239745497703552,-1.9531248807907104,-1.0375975370407104,80.0,29341.0,0.0
14249.4671142,290721.90625,299284.5,381571.375,376235.03125,288533.125,258356.765625,224190.6875,246502.921875,0.013427734375,0.997314453125,0.18212890625,0.8239745497703552,-1.9531248807907104,-1.0375975370407104,80.0,29342.0,0.0
14249.4671145,290721.90625,299284.5,381571.375,376235.03125,288533.125,258356.765625,224190.6875,246502.921875,0.013427734375,0.997314453125,0.18212890625,0.8239745497703552,-1.9531248807907104,-1.0375975370407104,80.0,29343.0,0.0
14249.4671148,290721.90625,299284.5,381571.375,376235.03125,288533.125,258356.765625,224190.6875,246502.921875,0.013427734375,0.997314453125,0.18212890625,0.8239745497703552,-1.9531248807907104,-1.0375975370407104,80.0,29344.0,0.0
14249.4671151,290721.90625,299284.5,381571.375,376235.03125,288533.125,258356.765625,224190.6875,246502.921875,0.013427734375,0.997314453125,0.18212890625,0.8239745497703552,-1.9531248807907104,-1.0375975370407104,80.0,29345.0,0.0
14249.4671154,290721.90625,299284.5,381571.375,376235.03125,288533.125,258356.765625,224190.6875,246502.921875,0.013427734375,0.997314453125,0.18212890625,0.8239745497703552,-1.9531248807907104,-1.0375975370407104,80.0,29346.0,0.0
14249.4671157,290721.90625,299284.5,381571.375,376235.03125,288533.125,258356.765625,224190.6875,246502.921875,0.013427734375,0.997314453125,0.18212890625,0.8239745497703552,-1.9531248807907104,-1.0375975370407104,80.0,29347.0,0.0
14249.4671161,290721.90625,299284.5,381571.375,376235.03125,288533.125,258356.765625,224190.6875,246502.921875,0.013427734375,0.997314453125,0.18212890625,0.8239745497703552,-1.9531248807907104,-1.0375975370407104,80.0,29348.0,0.0
14249.4671164,290721.90625,299284.5,381571.375,376235.03125,288533.125,258356.765625,224190.6875,246502.921875,0.013427734375,0.997314453125,0.18212890625,0.8239745497703552,-1.9531248807907104,-1.0375975370407104,80.0,29349.0,0.0
14249.4671167,290721.90625,299284.5,381571.375,376235.03125,288533.125,258356.765625,224190.6875,246502.921875,0.013427734375,0.997314453125,0.18212890625,0.8239745497703552,-1.9531248807907104,-1.0375975370407104,80.0,29350.0,0.0
14249.4671195,290721.90625,299284.5,381571.375,376235.03125,288533.125,258356.765625,224190.6875,246502.921875,0.013427734375,0.997314453125,0.18212890625,0.8239745497703552,-1.9531248807907104,-1.0375975370407104,80.0,29351.0,0.0
14249.4671198,290721.90625,299284.5,381571.375,376235.03125,288533.125,258356.765625,224190.6875,246502.921875,0.013427734375,0.997314453125,0.18212890625,0.8239745497703552,-1.9531248807907104,-1.0375975370407104,80.0,29352.0,0.0
14249.4671201,290721.90625,299284.5,381571.375,376235.03125,288533.125,258356.765625,224190.6875,246502.921875,0.013427734375,0.997314453125,0.18212890625,0.8239745497703552,-1.9531248807907104,-1.0375975370407104,80.0,29353.0,0.0
14249.4671204,290721.90625,299284.5,381571.375,376235.03125,288533.125,258356.765625,224190.6875,246502.921875,0.013427734375,0.997314453125,0.18212890625,0.8239745497703552,-1.9531248807907104,-1.0375975370407104,80.0,29354.0,0.0
14249.4671207,290721.90625,299284.5,381571.375,376235.03125,288533.125,258356.765625,224190.6875,246502.921875,0.013427734375,0.997314453125,0.18212890625,0.8239745497703552,-1.9531248807907104,-1.0375975370407104,80.0,29355.0,0.0
14249.467121,290721.90625,299284.5,381571.375,376235.03125,288533.125,258356.765625,224190.6875,246502.921875,0.013427734375,0.997314453125,0.18212890625,0.8239745497703552,-1.9531248807907104,-1.0375975370407104,80.0,29356.0,0.0
14249.4671214,290721.90625,299284.5,381571.375,376235.03125,288533.125,258356.765625,224190.6875,246502.921875,0.013427734375,0.997314453125,0.18212890625,0.8239745497703552,-1.9531248807907104,-1.0375975370407104,80.0,29357.0,0.0
14249.4671217,290721.90625,299284.5,381571.375,376235.03125,288533.125,258356.765625,224190.6875,246502.921875,0.013427734375,0.997314453125,0.18212890625,0.8239745497703552,-1.9531248807907104,-1.0375975370407104,80.0,29358.0,0.0
14249.467122,290721.90625,299284.5,381571.375,376235.03125,288533.125,258356.765625,224190.6875,246502.921875,0.013427734375,0.997314453125,0.18212890625,0.8239745497703552,-1.9531248807907104,-1.0375975370407104,80.0,29359.0,0.0
14249.4671224,290721.90625,299284.5,381571.375,376235.03125,288533.125,258356.765625,224190.6875,246502.921875,0.013427734375,0.997314453125,0.18212890625,0.8239745497703552,-1.9531248807907104,-1.0375975370407104,80.0,29360.0,0.0
14249.4671227,290721.90625,299284.5,381571.375,376235.03125,288533.125,258356.765625,224190.6875,246502.921875,0.013427734375,0.997314453125,0.18212890625,0.8239745497703552,-1.9531248807907104,-1.0375975370407104,80.0,29361.0,0.0
14249.467123,290721.90625,299284.5,381571.375,376235.03125,288533.125,258356.765625,224190.6875,246502.921875,0.013427734375,0.997314453125,0.18212890625,0.8239745497703552,-1.9531248807907104,-1.0375975370407104,80.0,29362.0,0.0
14249.4671232,290721.90625,299284.5,381571.375,376235.03125,288533.125,258356.765625,224190.6875,246502.921875,0.013427734375,0.997314453125,0.18212890625,0.8239745497703552,-1.9531248807907104,-1.0375975370407104,80.0,29363.0,0.0
14249.4671235,290721.90625,299284.5,381571.375,376235.03125,288533.125,258356.765625,224190.6875,246502.921875,0.013427734375,0.997314453125,0.18212890625,0.8239745497703552,-1.9531248807907104,-1.0375975370407104,80.0,29364.0,0.0
14249.4671238,290721.90625,299284.5,381571.375,376235.03125,288533.125,258356.765625,224190.6875,246502.921875,0.013427734375,0.997314453125,0.18212890625,0.8239745497703552,-1.9531248807907104,-1.0375975370407104,80.0,29365.0,0.0
14249.4671241,290721.90625,299284.5,381571.375,376235.03125,288533.125,258356.765625,224190.6875,246502.921875,0.013427734375,0.997314453125,0.18212890625,0.8239745497703552,-1.9531248807907104,-1.0375975370407104,80.0,29366.0,0.0
14249.4671245,290721.90625,299284.5,381571.375,376235.03125,288533.125,258356.765625,224190.6875,246502.921875,0.013427734375,0.997314453125,0.18212890625,0.8239745497703552,-1.9531248807907104,-1.0375975370407104,80.0,29367.0,0.0
14249.4671248,290763.84375,299428.53125,381631.65625,376209.46875,288590.28125,258385.46875,224217.953125,246512.65625,0.017822265625,0.995361328125,0.182373046875,0.0610351525247097,-0.9460448622703552,-0.8544921278953552,80.0,29368.0,1.0
14249.4671271,290731.84375,299299.625,381512.375,376185.34375,288533.59375,258345.59375,224181.125,246502.734375,0.017333984375,0.995361328125,0.179931640625,0.1220703050494194,-0.9155272841453552,-0.8239745497703552,80.0,29369.0,1.0
14249.467129,290726.125,298995.53125,381356.71875,376210.90625,288454.28125,258306.515625,224155.015625,246516.328125,0.016845703125,0.9951171875,0.1806640625,0.1831054538488388,-0.8544921278953552,-0.7934569716453552,80.0,29370.0,1.0
14249.4711521,290758.3125,298947.09375,381388.71875,376258.1875,288469.46875,258321.453125,224185.328125,246538.140625,0.016357421875,0.995849609375,0.18310546875,0.2441406100988388,-0.9155272841453552,-0.9155272841453552,80.0,29371.0,1.0
14249.4711596,290784.9375,299224.25,381566.28125,376266.875,288563.625,258383.40625,224237.453125,246552.09375,0.0146484375,0.99560546875,0.184326171875,0.2746581733226776,-0.9155272841453552,-0.9460448622703552,80.0,29372.0,1.0
14249.4711618,290768.03125,299437.5625,381634.25,376224.125,288600.28125,258385.375,224227.890625,246526.703125,0.015625,0.998046875,0.185302734375,0.1831054538488388,-1.0070799589157104,-0.9460448622703552,80.0,29373.0,1.0
14249.4711639,290733.8125,299299.53125,381519.4375,376188.625,288540.65625,258340.40625,224192.5625,246510.34375,0.01416015625,0.998046875,0.184326171875,0.1220703050494194,-1.0375975370407104,-0.9155272841453552,80.0,29374.0,1.0
14249.4711659,290724.3125,298990.34375,381359.125,376209.46875,288456.6875,258305.359375,224161.984375,246522.5,0.013671875,0.997802734375,0.18505859375,0.0,-1.0681151151657104,-0.9155272841453552,80.0,29375.0,1.0
14249.4711679,290762.15625,298951.1875,381399.71875,376251.65625,288470.8125,258325.375,224178.265625,246530.1875,0.014404296875,0.9990234375,0.183837890625,-0.0610351525247097,-1.0375975370407104,-0.9765624403953552,80.0,29376.0,1.0
14249.4711699,290779.75,299217.375,381566.65625,376246.3125,288551.90625,258370.984375,224222.703125,246538.140625,0.015380859375,0.999755859375,0.187744140625,-0.1525878757238388,-1.1596678495407104,-0.8239745497703552,80.0,29377.0,1.0
14249.4728272,290758.125,299426.9375,381622.15625,376195.6875,288585.53125,258386.359375,224229.046875,246524.734375,0.013916015625,0.99853515625,0.1865234375,-0.1831054538488388,-1.0986326932907104,-0.6713866591453552,80.0,29378.0,1.0
14249.4753187,290724.15625,299295.0625,381497.4375,376167.90625,288525.1875,258354.625,224192.75,246504.703125,0.01513671875,0.99853515625,0.18701171875,-0.1220703050494194,-1.1901854276657104,-0.7629393935203552,80.0,29379.0,1.0
14249.4778134,290706.96875,298974.0,381325.0625,376182.8125,288429.96875,258296.59375,224144.015625,246499.34375,0.014404296875,0.99755859375,0.185546875,-0.0915527269244194,-1.2817381620407104,-0.7324218153953552,80.0,29380.0,1.0
14249.480314,290742.21875,298928.9375,381364.84375,376231.5625,288446.78125,258305.171875,224168.15625,246525.359375,0.0126953125,0.996337890625,0.188232421875,-0.03051757626235485,-1.4343260526657104,-0.7324218153953552,80.0,29381.0,1.0
14249.4828134,290767.5,299200.90625,381537.15625,376233.34375,288536.8125,258353.453125,224211.703125,246530.453125,0.015380859375,0.997802734375,0.187255859375,-0.03051757626235485,-1.3122557401657104,-0.7324218153953552,80.0,29382.0,1.0
14249.4853137,290751.875,299412.90625,381598.9375,376186.84375,288577.125,258372.671875,224218.671875,246517.3125,0.01513671875,0.995361328125,0.186279296875,-0.03051757626235485,-1.4648436307907104,-0.7019042372703552,80.0,29383.0,1.0
14249.4878198,290724.15625,299280.84375,381483.59375,376162.8125,288524.03125,258342.90625,224184.515625,246500.6875,0.014404296875,0.994140625,0.183837890625,-0.0610351525247097,-1.4343260526657104,-0.7629393935203552,80.0,29384.0,1.0
14249.4903382,290720.46875,298979.0,381323.71875,376184.0,288442.46875,258310.890625,224160.375,246507.65625,0.01513671875,0.992431640625,0.184326171875,0.0610351525247097,-1.4953612089157104,-0.7019042372703552,80.0,29385.0,1.0
14249.4928137,290755.625,298935.375,381363.5,376231.375,288457.6875,258313.578125,224175.84375,246528.21875,0.017333984375,0.994140625,0.182861328125,0.1220703050494194,-1.5563963651657104,-0.7934569716453552,80.0,29386.0,1.0
14249.4952954,290780.28125,299203.15625,381536.53125,376233.0,288545.65625,258351.671875,224209.828125,246539.03125,0.017333984375,0.99658203125,0.1865234375,0.2136230319738388,-1.6174315214157104,-0.7934569716453552,80.0,29387.0,1.0
14249.4978203,290760.28125,299410.03125,381593.8125,376186.59375,288583.65625,258369.28125,224216.265625,246535.90625,0.01806640625,0.998046875,0.18505859375,0.3967284858226776,-1.6174315214157104,-0.9155272841453552,80.0,29388.0,1.0
14249.5003194,290725.40625,299279.40625,381473.75,376162.96875,288529.5625,258335.484375,224186.046875,246529.296875,0.01611328125,0.997314453125,0.184326171875,0.3967284858226776,-1.5869139432907104,-0.7629393935203552,80.0,29389.0,1.0
14249.5053275,290719.6875,298981.34375,381324.1875,376184.625,288447.75,258295.078125,224152.875,246509.890625,0.0166015625,0.998291015625,0.185791015625,0.4882812201976776,-1.6784666776657104,-0.7629393935203552,80.0,29390.0,1.0
14249.5078208,290758.9375,298941.09375,381368.0,376237.0,288464.125,258309.640625,224170.9375,246525.984375,0.01611328125,0.997802734375,0.183349609375,0.4577636420726776,-1.6784666776657104,-0.7629393935203552,80.0,29391.0,1.0
14249.5103178,290781.375,299210.5625,381535.1875,376226.71875,288543.6875,258351.84375,224201.515625,246521.78125,0.015380859375,0.99658203125,0.183349609375,0.3356933295726776,-1.6784666776657104,-0.8544921278953552,80.0,29392.0,1.0
14249.5186072,290759.46875,299419.15625,381594.0,376171.46875,288580.96875,258366.59375,224204.09375,246507.203125,0.016357421875,0.99609375,0.18017578125,0.2136230319738388,-1.7089842557907104,-0.9155272841453552,80.0,29393.0,1.0
14249.5186139,290733.0,299299.53125,381482.4375,376155.90625,288534.46875,258351.125,224182.375,246506.5,0.01708984375,0.996337890625,0.181884765625,0.3051757514476776,-1.7700194120407104,-0.8850097060203552,80.0,29394.0,1.0
14249.5186159,290727.28125,298995.71875,381327.40625,376179.0625,288454.5625,258318.5,224157.078125,246514.625,0.016357421875,0.994384765625,0.181884765625,0.3967284858226776,-1.8310545682907104,-0.9765624403953552,80.0,29395.0,1.0
14249.5186179,290766.0,298956.90625,381378.625,376231.90625,288476.90625,258332.4375,224183.359375,246541.359375,0.01904296875,0.9951171875,0.181396484375,0.4272460639476776,-1.8005369901657104,-0.8850097060203552,80.0,29396.0,1.0
14249.51862,290788.4375,299217.0,381546.8125,376228.0625,288557.90625,258362.390625,224217.0625,246542.4375,0.02001953125,0.9970703125,0.184326171875,0.6103515028953552,-1.7700194120407104,-0.9460448622703552,80.0,29397.0,1.0
14249.518622,290764.1875,299413.0,381583.8125,376173.15625,288581.0625,258378.046875,224218.234375,246525.1875,0.021240234375,0.997802734375,0.1845703125,0.6408690810203552,-1.7700194120407104,-0.8850097060203552,80.0,29398.0,1.0
14249.518624,290731.3125,299278.34375,381457.84375,376148.5,288523.75,258345.859375,224185.328125,246511.859375,0.020751953125,0.99658203125,0.18115234375,0.6408690810203552,-1.6174315214157104,-0.7934569716453552,80.0,29399.0,1.0
14249.5186257,290723.0,298976.15625,381304.59375,376170.75,288444.0,258309.109375,224152.875,246517.140625,0.020263671875,0.997314453125,0.18310546875,0.5493163466453552,-1.5869139432907104,-0.7934569716453552,80.0,29400.0,1.0
14249.5186275,290751.875,298926.875,381341.6875,376212.875,288455.09375,258301.15625,224164.765625,246532.421875,0.02099609375,0.994140625,0.1865234375,0.5187987685203552,-1.4953612089157104,-0.7019042372703552,80.0,29401.0,1.0
14249.5186294,290776.0,299199.9375,381515.15625,376214.65625,288544.5,258349.609375,224215.1875,246546.8125,0.019775390625,0.99365234375,0.1845703125,0.4272460639476776,-1.4343260526657104,-0.7019042372703552,80.0,29402.0,1.0
14249.5186314,290762.3125,299416.75,381579.53125,376168.15625,288584.1875,258384.5625,224224.9375,246518.203125,0.0185546875,0.99560546875,0.1865234375,0.3967284858226776,-1.4648436307907104,-0.6103515028953552,80.0,29403.0,1.0
14249.5186333,290738.4375,299297.28125,381471.0625,376147.6875,288530.71875,258348.984375,224181.65625,246501.671875,0.0185546875,0.994140625,0.18310546875,0.3356933295726776,-1.4953612089157104,-0.5798339247703552,80.0,29404.0,1.0
14249.5186351,290730.0625,298990.8125,381318.375,376169.40625,288444.96875,258292.21875,224141.15625,246502.5625,0.017578125,0.99365234375,0.184326171875,0.1220703050494194,-1.4648436307907104,-0.4882812201976776,80.0,29405.0,1.0
14249.5186369,290764.28125,298939.65625,381354.5625,376215.90625,288455.4375,258293.90625,224159.671875,246524.109375,0.016357421875,0.994140625,0.181396484375,0.1831054538488388,-1.3732908964157104,-0.5493163466453552,80.0,29406.0,1.0
14249.5209287,290792.46875,299211.8125,381529.375,376220.8125,288547.53125,258351.75,224216.96875,246545.125,0.016845703125,0.992919921875,0.186767578125,0.2136230319738388,-1.3427733182907104,-0.5187987685203552,80.0,29407.0,1.0
14249.5209351,290770.5625,299420.75,381588.46875,376171.21875,288585.53125,258373.921875,224230.125,246534.484375,0.016845703125,0.99560546875,0.18408203125,0.1831054538488388,-1.3732908964157104,-0.5493163466453552,80.0,29408.0,1.0
14249.5245833,290736.40625,299287.46875,381462.21875,376138.46875,288520.25,258341.109375,224185.765625,246500.5,0.01513671875,0.998046875,0.182373046875,0.2136230319738388,-1.4038084745407104,-0.5493163466453552,80.0,29409.0,1.0
14249.5245897,290726.375,298980.625,381306.65625,376161.0,288436.59375,258299.71875,224152.328125,246505.6875,0.01611328125,0.996826171875,0.180908203125,0.1220703050494194,-1.4343260526657104,-0.6408690810203552,80.0,29410.0,1.0
14249.5245919,290762.3125,298937.96875,381349.375,376208.84375,288454.46875,258307.765625,224172.8125,246529.296875,0.016357421875,0.998291015625,0.180908203125,0.1525878757238388,-1.3427733182907104,-0.6713866591453552,80.0,29411.0,1.0
14249.5245937,290789.9375,299211.71875,381519.53125,376210.375,288543.78125,258361.0625,224220.734375,246540.640625,0.01611328125,0.99755859375,0.183349609375,0.2136230319738388,-1.4038084745407104,-0.7019042372703552,80.0,29412.0,1.0
14249.5245954,290770.5625,299421.125,381575.6875,376162.25,288581.6875,258387.609375,224234.328125,246528.046875,0.017578125,0.9970703125,0.1806640625,0.1831054538488388,-1.3427733182907104,-0.8544921278953552,80.0,29413.0,1.0
14249.5245972,290732.0,299286.03125,381448.1875,376132.40625,288520.71875,258345.140625,224194.796875,246513.46875,0.017578125,0.99658203125,0.1796875,0.3356933295726776,-1.3122557401657104,-1.0375975370407104,80.0,29414.0,1.0
14249.5273971,290729.0625,298984.8125,381289.03125,376161.625,288440.25,258300.703125,224165.75,246517.484375,0.01904296875,0.99755859375,0.17822265625,0.3356933295726776,-1.3427733182907104,-1.1291502714157104,80.0,29415.0,1.0
14249.5274023,290759.5625,298937.15625,381324.1875,376212.78125,288458.125,258317.609375,224193.1875,246543.6875,0.019287109375,0.998779296875,0.18017578125,0.4272460639476776,-1.4343260526657104,-1.0681151151657104,80.0,29416.0,1.0
14249.5274037,290776.625,299203.6875,381499.5,376192.84375,288540.5625,258354.265625,224219.125,246535.109375,0.02099609375,0.998779296875,0.1796875,0.3662109076976776,-1.3732908964157104,-1.0681151151657104,80.0,29417.0,1.0
14249.5274053,290758.46875,299428.09375,381574.78125,376148.21875,288585.71875,258372.140625,224228.59375,246525.453125,0.021240234375,0.999755859375,0.180908203125,0.2136230319738388,-1.4343260526657104,-1.0375975370407104,80.0,29418.0,1.0
14249.5554865,290725.5,299299.625,381457.46875,376127.40625,288535.65625,258351.84375,224203.46875,246519.28125,0.02099609375,0.9990234375,0.177490234375,0.2136230319738388,-1.4343260526657104,-1.2207030057907104,80.0,29419.0,1.0
14249.5555025,290725.5,299299.625,381457.46875,376127.40625,288535.65625,258351.84375,224203.46875,246519.28125,0.02099609375,0.9990234375,0.177490234375,0.2136230319738388,-1.4343260526657104,-1.2207030057907104,80.0,29420.0,0.0
14249.555503,290725.5,299299.625,381457.46875,376127.40625,288535.65625,258351.84375,224203.46875,246519.28125,0.02099609375,0.9990234375,0.177490234375,0.2136230319738388,-1.4343260526657104,-1.2207030057907104,80.0,29421.0,0.0
14249.5555032,290725.5,299299.625,381457.46875,376127.40625,288535.65625,258351.84375,224203.46875,246519.28125,0.02099609375,0.9990234375,0.177490234375,0.2136230319738388,-1.4343260526657104,-1.2207030057907104,80.0,29422.0,0.0
14249.5555036,290725.5,299299.625,381457.46875,376127.40625,288535.65625,258351.84375,224203.46875,246519.28125,0.02099609375,0.9990234375,0.177490234375,0.2136230319738388,-1.4343260526657104,-1.2207030057907104,80.0,29423.0,0.0
14249.5555039,290725.5,299299.625,381457.46875,376127.40625,288535.65625,258351.84375,224203.46875,246519.28125,0.02099609375,0.9990234375,0.177490234375,0.2136230319738388,-1.4343260526657104,-1.2207030057907104,80.0,29424.0,0.0
14249.5555041,290725.5,299299.625,381457.46875,376127.40625,288535.65625,258351.84375,224203.46875,246519.28125,0.02099609375,0.9990234375,0.177490234375,0.2136230319738388,-1.4343260526657104,-1.2207030057907104,80.0,29425.0,0.0
14249.5555044,290725.5,299299.625,381457.46875,376127.40625,288535.65625,258351.84375,224203.46875,246519.28125,0.02099609375,0.9990234375,0.177490234375,0.2136230319738388,-1.4343260526657104,-1.2207030057907104,80.0,29426.0,0.0
14249.5555047,290725.5,299299.625,381457.46875,376127.40625,288535.65625,258351.84375,224203.46875,246519.28125,0.02099609375,0.9990234375,0.177490234375,0.2136230319738388,-1.4343260526657104,-1.2207030057907104,80.0,29427.0,0.0
14249.555505,290725.5,299299.625,381457.46875,376127.40625,288535.65625,258351.84375,224203.46875,246519.28125,0.02099609375,0.9990234375,0.177490234375,0.2136230319738388,-1.4343260526657104,-1.2207030057907104,80.0,29428.0,0.0
14249.5555053,290725.5,299299.625,381457.46875,376127.40625,288535.65625,258351.84375,224203.46875,246519.28125,0.02099609375,0.9990234375,0.177490234375,0.2136230319738388,-1.4343260526657104,-1.2207030057907104,80.0,29429.0,0.0
14249.5555056,290725.5,299299.625,381457.46875,376127.40625,288535.65625,258351.84375,224203.46875,246519.28125,0.02099609375,0.9990234375,0.177490234375,0.2136230319738388,-1.4343260526657104,-1.2207030057907104,80.0,29430.0,0.0
14249.5555058,290725.5,299299.625,381457.46875,376127.40625,288535.65625,258351.84375,224203.46875,246519.28125,0.02099609375,0.9990234375,0.177490234375,0.2136230319738388,-1.4343260526657104,-1.2207030057907104,80.0,29431.0,0.0
14249.5555062,290725.5,299299.625,381457.46875,376127.40625,288535.65625,258351.84375,224203.46875,246519.28125,0.02099609375,0.9990234375,0.177490234375,0.2136230319738388,-1.4343260526657104,-1.2207030057907104,80.0,29432.0,0.0
14249.5555064,290725.5,299299.625,381457.46875,376127.40625,288535.65625,258351.84375,224203.46875,246519.28125,0.02099609375,0.9990234375,0.177490234375,0.2136230319738388,-1.4343260526657104,-1.2207030057907104,80.0,29433.0,0.0
14249.5555067,290723.78125,299304.28125,381425.125,376101.5625,288535.03125,258367.21875,224203.65625,246517.9375,0.0126953125,0.9970703125,0.18505859375,-0.3356933295726776,-1.7089842557907104,-0.7629393935203552,80.0,29434.0,1.0
14249.5555088,290723.15625,299003.875,381273.03125,376136.4375,288462.15625,258332.09375,224184.515625,246547.265625,0.011474609375,0.997802734375,0.186767578125,-0.4577636420726776,-1.7395018339157104,-0.6408690810203552,80.0,29435.0,1.0
14249.5555106,290754.53125,298951.03125,381306.28125,376176.65625,288471.09375,258331.28125,224196.6875,246554.765625,0.010498046875,0.999755859375,0.184814453125,-0.4272460639476776,-1.6784666776657104,-0.7019042372703552,80.0,29436.0,1.0
14249.5555126,290777.6875,299220.40625,381478.03125,376169.5,288552.8125,258376.609375,224220.28125,246532.953125,0.009765625,0.998291015625,0.18896484375,-0.5187987685203552,-1.7395018339157104,-0.6103515028953552,80.0,29437.0,1.0
14249.5584095,290760.96875,299439.4375,381550.90625,376124.0,288595.53125,258400.03125,224227.4375,246516.59375,0.012939453125,0.9970703125,0.193603515625,-0.6713866591453552,-1.8310545682907104,-0.6408690810203552,80.0,29438.0,1.0
14249.5584179,290727.375,299307.21875,381433.53125,376098.875,288536.09375,258357.203125,224185.5,246502.015625,0.013427734375,0.9951171875,0.190185546875,-0.8239745497703552,-1.8615721464157104,-0.5798339247703552,80.0,29439.0,1.0
14249.5584202,290711.0,298984.0,381256.21875,376114.34375,288438.0,258291.234375,224143.65625,246513.375,0.01708984375,0.994873046875,0.190673828125,-1.0375975370407104,-1.7395018339157104,-0.6713866591453552,80.0,29440.0,1.0
14249.5608988,290742.46875,298929.125,381274.65625,376158.78125,288446.15625,258305.53125,224174.5,246538.328125,0.017822265625,0.9931640625,0.188720703125,-0.9765624403953552,-1.8005369901657104,-0.7629393935203552,80.0,29441.0,1.0
14249.560905,290763.21875,299202.34375,381447.5625,376152.4375,288528.5,258341.828125,224195.96875,246522.046875,0.018310546875,0.994140625,0.185302734375,-0.8850097060203552,-1.6479490995407104,-0.7629393935203552,80.0,29442.0,1.0
14249.5609072,290742.375,299418.34375,381515.96875,376109.96875,288572.5625,258361.234375,224206.421875,246514.1875,0.01904296875,0.992919921875,0.1884765625,-0.9460448622703552,-1.7089842557907104,-0.7019042372703552,80.0,29443.0,1.0
14249.5634049,290712.25,299295.9375,381407.3125,376084.375,288523.40625,258331.375,224174.6875,246504.4375,0.020263671875,0.991455078125,0.189453125,-0.8850097060203552,-1.7700194120407104,-0.6408690810203552,80.0,29444.0,1.0
14249.5634112,290706.1875,298985.71875,381244.78125,376098.78125,288438.5625,258293.546875,224143.65625,246500.953125,0.0224609375,0.989990234375,0.186279296875,-0.8239745497703552,-1.6174315214157104,-0.5187987685203552,80.0,29445.0,1.0
14249.5658998,290738.90625,298932.59375,381278.75,376148.21875,288454.0,258306.0625,224174.6875,246527.765625,0.021484375,0.991943359375,0.186279296875,-0.6103515028953552,-1.4953612089157104,-0.4882812201976776,80.0,29446.0,1.0
14249.5659062,290764.125,299203.9375,381454.875,376150.90625,288546.5625,258362.390625,224226.8125,246541.90625,0.0185546875,0.9912109375,0.18701171875,-0.4272460639476776,-1.4343260526657104,-0.4882812201976776,80.0,29447.0,1.0
14249.5659083,290753.21875,299431.75,381531.78125,376111.21875,288595.53125,258393.15625,224239.140625,246532.6875,0.017822265625,0.991943359375,0.1865234375,-0.3967284858226776,-1.3122557401657104,-0.5187987685203552,80.0,29448.0,1.0
14249.5678129,290714.9375,299299.71875,381412.6875,376081.96875,288535.375,258354.34375,224193.734375,246521.15625,0.0185546875,0.99462890625,0.185302734375,-0.3051757514476776,-1.4038084745407104,-0.4577636420726776,80.0,29449.0,1.0
14249.5704603,290699.375,298982.9375,381244.4375,376096.1875,288445.4375,258310.453125,224165.484375,246524.375,0.01953125,0.99365234375,0.1875,-0.2441406100988388,-1.3732908964157104,-0.3662109076976776,80.0,29450.0,1.0
14249.5728152,290738.0,298928.9375,381272.0625,376146.96875,288458.75,258320.828125,224189.890625,246546.375,0.020263671875,0.993896484375,0.185302734375,-0.1525878757238388,-1.3427733182907104,-0.3662109076976776,80.0,29451.0,1.0
14249.5753134,290761.96875,299201.8125,381442.09375,376146.15625,288542.96875,258363.109375,224224.3125,246544.484375,0.020263671875,0.992919921875,0.18701171875,-0.0610351525247097,-1.1901854276657104,-0.3662109076976776,80.0,29452.0,1.0
14249.5778233,290736.9375,299407.96875,381496.375,376089.75,288574.28125,258382.15625,224225.828125,246515.078125,0.022216796875,0.99462890625,0.188720703125,0.0,-1.1901854276657104,-0.3356933295726776,80.0,29453.0,1.0
14249.5803153,290709.3125,299288.4375,381378.53125,376065.15625,288520.96875,258356.140625,224200.4375,246507.125,0.0224609375,0.993896484375,0.1875,-0.0610351525247097,-1.1596678495407104,-0.3356933295726776,80.0,29454.0,1.0
14249.5828161,290707.875,298997.25,381232.96875,376095.46875,288448.375,258319.296875,224175.578125,246527.234375,0.0205078125,0.9921875,0.18896484375,0.0,-0.9765624403953552,-0.3051757514476776,80.0,29455.0,1.0
14249.5852935,290741.3125,298945.3125,381271.25,376140.625,288461.25,258327.703125,224191.40625,246547.0,0.021240234375,0.993896484375,0.189453125,0.0610351525247097,-1.0375975370407104,-0.3356933295726776,80.0,29456.0,1.0
14249.5878194,290762.3125,299201.0,381435.125,376133.375,288539.5625,258356.9375,224219.203125,246534.921875,0.02001953125,0.99609375,0.189453125,0.0915527269244194,-0.9460448622703552,-0.2441406100988388,80.0,29457.0,1.0
14249.590312,290745.34375,299415.59375,381499.3125,376086.09375,288579.375,258372.140625,224217.6875,246520.625,0.01953125,0.9951171875,0.1904296875,0.0610351525247097,-0.8544921278953552,-0.2746581733226776,80.0,29458.0,1.0
14249.5928006,290714.21875,299299.15625,381392.65625,376062.40625,288530.0,258349.609375,224188.8125,246500.140625,0.019287109375,0.99462890625,0.1904296875,0.03051757626235485,-0.7934569716453552,-0.3967284858226776,80.0,29459.0,1.0
14249.5953196,290700.625,298990.28125,381237.28125,376082.25,288443.5625,258300.609375,224147.0625,246498.796875,0.018310546875,0.995849609375,0.189697265625,0.1525878757238388,-0.7629393935203552,-0.4577636420726776,80.0,29460.0,1.0
14249.5984219,290740.78125,298935.8125,381268.75,376137.0625,288462.34375,258317.609375,224177.640625,246535.546875,0.018798828125,0.99658203125,0.189208984375,0.2136230319738388,-0.7019042372703552,-0.5187987685203552,80.0,29461.0,1.0
14249.5984283,290767.78125,299202.625,381437.375,376141.0625,288553.625,258373.125,224231.453125,246552.890625,0.015625,0.995361328125,0.187255859375,0.2746581733226776,-0.6713866591453552,-0.4577636420726776,80.0,29462.0,1.0
14249.600902,290745.4375,299412.4375,381499.15625,376085.90625,288587.0625,258374.46875,224217.0625,246517.765625,0.015869140625,0.995361328125,0.184326171875,0.3662109076976776,-0.6408690810203552,-0.7019042372703552,80.0,29463.0,1.0
14249.6009084,290720.5625,299292.1875,381385.875,376061.6875,288531.71875,258327.078125,224171.109375,246503.90625,0.0146484375,0.992919921875,0.18701171875,0.3662109076976776,-0.7324218153953552,-0.7324218153953552,80.0,29464.0,1.0
14249.6033914,290720.9375,298988.21875,381225.375,376088.0625,288453.3125,258289.53125,224145.453125,246517.84375,0.019775390625,0.99072265625,0.1875,0.3356933295726776,-0.9155272841453552,-0.7019042372703552,80.0,29465.0,1.0
14249.603399,290762.15625,298946.625,381268.65625,376139.5625,288475.84375,258308.9375,224170.125,246536.359375,0.022705078125,0.9892578125,0.185791015625,0.4272460639476776,-0.9155272841453552,-0.6408690810203552,80.0,29466.0,1.0
14249.6078029,290792.09375,299221.375,381449.15625,376144.84375,288570.78125,258360.703125,224222.96875,246543.6875,0.02392578125,0.98876953125,0.1865234375,0.5493163466453552,-0.9460448622703552,-0.4882812201976776,80.0,29467.0,1.0
14249.6109122,290771.8125,299430.96875,381505.9375,376097.4375,288607.0,258390.375,224239.78125,246537.78125,0.0224609375,0.99267578125,0.18359375,0.5798339247703552,-0.7934569716453552,-0.3967284858226776,80.0,29468.0,1.0
14249.6109189,290745.34375,299317.21875,381398.03125,376083.40625,288560.78125,258376.34375,224218.765625,246537.875,0.021728515625,0.99609375,0.18408203125,0.8239745497703552,-0.7629393935203552,-0.2746581733226776,80.0,29469.0,1.0
14249.612817,290729.875,299006.8125,381241.28125,376088.15625,288472.625,258326.8125,224177.375,246523.75,0.021240234375,0.998779296875,0.185791015625,0.8544921278953552,-0.7324218153953552,-0.2136230319738388,80.0,29470.0,1.0
14249.6153122,290763.5625,298950.03125,381275.28125,376130.34375,288481.5625,258333.609375,224189.96875,246532.6875,0.021484375,0.998779296875,0.182861328125,0.8239745497703552,-0.7629393935203552,-0.1525878757238388,80.0,29471.0,1.0
14249.6178118,290782.71875,299206.28125,381432.34375,376129.625,288561.40625,258377.234375,224232.0,246543.421875,0.018310546875,0.99853515625,0.185546875,0.6713866591453552,-0.7934569716453552,-0.1220703050494194,80.0,29472.0,1.0
14249.622244,290758.21875,299419.4375,381490.75,376076.96875,288596.625,258388.40625,224235.84375,246522.234375,0.022216796875,0.99560546875,0.184814453125,0.7019042372703552,-0.8544921278953552,-0.1831054538488388,80.0,29473.0,1.0
14249.622252,290722.625,299288.8125,381370.59375,376051.9375,288539.65625,258354.96875,224202.21875,246510.34375,0.022216796875,0.99365234375,0.18505859375,0.6408690810203552,-0.8850097060203552,-0.2441406100988388,80.0,29474.0,1.0
14249.6372388,290718.96875,298985.0,381212.875,376078.65625,288458.9375,258320.46875,224175.578125,246523.921875,0.0224609375,0.9951171875,0.186767578125,0.7324218153953552,-0.8544921278953552,-0.1525878757238388,80.0,29475.0,1.0
14249.6372465,290755.96875,298939.21875,381248.625,376124.71875,288475.125,258335.03125,224199.265625,246549.046875,0.018798828125,0.99658203125,0.184326171875,0.7934569716453552,-0.8239745497703552,-0.3051757514476776,80.0,29476.0,1.0
14249.6390715,290778.5,299207.25,381421.90625,376123.71875,288563.4375,258374.109375,224235.296875,246550.21875,0.02001953125,0.996826171875,0.183837890625,0.7019042372703552,-0.7934569716453552,-0.4577636420726776,80.0,29477.0,1.0
14249.6415641,290766.625,299430.5,381492.8125,376078.9375,288606.71875,258398.0625,224242.1875,246535.109375,0.019287109375,0.9990234375,0.185302734375,0.7019042372703552,-0.9155272841453552,-0.4577636420726776,80.0,29478.0,1.0
14249.6458895,290739.875,299311.59375,381382.375,376056.84375,288554.0625,258365.875,224207.3125,246525.625,0.02001953125,0.999267578125,0.183837890625,0.7019042372703552,-1.0681151151657104,-0.6103515028953552,80.0,29479.0,1.0
14249.6458966,290729.4375,299001.4375,381219.65625,376071.4375,288462.59375,258300.34375,224150.546875,246507.203125,0.01953125,0.99951171875,0.184814453125,0.4577636420726776,-1.1596678495407104,-0.6408690810203552,80.0,29480.0,1.0
14249.6553056,290760.53125,298941.0,381251.9375,376117.1875,288473.78125,258303.5625,224164.40625,246525.09375,0.021240234375,0.9990234375,0.18603515625,0.3662109076976776,-1.1596678495407104,-0.6408690810203552,80.0,29481.0,1.0
14249.6583948,290781.28125,299197.6875,381412.25,376118.71875,288558.25,258357.203125,224217.15625,246544.3125,0.021728515625,0.995849609375,0.1845703125,0.3662109076976776,-1.1901854276657104,-0.7019042372703552,80.0,29482.0,1.0
14249.6584006,290766.15625,299412.0,381471.875,376073.03125,288598.125,258388.5,224228.0625,246524.46875,0.022705078125,0.99560546875,0.184814453125,0.4272460639476776,-1.2207030057907104,-0.8239745497703552,80.0,29483.0,1.0
14249.6615761,290739.34375,299304.0,381371.21875,376048.53125,288546.625,258352.203125,224185.953125,246499.703125,0.0205078125,0.995849609375,0.18359375,0.3967284858226776,-1.2512205839157104,-0.8239745497703552,80.0,29484.0,1.0
14249.7116572,290730.59375,298998.75,381218.9375,376070.96875,288467.34375,258305.984375,224154.390625,246511.5,0.021484375,0.995849609375,0.1845703125,0.3051757514476776,-1.3122557401657104,-0.9155272841453552,80.0,29485.0,1.0
14249.7372889,290766.96875,298943.78125,381253.1875,376117.125,288484.21875,258324.390625,224179.421875,246536.984375,0.020263671875,0.99609375,0.18310546875,0.3356933295726776,-1.3732908964157104,-0.9155272841453552,80.0,29486.0,1.0
14249.737295,290797.8125,299213.6875,381424.3125,376121.0625,288572.84375,258372.046875,224221.453125,246542.796875,0.020751953125,0.99560546875,0.188232421875,0.2746581733226776,-1.3732908964157104,-1.0070799589157104,80.0,29487.0,1.0
14249.7616417,290772.59375,299416.21875,381470.28125,376068.21875,288601.53125,258379.921875,224222.078125,246532.6875,0.021240234375,0.994873046875,0.189697265625,0.3967284858226776,-1.3732908964157104,-1.0070799589157104,80.0,29488.0,1.0
14249.7866261,290745.25,299294.875,381352.4375,376047.375,288549.78125,258353.8125,224197.484375,246528.125,0.021484375,0.994873046875,0.18798828125,0.4272460639476776,-1.3732908964157104,-1.0375975370407104,80.0,29489.0,1.0
14249.8229033,290733.28125,298987.125,381189.4375,376063.90625,288461.15625,258309.109375,224160.203125,246516.78125,0.0234375,0.99462890625,0.187255859375,0.3967284858226776,-1.3122557401657104,-1.0681151151657104,80.0,29490.0,1.0
14249.8479081,290766.96875,298930.375,381213.40625,376109.0625,288468.21875,258315.71875,224165.03125,246526.875,0.025146484375,0.99560546875,0.185791015625,0.3662109076976776,-1.3427733182907104,-0.9765624403953552,80.0,29491.0,1.0
14249.8728397,290790.5,299201.71875,381392.125,376109.78125,288560.125,258364.90625,224207.9375,246534.75,0.0244140625,0.996826171875,0.18505859375,0.3356933295726776,-1.4038084745407104,-0.9155272841453552,80.0,29492.0,1.0
14249.8978985,290775.65625,299425.15625,381466.6875,376067.3125,288607.0,258384.390625,224221.984375,246526.609375,0.0244140625,0.99560546875,0.1865234375,0.3662109076976776,-1.3732908964157104,-0.8239745497703552,80.0,29493.0,1.0
14249.9203295,290744.625,299304.28125,381356.1875,376048.625,288553.71875,258352.734375,224189.53125,246518.65625,0.021240234375,0.994384765625,0.188720703125,0.3967284858226776,-1.3122557401657104,-0.8544921278953552,80.0,29494.0,1.0
14249.9228951,290729.875,298995.375,381189.625,376056.125,288464.5625,258308.578125,224157.703125,246525.625,0.020751953125,0.99365234375,0.1884765625,0.5187987685203552,-1.2512205839157104,-0.9155272841453552,80.0,29495.0,1.0
14249.9253669,290761.6875,298942.78125,381221.90625,376100.3125,288477.78125,258326.453125,224176.921875,246536.53125,0.021728515625,0.993896484375,0.185302734375,0.4272460639476776,-1.3122557401657104,-0.9460448622703552,80.0,29496.0,1.0
14249.950339,290784.84375,299212.8125,381397.40625,376102.90625,288569.15625,258385.1875,224220.546875,246541.90625,0.018798828125,0.993408203125,0.187744140625,0.5187987685203552,-1.3122557401657104,-0.9155272841453552,80.0,29497.0,1.0
14249.9753663,290768.3125,299429.96875,381466.0625,376060.4375,288609.84375,258395.03125,224228.859375,246532.25,0.018310546875,0.9951171875,0.1875,0.5187987685203552,-1.4038084745407104,-0.8850097060203552,80.0,29498.0,1.0
14250.0003652,290732.1875,299292.90625,381335.34375,376029.75,288543.15625,258350.328125,224188.09375,246517.21875,0.02001953125,0.99462890625,0.184814453125,0.4272460639476776,-1.4343260526657104,-0.9765624403953552,80.0,29499.0,1.0
14250.0203697,290723.625,298985.96875,381170.9375,376047.46875,288456.0625,258310.890625,224156.265625,246516.78125,0.0185546875,0.994140625,0.183837890625,0.4272460639476776,-1.4343260526657104,-1.0070799589157104,80.0,29500.0,1.0
14250.0229065,290757.21875,298936.71875,381204.46875,376095.375,288469.46875,258326.90625,224176.109375,246536.984375,0.019775390625,0.995849609375,0.18359375,0.4272460639476776,-1.4953612089157104,-1.0986326932907104,80.0,29501.0,1.0
14250.0254064,290784.6875,299213.59375,381385.5,376099.5,288562.8125,258382.875,224225.921875,246547.171875,0.020751953125,0.9970703125,0.1865234375,0.5187987685203552,-1.4953612089157104,-1.1291502714157104,80.0,29502.0,1.0
14250.0316432,290769.125,299436.59375,381456.5,376054.875,288607.625,258407.1875,224239.0625,246537.515625,0.021728515625,0.99560546875,0.1884765625,0.5187987685203552,-1.4953612089157104,-1.1596678495407104,80.0,29503.0,1.0
14250.0347295,290740.40625,299315.4375,381343.40625,376032.4375,288556.375,258370.4375,224208.296875,246533.859375,0.020751953125,0.9951171875,0.187744140625,0.4882812201976776,-1.4343260526657104,-1.1901854276657104,80.0,29504.0,1.0
14250.0347462,290732.375,299005.65625,381184.25,376054.875,288474.84375,258328.78125,224176.203125,246541.453125,0.02099609375,0.99658203125,0.186767578125,0.5798339247703552,-1.4953612089157104,-1.1596678495407104,80.0,29505.0,1.0
14250.0372891,290764.8125,298946.1875,381216.25,376100.65625,288491.75,258343.53125,224202.140625,246558.34375,0.017822265625,0.99853515625,0.186767578125,0.6713866591453552,-1.5869139432907104,-1.1901854276657104,80.0,29506.0,1.0
14250.0372932,290784.3125,299208.15625,381375.6875,376093.5,288571.0625,258382.515625,224236.640625,246555.046875,0.0205078125,0.998779296875,0.1845703125,0.5493163466453552,-1.6174315214157104,-1.2512205839157104,80.0,29507.0,1.0
14250.0397296,290767.875,299426.5,381443.09375,376046.3125,288609.75,258406.03125,224238.609375,246547.625,0.0205078125,0.99755859375,0.188232421875,0.4882812201976776,-1.7089842557907104,-1.2207030057907104,80.0,29508.0,1.0
14250.0397373,290734.96875,299304.53125,381329.90625,376017.78125,288552.0,258379.390625,224205.53125,246523.75,0.019775390625,0.99658203125,0.187255859375,0.3356933295726776,-1.7089842557907104,-1.2207030057907104,80.0,29509.0,1.0
14250.0422949,290729.875,299003.15625,381175.03125,376045.59375,288472.53125,258337.890625,224174.953125,246530.453125,0.02001953125,0.995361328125,0.18896484375,0.2746581733226776,-1.7089842557907104,-1.1596678495407104,80.0,29510.0,1.0
14250.0422972,290771.4375,298954.5,381218.0625,376101.90625,288491.125,258340.9375,224191.046875,246542.609375,0.01953125,0.99462890625,0.18896484375,0.3662109076976776,-1.7700194120407104,-1.0986326932907104,80.0,29511.0,1.0
14250.0666908,290789.875,299211.5625,381383.71875,376088.6875,288573.0,258376.078125,224225.296875,246546.28125,0.01806640625,0.994140625,0.189208984375,0.2746581733226776,-1.8005369901657104,-1.0986326932907104,80.0,29512.0,1.0
14250.0916656,290771.625,299427.03125,381440.6875,376042.8125,288613.59375,258399.40625,224234.328125,246538.140625,0.015380859375,0.993408203125,0.18603515625,0.3356933295726776,-1.8615721464157104,-1.1596678495407104,80.0,29513.0,1.0
14250.1166493,290741.65625,299311.40625,381332.59375,376016.0,288560.84375,258363.375,224195.34375,246516.78125,0.015869140625,0.99462890625,0.185302734375,0.3662109076976776,-1.8615721464157104,-1.1291502714157104,80.0,29514.0,1.0
14250.1329254,290731.46875,299000.5625,381172.09375,376034.0625,288473.0625,258313.578125,224156.625,246520.0,0.01953125,0.992919921875,0.18505859375,0.3662109076976776,-1.8005369901657104,-1.1596678495407104,80.0,29515.0,1.0
14250.1391684,290766.34375,298939.5,381201.34375,376081.8125,288484.6875,258324.9375,224182.375,246542.4375,0.018798828125,0.993408203125,0.185546875,0.5493163466453552,-1.8005369901657104,-0.9765624403953552,80.0,29516.0,1.0
