Time,FZ,C3,CZ,C4,PZ,PO7,OZ,PO8,AccX,AccY,AccZ,Gyro1,Gyro2,Gyro3,Battery,Counter,Validation
14292.8359287,290803.625,297883.84375,368827.40625,364875.78125,288025.5,257959.96875,224245.3125,245673.046875,0.014892578125,0.99560546875,0.192138671875,0.5187987685203552,-1.7395018339157104,-0.7934569716453552,80.0,40183.0,1.0
14292.8359405,290825.4375,298138.125,368990.46875,364878.21875,288107.84375,257998.859375,224284.75,245676.265625,0.015869140625,0.995849609375,0.19140625,0.4882812201976776,-1.7395018339157104,-0.8544921278953552,80.0,40184.0,1.0
14292.894729,290815.25,298384.4375,369079.53125,364840.9375,288163.71875,258030.78125,224303.25,245670.1875,0.015869140625,0.9951171875,0.18896484375,0.4577636420726776,-1.6479490995407104,-0.8850097060203552,80.0,40185.0,1.0
14292.8947482,290783.15625,298281.28125,368975.5625,364812.40625,288114.34375,257998.421875,224263.640625,245652.296875,0.016357421875,0.996337890625,0.19189453125,0.3662109076976776,-1.6174315214157104,-0.9460448622703552,80.0,40186.0,1.0
14292.8947501,290772.34375,297960.5625,368795.5,364828.21875,288020.03125,257960.515625,224232.625,245656.859375,0.017333984375,0.995361328125,0.190673828125,0.4272460639476776,-1.6479490995407104,-1.0070799589157104,80.0,40187.0,1.0
14292.9196781,290806.3125,297877.875,368802.71875,364875.71875,288023.15625,257972.9375,224252.203125,245679.84375,0.01513671875,0.9951171875,0.1904296875,0.4272460639476776,-1.5258787870407104,-1.1291502714157104,80.0,40188.0,1.0
14292.9196842,290829.375,298132.15625,368974.9375,364879.71875,288103.90625,257993.6875,224276.78125,245685.734375,0.0166015625,0.995849609375,0.18896484375,0.5798339247703552,-1.5869139432907104,-1.0375975370407104,80.0,40189.0,1.0
14292.9440895,290822.21875,298380.6875,369079.71875,364842.34375,288161.28125,258016.84375,224293.859375,245670.265625,0.016357421875,0.9951171875,0.186767578125,0.6103515028953552,-1.6479490995407104,-1.0986326932907104,80.0,40190.0,1.0
14292.9534104,290789.3125,298280.5625,368980.28125,364811.875,288113.5625,257984.828125,224260.515625,245655.703125,0.01416015625,0.994384765625,0.19287109375,0.7019042372703552,-1.6784666776657104,-1.1596678495407104,80.0,40191.0,1.0
14292.953416,290782.4375,297969.59375,368810.40625,364837.53125,288035.0625,257951.296875,224242.640625,245691.375,0.013671875,0.995849609375,0.1904296875,0.6713866591453552,-1.6479490995407104,-1.1596678495407104,80.0,40192.0,1.0
14292.9534174,290803.28125,297879.125,368815.34375,364870.78125,288025.75,257944.328125,224239.234375,245687.078125,0.01416015625,0.997802734375,0.187744140625,0.7019042372703552,-1.5869139432907104,-1.1901854276657104,80.0,40193.0,1.0
14292.9571205,290833.125,298136.875,368986.625,364875.96875,288111.84375,257998.953125,224285.8125,245683.765625,0.01611328125,0.9951171875,0.187744140625,0.6408690810203552,-1.5563963651657104,-1.1901854276657104,80.0,40194.0,1.0
14292.9571246,290818.5625,298372.46875,369070.5,364831.8125,288161.46875,258027.296875,224304.6875,245668.921875,0.01416015625,0.993408203125,0.1865234375,0.5798339247703552,-1.6784666776657104,-1.1291502714157104,80.0,40195.0,1.0
14292.9571259,290793.78125,298274.3125,368969.03125,364811.875,288118.8125,258004.953125,224280.8125,245673.484375,0.013427734375,0.99267578125,0.187744140625,0.7324218153953552,-1.6784666776657104,-1.0070799589157104,80.0,40196.0,1.0
14292.9571286,290782.8125,297967.46875,368798.78125,364824.5625,288023.34375,257950.140625,224231.109375,245659.453125,0.011474609375,0.993408203125,0.189208984375,0.7629393935203552,-1.6174315214157104,-1.0070799589157104,80.0,40197.0,1.0
14292.9626098,290812.5625,297880.0,368805.0625,364869.8125,288020.03125,257952.640625,224248.0,245683.328125,0.01123046875,0.99462890625,0.190185546875,0.7629393935203552,-1.6784666776657104,-1.0070799589157104,80.0,40198.0,1.0
14292.9626124,290842.4375,298137.5,368976.4375,364876.25,288108.90625,258001.8125,224297.890625,245696.90625,0.010986328125,0.993896484375,0.1923828125,0.7629393935203552,-1.6784666776657104,-1.0375975370407104,80.0,40199.0,1.0
14292.9626137,290827.15625,298372.90625,369061.46875,364828.21875,288156.1875,258013.625,224302.453125,245669.203125,0.0126953125,0.995849609375,0.190185546875,0.7629393935203552,-1.8005369901657104,-1.0375975370407104,80.0,40200.0,1.0
14292.9626149,290796.3125,298272.5,368958.125,364800.96875,288106.65625,257985.640625,224262.75,245659.90625,0.011474609375,0.994873046875,0.188232421875,0.7324218153953552,-1.8920897245407104,-1.0070799589157104,80.0,40201.0,1.0
14292.9626161,290779.59375,297964.5,368792.90625,364819.90625,288018.875,257942.359375,224226.71875,245667.40625,0.012939453125,0.996826171875,0.191162109375,0.7629393935203552,-1.8920897245407104,-0.8850097060203552,80.0,40202.0,1.0
14292.9626173,290810.875,297888.40625,368809.78125,364868.03125,288025.03125,257952.734375,224245.859375,245683.59375,0.013916015625,0.996826171875,0.190185546875,0.7019042372703552,-1.9531248807907104,-0.9765624403953552,80.0,40203.0,1.0
14292.9626185,290841.625,298145.5625,368980.03125,364880.1875,288115.78125,258014.25,224293.6875,245695.390625,0.010986328125,0.99609375,0.18896484375,0.7019042372703552,-2.075195074081421,-0.9155272841453552,80.0,40204.0,1.0
14292.9626198,290821.15625,298373.0,369063.0,364819.03125,288159.0625,258024.171875,224294.484375,245671.25,0.011962890625,0.997314453125,0.186767578125,0.7324218153953552,-1.9836424589157104,-0.9765624403953552,80.0,40205.0,1.0
14292.9646655,290787.53125,298268.5625,368961.0625,364794.4375,288111.6875,257990.375,224264.984375,245662.9375,0.01123046875,0.9970703125,0.1845703125,0.7019042372703552,-2.166747808456421,-0.8850097060203552,80.0,40206.0,1.0
14292.9646677,290777.34375,297958.6875,368793.53125,364816.53125,288028.625,257964.53125,224240.3125,245671.4375,0.0126953125,0.998291015625,0.188232421875,0.6408690810203552,-2.197265386581421,-0.9155272841453552,80.0,40207.0,1.0
14292.9646691,290806.21875,297874.65625,368800.9375,364860.875,288030.59375,257974.375,224260.0625,245691.1875,0.012939453125,0.9990234375,0.18701171875,0.6713866591453552,-2.197265386581421,-0.9765624403953552,80.0,40208.0,1.0
14292.9666069,290836.96875,298145.375,368982.71875,364873.46875,288124.90625,258018.359375,224303.34375,245705.671875,0.011474609375,0.997314453125,0.18603515625,0.6713866591453552,-2.197265386581421,-1.0681151151657104,80.0,40209.0,1.0
14292.9691285,290814.4375,298366.75,369054.40625,364824.21875,288164.78125,258015.3125,224297.890625,245690.46875,0.013427734375,0.99755859375,0.1904296875,0.6408690810203552,-2.166747808456421,-1.0375975370407104,80.0,40210.0,1.0
14292.9715818,290785.5625,298260.0,368938.4375,364795.78125,288111.9375,257985.359375,224269.546875,245674.109375,0.01416015625,0.998046875,0.188232421875,0.6103515028953552,-2.075195074081421,-1.0681151151657104,80.0,40211.0,1.0
14292.9741128,290774.65625,297954.3125,368768.125,364813.125,288023.6875,257949.328125,224237.1875,245677.6875,0.016845703125,0.99951171875,0.185791015625,0.4272460639476776,-2.166747808456421,-0.9765624403953552,80.0,40212.0,1.0
14292.999117,290812.21875,297886.71875,368795.40625,364865.0625,288039.875,257972.046875,224262.578125,245701.46875,0.016845703125,0.99853515625,0.187744140625,0.3662109076976776,-2.105712652206421,-0.9460448622703552,80.0,40213.0,1.0
14293.0241295,290834.9375,298142.6875,368974.03125,364862.75,288122.59375,258003.15625,224289.84375,245691.375,0.015625,0.9970703125,0.1875,0.3356933295726776,-2.105712652206421,-0.9460448622703552,80.0,40214.0,1.0
14293.0490821,290826.34375,298375.59375,369055.125,364823.75,288170.25,258026.84375,224303.875,245686.625,0.015380859375,0.996337890625,0.185791015625,0.3356933295726776,-1.9531248807907104,-0.9155272841453552,80.0,40215.0,1.0
14293.0690868,290790.125,298261.5,368935.125,364789.34375,288110.78125,257990.640625,224264.453125,245663.5625,0.01708984375,0.99560546875,0.185791015625,0.3051757514476776,-1.9836424589157104,-0.9765624403953552,80.0,40216.0,1.0
14293.0716115,290774.75,297947.53125,368761.78125,364804.53125,288020.21875,257941.109375,224226.1875,245664.90625,0.017578125,0.99609375,0.187744140625,0.2746581733226776,-1.9226073026657104,-0.9765624403953552,80.0,40217.0,1.0
14293.0741185,290811.5,297872.25,368772.34375,364856.40625,288029.34375,257957.734375,224254.890625,245696.734375,0.014892578125,0.995849609375,0.185546875,0.2136230319738388,-1.8920897245407104,-0.9765624403953552,80.0,40218.0,1.0
14293.076636,290837.15625,298133.125,368949.09375,364867.125,288122.59375,258012.546875,224306.296875,245712.921875,0.01416015625,0.996826171875,0.186767578125,0.2441406100988388,-1.8310545682907104,-0.9765624403953552,80.0,40219.0,1.0
14293.079072,290824.0,298379.34375,369054.9375,364830.03125,288182.75,258040.0,224323.8125,245695.21875,0.017333984375,0.99609375,0.186279296875,0.2746581733226776,-1.8005369901657104,-1.0681151151657104,80.0,40220.0,1.0
14293.081616,290789.59375,298273.84375,368954.8125,364800.96875,288128.46875,257996.359375,224280.359375,245666.609375,0.015380859375,0.997314453125,0.18359375,0.1831054538488388,-1.7395018339157104,-1.0375975370407104,80.0,40221.0,1.0
14293.0841132,290777.78125,297954.9375,368773.3125,364805.34375,288035.21875,257949.96875,224243.890625,245669.640625,0.01513671875,0.998779296875,0.1826171875,0.0915527269244194,-1.6174315214157104,-1.0070799589157104,80.0,40222.0,1.0
14293.0907027,290811.21875,297870.90625,368778.84375,364855.40625,288037.90625,257956.84375,224261.234375,245696.375,0.015380859375,0.99609375,0.1875,0.0610351525247097,-1.6174315214157104,-1.0375975370407104,80.0,40223.0,1.0
14293.0907121,290842.96875,298139.75,368959.28125,364865.25,288128.84375,258007.625,224306.65625,245698.078125,0.015869140625,0.994873046875,0.18505859375,0.03051757626235485,-1.5869139432907104,-1.0070799589157104,80.0,40224.0,1.0
14293.0907133,290829.65625,298378.28125,369048.40625,364821.25,288179.8125,258038.75,224322.390625,245682.703125,0.014892578125,0.995361328125,0.1875,0.0915527269244194,-1.4953612089157104,-1.0681151151657104,80.0,40225.0,1.0
14293.0907147,290794.5,298269.84375,368936.03125,364789.34375,288125.96875,258008.34375,224292.875,245672.328125,0.014404296875,0.994140625,0.185791015625,0.0,-1.3427733182907104,-1.0681151151657104,80.0,40226.0,1.0
14293.090716,290778.40625,297955.5625,368761.15625,364804.0,288030.9375,257950.40625,224251.75,245670.890625,0.0146484375,0.994140625,0.1875,0.1220703050494194,-1.2817381620407104,-1.0375975370407104,80.0,40227.0,1.0
14293.0907172,290807.28125,297868.5625,368771.25,364844.6875,288024.5,257939.5,224253.0,245685.828125,0.013916015625,0.99560546875,0.186767578125,0.0610351525247097,-1.3427733182907104,-1.0070799589157104,80.0,40228.0,1.0
14293.0907184,290837.0625,298133.9375,368954.4375,364852.71875,288119.625,257996.09375,224297.890625,245691.375,0.01220703125,0.996337890625,0.1845703125,0.0610351525247097,-1.3427733182907104,-1.0070799589157104,80.0,40229.0,1.0
14293.0907197,290813.28125,298365.9375,369037.78125,364806.3125,288169.96875,258021.390625,224316.21875,245679.484375,0.013916015625,0.99658203125,0.18896484375,-0.03051757626235485,-1.2207030057907104,-0.9155272841453552,80.0,40230.0,1.0
14293.0907209,290784.40625,298267.0625,368935.21875,364786.65625,288129.28125,257999.40625,224301.46875,245690.5625,0.013427734375,0.998291015625,0.18994140625,-0.03051757626235485,-1.2207030057907104,-0.9460448622703552,80.0,40231.0,1.0
14293.1159902,290780.03125,297964.5,368775.28125,364810.15625,288052.125,257977.3125,224279.65625,245697.8125,0.013427734375,0.9990234375,0.1875,-0.1220703050494194,-1.1291502714157104,-1.0070799589157104,80.0,40232.0,1.0
14293.116007,290814.90625,297887.4375,368794.9375,364851.9375,288055.34375,257996.71875,224286.171875,245689.671875,0.011962890625,0.998046875,0.190185546875,-0.1831054538488388,-1.1291502714157104,-0.9460448622703552,80.0,40233.0,1.0
14293.1403979,290834.5625,298140.375,368961.6875,364852.625,288130.90625,258011.46875,224307.71875,245700.125,0.0126953125,0.9951171875,0.19384765625,-0.1525878757238388,-1.3427733182907104,-0.9155272841453552,80.0,40234.0,1.0
14293.1659542,290817.03125,298365.5,369029.03125,364804.90625,288167.03125,258014.25,224304.953125,245677.6875,0.01220703125,0.994873046875,0.193115234375,-0.2136230319738388,-1.4038084745407104,-0.7934569716453552,80.0,40235.0,1.0
14293.1659744,290785.75,298253.1875,368904.90625,364776.28125,288109.8125,257979.90625,224269.71875,245662.9375,0.0126953125,0.99462890625,0.1904296875,-0.3967284858226776,-1.2512205839157104,-0.7934569716453552,80.0,40236.0,1.0
14293.1659757,290772.6875,297940.28125,368737.5625,364801.21875,288027.53125,257937.53125,224246.03125,245674.5625,0.012451171875,0.995849609375,0.1904296875,-0.4577636420726776,-1.2512205839157104,-0.7934569716453552,80.0,40237.0,1.0
14293.2251029,290801.65625,297859.0,368747.84375,364833.6875,288019.6875,257941.28125,224250.328125,245671.875,0.013671875,0.995849609375,0.18701171875,-0.4272460639476776,-1.2207030057907104,-0.7934569716453552,80.0,40238.0,1.0
14293.2251161,290828.03125,298122.03125,368925.75,364833.3125,288105.59375,257986.703125,224295.828125,245686.359375,0.0126953125,0.99560546875,0.187255859375,-0.4272460639476776,-1.3122557401657104,-0.7019042372703552,80.0,40239.0,1.0
14293.2251185,290818.65625,298368.09375,369022.5,364798.625,288165.59375,258033.28125,224329.984375,245687.96875,0.01220703125,0.998046875,0.189208984375,-0.3051757514476776,-1.2512205839157104,-0.7629393935203552,80.0,40240.0,1.0
14293.2251203,290789.78125,298273.6875,368925.75,364776.03125,288123.03125,258013.625,224308.078125,245680.46875,0.010986328125,0.99658203125,0.1904296875,-0.2746581733226776,-1.2817381620407104,-0.7324218153953552,80.0,40241.0,1.0
14293.225122,290772.4375,297959.3125,368758.28125,364788.4375,288030.6875,257956.046875,224264.8125,245675.1875,0.01220703125,0.99560546875,0.19482421875,-0.3051757514476776,-1.3732908964157104,-0.7324218153953552,80.0,40242.0,1.0
14293.2251238,290798.625,297867.75,368764.1875,364828.21875,288028.875,257966.59375,224282.15625,245687.890625,0.01416015625,0.996337890625,0.1904296875,-0.2441406100988388,-1.3427733182907104,-0.7019042372703552,80.0,40243.0,1.0
14293.2251255,290816.9375,298121.21875,368928.96875,364826.625,288109.8125,258005.390625,224318.0,245696.28125,0.0126953125,0.99462890625,0.189453125,-0.3051757514476776,-1.3122557401657104,-0.7324218153953552,80.0,40244.0,1.0
14293.2251276,290799.15625,298357.90625,369010.78125,364782.71875,288159.40625,258036.859375,224333.03125,245686.1875,0.013671875,0.995849609375,0.19287109375,-0.2441406100988388,-1.2207030057907104,-0.7629393935203552,80.0,40245.0,1.0
14293.2265538,290799.15625,298357.90625,369010.78125,364782.71875,288159.40625,258036.859375,224333.03125,245686.1875,0.013671875,0.995849609375,0.19287109375,-0.2441406100988388,-1.2207030057907104,-0.7629393935203552,80.0,40246.0,0.0
14293.2265564,290799.15625,298357.90625,369010.78125,364782.71875,288159.40625,258036.859375,224333.03125,245686.1875,0.013671875,0.995849609375,0.19287109375,-0.2441406100988388,-1.2207030057907104,-0.7629393935203552,80.0,40247.0,0.0
14293.2265567,290799.15625,298357.90625,369010.78125,364782.71875,288159.40625,258036.859375,224333.03125,245686.1875,0.013671875,0.995849609375,0.19287109375,-0.2441406100988388,-1.2207030057907104,-0.7629393935203552,80.0,40248.0,0.0
14293.226557,290799.15625,298357.90625,369010.78125,364782.71875,288159.40625,258036.859375,224333.03125,245686.1875,0.013671875,0.995849609375,0.19287109375,-0.2441406100988388,-1.2207030057907104,-0.7629393935203552,80.0,40249.0,0.0
14293.2265573,290799.15625,298357.90625,369010.78125,364782.71875,288159.40625,258036.859375,224333.03125,245686.1875,0.013671875,0.995849609375,0.19287109375,-0.2441406100988388,-1.2207030057907104,-0.7629393935203552,80.0,40250.0,0.0
14293.2265576,290799.15625,298357.90625,369010.78125,364782.71875,288159.40625,258036.859375,224333.03125,245686.1875,0.013671875,0.995849609375,0.19287109375,-0.2441406100988388,-1.2207030057907104,-0.7629393935203552,80.0,40251.0,0.0
14293.2265579,290799.15625,298357.90625,369010.78125,364782.71875,288159.40625,258036.859375,224333.03125,245686.1875,0.013671875,0.995849609375,0.19287109375,-0.2441406100988388,-1.2207030057907104,-0.7629393935203552,80.0,40252.0,0.0
14293.2265582,290799.15625,298357.90625,369010.78125,364782.71875,288159.40625,258036.859375,224333.03125,245686.1875,0.013671875,0.995849609375,0.19287109375,-0.2441406100988388,-1.2207030057907104,-0.7629393935203552,80.0,40253.0,0.0
14293.2265585,290799.15625,298357.90625,369010.78125,364782.71875,288159.40625,258036.859375,224333.03125,245686.1875,0.013671875,0.995849609375,0.19287109375,-0.2441406100988388,-1.2207030057907104,-0.7629393935203552,80.0,40254.0,0.0
14293.2265588,290799.15625,298357.90625,369010.78125,364782.71875,288159.40625,258036.859375,224333.03125,245686.1875,0.013671875,0.995849609375,0.19287109375,-0.2441406100988388,-1.2207030057907104,-0.7629393935203552,80.0,40255.0,0.0
14293.2265592,290799.15625,298357.90625,369010.78125,364782.71875,288159.40625,258036.859375,224333.03125,245686.1875,0.013671875,0.995849609375,0.19287109375,-0.2441406100988388,-1.2207030057907104,-0.7629393935203552,80.0,40256.0,0.0
14293.2265595,290799.15625,298357.90625,369010.78125,364782.71875,288159.40625,258036.859375,224333.03125,245686.1875,0.013671875,0.995849609375,0.19287109375,-0.2441406100988388,-1.2207030057907104,-0.7629393935203552,80.0,40257.0,0.0
14293.2265599,290799.15625,298357.90625,369010.78125,364782.71875,288159.40625,258036.859375,224333.03125,245686.1875,0.013671875,0.995849609375,0.19287109375,-0.2441406100988388,-1.2207030057907104,-0.7629393935203552,80.0,40258.0,0.0
14293.2265602,290799.15625,298357.90625,369010.78125,364782.71875,288159.40625,258036.859375,224333.03125,245686.1875,0.013671875,0.995849609375,0.19287109375,-0.2441406100988388,-1.2207030057907104,-0.7629393935203552,80.0,40259.0,0.0
14293.2265605,290799.15625,298357.90625,369010.78125,364782.71875,288159.40625,258036.859375,224333.03125,245686.1875,0.013671875,0.995849609375,0.19287109375,-0.2441406100988388,-1.2207030057907104,-0.7629393935203552,80.0,40260.0,0.0
14293.2265608,290799.15625,298357.90625,369010.78125,364782.71875,288159.40625,258036.859375,224333.03125,245686.1875,0.013671875,0.995849609375,0.19287109375,-0.2441406100988388,-1.2207030057907104,-0.7629393935203552,80.0,40261.0,0.0
14293.2265611,290799.15625,298357.90625,369010.78125,364782.71875,288159.40625,258036.859375,224333.03125,245686.1875,0.013671875,0.995849609375,0.19287109375,-0.2441406100988388,-1.2207030057907104,-0.7629393935203552,80.0,40262.0,0.0
14293.2265614,290799.15625,298357.90625,369010.78125,364782.71875,288159.40625,258036.859375,224333.03125,245686.1875,0.013671875,0.995849609375,0.19287109375,-0.2441406100988388,-1.2207030057907104,-0.7629393935203552,80.0,40263.0,0.0
14293.2265617,290799.15625,298357.90625,369010.78125,364782.71875,288159.40625,258036.859375,224333.03125,245686.1875,0.013671875,0.995849609375,0.19287109375,-0.2441406100988388,-1.2207030057907104,-0.7629393935203552,80.0,40264.0,0.0
14293.226562,290799.15625,298357.90625,369010.78125,364782.71875,288159.40625,258036.859375,224333.03125,245686.1875,0.013671875,0.995849609375,0.19287109375,-0.2441406100988388,-1.2207030057907104,-0.7629393935203552,80.0,40265.0,0.0
14293.2265622,290799.15625,298357.90625,369010.78125,364782.71875,288159.40625,258036.859375,224333.03125,245686.1875,0.013671875,0.995849609375,0.19287109375,-0.2441406100988388,-1.2207030057907104,-0.7629393935203552,80.0,40266.0,0.0
14293.2265625,290799.15625,298357.90625,369010.78125,364782.71875,288159.40625,258036.859375,224333.03125,245686.1875,0.013671875,0.995849609375,0.19287109375,-0.2441406100988388,-1.2207030057907104,-0.7629393935203552,80.0,40267.0,0.0
14293.2265628,290802.28125,297867.0625,368741.75,364808.90625,288031.84375,257955.765625,224278.125,245692.984375,0.015869140625,0.995361328125,0.193603515625,0.3051757514476776,-1.4343260526657104,-0.8850097060203552,80.0,40268.0,1.0
14293.2515529,290825.0,298117.65625,368906.625,364811.40625,288114.34375,258013.171875,224328.5625,245696.5625,0.015869140625,0.998046875,0.19091796875,0.3967284858226776,-1.3732908964157104,-0.7324218153953552,80.0,40269.0,1.0
14293.2765965,290817.84375,298364.59375,368990.9375,364775.46875,288171.03125,258055.015625,224356.0,245699.328125,0.01611328125,0.99658203125,0.1875,0.5187987685203552,-1.3427733182907104,-0.6408690810203552,80.0,40270.0,1.0
14293.3200454,290788.4375,298268.125,368887.03125,364745.96875,288121.96875,258029.984375,224318.625,245676.171875,0.0166015625,0.99755859375,0.19091796875,0.5187987685203552,-1.3427733182907104,-0.6103515028953552,80.0,40271.0,1.0
14293.3200551,290777.53125,297957.1875,368717.34375,364767.0625,288028.71875,257970.25,224270.34375,245674.828125,0.014892578125,0.996337890625,0.18798828125,0.5798339247703552,-1.3427733182907104,-0.6103515028953552,80.0,40272.0,1.0
14293.3200563,290809.09375,297868.5625,368720.46875,364812.3125,288026.28125,257963.640625,224283.140625,245698.4375,0.013916015625,0.995361328125,0.193603515625,0.5798339247703552,-1.4038084745407104,-0.4882812201976776,80.0,40273.0,1.0
14293.3200576,290828.9375,298120.6875,368884.625,364809.0,288108.53125,258005.84375,224330.796875,245716.578125,0.0146484375,0.994384765625,0.191162109375,0.6713866591453552,-1.4038084745407104,-0.4272460639476776,80.0,40274.0,1.0
14293.3200588,290815.53125,298364.96875,368982.96875,364768.40625,288161.21875,258038.46875,224346.078125,245689.578125,0.014892578125,0.995361328125,0.193603515625,0.6103515028953552,-1.3732908964157104,-0.3662109076976776,80.0,40275.0,1.0
14293.3200601,290783.59375,298268.9375,368884.09375,364744.09375,288114.8125,258012.8125,224316.390625,245679.296875,0.01513671875,0.995849609375,0.1904296875,0.5187987685203552,-1.4038084745407104,-0.4272460639476776,80.0,40276.0,1.0
14293.3200613,290772.34375,297960.125,368718.0625,364762.59375,288031.9375,257974.453125,224292.171875,245690.921875,0.014404296875,0.9951171875,0.18603515625,0.4577636420726776,-1.4343260526657104,-0.4577636420726776,80.0,40277.0,1.0
14293.3428566,290801.9375,297867.6875,368714.40625,364801.59375,288029.59375,257991.796875,224306.828125,245705.765625,0.01513671875,0.995849609375,0.19189453125,0.4577636420726776,-1.3427733182907104,-0.5798339247703552,80.0,40278.0,1.0
14293.3678951,290824.1875,298114.625,368872.5625,364798.625,288103.8125,258016.75,224330.703125,245700.3125,0.0146484375,0.997802734375,0.18994140625,0.4882812201976776,-1.3122557401657104,-0.7019042372703552,80.0,40279.0,1.0
14293.3929031,290814.28125,298357.4375,368967.6875,364755.8125,288155.03125,258029.984375,224341.609375,245681.890625,0.01318359375,0.997314453125,0.18896484375,0.4577636420726776,-1.3122557401657104,-0.7324218153953552,80.0,40280.0,1.0
14293.4184024,290785.40625,298256.40625,368869.96875,364731.65625,288110.25,258000.921875,224317.5625,245673.40625,0.01318359375,0.99755859375,0.1923828125,0.4577636420726776,-1.3427733182907104,-0.7019042372703552,80.0,40281.0,1.0
14293.418407,290770.46875,297945.1875,368697.9375,364743.21875,288016.8125,257954.25,224276.4375,245674.828125,0.015380859375,0.999755859375,0.190673828125,0.4577636420726776,-1.3427733182907104,-0.9460448622703552,80.0,40282.0,1.0
14293.4184083,290804.53125,297863.21875,368712.875,364792.03125,288020.75,257955.859375,224286.4375,245695.21875,0.017578125,1.00048828125,0.192626953125,0.3662109076976776,-1.3732908964157104,-1.0375975370407104,80.0,40283.0,1.0
14293.4184095,290828.125,298115.78125,368883.1875,364798.90625,288107.75,258005.390625,224333.46875,245708.796875,0.016845703125,1.002197265625,0.188720703125,0.2746581733226776,-1.3732908964157104,-1.2207030057907104,80.0,40284.0,1.0
14293.4234168,290816.9375,298355.84375,368967.78125,364757.40625,288160.59375,258043.84375,224348.046875,245692.359375,0.017578125,1.001953125,0.1904296875,0.1525878757238388,-1.3732908964157104,-1.2207030057907104,80.0,40285.0,1.0
14293.423421,290799.0625,298272.0625,368881.0625,364739.53125,288124.5625,258032.21875,224332.484375,245687.609375,0.013916015625,1.004150390625,0.192138671875,0.0,-1.3427733182907104,-1.1901854276657104,80.0,40286.0,1.0
14293.4234223,290786.1875,297959.6875,368709.65625,364753.5625,288031.3125,257968.734375,224287.34375,245683.140625,0.01318359375,1.001708984375,0.190673828125,-0.1220703050494194,-1.3427733182907104,-1.3732908964157104,80.0,40287.0,1.0
14293.4278925,290786.1875,297959.6875,368709.65625,364753.5625,288031.3125,257968.734375,224287.34375,245683.140625,0.01318359375,1.001708984375,0.190673828125,-0.1220703050494194,-1.3427733182907104,-1.3732908964157104,80.0,40288.0,0.0
14293.4278934,290786.1875,297959.6875,368709.65625,364753.5625,288031.3125,257968.734375,224287.34375,245683.140625,0.01318359375,1.001708984375,0.190673828125,-0.1220703050494194,-1.3427733182907104,-1.3732908964157104,80.0,40289.0,0.0
14293.4278936,290786.1875,297959.6875,368709.65625,364753.5625,288031.3125,257968.734375,224287.34375,245683.140625,0.01318359375,1.001708984375,0.190673828125,-0.1220703050494194,-1.3427733182907104,-1.3732908964157104,80.0,40290.0,0.0
14293.4278938,290786.1875,297959.6875,368709.65625,364753.5625,288031.3125,257968.734375,224287.34375,245683.140625,0.01318359375,1.001708984375,0.190673828125,-0.1220703050494194,-1.3427733182907104,-1.3732908964157104,80.0,40291.0,0.0
14293.427894,290786.1875,297959.6875,368709.65625,364753.5625,288031.3125,257968.734375,224287.34375,245683.140625,0.01318359375,1.001708984375,0.190673828125,-0.1220703050494194,-1.3427733182907104,-1.3732908964157104,80.0,40292.0,0.0
14293.4278942,290786.1875,297959.6875,368709.65625,364753.5625,288031.3125,257968.734375,224287.34375,245683.140625,0.01318359375,1.001708984375,0.190673828125,-0.1220703050494194,-1.3427733182907104,-1.3732908964157104,80.0,40293.0,0.0
14293.4278943,290786.1875,297959.6875,368709.65625,364753.5625,288031.3125,257968.734375,224287.34375,245683.140625,0.01318359375,1.001708984375,0.190673828125,-0.1220703050494194,-1.3427733182907104,-1.3732908964157104,80.0,40294.0,0.0
14293.4278945,290786.1875,297959.6875,368709.65625,364753.5625,288031.3125,257968.734375,224287.34375,245683.140625,0.01318359375,1.001708984375,0.190673828125,-0.1220703050494194,-1.3427733182907104,-1.3732908964157104,80.0,40295.0,0.0
14293.4278947,290786.1875,297959.6875,368709.65625,364753.5625,288031.3125,257968.734375,224287.34375,245683.140625,0.01318359375,1.001708984375,0.190673828125,-0.1220703050494194,-1.3427733182907104,-1.3732908964157104,80.0,40296.0,0.0
14293.4278949,290786.1875,297959.6875,368709.65625,364753.5625,288031.3125,257968.734375,224287.34375,245683.140625,0.01318359375,1.001708984375,0.190673828125,-0.1220703050494194,-1.3427733182907104,-1.3732908964157104,80.0,40297.0,0.0
14293.427895,290786.1875,297959.6875,368709.65625,364753.5625,288031.3125,257968.734375,224287.34375,245683.140625,0.01318359375,1.001708984375,0.190673828125,-0.1220703050494194,-1.3427733182907104,-1.3732908964157104,80.0,40298.0,0.0
14293.4278952,290786.1875,297959.6875,368709.65625,364753.5625,288031.3125,257968.734375,224287.34375,245683.140625,0.01318359375,1.001708984375,0.190673828125,-0.1220703050494194,-1.3427733182907104,-1.3732908964157104,80.0,40299.0,0.0
14293.4278954,290786.1875,297959.6875,368709.65625,364753.5625,288031.3125,257968.734375,224287.34375,245683.140625,0.01318359375,1.001708984375,0.190673828125,-0.1220703050494194,-1.3427733182907104,-1.3732908964157104,80.0,40300.0,0.0
14293.4278956,290786.1875,297959.6875,368709.65625,364753.5625,288031.3125,257968.734375,224287.34375,245683.140625,0.01318359375,1.001708984375,0.190673828125,-0.1220703050494194,-1.3427733182907104,-1.3732908964157104,80.0,40301.0,0.0
14293.4278957,290786.1875,297959.6875,368709.65625,364753.5625,288031.3125,257968.734375,224287.34375,245683.140625,0.01318359375,1.001708984375,0.190673828125,-0.1220703050494194,-1.3427733182907104,-1.3732908964157104,80.0,40302.0,0.0
14293.4278959,290786.1875,297959.6875,368709.65625,364753.5625,288031.3125,257968.734375,224287.34375,245683.140625,0.01318359375,1.001708984375,0.190673828125,-0.1220703050494194,-1.3427733182907104,-1.3732908964157104,80.0,40303.0,0.0
14293.4278961,290786.1875,297959.6875,368709.65625,364753.5625,288031.3125,257968.734375,224287.34375,245683.140625,0.01318359375,1.001708984375,0.190673828125,-0.1220703050494194,-1.3427733182907104,-1.3732908964157104,80.0,40304.0,0.0
14293.4278963,290786.1875,297959.6875,368709.65625,364753.5625,288031.3125,257968.734375,224287.34375,245683.140625,0.01318359375,1.001708984375,0.190673828125,-0.1220703050494194,-1.3427733182907104,-1.3732908964157104,80.0,40305.0,0.0
14293.4278964,290786.1875,297959.6875,368709.65625,364753.5625,288031.3125,257968.734375,224287.34375,245683.140625,0.01318359375,1.001708984375,0.190673828125,-0.1220703050494194,-1.3427733182907104,-1.3732908964157104,80.0,40306.0,0.0
14293.4278966,290786.1875,297959.6875,368709.65625,364753.5625,288031.3125,257968.734375,224287.34375,245683.140625,0.01318359375,1.001708984375,0.190673828125,-0.1220703050494194,-1.3427733182907104,-1.3732908964157104,80.0,40307.0,0.0
14293.4278968,290786.1875,297959.6875,368709.65625,364753.5625,288031.3125,257968.734375,224287.34375,245683.140625,0.01318359375,1.001708984375,0.190673828125,-0.1220703050494194,-1.3427733182907104,-1.3732908964157104,80.0,40308.0,0.0
14293.4278969,290786.1875,297959.6875,368709.65625,364753.5625,288031.3125,257968.734375,224287.34375,245683.140625,0.01318359375,1.001708984375,0.190673828125,-0.1220703050494194,-1.3427733182907104,-1.3732908964157104,80.0,40309.0,0.0
14293.4278971,290786.1875,297959.6875,368709.65625,364753.5625,288031.3125,257968.734375,224287.34375,245683.140625,0.01318359375,1.001708984375,0.190673828125,-0.1220703050494194,-1.3427733182907104,-1.3732908964157104,80.0,40310.0,0.0
14293.4278973,290786.1875,297959.6875,368709.65625,364753.5625,288031.3125,257968.734375,224287.34375,245683.140625,0.01318359375,1.001708984375,0.190673828125,-0.1220703050494194,-1.3427733182907104,-1.3732908964157104,80.0,40311.0,0.0
14293.4278974,290786.1875,297959.6875,368709.65625,364753.5625,288031.3125,257968.734375,224287.34375,245683.140625,0.01318359375,1.001708984375,0.190673828125,-0.1220703050494194,-1.3427733182907104,-1.3732908964157104,80.0,40312.0,0.0
14293.4278976,290786.1875,297959.6875,368709.65625,364753.5625,288031.3125,257968.734375,224287.34375,245683.140625,0.01318359375,1.001708984375,0.190673828125,-0.1220703050494194,-1.3427733182907104,-1.3732908964157104,80.0,40313.0,0.0
14293.4278978,290941.125,298178.625,368902.5,364829.9375,288147.34375,258035.703125,224358.6875,245733.65625,0.02099609375,0.98974609375,0.1943359375,0.4272460639476776,-1.7700194120407104,-0.8850097060203552,80.0,40314.0,1.0
14293.434443,290926.125,298415.65625,368988.34375,364792.1875,288199.125,258065.828125,224381.125,245730.890625,0.021240234375,0.98974609375,0.195068359375,0.5493163466453552,-1.5563963651657104,-0.9155272841453552,80.0,40315.0,1.0
14293.4344491,290885.4375,298310.34375,368886.3125,364759.65625,288145.65625,258027.203125,224348.3125,245714.609375,0.01953125,0.99169921875,0.196044921875,0.7019042372703552,-1.5258787870407104,-0.9460448622703552,80.0,40316.0,1.0
14293.4344503,290873.28125,298002.40625,368724.59375,364779.0625,288061.34375,257988.046875,224319.796875,245724.1875,0.019775390625,0.99267578125,0.19482421875,0.7934569716453552,-1.4038084745407104,-1.0375975370407104,80.0,40317.0,1.0
14293.4344515,290893.46875,297913.28125,368730.65625,364818.3125,288055.96875,257984.734375,224331.234375,245746.625,0.020751953125,0.994384765625,0.1923828125,0.9155272841453552,-1.3427733182907104,-1.0070799589157104,80.0,40318.0,1.0
14293.4344528,290920.3125,298174.4375,368908.59375,364820.1875,288141.96875,258034.265625,224369.859375,245729.640625,0.021728515625,0.996826171875,0.19287109375,0.8850097060203552,-1.3122557401657104,-1.0070799589157104,80.0,40319.0,1.0
14293.4344541,290906.90625,298416.90625,369001.125,364777.4375,288195.4375,258071.28125,224388.09375,245712.375,0.020751953125,0.994873046875,0.192626953125,0.7934569716453552,-1.1291502714157104,-1.1291502714157104,80.0,40320.0,1.0
14293.4344554,290873.625,298316.59375,368900.4375,364747.5,288147.15625,258050.71875,224360.828125,245703.171875,0.018310546875,0.9951171875,0.1953125,0.7629393935203552,-1.0986326932907104,-1.0070799589157104,80.0,40321.0,1.0
14293.4344566,290854.59375,298000.96875,368725.21875,364760.1875,288057.59375,258000.46875,224324.265625,245708.265625,0.015380859375,0.9970703125,0.188720703125,0.7934569716453552,-1.0681151151657104,-1.0681151151657104,80.0,40322.0,1.0
14293.4344578,290880.875,297920.96875,368734.5,364807.5625,288061.25,257988.5,224331.140625,245738.125,0.012451171875,0.994140625,0.192626953125,0.8850097060203552,-0.9460448622703552,-1.0986326932907104,80.0,40323.0,1.0
14293.4597564,290901.71875,298177.75,368901.4375,364811.34375,288148.5,258043.125,224374.953125,245736.25,0.0107421875,0.997802734375,0.189697265625,0.8239745497703552,-0.9155272841453552,-1.2207030057907104,80.0,40324.0,1.0
14293.4597645,290880.34375,298407.96875,368986.375,364765.65625,288196.0625,258062.171875,224385.234375,245723.921875,0.011962890625,0.998046875,0.191162109375,0.9155272841453552,-1.0375975370407104,-1.1901854276657104,80.0,40325.0,1.0
14293.5043375,290845.03125,298303.96875,368882.5625,364739.0,288148.15625,258020.953125,224355.46875,245727.3125,0.013671875,1.0,0.193115234375,0.8544921278953552,-1.0375975370407104,-1.1291502714157104,80.0,40326.0,1.0
14293.5043429,290845.03125,298303.96875,368882.5625,364739.0,288148.15625,258020.953125,224355.46875,245727.3125,0.013671875,1.0,0.193115234375,0.8544921278953552,-1.0375975370407104,-1.1291502714157104,80.0,40327.0,0.0
14293.5043431,290845.03125,298303.96875,368882.5625,364739.0,288148.15625,258020.953125,224355.46875,245727.3125,0.013671875,1.0,0.193115234375,0.8544921278953552,-1.0375975370407104,-1.1291502714157104,80.0,40328.0,0.0
14293.5043433,290845.03125,298303.96875,368882.5625,364739.0,288148.15625,258020.953125,224355.46875,245727.3125,0.013671875,1.0,0.193115234375,0.8544921278953552,-1.0375975370407104,-1.1291502714157104,80.0,40329.0,0.0
14293.5043435,290845.03125,298303.96875,368882.5625,364739.0,288148.15625,258020.953125,224355.46875,245727.3125,0.013671875,1.0,0.193115234375,0.8544921278953552,-1.0375975370407104,-1.1291502714157104,80.0,40330.0,0.0
14293.5043437,290845.03125,298303.96875,368882.5625,364739.0,288148.15625,258020.953125,224355.46875,245727.3125,0.013671875,1.0,0.193115234375,0.8544921278953552,-1.0375975370407104,-1.1291502714157104,80.0,40331.0,0.0
14293.5043439,290845.03125,298303.96875,368882.5625,364739.0,288148.15625,258020.953125,224355.46875,245727.3125,0.013671875,1.0,0.193115234375,0.8544921278953552,-1.0375975370407104,-1.1291502714157104,80.0,40332.0,0.0
14293.5043441,290845.03125,298303.96875,368882.5625,364739.0,288148.15625,258020.953125,224355.46875,245727.3125,0.013671875,1.0,0.193115234375,0.8544921278953552,-1.0375975370407104,-1.1291502714157104,80.0,40333.0,0.0
14293.5043442,290871.40625,298150.1875,368870.6875,364787.1875,288126.4375,258025.6875,224358.59375,245729.28125,0.01513671875,0.996337890625,0.19189453125,0.7629393935203552,-1.5258787870407104,-0.7629393935203552,80.0,40334.0,1.0
14293.5043455,290862.46875,298398.21875,368964.375,364753.40625,288187.59375,258060.375,224385.5,245730.4375,0.013671875,1.000244140625,0.194580078125,0.7934569716453552,-1.5258787870407104,-0.7019042372703552,80.0,40335.0,1.0
14293.5043468,290832.5,298300.40625,368863.25,364726.40625,288144.3125,258035.171875,224357.96875,245724.890625,0.013916015625,1.0,0.193115234375,0.7629393935203552,-1.4648436307907104,-0.8239745497703552,80.0,40336.0,1.0
14293.504348,290814.625,297987.75,368690.15625,364737.125,288049.90625,257979.28125,224310.578125,245711.390625,0.015869140625,0.998291015625,0.190673828125,0.6103515028953552,-1.5869139432907104,-0.7324218153953552,80.0,40337.0,1.0
14293.5043492,290848.78125,297914.34375,368711.71875,364784.40625,288055.78125,257990.46875,224328.90625,245729.8125,0.018310546875,0.99755859375,0.190673828125,0.6103515028953552,-1.6174315214157104,-0.6713866591453552,80.0,40338.0,1.0
14293.5043504,290881.59375,298176.40625,368892.21875,364798.46875,288150.9375,258045.8125,224384.609375,245753.0625,0.01708984375,0.99560546875,0.191650390625,0.4882812201976776,-1.6479490995407104,-0.5493163466453552,80.0,40339.0,1.0
14293.5043515,290866.03125,298413.59375,368980.90625,364751.96875,288198.84375,258067.359375,224387.203125,245720.25,0.017822265625,0.994873046875,0.188720703125,0.5493163466453552,-1.5258787870407104,-0.5187987685203552,80.0,40340.0,1.0
14293.5043529,290828.3125,298298.4375,368862.625,364717.09375,288137.59375,258027.5625,224344.65625,245703.265625,0.018310546875,0.99560546875,0.19140625,0.7324218153953552,-1.4343260526657104,-0.6103515028953552,80.0,40341.0,1.0
14293.5066475,290814.4375,297978.71875,368683.0,364734.875,288046.59375,257978.125,224313.09375,245718.1875,0.015625,0.99560546875,0.189453125,0.7934569716453552,-1.4648436307907104,-0.7934569716453552,80.0,40342.0,1.0
14293.5091252,290842.0625,297899.6875,368700.71875,364779.9375,288049.34375,257986.4375,224327.390625,245737.5,0.0146484375,0.99658203125,0.190185546875,0.7324218153953552,-1.4343260526657104,-0.8239745497703552,80.0,40343.0,1.0
14293.5116487,290862.90625,298154.03125,368871.40625,364781.65625,288134.46875,258039.015625,224366.828125,245738.21875,0.013671875,0.9990234375,0.189697265625,0.7324218153953552,-1.4648436307907104,-1.0681151151657104,80.0,40344.0,1.0
14293.5141134,290857.375,298404.21875,368962.6875,364746.875,288195.1875,258084.078125,224399.71875,245737.421875,0.015625,0.997314453125,0.189697265625,0.7019042372703552,-1.4343260526657104,-1.1596678495407104,80.0,40345.0,1.0
14293.5166515,290817.9375,298301.84375,368856.5625,364714.25,288137.59375,258042.5,224351.078125,245713.71875,0.0166015625,0.995849609375,0.18896484375,0.7324218153953552,-1.4038084745407104,-1.2207030057907104,80.0,40346.0,1.0
14293.5191139,290801.84375,297975.21875,368677.65625,364724.6875,288034.96875,257955.140625,224289.578125,245714.34375,0.0166015625,0.995849609375,0.193359375,0.7019042372703552,-1.3732908964157104,-1.2207030057907104,80.0,40347.0,1.0
14293.5234357,290831.34375,297887.15625,368681.5,364762.875,288030.59375,257947.375,224297.359375,245718.015625,0.019775390625,0.993896484375,0.193603515625,0.5493163466453552,-1.2817381620407104,-1.3122557401657104,80.0,40348.0,1.0
14293.5234538,290858.15625,298143.3125,368850.46875,364765.65625,288117.21875,258005.21875,224344.734375,245727.046875,0.018798828125,0.992919921875,0.196533203125,0.4577636420726776,-1.2207030057907104,-1.3427733182907104,80.0,40349.0,1.0
14293.5253863,290848.0625,298383.5625,368939.25,364728.0,288174.78125,258041.328125,224369.859375,245726.953125,0.01953125,0.994140625,0.190185546875,0.6713866591453552,-1.1901854276657104,-1.3122557401657104,80.0,40350.0,1.0
14293.5503854,290811.59375,298280.375,368839.90625,364697.0625,288126.59375,258013.265625,224334.546875,245708.09375,0.0166015625,0.9951171875,0.19140625,0.6408690810203552,-1.0986326932907104,-1.2817381620407104,80.0,40351.0,1.0
14293.5753847,290807.46875,297980.96875,368681.5,364718.625,288045.875,257974.734375,224304.234375,245714.34375,0.01611328125,0.9931640625,0.18994140625,0.7324218153953552,-1.0986326932907104,-1.3122557401657104,80.0,40352.0,1.0
14293.5966486,290839.125,297898.0625,368690.34375,364765.65625,288046.21875,257982.59375,224320.59375,245731.609375,0.016845703125,0.994873046875,0.190673828125,0.7324218153953552,-0.9765624403953552,-1.3427733182907104,80.0,40353.0,1.0
14293.5991622,290863.1875,298154.40625,368855.5625,364772.25,288131.0625,258038.828125,224371.5625,245738.125,0.015625,0.99462890625,0.188232421875,0.8544921278953552,-0.9765624403953552,-1.3122557401657104,80.0,40354.0,1.0
14293.6034361,290847.625,298392.59375,368943.8125,364722.46875,288180.4375,258047.859375,224374.6875,245727.3125,0.014892578125,0.996337890625,0.19140625,0.9155272841453552,-0.9460448622703552,-1.2207030057907104,80.0,40355.0,1.0
14293.6034407,290814.28125,298288.5,368839.90625,364689.375,288131.875,258010.84375,224342.5,245714.890625,0.014892578125,0.9951171875,0.193359375,0.8850097060203552,-0.9460448622703552,-1.1596678495407104,80.0,40356.0,1.0
14293.603442,290799.34375,297968.34375,368663.53125,364705.21875,288039.0,257968.5625,224307.640625,245715.6875,0.013916015625,0.994384765625,0.192138671875,0.9155272841453552,-0.9765624403953552,-1.0986326932907104,80.0,40357.0,1.0
14293.6075286,290826.0625,297886.28125,368670.21875,364747.6875,288037.75,257974.09375,224327.65625,245739.828125,0.01318359375,0.99658203125,0.193359375,0.8850097060203552,-1.0375975370407104,-0.9460448622703552,80.0,40358.0,1.0
14293.6075421,290856.8125,298155.5625,368850.65625,364752.9375,288128.46875,258030.34375,224370.484375,245732.40625,0.0126953125,0.9970703125,0.19287109375,0.9155272841453552,-1.1291502714157104,-0.8239745497703552,80.0,40359.0,1.0
14293.6075499,290849.59375,298400.8125,368947.46875,364719.0625,288190.1875,258068.78125,224394.890625,245728.109375,0.010986328125,0.99609375,0.191162109375,0.9155272841453552,-1.2512205839157104,-0.6713866591453552,80.0,40360.0,1.0
14293.6075576,290812.84375,298294.0625,368839.125,364688.5,288138.6875,258040.984375,224364.59375,245713.546875,0.009033203125,0.9951171875,0.191162109375,0.8850097060203552,-1.3427733182907104,-0.6408690810203552,80.0,40361.0,1.0
14293.607561,290797.46875,297977.65625,368662.8125,364700.28125,288045.25,257990.375,224322.390625,245713.0,0.007080078125,0.996826171875,0.192138671875,0.8850097060203552,-1.4038084745407104,-0.6103515028953552,80.0,40362.0,1.0
14293.6075622,290834.46875,297898.875,368673.09375,364749.65625,288048.5625,257997.703125,224337.859375,245732.5,0.00732421875,0.995361328125,0.195068359375,0.8239745497703552,-1.4953612089157104,-0.5798339247703552,80.0,40363.0,1.0
14293.6075634,290864.53125,298168.4375,368852.71875,364760.1875,288142.25,258048.9375,224392.390625,245747.78125,0.00927734375,0.99560546875,0.1923828125,0.8239745497703552,-1.5563963651657104,-0.6713866591453552,80.0,40364.0,1.0
14293.6091394,290845.75,298412.4375,368947.125,364716.03125,288194.5625,258061.265625,224397.671875,245735.0,0.00927734375,0.997314453125,0.191650390625,0.8239745497703552,-1.5869139432907104,-0.6103515028953552,80.0,40365.0,1.0
14293.615694,290812.21875,298305.59375,368846.09375,364686.96875,288143.40625,258030.96875,224361.09375,245719.796875,0.01171875,0.99609375,0.192626953125,0.7934569716453552,-1.7395018339157104,-0.7019042372703552,80.0,40366.0,1.0
14293.6156965,290797.28125,297978.1875,368661.1875,364698.5,288046.59375,257982.953125,224320.234375,245714.890625,0.01220703125,0.995849609375,0.187744140625,0.7934569716453552,-1.9531248807907104,-0.7019042372703552,80.0,40367.0,1.0
14293.6156977,290825.8125,297890.28125,368664.78125,364741.5,288046.3125,257977.5,224332.046875,245737.234375,0.012939453125,0.9970703125,0.18896484375,0.7019042372703552,-2.014159917831421,-0.7324218153953552,80.0,40368.0,1.0
14293.6156998,290825.8125,297890.28125,368664.78125,364741.5,288046.3125,257977.5,224332.046875,245737.234375,0.012939453125,0.9970703125,0.18896484375,0.7019042372703552,-2.014159917831421,-0.7324218153953552,80.0,40369.0,0.0
14293.6157,290825.8125,297890.28125,368664.78125,364741.5,288046.3125,257977.5,224332.046875,245737.234375,0.012939453125,0.9970703125,0.18896484375,0.7019042372703552,-2.014159917831421,-0.7324218153953552,80.0,40370.0,0.0
14293.6157002,290825.8125,297890.28125,368664.78125,364741.5,288046.3125,257977.5,224332.046875,245737.234375,0.012939453125,0.9970703125,0.18896484375,0.7019042372703552,-2.014159917831421,-0.7324218153953552,80.0,40371.0,0.0
14293.6157004,290825.8125,297890.28125,368664.78125,364741.5,288046.3125,257977.5,224332.046875,245737.234375,0.012939453125,0.9970703125,0.18896484375,0.7019042372703552,-2.014159917831421,-0.7324218153953552,80.0,40372.0,0.0
14293.6157006,290825.8125,297890.28125,368664.78125,364741.5,288046.3125,257977.5,224332.046875,245737.234375,0.012939453125,0.9970703125,0.18896484375,0.7019042372703552,-2.014159917831421,-0.7324218153953552,80.0,40373.0,0.0
14293.6157007,290825.8125,297890.28125,368664.78125,364741.5,288046.3125,257977.5,224332.046875,245737.234375,0.012939453125,0.9970703125,0.18896484375,0.7019042372703552,-2.014159917831421,-0.7324218153953552,80.0,40374.0,0.0
14293.6157009,290825.8125,297890.28125,368664.78125,364741.5,288046.3125,257977.5,224332.046875,245737.234375,0.012939453125,0.9970703125,0.18896484375,0.7019042372703552,-2.014159917831421,-0.7324218153953552,80.0,40375.0,0.0
14293.6157011,290825.8125,297890.28125,368664.78125,364741.5,288046.3125,257977.5,224332.046875,245737.234375,0.012939453125,0.9970703125,0.18896484375,0.7019042372703552,-2.014159917831421,-0.7324218153953552,80.0,40376.0,0.0
14293.6157013,290825.8125,297890.28125,368664.78125,364741.5,288046.3125,257977.5,224332.046875,245737.234375,0.012939453125,0.9970703125,0.18896484375,0.7019042372703552,-2.014159917831421,-0.7324218153953552,80.0,40377.0,0.0
14293.6157015,290825.8125,297890.28125,368664.78125,364741.5,288046.3125,257977.5,224332.046875,245737.234375,0.012939453125,0.9970703125,0.18896484375,0.7019042372703552,-2.014159917831421,-0.7324218153953552,80.0,40378.0,0.0
14293.6157017,290825.8125,297890.28125,368664.78125,364741.5,288046.3125,257977.5,224332.046875,245737.234375,0.012939453125,0.9970703125,0.18896484375,0.7019042372703552,-2.014159917831421,-0.7324218153953552,80.0,40379.0,0.0
14293.6157019,290825.8125,297890.28125,368664.78125,364741.5,288046.3125,257977.5,224332.046875,245737.234375,0.012939453125,0.9970703125,0.18896484375,0.7019042372703552,-2.014159917831421,-0.7324218153953552,80.0,40380.0,0.0
14293.615702,290825.8125,297890.28125,368664.78125,364741.5,288046.3125,257977.5,224332.046875,245737.234375,0.012939453125,0.9970703125,0.18896484375,0.7019042372703552,-2.014159917831421,-0.7324218153953552,80.0,40381.0,0.0
14293.6157022,290825.8125,297890.28125,368664.78125,364741.5,288046.3125,257977.5,224332.046875,245737.234375,0.012939453125,0.9970703125,0.18896484375,0.7019042372703552,-2.014159917831421,-0.7324218153953552,80.0,40382.0,0.0
14293.6157024,290825.8125,297890.28125,368664.78125,364741.5,288046.3125,257977.5,224332.046875,245737.234375,0.012939453125,0.9970703125,0.18896484375,0.7019042372703552,-2.014159917831421,-0.7324218153953552,80.0,40383.0,0.0
14293.6157026,290825.8125,297890.28125,368664.78125,364741.5,288046.3125,257977.5,224332.046875,245737.234375,0.012939453125,0.9970703125,0.18896484375,0.7019042372703552,-2.014159917831421,-0.7324218153953552,80.0,40384.0,0.0
14293.6157028,290844.3125,298395.71875,368904.46875,364680.4375,288176.59375,258065.03125,224392.125,245730.703125,0.013671875,0.99560546875,0.1904296875,0.3051757514476776,-1.3122557401657104,-1.2817381620407104,80.0,40385.0,1.0
14293.615704,290817.9375,298304.875,368812.21875,364658.34375,288132.875,258039.1875,224358.59375,245711.390625,0.01220703125,0.992431640625,0.18896484375,0.3051757514476776,-1.3732908964157104,-1.4038084745407104,80.0,40386.0,1.0
14293.6157052,290809.8125,298003.3125,368655.21875,364679.8125,288051.25,258000.296875,224323.734375,245718.1875,0.012451171875,0.9931640625,0.19189453125,0.3662109076976776,-1.2512205839157104,-1.3732908964157104,80.0,40387.0,1.0
14293.6157065,290844.3125,297930.8125,368682.3125,364730.25,288062.3125,258004.234375,224345.359375,245743.3125,0.01123046875,0.994384765625,0.188232421875,0.4577636420726776,-1.3732908964157104,-1.3122557401657104,80.0,40388.0,1.0
14293.6157077,290866.21875,298180.78125,368849.03125,364731.21875,288140.28125,258033.375,224376.75,245749.65625,0.010009765625,0.995361328125,0.189208984375,0.3967284858226776,-1.4343260526657104,-1.3427733182907104,80.0,40389.0,1.0
14293.6157089,290849.75,298403.9375,368922.09375,364689.125,288181.0625,258051.796875,224386.3125,245734.546875,0.00830078125,0.994873046875,0.190673828125,0.4577636420726776,-1.5258787870407104,-1.3427733182907104,80.0,40390.0,1.0
14293.6184835,290818.03125,298292.0,368810.875,364659.59375,288136.0,258036.15625,224371.828125,245741.703125,0.009765625,0.99462890625,0.191162109375,0.5493163466453552,-1.5258787870407104,-1.2817381620407104,80.0,40391.0,1.0
14293.618487,290806.65625,297987.21875,368647.59375,364671.78125,288050.0625,257998.953125,224337.578125,245738.578125,0.01123046875,0.99560546875,0.193115234375,0.5798339247703552,-1.5258787870407104,-1.1291502714157104,80.0,40392.0,1.0
14293.6680424,290839.75,297913.8125,368664.875,364719.0625,288051.78125,258001.546875,224347.0625,245741.4375,0.0107421875,0.995361328125,0.190673828125,0.5493163466453552,-1.6479490995407104,-1.2512205839157104,80.0,40393.0,1.0
14293.6680496,290839.75,297913.8125,368664.875,364719.0625,288051.78125,258001.546875,224347.0625,245741.4375,0.0107421875,0.995361328125,0.190673828125,0.5493163466453552,-1.6479490995407104,-1.2512205839157104,80.0,40394.0,0.0
14293.6680498,290839.75,297913.8125,368664.875,364719.0625,288051.78125,258001.546875,224347.0625,245741.4375,0.0107421875,0.995361328125,0.190673828125,0.5493163466453552,-1.6479490995407104,-1.2512205839157104,80.0,40395.0,0.0
14293.66805,290839.75,297913.8125,368664.875,364719.0625,288051.78125,258001.546875,224347.0625,245741.4375,0.0107421875,0.995361328125,0.190673828125,0.5493163466453552,-1.6479490995407104,-1.2512205839157104,80.0,40396.0,0.0
14293.6680501,290839.75,297913.8125,368664.875,364719.0625,288051.78125,258001.546875,224347.0625,245741.4375,0.0107421875,0.995361328125,0.190673828125,0.5493163466453552,-1.6479490995407104,-1.2512205839157104,80.0,40397.0,0.0
14293.6680503,290839.75,297913.8125,368664.875,364719.0625,288051.78125,258001.546875,224347.0625,245741.4375,0.0107421875,0.995361328125,0.190673828125,0.5493163466453552,-1.6479490995407104,-1.2512205839157104,80.0,40398.0,0.0
14293.6680505,290839.75,297913.8125,368664.875,364719.0625,288051.78125,258001.546875,224347.0625,245741.4375,0.0107421875,0.995361328125,0.190673828125,0.5493163466453552,-1.6479490995407104,-1.2512205839157104,80.0,40399.0,0.0
14293.6680507,290839.75,297913.8125,368664.875,364719.0625,288051.78125,258001.546875,224347.0625,245741.4375,0.0107421875,0.995361328125,0.190673828125,0.5493163466453552,-1.6479490995407104,-1.2512205839157104,80.0,40400.0,0.0
14293.6680509,290819.71875,298308.53125,368813.53125,364647.28125,288152.1875,258062.796875,224376.296875,245728.65625,0.0126953125,0.9970703125,0.188232421875,0.3051757514476776,-2.014159917831421,-0.8239745497703552,80.0,40401.0,1.0
14293.6680521,290814.28125,297995.625,368645.375,364664.625,288064.90625,258018.171875,224338.75,245727.9375,0.01318359375,0.995849609375,0.184814453125,0.3967284858226776,-1.9836424589157104,-0.7629393935203552,80.0,40402.0,1.0
14293.6680533,290844.75,297921.40625,368656.375,364705.90625,288060.90625,258009.59375,224341.703125,245735.625,0.0146484375,0.996337890625,0.19140625,0.3662109076976776,-2.014159917831421,-0.7324218153953552,80.0,40403.0,1.0
14293.6680545,290881.40625,298188.28125,368837.0625,364720.40625,288154.5,258053.140625,224388.90625,245753.328125,0.01416015625,0.99365234375,0.193115234375,0.3662109076976776,-1.9531248807907104,-0.7019042372703552,80.0,40404.0,1.0
14293.6680558,290871.5,298423.34375,368924.5,364680.4375,288205.90625,258081.65625,224405.71875,245748.328125,0.015380859375,0.993408203125,0.189208984375,0.4882812201976776,-1.9226073026657104,-0.7324218153953552,80.0,40405.0,1.0
14293.668057,290835.5625,298310.0625,368811.3125,364650.5,288150.5625,258049.203125,224368.96875,245736.875,0.0166015625,0.9931640625,0.18701171875,0.5493163466453552,-1.8310545682907104,-0.7934569716453552,80.0,40406.0,1.0
14293.6680582,290821.15625,297996.0625,368635.34375,364663.28125,288054.53125,257997.4375,224318.90625,245724.359375,0.017333984375,0.99560546875,0.1904296875,0.4882812201976776,-1.8005369901657104,-0.8544921278953552,80.0,40407.0,1.0
14293.6680594,290858.15625,297919.8125,368652.0625,364715.75,288061.34375,258002.171875,224338.921875,245755.296875,0.0185546875,0.996337890625,0.190673828125,0.5493163466453552,-1.7089842557907104,-0.7629393935203552,80.0,40408.0,1.0
14293.6928945,290888.5625,298189.28125,368829.09375,364726.3125,288155.21875,258058.40625,224389.53125,245776.390625,0.017578125,0.9951171875,0.189208984375,0.3967284858226776,-1.5869139432907104,-0.7324218153953552,80.0,40409.0,1.0
14293.7266163,290875.25,298434.96875,368922.1875,364685.4375,288210.5625,258095.0625,224406.15625,245757.53125,0.016357421875,0.9931640625,0.19189453125,0.4882812201976776,-1.4648436307907104,-0.7324218153953552,80.0,40410.0,1.0
14293.7516512,290837.25,298325.4375,368811.21875,364655.125,288154.9375,258054.5625,224375.21875,245748.6875,0.01513671875,0.9951171875,0.1923828125,0.4882812201976776,-1.4648436307907104,-0.7324218153953552,80.0,40411.0,1.0
14293.7766404,290819.90625,298001.78125,368630.0,364667.3125,288058.21875,258004.328125,224336.25,245747.875,0.018310546875,0.997314453125,0.18994140625,0.4882812201976776,-1.3732908964157104,-0.8850097060203552,80.0,40412.0,1.0
14293.8016455,290819.90625,298001.78125,368630.0,364667.3125,288058.21875,258004.328125,224336.25,245747.875,0.018310546875,0.997314453125,0.18994140625,0.4882812201976776,-1.3732908964157104,-0.8850097060203552,80.0,40413.0,0.0
14293.8016498,290819.90625,298001.78125,368630.0,364667.3125,288058.21875,258004.328125,224336.25,245747.875,0.018310546875,0.997314453125,0.18994140625,0.4882812201976776,-1.3732908964157104,-0.8850097060203552,80.0,40414.0,0.0
14293.8016512,290819.90625,298001.78125,368630.0,364667.3125,288058.21875,258004.328125,224336.25,245747.875,0.018310546875,0.997314453125,0.18994140625,0.4882812201976776,-1.3732908964157104,-0.8850097060203552,80.0,40415.0,0.0
14293.8016523,290819.90625,298001.78125,368630.0,364667.3125,288058.21875,258004.328125,224336.25,245747.875,0.018310546875,0.997314453125,0.18994140625,0.4882812201976776,-1.3732908964157104,-0.8850097060203552,80.0,40416.0,0.0
14293.8016533,290819.90625,298001.78125,368630.0,364667.3125,288058.21875,258004.328125,224336.25,245747.875,0.018310546875,0.997314453125,0.18994140625,0.4882812201976776,-1.3732908964157104,-0.8850097060203552,80.0,40417.0,0.0
14293.8016545,290819.90625,298001.78125,368630.0,364667.3125,288058.21875,258004.328125,224336.25,245747.875,0.018310546875,0.997314453125,0.18994140625,0.4882812201976776,-1.3732908964157104,-0.8850097060203552,80.0,40418.0,0.0
14293.8016557,290819.90625,298001.78125,368630.0,364667.3125,288058.21875,258004.328125,224336.25,245747.875,0.018310546875,0.997314453125,0.18994140625,0.4882812201976776,-1.3732908964157104,-0.8850097060203552,80.0,40419.0,0.0
14293.8016567,290867.1875,298414.21875,368900.4375,364670.875,288202.875,258083.625,224410.8125,245757.796875,0.01416015625,0.994140625,0.18603515625,0.4882812201976776,-0.8850097060203552,-0.9155272841453552,80.0,40420.0,1.0
14293.8403896,290833.21875,298308.09375,368797.4375,364640.03125,288152.4375,258049.65625,224374.515625,245740.546875,0.01611328125,0.999267578125,0.19140625,0.4272460639476776,-0.8850097060203552,-1.0986326932907104,80.0,40421.0,1.0
14293.8671422,290821.59375,297996.40625,368625.625,364651.28125,288055.78125,258004.140625,224319.703125,245726.421875,0.013671875,1.0009765625,0.189208984375,0.3662109076976776,-0.8544921278953552,-0.9765624403953552,80.0,40422.0,1.0
14293.8671492,290853.53125,297923.90625,368643.21875,364694.5625,288055.25,258007.984375,224332.046875,245730.796875,0.014404296875,0.998046875,0.18994140625,0.2746581733226776,-0.7934569716453552,-1.0681151151657104,80.0,40423.0,1.0
14293.8916219,290875.25,298179.53125,368812.84375,364696.09375,288135.625,258037.21875,224370.3125,245736.25,0.01171875,0.996826171875,0.18798828125,0.2136230319738388,-0.8239745497703552,-0.9765624403953552,80.0,40424.0,1.0
14293.9172455,290857.28125,298410.375,368893.46875,364651.28125,288185.875,258063.6875,224394.1875,245731.328125,0.01220703125,0.99462890625,0.1904296875,0.1831054538488388,-0.8239745497703552,-0.9460448622703552,80.0,40425.0,1.0
14293.9172518,290827.40625,298305.0625,368793.15625,364628.21875,288142.96875,258050.28125,224377.734375,245726.859375,0.01025390625,0.994140625,0.189697265625,0.0610351525247097,-0.8850097060203552,-1.0070799589157104,80.0,40426.0,1.0
14293.9694615,290815.53125,297984.8125,368617.46875,364645.46875,288052.40625,258009.59375,224344.109375,245733.390625,0.01171875,0.994873046875,0.188232421875,0.1525878757238388,-0.9460448622703552,-0.9765624403953552,80.0,40427.0,1.0
14293.9694802,290835.09375,297892.34375,368611.65625,364683.03125,288041.9375,258002.4375,224352.25,245757.703125,0.011962890625,0.99658203125,0.189453125,0.2136230319738388,-0.9765624403953552,-0.9765624403953552,80.0,40428.0,1.0
14293.9694818,290852.09375,298146.8125,368776.25,364680.25,288116.6875,258034.1875,224372.453125,245738.125,0.0107421875,0.99658203125,0.191650390625,0.1831054538488388,-1.0681151151657104,-0.9155272841453552,80.0,40429.0,1.0
14293.9694832,290838.84375,298381.0625,368864.6875,364639.84375,288168.4375,258053.5,224381.125,245721.328125,0.01171875,0.9970703125,0.193115234375,0.0610351525247097,-1.0986326932907104,-1.0070799589157104,80.0,40430.0,1.0
14293.9694846,290810.4375,298294.875,368768.84375,364613.21875,288124.8125,258029.984375,224349.203125,245708.890625,0.0126953125,0.995361328125,0.19287109375,0.0,-1.1901854276657104,-0.8850097060203552,80.0,40431.0,1.0
14293.9694859,290803.53125,297989.96875,368605.59375,364631.53125,288037.5625,257982.140625,224311.203125,245716.765625,0.010009765625,0.99658203125,0.18994140625,-0.0915527269244194,-1.1596678495407104,-0.8239745497703552,80.0,40432.0,1.0
14293.9694873,290837.96875,297901.84375,368612.125,364677.9375,288035.59375,257980.53125,224326.859375,245739.46875,0.011474609375,0.996337890625,0.191162109375,-0.2441406100988388,-1.2207030057907104,-0.9155272841453552,80.0,40433.0,1.0
14293.9694897,290837.96875,297901.84375,368612.125,364677.9375,288035.59375,257980.53125,224326.859375,245739.46875,0.011474609375,0.996337890625,0.191162109375,-0.2441406100988388,-1.2207030057907104,-0.9155272841453552,80.0,40434.0,0.0
14293.9694899,290837.96875,297901.84375,368612.125,364677.9375,288035.59375,257980.53125,224326.859375,245739.46875,0.011474609375,0.996337890625,0.191162109375,-0.2441406100988388,-1.2207030057907104,-0.9155272841453552,80.0,40435.0,0.0
14293.9694901,290837.96875,297901.84375,368612.125,364677.9375,288035.59375,257980.53125,224326.859375,245739.46875,0.011474609375,0.996337890625,0.191162109375,-0.2441406100988388,-1.2207030057907104,-0.9155272841453552,80.0,40436.0,0.0
14293.9694903,290837.96875,297901.84375,368612.125,364677.9375,288035.59375,257980.53125,224326.859375,245739.46875,0.011474609375,0.996337890625,0.191162109375,-0.2441406100988388,-1.2207030057907104,-0.9155272841453552,80.0,40437.0,0.0
14293.9694905,290837.96875,297901.84375,368612.125,364677.9375,288035.59375,257980.53125,224326.859375,245739.46875,0.011474609375,0.996337890625,0.191162109375,-0.2441406100988388,-1.2207030057907104,-0.9155272841453552,80.0,40438.0,0.0
14293.9694907,290837.96875,297901.84375,368612.125,364677.9375,288035.59375,257980.53125,224326.859375,245739.46875,0.011474609375,0.996337890625,0.191162109375,-0.2441406100988388,-1.2207030057907104,-0.9155272841453552,80.0,40439.0,0.0
14293.9694909,290837.96875,297901.84375,368612.125,364677.9375,288035.59375,257980.53125,224326.859375,245739.46875,0.011474609375,0.996337890625,0.191162109375,-0.2441406100988388,-1.2207030057907104,-0.9155272841453552,80.0,40440.0,0.0
14293.9694911,290837.96875,297901.84375,368612.125,364677.9375,288035.59375,257980.53125,224326.859375,245739.46875,0.011474609375,0.996337890625,0.191162109375,-0.2441406100988388,-1.2207030057907104,-0.9155272841453552,80.0,40441.0,0.0
14293.9694913,290837.96875,297901.84375,368612.125,364677.9375,288035.59375,257980.53125,224326.859375,245739.46875,0.011474609375,0.996337890625,0.191162109375,-0.2441406100988388,-1.2207030057907104,-0.9155272841453552,80.0,40442.0,0.0
14293.9694915,290837.96875,297901.84375,368612.125,364677.9375,288035.59375,257980.53125,224326.859375,245739.46875,0.011474609375,0.996337890625,0.191162109375,-0.2441406100988388,-1.2207030057907104,-0.9155272841453552,80.0,40443.0,0.0
14293.9694917,290837.96875,297901.84375,368612.125,364677.9375,288035.59375,257980.53125,224326.859375,245739.46875,0.011474609375,0.996337890625,0.191162109375,-0.2441406100988388,-1.2207030057907104,-0.9155272841453552,80.0,40444.0,0.0
14293.9694919,290837.96875,297901.84375,368612.125,364677.9375,288035.59375,257980.53125,224326.859375,245739.46875,0.011474609375,0.996337890625,0.191162109375,-0.2441406100988388,-1.2207030057907104,-0.9155272841453552,80.0,40445.0,0.0
14293.9694921,290837.96875,297901.84375,368612.125,364677.9375,288035.59375,257980.53125,224326.859375,245739.46875,0.011474609375,0.996337890625,0.191162109375,-0.2441406100988388,-1.2207030057907104,-0.9155272841453552,80.0,40446.0,0.0
14293.9694923,290837.96875,297901.84375,368612.125,364677.9375,288035.59375,257980.53125,224326.859375,245739.46875,0.011474609375,0.996337890625,0.191162109375,-0.2441406100988388,-1.2207030057907104,-0.9155272841453552,80.0,40447.0,0.0
14293.9694925,290837.96875,297901.84375,368612.125,364677.9375,288035.59375,257980.53125,224326.859375,245739.46875,0.011474609375,0.996337890625,0.191162109375,-0.2441406100988388,-1.2207030057907104,-0.9155272841453552,80.0,40448.0,0.0
14293.9694927,290837.96875,297901.84375,368612.125,364677.9375,288035.59375,257980.53125,224326.859375,245739.46875,0.011474609375,0.996337890625,0.191162109375,-0.2441406100988388,-1.2207030057907104,-0.9155272841453552,80.0,40449.0,0.0
14293.9694929,290837.96875,297901.84375,368612.125,364677.9375,288035.59375,257980.53125,224326.859375,245739.46875,0.011474609375,0.996337890625,0.191162109375,-0.2441406100988388,-1.2207030057907104,-0.9155272841453552,80.0,40450.0,0.0
14293.9694931,290837.96875,297901.84375,368612.125,364677.9375,288035.59375,257980.53125,224326.859375,245739.46875,0.011474609375,0.996337890625,0.191162109375,-0.2441406100988388,-1.2207030057907104,-0.9155272841453552,80.0,40451.0,0.0
14293.9694932,290837.96875,297901.84375,368612.125,364677.9375,288035.59375,257980.53125,224326.859375,245739.46875,0.011474609375,0.996337890625,0.191162109375,-0.2441406100988388,-1.2207030057907104,-0.9155272841453552,80.0,40452.0,0.0
14293.9694934,290837.96875,297901.84375,368612.125,364677.9375,288035.59375,257980.53125,224326.859375,245739.46875,0.011474609375,0.996337890625,0.191162109375,-0.2441406100988388,-1.2207030057907104,-0.9155272841453552,80.0,40453.0,0.0
14293.9694936,290866.75,298163.53125,368769.03125,364670.0625,288128.03125,258039.546875,224378.796875,245764.953125,0.017333984375,0.995361328125,0.189697265625,0.5798339247703552,-1.0070799589157104,-0.5187987685203552,80.0,40454.0,1.0
14293.969495,290841.71875,298378.71875,368825.78125,364621.25,288163.25,258058.765625,224390.421875,245746.265625,0.0185546875,0.995849609375,0.1923828125,0.5187987685203552,-1.0986326932907104,-0.4882812201976776,80.0,40455.0,1.0
14293.9694963,290824.09375,298288.6875,368737.0,364608.1875,288124.1875,258043.21875,224353.671875,245712.109375,0.01513671875,0.99462890625,0.189697265625,0.5187987685203552,-0.8850097060203552,-0.4882812201976776,80.0,40456.0,1.0
14293.9694976,290809.71875,297977.1875,368571.78125,364611.5,288034.34375,257993.953125,224309.25,245719.0,0.01416015625,0.99267578125,0.19189453125,0.5493163466453552,-0.9155272841453552,-0.5798339247703552,80.0,40457.0,1.0
14293.969499,290842.53125,297900.9375,368587.34375,364661.84375,288042.5625,258006.734375,224330.078125,245750.828125,0.01416015625,0.991943359375,0.192138671875,0.4882812201976776,-0.8544921278953552,-0.3356933295726776,80.0,40458.0,1.0
14293.9695003,290873.8125,298167.46875,368767.3125,364675.0625,288139.9375,258060.015625,224381.484375,245763.875,0.013427734375,0.99365234375,0.190185546875,0.6103515028953552,-0.7934569716453552,-0.4577636420726776,80.0,40459.0,1.0
14293.9941814,290862.0,298412.6875,368862.90625,364637.34375,288197.78125,258090.15625,224407.59375,245754.9375,0.0146484375,0.995361328125,0.19140625,0.6713866591453552,-0.8544921278953552,-0.4577636420726776,80.0,40460.0,1.0
14293.9941935,290833.125,298307.28125,368752.65625,364614.0,288150.5625,258060.375,224380.046875,245753.6875,0.014404296875,0.99609375,0.188720703125,0.6408690810203552,-0.9155272841453552,-0.5187987685203552,80.0,40461.0,1.0
14293.9941948,290812.3125,297980.59375,368567.78125,364619.375,288049.28125,257993.40625,224327.484375,245741.078125,0.01611328125,0.9970703125,0.188720703125,0.6408690810203552,-0.9155272841453552,-0.6408690810203552,80.0,40462.0,1.0
14293.9941961,290842.34375,297906.5625,368583.5,364663.4375,288050.15625,257992.15625,224338.125,245756.546875,0.01611328125,0.997314453125,0.187744140625,0.6103515028953552,-0.8544921278953552,-0.5798339247703552,80.0,40463.0,1.0
14293.9941976,290871.21875,298176.40625,368764.5625,364672.65625,288142.96875,258044.734375,224386.3125,245774.515625,0.015380859375,0.999267578125,0.18505859375,0.6103515028953552,-0.8544921278953552,-0.7629393935203552,80.0,40464.0,1.0
14294.0178881,290859.78125,298407.5,368844.75,364627.4375,288191.0625,258072.53125,224402.40625,245757.890625,0.015380859375,0.9990234375,0.185791015625,0.5493163466453552,-0.8544921278953552,-0.8850097060203552,80.0,40465.0,1.0
14294.0428609,290832.6875,298300.84375,368736.65625,364602.375,288142.6875,258056.796875,224378.71875,245744.203125,0.013427734375,1.0,0.188720703125,0.4272460639476776,-0.9460448622703552,-0.9765624403953552,80.0,40466.0,1.0
14294.0641469,290821.96875,297989.90625,368566.4375,364617.9375,288055.09375,258022.65625,224349.203125,245747.703125,0.012451171875,0.99853515625,0.184814453125,0.4272460639476776,-1.0070799589157104,-1.0986326932907104,80.0,40467.0,1.0
14294.0666594,290855.9375,297919.53125,368590.9375,364665.34375,288060.625,258013.703125,224354.21875,245766.734375,0.010986328125,0.99755859375,0.18798828125,0.4577636420726776,-1.0070799589157104,-1.0986326932907104,80.0,40468.0,1.0
14294.0708155,290877.3125,298174.15625,368757.84375,364665.6875,288138.75,258044.203125,224385.953125,245762.53125,0.01171875,1.0,0.1904296875,0.5187987685203552,-1.2207030057907104,-1.1596678495407104,80.0,40469.0,1.0
14294.0708213,290860.03125,298400.53125,368833.5625,364622.3125,288185.875,258077.359375,224406.421875,245756.453125,0.01513671875,1.000244140625,0.19189453125,0.3967284858226776,-1.3122557401657104,-1.2207030057907104,80.0,40470.0,1.0
14294.0734704,290825.96875,298300.21875,368736.21875,364595.6875,288143.25,258048.578125,224376.65625,245743.9375,0.015625,0.998779296875,0.194580078125,0.2746581733226776,-1.2512205839157104,-1.1901854276657104,80.0,40471.0,1.0
14294.0734838,290815.625,297992.65625,368575.90625,364613.75,288057.84375,258003.34375,224338.84375,245742.953125,0.013671875,0.99609375,0.19482421875,0.1831054538488388,-1.2817381620407104,-1.1901854276657104,80.0,40472.0,1.0
14294.0754151,290845.21875,297909.15625,368582.34375,364653.53125,288051.40625,257993.328125,224337.671875,245754.671875,0.013671875,0.99755859375,0.19091796875,0.2441406100988388,-1.2512205839157104,-1.1596678495407104,80.0,40473.0,1.0
14294.100972,290862.46875,298159.15625,368735.0625,364654.34375,288130.1875,258039.375,224381.84375,245769.875,0.01513671875,0.996826171875,0.190673828125,0.2136230319738388,-1.3427733182907104,-1.1596678495407104,80.0,40474.0,1.0
14294.100977,290861.125,298412.25,368833.5625,364622.9375,288193.21875,258085.859375,224407.765625,245760.21875,0.015380859375,0.997802734375,0.18994140625,0.1220703050494194,-1.2512205839157104,-1.0986326932907104,80.0,40475.0,1.0
14294.1253957,290834.65625,298314.09375,368735.40625,364600.875,288149.6875,258061.984375,224381.84375,245755.46875,0.01318359375,0.997314453125,0.191162109375,0.0915527269244194,-1.3427733182907104,-1.0681151151657104,80.0,40476.0,1.0
14294.1441439,290821.96875,298003.40625,368564.375,364620.53125,288063.3125,258013.703125,224357.96875,245769.328125,0.013916015625,0.9970703125,0.187744140625,0.0915527269244194,-1.2817381620407104,-1.1901854276657104,80.0,40477.0,1.0
14294.1466398,290849.59375,297924.90625,368576.78125,364659.96875,288055.78125,258001.1875,224350.28125,245767.984375,0.0126953125,0.99853515625,0.1943359375,-0.03051757626235485,-1.3122557401657104,-1.0375975370407104,80.0,40478.0,1.0
14294.1491371,290880.59375,298192.40625,368755.15625,364667.3125,288147.15625,258059.84375,224396.953125,245774.15625,0.01171875,0.99951171875,0.195068359375,-0.2136230319738388,-1.4343260526657104,-0.9155272841453552,80.0,40479.0,1.0
14294.1516642,290870.3125,298429.96875,368841.0,364622.875,288199.21875,258104.8125,224414.65625,245754.84375,0.011474609375,0.99951171875,0.1943359375,-0.4272460639476776,-1.5563963651657104,-0.8544921278953552,80.0,40480.0,1.0
14294.1566494,290840.8125,298329.09375,368742.8125,364594.78125,288150.5625,258074.953125,224382.015625,245736.078125,0.01171875,0.99609375,0.19287109375,-0.4882812201976776,-1.5258787870407104,-0.8239745497703552,80.0,40481.0,1.0
14294.1591626,290824.1875,298013.9375,368574.375,364608.125,288055.96875,258005.65625,224339.015625,245742.6875,0.011962890625,0.994384765625,0.19287109375,-0.5493163466453552,-1.5869139432907104,-0.9155272841453552,80.0,40482.0,1.0
14294.1615701,290848.78125,297923.09375,368580.09375,364648.34375,288052.65625,257994.046875,224349.203125,245765.125,0.01318359375,0.992919921875,0.190673828125,-0.4882812201976776,-1.6174315214157104,-0.8239745497703552,80.0,40483.0,1.0
14294.1641336,290885.25,298196.96875,368759.0,364658.8125,288144.5,258041.0625,224386.3125,245769.6875,0.012451171875,0.99560546875,0.19189453125,-0.3662109076976776,-1.6479490995407104,-0.8544921278953552,80.0,40484.0,1.0
14294.218515,290875.96875,298435.40625,368848.78125,364620.1875,288195.53125,258072.265625,224397.046875,245753.515625,0.012939453125,0.99365234375,0.19580078125,-0.3051757514476776,-1.7089842557907104,-0.8544921278953552,80.0,40485.0,1.0
14294.2185215,290842.625,298320.78125,368738.96875,364591.21875,288143.875,258047.421875,224371.203125,245737.6875,0.011962890625,0.993896484375,0.19482421875,-0.2136230319738388,-1.7700194120407104,-0.7934569716453552,80.0,40486.0,1.0
14294.2185228,290831.875,298007.40625,368568.9375,364613.5625,288060.53125,258012.8125,224349.65625,245757.359375,0.01220703125,0.99365234375,0.19384765625,-0.1831054538488388,-1.7700194120407104,-0.7629393935203552,80.0,40487.0,1.0
14294.2185241,290861.03125,297929.46875,368581.4375,364655.59375,288060.71875,258008.609375,224351.71875,245769.15625,0.0126953125,0.99462890625,0.195068359375,-0.1831054538488388,-1.7700194120407104,-0.7629393935203552,80.0,40488.0,1.0
14294.2185254,290882.40625,298182.75,368747.03125,364655.125,288140.1875,258048.9375,224390.78125,245768.171875,0.013427734375,0.99365234375,0.196044921875,-0.1831054538488388,-1.8005369901657104,-0.7934569716453552,80.0,40489.0,1.0
14294.2185266,290859.875,298412.53125,368824.1875,364606.40625,288184.0,258073.34375,224403.484375,245754.140625,0.013427734375,0.991943359375,0.194580078125,-0.1220703050494194,-1.7089842557907104,-0.8850097060203552,80.0,40490.0,1.0
14294.2185278,290827.5,298305.5,368716.90625,364578.15625,288131.6875,258039.8125,224370.484375,245744.390625,0.013671875,0.991943359375,0.195556640625,-0.0915527269244194,-1.7700194120407104,-0.6713866591453552,80.0,40491.0,1.0
14294.218529,290820.625,297999.71875,368558.5625,364599.53125,288047.65625,258000.921875,224338.65625,245753.6875,0.013671875,0.991943359375,0.19287109375,0.0610351525247097,-1.6479490995407104,-0.7629393935203552,80.0,40492.0,1.0
14294.2185302,290847.875,297918.90625,368573.03125,364644.5,288052.84375,258005.296875,224362.625,245788.375,0.015869140625,0.991455078125,0.19140625,0.1220703050494194,-1.6784666776657104,-0.7934569716453552,80.0,40493.0,1.0
14294.2185314,290874.09375,298178.90625,368743.28125,364645.3125,288139.3125,258049.203125,224398.296875,245776.484375,0.0166015625,0.994384765625,0.19091796875,0.1525878757238388,-1.4953612089157104,-0.7934569716453552,80.0,40494.0,1.0
14294.2185326,290853.78125,298403.5,368820.25,364599.0,288178.375,258073.96875,224393.375,245738.390625,0.01904296875,0.99365234375,0.1953125,0.1525878757238388,-1.4648436307907104,-0.7324218153953552,80.0,40495.0,1.0
14294.2185338,290822.5,298293.96875,368712.6875,364570.46875,288126.59375,258042.9375,224366.203125,245737.6875,0.019775390625,0.99462890625,0.19384765625,0.1831054538488388,-1.4953612089157104,-0.6408690810203552,80.0,40496.0,1.0
14294.218535,290828.03125,298005.28125,368565.0,364595.15625,288059.28125,258028.734375,224359.671875,245757.171875,0.01806640625,0.993408203125,0.196044921875,0.2746581733226776,-1.4038084745407104,-0.6713866591453552,80.0,40497.0,1.0
14294.2185362,290855.5625,297929.46875,368577.78125,364643.15625,288063.75,258019.25,224371.65625,245774.15625,0.018310546875,0.9912109375,0.197021484375,0.3662109076976776,-1.3732908964157104,-0.6713866591453552,80.0,40498.0,1.0
14294.2185374,290881.40625,298184.96875,368741.84375,364645.75,288144.9375,258049.03125,224408.390625,245776.75,0.017333984375,0.991943359375,0.193359375,0.5187987685203552,-1.3732908964157104,-0.6713866591453552,80.0,40499.0,1.0
14294.2185386,290868.71875,298417.96875,368825.53125,364607.3125,288198.21875,258080.859375,224426.640625,245773.265625,0.018310546875,0.992431640625,0.192626953125,0.5798339247703552,-1.1596678495407104,-0.7629393935203552,80.0,40500.0,1.0
14294.2185399,290832.34375,298306.3125,368720.28125,364575.65625,288142.25,258043.484375,224382.640625,245745.90625,0.017333984375,0.994384765625,0.19189453125,0.6713866591453552,-1.0375975370407104,-0.7324218153953552,80.0,40501.0,1.0
14294.2185411,290822.9375,297995.25,368555.59375,364595.6875,288056.40625,258004.859375,224345.625,245750.109375,0.01708984375,0.994873046875,0.196044921875,0.6408690810203552,-1.0986326932907104,-0.7019042372703552,80.0,40502.0,1.0
14294.2185424,290853.4375,297917.84375,368565.25,364642.0,288058.125,258010.484375,224360.734375,245776.9375,0.019287109375,0.99658203125,0.199951171875,0.7324218153953552,-1.1291502714157104,-0.7019042372703552,80.0,40503.0,1.0
14294.243814,290853.4375,297917.84375,368565.25,364642.0,288058.125,258010.484375,224360.734375,245776.9375,0.019287109375,0.99658203125,0.199951171875,0.7324218153953552,-1.1291502714157104,-0.7019042372703552,80.0,40504.0,0.0
14294.2438151,290853.4375,297917.84375,368565.25,364642.0,288058.125,258010.484375,224360.734375,245776.9375,0.019287109375,0.99658203125,0.199951171875,0.7324218153953552,-1.1291502714157104,-0.7019042372703552,80.0,40505.0,0.0
14294.2438154,290853.4375,297917.84375,368565.25,364642.0,288058.125,258010.484375,224360.734375,245776.9375,0.019287109375,0.99658203125,0.199951171875,0.7324218153953552,-1.1291502714157104,-0.7019042372703552,80.0,40506.0,0.0
14294.2438156,290853.4375,297917.84375,368565.25,364642.0,288058.125,258010.484375,224360.734375,245776.9375,0.019287109375,0.99658203125,0.199951171875,0.7324218153953552,-1.1291502714157104,-0.7019042372703552,80.0,40507.0,0.0
14294.2438158,290853.4375,297917.84375,368565.25,364642.0,288058.125,258010.484375,224360.734375,245776.9375,0.019287109375,0.99658203125,0.199951171875,0.7324218153953552,-1.1291502714157104,-0.7019042372703552,80.0,40508.0,0.0
14294.243816,290853.4375,297917.84375,368565.25,364642.0,288058.125,258010.484375,224360.734375,245776.9375,0.019287109375,0.99658203125,0.199951171875,0.7324218153953552,-1.1291502714157104,-0.7019042372703552,80.0,40509.0,0.0
14294.2438161,290860.21875,298421.46875,368823.84375,364598.625,288196.15625,258080.234375,224419.03125,245773.625,0.01123046875,0.997314453125,0.190185546875,0.8544921278953552,-1.0986326932907104,-0.9765624403953552,80.0,40510.0,1.0
14294.2438203,290825.8125,298313.28125,368719.59375,364567.34375,288143.25,258048.21875,224388.1875,245757.078125,0.011962890625,0.997802734375,0.190185546875,0.9155272841453552,-1.1596678495407104,-0.9155272841453552,80.0,40511.0,1.0
14294.2438216,290818.84375,297999.09375,368545.15625,364586.125,288051.3125,258002.53125,224348.578125,245763.515625,0.01123046875,0.996826171875,0.19140625,0.8239745497703552,-1.2512205839157104,-1.0070799589157104,80.0,40512.0,1.0
14294.2438229,290848.875,297917.84375,368550.6875,364625.1875,288044.71875,257997.609375,224344.734375,245761.28125,0.014892578125,0.994384765625,0.19091796875,0.7934569716453552,-1.3732908964157104,-1.0375975370407104,80.0,40513.0,1.0
14294.2438242,290876.0625,298182.65625,368726.03125,364631.96875,288135.8125,258042.234375,224390.15625,245777.015625,0.017333984375,0.99365234375,0.19091796875,0.7019042372703552,-1.2817381620407104,-0.8239745497703552,80.0,40514.0,1.0
14294.2791762,290865.5,298420.03125,368816.84375,364595.5,288197.6875,258078.34375,224424.75,245789.0,0.018310546875,0.994873046875,0.1953125,0.6713866591453552,-1.3122557401657104,-0.6713866591453552,80.0,40515.0,1.0
14294.30473,290837.0625,298320.15625,368718.5,364568.0625,288150.9375,258068.875,224394.265625,245761.28125,0.01708984375,0.99755859375,0.19189453125,0.6713866591453552,-1.2512205839157104,-0.7019042372703552,80.0,40516.0,1.0
14294.3047361,290821.59375,298002.5,368548.625,364578.78125,288054.8125,258012.546875,224340.359375,245748.140625,0.01611328125,0.9990234375,0.19189453125,0.6103515028953552,-1.2207030057907104,-0.6713866591453552,80.0,40517.0,1.0
14294.3047374,290846.625,297915.78125,368553.90625,364622.59375,288053.75,257998.515625,224349.03125,245782.5625,0.015625,1.00048828125,0.189697265625,0.4882812201976776,-1.2512205839157104,-0.6103515028953552,80.0,40518.0,1.0
14294.3308292,290877.9375,298188.03125,368739.6875,364630.46875,288148.34375,258046.078125,224392.21875,245780.0625,0.013671875,0.998779296875,0.1923828125,0.3356933295726776,-1.3427733182907104,-0.6103515028953552,80.0,40519.0,1.0
14294.3308342,290871.65625,298425.40625,368830.25,364595.0625,288209.5625,258086.484375,224422.515625,245781.3125,0.017578125,0.99560546875,0.18994140625,0.2746581733226776,-1.3427733182907104,-0.6103515028953552,80.0,40520.0,1.0
14294.3559562,290837.4375,298312.03125,368719.84375,364564.65625,288160.40625,258053.765625,224397.3125,245773.171875,0.01953125,0.99365234375,0.19140625,0.1831054538488388,-1.3427733182907104,-0.5187987685203552,80.0,40521.0,1.0
14294.3559605,290823.375,297999.1875,368551.9375,364574.5,288068.59375,258007.09375,224346.171875,245752.703125,0.019775390625,0.99169921875,0.192626953125,0.2746581733226776,-1.3122557401657104,-0.5798339247703552,80.0,40522.0,1.0
14294.3765841,290853.6875,297923.90625,368568.03125,364621.625,288072.875,258013.265625,224356.890625,245773.625,0.0166015625,0.9921875,0.19189453125,0.3051757514476776,-1.3732908964157104,-0.5493163466453552,80.0,40523.0,1.0
14294.3797091,290880.59375,298190.875,368745.875,364630.5625,288162.625,258064.671875,224399.8125,245786.765625,0.0146484375,0.994384765625,0.192626953125,0.4272460639476776,-1.3122557401657104,-0.5493163466453552,80.0,40524.0,1.0
14294.3797124,290865.84375,298418.875,368823.5625,364589.6875,288210.90625,258093.546875,224417.34375,245781.84375,0.01416015625,0.997314453125,0.191650390625,0.4577636420726776,-1.2817381620407104,-0.7324218153953552,80.0,40525.0,1.0
14294.3816564,290835.375,298309.875,368715.75,364562.59375,288155.03125,258065.203125,224388.09375,245763.875,0.011962890625,0.99755859375,0.190185546875,0.4577636420726776,-1.4343260526657104,-0.8544921278953552,80.0,40526.0,1.0
14294.3841575,290814.625,297988.09375,368538.53125,364569.75,288049.8125,257995.203125,224327.65625,245748.140625,0.0126953125,0.99853515625,0.18896484375,0.5187987685203552,-1.4343260526657104,-0.9765624403953552,80.0,40527.0,1.0
14294.3873031,290814.625,297988.09375,368538.53125,364569.75,288049.8125,257995.203125,224327.65625,245748.140625,0.0126953125,0.99853515625,0.18896484375,0.5187987685203552,-1.4343260526657104,-0.9765624403953552,80.0,40528.0,0.0
14294.3873039,290814.625,297988.09375,368538.53125,364569.75,288049.8125,257995.203125,224327.65625,245748.140625,0.0126953125,0.99853515625,0.18896484375,0.5187987685203552,-1.4343260526657104,-0.9765624403953552,80.0,40529.0,0.0
14294.3873041,290814.625,297988.09375,368538.53125,364569.75,288049.8125,257995.203125,224327.65625,245748.140625,0.0126953125,0.99853515625,0.18896484375,0.5187987685203552,-1.4343260526657104,-0.9765624403953552,80.0,40530.0,0.0
14294.3873043,290814.625,297988.09375,368538.53125,364569.75,288049.8125,257995.203125,224327.65625,245748.140625,0.0126953125,0.99853515625,0.18896484375,0.5187987685203552,-1.4343260526657104,-0.9765624403953552,80.0,40531.0,0.0
14294.3873045,290814.625,297988.09375,368538.53125,364569.75,288049.8125,257995.203125,224327.65625,245748.140625,0.0126953125,0.99853515625,0.18896484375,0.5187987685203552,-1.4343260526657104,-0.9765624403953552,80.0,40532.0,0.0
14294.3873047,290814.625,297988.09375,368538.53125,364569.75,288049.8125,257995.203125,224327.65625,245748.140625,0.0126953125,0.99853515625,0.18896484375,0.5187987685203552,-1.4343260526657104,-0.9765624403953552,80.0,40533.0,0.0
14294.3873048,290814.625,297988.09375,368538.53125,364569.75,288049.8125,257995.203125,224327.65625,245748.140625,0.0126953125,0.99853515625,0.18896484375,0.5187987685203552,-1.4343260526657104,-0.9765624403953552,80.0,40534.0,0.0
14294.387305,290814.625,297988.09375,368538.53125,364569.75,288049.8125,257995.203125,224327.65625,245748.140625,0.0126953125,0.99853515625,0.18896484375,0.5187987685203552,-1.4343260526657104,-0.9765624403953552,80.0,40535.0,0.0
14294.3873052,290814.625,297988.09375,368538.53125,364569.75,288049.8125,257995.203125,224327.65625,245748.140625,0.0126953125,0.99853515625,0.18896484375,0.5187987685203552,-1.4343260526657104,-0.9765624403953552,80.0,40536.0,0.0
14294.3873054,290814.625,297988.09375,368538.53125,364569.75,288049.8125,257995.203125,224327.65625,245748.140625,0.0126953125,0.99853515625,0.18896484375,0.5187987685203552,-1.4343260526657104,-0.9765624403953552,80.0,40537.0,0.0
14294.3873055,290814.625,297988.09375,368538.53125,364569.75,288049.8125,257995.203125,224327.65625,245748.140625,0.0126953125,0.99853515625,0.18896484375,0.5187987685203552,-1.4343260526657104,-0.9765624403953552,80.0,40538.0,0.0
14294.3873057,290814.625,297988.09375,368538.53125,364569.75,288049.8125,257995.203125,224327.65625,245748.140625,0.0126953125,0.99853515625,0.18896484375,0.5187987685203552,-1.4343260526657104,-0.9765624403953552,80.0,40539.0,0.0
14294.3873059,290814.625,297988.09375,368538.53125,364569.75,288049.8125,257995.203125,224327.65625,245748.140625,0.0126953125,0.99853515625,0.18896484375,0.5187987685203552,-1.4343260526657104,-0.9765624403953552,80.0,40540.0,0.0
14294.387306,290814.625,297988.09375,368538.53125,364569.75,288049.8125,257995.203125,224327.65625,245748.140625,0.0126953125,0.99853515625,0.18896484375,0.5187987685203552,-1.4343260526657104,-0.9765624403953552,80.0,40541.0,0.0
14294.3873062,290814.625,297988.09375,368538.53125,364569.75,288049.8125,257995.203125,224327.65625,245748.140625,0.0126953125,0.99853515625,0.18896484375,0.5187987685203552,-1.4343260526657104,-0.9765624403953552,80.0,40542.0,0.0
14294.3873064,290814.625,297988.09375,368538.53125,364569.75,288049.8125,257995.203125,224327.65625,245748.140625,0.0126953125,0.99853515625,0.18896484375,0.5187987685203552,-1.4343260526657104,-0.9765624403953552,80.0,40543.0,0.0
14294.3873066,290814.625,297988.09375,368538.53125,364569.75,288049.8125,257995.203125,224327.65625,245748.140625,0.0126953125,0.99853515625,0.18896484375,0.5187987685203552,-1.4343260526657104,-0.9765624403953552,80.0,40544.0,0.0
14294.3873068,290814.625,297988.09375,368538.53125,364569.75,288049.8125,257995.203125,224327.65625,245748.140625,0.0126953125,0.99853515625,0.18896484375,0.5187987685203552,-1.4343260526657104,-0.9765624403953552,80.0,40545.0,0.0
14294.3873069,290814.625,297988.09375,368538.53125,364569.75,288049.8125,257995.203125,224327.65625,245748.140625,0.0126953125,0.99853515625,0.18896484375,0.5187987685203552,-1.4343260526657104,-0.9765624403953552,80.0,40546.0,0.0
14294.3873071,290814.625,297988.09375,368538.53125,364569.75,288049.8125,257995.203125,224327.65625,245748.140625,0.0126953125,0.99853515625,0.18896484375,0.5187987685203552,-1.4343260526657104,-0.9765624403953552,80.0,40547.0,0.0
14294.3873073,290814.625,297988.09375,368538.53125,364569.75,288049.8125,257995.203125,224327.65625,245748.140625,0.0126953125,0.99853515625,0.18896484375,0.5187987685203552,-1.4343260526657104,-0.9765624403953552,80.0,40548.0,0.0
14294.3873075,290814.625,297988.09375,368538.53125,364569.75,288049.8125,257995.203125,224327.65625,245748.140625,0.0126953125,0.99853515625,0.18896484375,0.5187987685203552,-1.4343260526657104,-0.9765624403953552,80.0,40549.0,0.0
14294.3873076,290814.625,297988.09375,368538.53125,364569.75,288049.8125,257995.203125,224327.65625,245748.140625,0.0126953125,0.99853515625,0.18896484375,0.5187987685203552,-1.4343260526657104,-0.9765624403953552,80.0,40550.0,0.0
14294.3873078,290814.625,297988.09375,368538.53125,364569.75,288049.8125,257995.203125,224327.65625,245748.140625,0.0126953125,0.99853515625,0.18896484375,0.5187987685203552,-1.4343260526657104,-0.9765624403953552,80.0,40551.0,0.0
14294.387308,290814.625,297988.09375,368538.53125,364569.75,288049.8125,257995.203125,224327.65625,245748.140625,0.0126953125,0.99853515625,0.18896484375,0.5187987685203552,-1.4343260526657104,-0.9765624403953552,80.0,40552.0,0.0
14294.3873081,290814.625,297988.09375,368538.53125,364569.75,288049.8125,257995.203125,224327.65625,245748.140625,0.0126953125,0.99853515625,0.18896484375,0.5187987685203552,-1.4343260526657104,-0.9765624403953552,80.0,40553.0,0.0
14294.3873083,290814.625,297988.09375,368538.53125,364569.75,288049.8125,257995.203125,224327.65625,245748.140625,0.0126953125,0.99853515625,0.18896484375,0.5187987685203552,-1.4343260526657104,-0.9765624403953552,80.0,40554.0,0.0
14294.3873085,290814.625,297988.09375,368538.53125,364569.75,288049.8125,257995.203125,224327.65625,245748.140625,0.0126953125,0.99853515625,0.18896484375,0.5187987685203552,-1.4343260526657104,-0.9765624403953552,80.0,40555.0,0.0
14294.3873086,290814.625,297988.09375,368538.53125,364569.75,288049.8125,257995.203125,224327.65625,245748.140625,0.0126953125,0.99853515625,0.18896484375,0.5187987685203552,-1.4343260526657104,-0.9765624403953552,80.0,40556.0,0.0
14294.3873088,290814.625,297988.09375,368538.53125,364569.75,288049.8125,257995.203125,224327.65625,245748.140625,0.0126953125,0.99853515625,0.18896484375,0.5187987685203552,-1.4343260526657104,-0.9765624403953552,80.0,40557.0,0.0
14294.387309,290814.625,297988.09375,368538.53125,364569.75,288049.8125,257995.203125,224327.65625,245748.140625,0.0126953125,0.99853515625,0.18896484375,0.5187987685203552,-1.4343260526657104,-0.9765624403953552,80.0,40558.0,0.0
14294.3873092,290814.625,297988.09375,368538.53125,364569.75,288049.8125,257995.203125,224327.65625,245748.140625,0.0126953125,0.99853515625,0.18896484375,0.5187987685203552,-1.4343260526657104,-0.9765624403953552,80.0,40559.0,0.0
14294.3873094,290814.625,297988.09375,368538.53125,364569.75,288049.8125,257995.203125,224327.65625,245748.140625,0.0126953125,0.99853515625,0.18896484375,0.5187987685203552,-1.4343260526657104,-0.9765624403953552,80.0,40560.0,0.0
14294.3873095,290814.625,297988.09375,368538.53125,364569.75,288049.8125,257995.203125,224327.65625,245748.140625,0.0126953125,0.99853515625,0.18896484375,0.5187987685203552,-1.4343260526657104,-0.9765624403953552,80.0,40561.0,0.0
14294.3873097,290814.625,297988.09375,368538.53125,364569.75,288049.8125,257995.203125,224327.65625,245748.140625,0.0126953125,0.99853515625,0.18896484375,0.5187987685203552,-1.4343260526657104,-0.9765624403953552,80.0,40562.0,0.0
14294.3873099,290814.625,297988.09375,368538.53125,364569.75,288049.8125,257995.203125,224327.65625,245748.140625,0.0126953125,0.99853515625,0.18896484375,0.5187987685203552,-1.4343260526657104,-0.9765624403953552,80.0,40563.0,0.0
14294.38731,290814.625,297988.09375,368538.53125,364569.75,288049.8125,257995.203125,224327.65625,245748.140625,0.0126953125,0.99853515625,0.18896484375,0.5187987685203552,-1.4343260526657104,-0.9765624403953552,80.0,40564.0,0.0
14294.3873102,290814.625,297988.09375,368538.53125,364569.75,288049.8125,257995.203125,224327.65625,245748.140625,0.0126953125,0.99853515625,0.18896484375,0.5187987685203552,-1.4343260526657104,-0.9765624403953552,80.0,40565.0,0.0
14294.3873104,290814.625,297988.09375,368538.53125,364569.75,288049.8125,257995.203125,224327.65625,245748.140625,0.0126953125,0.99853515625,0.18896484375,0.5187987685203552,-1.4343260526657104,-0.9765624403953552,80.0,40566.0,0.0
14294.3873105,290814.625,297988.09375,368538.53125,364569.75,288049.8125,257995.203125,224327.65625,245748.140625,0.0126953125,0.99853515625,0.18896484375,0.5187987685203552,-1.4343260526657104,-0.9765624403953552,80.0,40567.0,0.0
14294.3873107,290814.625,297988.09375,368538.53125,364569.75,288049.8125,257995.203125,224327.65625,245748.140625,0.0126953125,0.99853515625,0.18896484375,0.5187987685203552,-1.4343260526657104,-0.9765624403953552,80.0,40568.0,0.0
14294.3873109,290814.625,297988.09375,368538.53125,364569.75,288049.8125,257995.203125,224327.65625,245748.140625,0.0126953125,0.99853515625,0.18896484375,0.5187987685203552,-1.4343260526657104,-0.9765624403953552,80.0,40569.0,0.0
14294.387311,290870.78125,298405.09375,368776.25,364549.1875,288192.6875,258074.234375,224418.046875,245795.4375,0.015625,0.99560546875,0.191162109375,0.2746581733226776,-1.5258787870407104,-1.0681151151657104,80.0,40570.0,1.0
14294.3873146,290838.5,298291.71875,368666.84375,364518.15625,288135.71875,258033.734375,224374.6875,245769.59375,0.014404296875,0.995361328125,0.192138671875,0.3051757514476776,-1.4648436307907104,-1.1596678495407104,80.0,40571.0,1.0
14294.3908616,290827.40625,297981.59375,368492.5,364532.21875,288039.875,257990.109375,224331.859375,245757.53125,0.014404296875,0.99560546875,0.189697265625,0.3662109076976776,-1.5258787870407104,-1.1596678495407104,80.0,40572.0,1.0
14294.390864,290859.96875,297909.15625,368504.375,364582.4375,288047.46875,258000.46875,224359.484375,245796.421875,0.01513671875,0.9931640625,0.18798828125,0.2746581733226776,-1.5258787870407104,-1.1291502714157104,80.0,40573.0,1.0
14294.3908653,290891.25,298176.3125,368672.46875,364592.90625,288140.03125,258063.6875,224416.359375,245809.65625,0.014404296875,0.992431640625,0.188720703125,0.2746581733226776,-1.4953612089157104,-1.0986326932907104,80.0,40574.0,1.0
14294.3908665,290874.34375,298410.71875,368761.15625,364547.3125,288189.28125,258081.921875,224420.109375,245779.796875,0.013671875,0.994384765625,0.18798828125,0.3967284858226776,-1.5563963651657104,-1.1291502714157104,80.0,40575.0,1.0
14294.3928727,290841.09375,298296.21875,368656.1875,364522.375,288138.125,258028.90625,224383.0,245774.421875,0.014404296875,0.994873046875,0.18701171875,0.4577636420726776,-1.5869139432907104,-1.1596678495407104,80.0,40576.0,1.0
14294.4358829,290833.03125,297983.625,368490.6875,364542.5,288055.34375,257987.875,224354.84375,245794.1875,0.01318359375,0.9951171875,0.1884765625,0.3967284858226776,-1.6479490995407104,-1.0681151151657104,80.0,40577.0,1.0
14294.435904,290870.6875,297921.3125,368516.71875,364586.90625,288064.65625,257996.71875,224371.03125,245805.984375,0.014404296875,0.995361328125,0.19140625,0.4577636420726776,-1.6784666776657104,-1.0986326932907104,80.0,40578.0,1.0
14294.4359056,290899.28125,298194.5625,368694.90625,364590.125,288157.71875,258053.859375,224417.15625,245805.09375,0.01513671875,0.99609375,0.19140625,0.5493163466453552,-1.7700194120407104,-1.0986326932907104,80.0,40579.0,1.0
14294.4359069,290878.1875,298415.84375,368764.90625,364544.90625,288203.9375,258080.234375,224437.359375,245804.65625,0.012939453125,0.997314453125,0.191162109375,0.5187987685203552,-1.8005369901657104,-1.0986326932907104,80.0,40580.0,1.0
14294.4597281,290850.03125,298303.34375,368655.75,364517.1875,288153.875,258060.375,224408.484375,245784.171875,0.01171875,0.995849609375,0.189208984375,0.6103515028953552,-1.8615721464157104,-1.0986326932907104,80.0,40581.0,1.0
14294.4597342,290850.03125,298303.34375,368655.75,364517.1875,288153.875,258060.375,224408.484375,245784.171875,0.01171875,0.995849609375,0.189208984375,0.6103515028953552,-1.8615721464157104,-1.0986326932907104,80.0,40582.0,0.0
14294.4597344,290850.03125,298303.34375,368655.75,364517.1875,288153.875,258060.375,224408.484375,245784.171875,0.01171875,0.995849609375,0.189208984375,0.6103515028953552,-1.8615721464157104,-1.0986326932907104,80.0,40583.0,0.0
14294.4597346,290850.03125,298303.34375,368655.75,364517.1875,288153.875,258060.375,224408.484375,245784.171875,0.01171875,0.995849609375,0.189208984375,0.6103515028953552,-1.8615721464157104,-1.0986326932907104,80.0,40584.0,0.0
14294.4597348,290850.03125,298303.34375,368655.75,364517.1875,288153.875,258060.375,224408.484375,245784.171875,0.01171875,0.995849609375,0.189208984375,0.6103515028953552,-1.8615721464157104,-1.0986326932907104,80.0,40585.0,0.0
14294.4597349,290850.03125,298303.34375,368655.75,364517.1875,288153.875,258060.375,224408.484375,245784.171875,0.01171875,0.995849609375,0.189208984375,0.6103515028953552,-1.8615721464157104,-1.0986326932907104,80.0,40586.0,0.0
14294.4597351,290850.03125,298303.34375,368655.75,364517.1875,288153.875,258060.375,224408.484375,245784.171875,0.01171875,0.995849609375,0.189208984375,0.6103515028953552,-1.8615721464157104,-1.0986326932907104,80.0,40587.0,0.0
14294.4597353,290850.03125,298303.34375,368655.75,364517.1875,288153.875,258060.375,224408.484375,245784.171875,0.01171875,0.995849609375,0.189208984375,0.6103515028953552,-1.8615721464157104,-1.0986326932907104,80.0,40588.0,0.0
14294.4597355,290850.03125,298303.34375,368655.75,364517.1875,288153.875,258060.375,224408.484375,245784.171875,0.01171875,0.995849609375,0.189208984375,0.6103515028953552,-1.8615721464157104,-1.0986326932907104,80.0,40589.0,0.0
14294.4597357,290850.03125,298303.34375,368655.75,364517.1875,288153.875,258060.375,224408.484375,245784.171875,0.01171875,0.995849609375,0.189208984375,0.6103515028953552,-1.8615721464157104,-1.0986326932907104,80.0,40590.0,0.0
14294.4597359,290850.03125,298303.34375,368655.75,364517.1875,288153.875,258060.375,224408.484375,245784.171875,0.01171875,0.995849609375,0.189208984375,0.6103515028953552,-1.8615721464157104,-1.0986326932907104,80.0,40591.0,0.0
14294.459736,290850.03125,298303.34375,368655.75,364517.1875,288153.875,258060.375,224408.484375,245784.171875,0.01171875,0.995849609375,0.189208984375,0.6103515028953552,-1.8615721464157104,-1.0986326932907104,80.0,40592.0,0.0
14294.4597362,290850.03125,298303.34375,368655.75,364517.1875,288153.875,258060.375,224408.484375,245784.171875,0.01171875,0.995849609375,0.189208984375,0.6103515028953552,-1.8615721464157104,-1.0986326932907104,80.0,40593.0,0.0
14294.4597364,290850.03125,298303.34375,368655.75,364517.1875,288153.875,258060.375,224408.484375,245784.171875,0.01171875,0.995849609375,0.189208984375,0.6103515028953552,-1.8615721464157104,-1.0986326932907104,80.0,40594.0,0.0
14294.4597366,290850.03125,298303.34375,368655.75,364517.1875,288153.875,258060.375,224408.484375,245784.171875,0.01171875,0.995849609375,0.189208984375,0.6103515028953552,-1.8615721464157104,-1.0986326932907104,80.0,40595.0,0.0
14294.4597368,290850.03125,298303.34375,368655.75,364517.1875,288153.875,258060.375,224408.484375,245784.171875,0.01171875,0.995849609375,0.189208984375,0.6103515028953552,-1.8615721464157104,-1.0986326932907104,80.0,40596.0,0.0
14294.4597369,290850.03125,298303.34375,368655.75,364517.1875,288153.875,258060.375,224408.484375,245784.171875,0.01171875,0.995849609375,0.189208984375,0.6103515028953552,-1.8615721464157104,-1.0986326932907104,80.0,40597.0,0.0
14294.4597371,290850.03125,298303.34375,368655.75,364517.1875,288153.875,258060.375,224408.484375,245784.171875,0.01171875,0.995849609375,0.189208984375,0.6103515028953552,-1.8615721464157104,-1.0986326932907104,80.0,40598.0,0.0
14294.4597373,290850.03125,298303.34375,368655.75,364517.1875,288153.875,258060.375,224408.484375,245784.171875,0.01171875,0.995849609375,0.189208984375,0.6103515028953552,-1.8615721464157104,-1.0986326932907104,80.0,40599.0,0.0
14294.4597375,290850.03125,298303.34375,368655.75,364517.1875,288153.875,258060.375,224408.484375,245784.171875,0.01171875,0.995849609375,0.189208984375,0.6103515028953552,-1.8615721464157104,-1.0986326932907104,80.0,40600.0,0.0
14294.4597376,290850.03125,298303.34375,368655.75,364517.1875,288153.875,258060.375,224408.484375,245784.171875,0.01171875,0.995849609375,0.189208984375,0.6103515028953552,-1.8615721464157104,-1.0986326932907104,80.0,40601.0,0.0
14294.4597378,290850.03125,298303.34375,368655.75,364517.1875,288153.875,258060.375,224408.484375,245784.171875,0.01171875,0.995849609375,0.189208984375,0.6103515028953552,-1.8615721464157104,-1.0986326932907104,80.0,40602.0,0.0
14294.4597379,290850.03125,298303.34375,368655.75,364517.1875,288153.875,258060.375,224408.484375,245784.171875,0.01171875,0.995849609375,0.189208984375,0.6103515028953552,-1.8615721464157104,-1.0986326932907104,80.0,40603.0,0.0
14294.4597381,290850.03125,298303.34375,368655.75,364517.1875,288153.875,258060.375,224408.484375,245784.171875,0.01171875,0.995849609375,0.189208984375,0.6103515028953552,-1.8615721464157104,-1.0986326932907104,80.0,40604.0,0.0
14294.4597383,290850.03125,298303.34375,368655.75,364517.1875,288153.875,258060.375,224408.484375,245784.171875,0.01171875,0.995849609375,0.189208984375,0.6103515028953552,-1.8615721464157104,-1.0986326932907104,80.0,40605.0,0.0
14294.4597384,290850.03125,298303.34375,368655.75,364517.1875,288153.875,258060.375,224408.484375,245784.171875,0.01171875,0.995849609375,0.189208984375,0.6103515028953552,-1.8615721464157104,-1.0986326932907104,80.0,40606.0,0.0
14294.4597386,290850.03125,298303.34375,368655.75,364517.1875,288153.875,258060.375,224408.484375,245784.171875,0.01171875,0.995849609375,0.189208984375,0.6103515028953552,-1.8615721464157104,-1.0986326932907104,80.0,40607.0,0.0
14294.4597388,290850.03125,298303.34375,368655.75,364517.1875,288153.875,258060.375,224408.484375,245784.171875,0.01171875,0.995849609375,0.189208984375,0.6103515028953552,-1.8615721464157104,-1.0986326932907104,80.0,40608.0,0.0
14294.459739,290891.78125,298169.96875,368645.09375,364566.1875,288146.625,258049.734375,224398.734375,245805.359375,0.015625,0.993408203125,0.18994140625,-0.0915527269244194,-1.1901854276657104,-0.9460448622703552,80.0,40609.0,1.0
14294.4846993,290879.71875,298399.03125,368720.75,364524.96875,288196.625,258083.984375,224423.0625,245802.765625,0.017822265625,0.9951171875,0.18701171875,0.03051757626235485,-1.3122557401657104,-1.0375975370407104,80.0,40610.0,1.0
14294.4847035,290854.40625,298301.5625,368624.8125,364506.71875,288160.75,258071.5625,224404.375,245799.109375,0.01953125,0.99609375,0.186279296875,0.1525878757238388,-1.2512205839157104,-1.0070799589157104,80.0,40611.0,1.0
14294.5091692,290846.375,297998.375,368471.125,364528.625,288079.3125,258025.59375,224375.140625,245809.203125,0.017578125,0.994140625,0.189697265625,0.1525878757238388,-1.2817381620407104,-0.9460448622703552,80.0,40612.0,1.0
14294.5191653,290873.8125,297926.15625,368488.28125,364567.96875,288081.46875,258032.03125,224396.5,245825.03125,0.015380859375,0.995849609375,0.1904296875,0.1831054538488388,-1.2817381620407104,-0.8850097060203552,80.0,40613.0,1.0
14294.521629,290895.71875,298182.9375,368656.0,364571.0,288168.28125,258089.078125,224448.71875,245840.953125,0.013671875,0.997314453125,0.19384765625,0.2136230319738388,-1.2817381620407104,-0.9460448622703552,80.0,40614.0,1.0
14294.5241547,290880.34375,298412.78125,368733.4375,364523.34375,288213.0625,258115.09375,224459.171875,245820.390625,0.013916015625,0.9970703125,0.192626953125,0.0915527269244194,-1.2512205839157104,-0.9460448622703552,80.0,40615.0,1.0
14294.5266435,290843.78125,298293.15625,368620.96875,364495.09375,288158.15625,258077.1875,224425.734375,245818.328125,0.012939453125,0.997802734375,0.19189453125,0.0610351525247097,-1.2817381620407104,-0.9765624403953552,80.0,40616.0,1.0
14294.5291564,290832.34375,297978.90625,368451.90625,364506.53125,288064.90625,258020.421875,224376.03125,245803.390625,0.013916015625,0.996826171875,0.19189453125,0.0610351525247097,-1.2207030057907104,-0.9155272841453552,80.0,40617.0,1.0
14294.5316377,290865.3125,297910.21875,368473.34375,364550.8125,288069.5625,258021.9375,224381.484375,245808.3125,0.012939453125,0.997314453125,0.19140625,-0.03051757626235485,-1.2817381620407104,-0.9765624403953552,80.0,40618.0,1.0
14294.5341539,290889.625,298170.75,368640.90625,364556.15625,288152.625,258053.40625,224414.125,245822.265625,0.0126953125,0.994140625,0.194091796875,-0.03051757626235485,-1.3427733182907104,-0.9460448622703552,80.0,40619.0,1.0
14294.5366308,290879.4375,298406.1875,368732.09375,364518.96875,288208.15625,258087.46875,224434.765625,245812.703125,0.013671875,0.99609375,0.194580078125,0.0,-1.3732908964157104,-0.9155272841453552,80.0,40620.0,1.0
14294.5391551,290847.96875,298287.4375,368612.46875,364490.90625,288152.625,258050.8125,224399.984375,245807.234375,0.0146484375,0.994140625,0.19189453125,0.0,-1.3732908964157104,-0.8544921278953552,80.0,40621.0,1.0
14294.5416526,290832.96875,297973.25,368432.40625,364502.53125,288056.5,257993.6875,224352.515625,245805.546875,0.01318359375,0.9931640625,0.189208984375,0.03051757626235485,-1.4953612089157104,-1.0375975370407104,80.0,40622.0,1.0
14294.5666583,290864.96875,297904.6875,368449.125,364544.53125,288059.5625,258001.015625,224364.765625,245803.9375,0.014404296875,0.994873046875,0.18994140625,0.0610351525247097,-1.4343260526657104,-0.8850097060203552,80.0,40623.0,1.0
14294.5916867,290894.65625,298180.15625,368634.03125,364554.65625,288158.78125,258059.65625,224424.3125,245822.0,0.01513671875,0.99560546875,0.19140625,0.0610351525247097,-1.4343260526657104,-0.9155272841453552,80.0,40624.0,1.0
14294.6166256,290884.28125,298419.5,368725.03125,364516.65625,288216.90625,258096.140625,224450.59375,245828.609375,0.016357421875,0.99609375,0.190185546875,0.0915527269244194,-1.4343260526657104,-0.8850097060203552,80.0,40625.0,1.0
14294.6493033,290848.0625,298297.53125,368612.8125,364486.25,288158.0625,258068.25,224413.578125,245803.578125,0.015625,0.99560546875,0.193115234375,0.1525878757238388,-1.4953612089157104,-0.8850097060203552,80.0,40626.0,1.0
14294.6493206,290845.46875,297990.625,368453.875,364511.46875,288074.75,258030.96875,224383.1875,245810.28125,0.01416015625,0.995361328125,0.193115234375,0.2441406100988388,-1.4953612089157104,-0.7934569716453552,80.0,40627.0,1.0
14294.6493219,290871.84375,297923.65625,368473.0,364548.5625,288074.75,258032.9375,224385.859375,245812.0625,0.0126953125,0.99365234375,0.192138671875,0.2441406100988388,-1.6174315214157104,-0.8544921278953552,80.0,40628.0,1.0
14294.6493231,290891.96875,298179.875,368635.34375,364549.71875,288156.8125,258071.828125,224424.046875,245825.65625,0.012939453125,0.99609375,0.197265625,0.2441406100988388,-1.6784666776657104,-0.9155272841453552,80.0,40629.0,1.0
14294.6493243,290864.53125,298394.71875,368698.5625,364498.21875,288193.03125,258082.546875,224430.75,245808.671875,0.011474609375,0.9951171875,0.19140625,0.1525878757238388,-1.7089842557907104,-0.9155272841453552,80.0,40630.0,1.0
14294.6493257,290832.0625,298283.875,368601.125,364475.15625,288145.75,258056.171875,224405.625,245802.234375,0.012451171875,0.994873046875,0.19189453125,0.2136230319738388,-1.7395018339157104,-0.8850097060203552,80.0,40631.0,1.0
14294.6493269,290819.09375,297969.875,368437.3125,364493.03125,288054.71875,258010.9375,224368.078125,245802.0625,0.01513671875,0.99609375,0.192626953125,0.2746581733226776,-1.7700194120407104,-0.8850097060203552,80.0,40632.0,1.0
14294.6493281,290844.40625,297893.6875,368454.40625,364534.78125,288056.25,258013.4375,224385.59375,245826.640625,0.01611328125,0.99755859375,0.19091796875,0.2746581733226776,-1.8005369901657104,-0.8239745497703552,80.0,40633.0,1.0
14294.6493292,290873.375,298172.46875,368630.71875,364542.40625,288147.25,258070.484375,224437.1875,245834.875,0.016845703125,0.996826171875,0.191162109375,0.1831054538488388,-1.9226073026657104,-0.7934569716453552,80.0,40634.0,1.0
14294.6493304,290855.125,298399.1875,368712.4375,364497.96875,288194.09375,258090.515625,224442.90625,245814.484375,0.018798828125,0.99658203125,0.19189453125,0.2441406100988388,-1.9531248807907104,-0.8239745497703552,80.0,40635.0,1.0
14294.6493316,290815.78125,298271.09375,368592.25,364466.59375,288137.0625,258052.328125,224406.25,245808.9375,0.018798828125,0.99755859375,0.19287109375,0.2746581733226776,-1.7700194120407104,-0.8239745497703552,80.0,40636.0,1.0
14294.6493328,290806.03125,297956.53125,368417.375,364485.34375,288049.71875,258007.8125,224368.078125,245812.875,0.019287109375,0.998046875,0.194580078125,0.4272460639476776,-1.7089842557907104,-0.7324218153953552,80.0,40637.0,1.0
14294.649334,290835.1875,297880.1875,368422.5625,364525.40625,288048.28125,258011.828125,224374.953125,245819.484375,0.01953125,0.997314453125,0.196044921875,0.3051757514476776,-1.6479490995407104,-0.7019042372703552,80.0,40638.0,1.0
14294.6493356,290861.75,298149.75,368598.25,364530.15625,288136.625,258063.234375,224425.921875,245818.859375,0.02197265625,0.995849609375,0.19189453125,0.1220703050494194,-1.5563963651657104,-0.7324218153953552,80.0,40639.0,1.0
14294.6493368,290840.90625,298374.4375,368678.4375,364482.125,288183.125,258076.203125,224429.859375,245805.625,0.0205078125,0.992919921875,0.1884765625,0.1831054538488388,-1.4953612089157104,-0.6713866591453552,80.0,40640.0,1.0
14294.6493379,290803.90625,298249.1875,368560.4375,364452.28125,288123.21875,258014.78125,224383.359375,245794.8125,0.019775390625,0.991943359375,0.188232421875,0.2136230319738388,-1.3732908964157104,-0.6713866591453552,80.0,40641.0,1.0
14294.6493391,290795.40625,297937.9375,368395.5625,364474.1875,288036.75,257974.546875,224352.96875,245803.578125,0.021728515625,0.9921875,0.190673828125,0.2746581733226776,-1.3122557401657104,-0.5798339247703552,80.0,40642.0,1.0
14294.6493403,290823.21875,297868.03125,368406.75,364511.90625,288032.90625,257977.40625,224354.125,245808.046875,0.019287109375,0.994384765625,0.19482421875,0.3967284858226776,-1.2207030057907104,-0.6103515028953552,80.0,40643.0,1.0
14294.6493415,290858.15625,298145.90625,368588.15625,364524.25,288129.75,258036.6875,224412.515625,245826.46875,0.020263671875,0.99462890625,0.192138671875,0.2746581733226776,-1.1291502714157104,-0.5798339247703552,80.0,40644.0,1.0
14294.6493428,290843.78125,298382.03125,368673.4375,364478.375,288180.25,258068.421875,224423.328125,245800.265625,0.019775390625,0.994873046875,0.195556640625,0.2441406100988388,-1.0375975370407104,-0.5798339247703552,80.0,40645.0,1.0
14294.6517222,290809.96875,298268.9375,368567.15625,364451.1875,288131.78125,258043.84375,224394.984375,245786.40625,0.01806640625,0.99267578125,0.193359375,0.2746581733226776,-1.0375975370407104,-0.5798339247703552,80.0,40646.0,1.0
14294.6555061,290800.3125,297955.75,368402.625,364470.875,288044.53125,258000.296875,224359.765625,245792.046875,0.017578125,0.99365234375,0.193115234375,0.3967284858226776,-0.9460448622703552,-0.5798339247703552,80.0,40647.0,1.0
14294.6555243,290833.75,297887.4375,368427.75,364518.15625,288051.78125,258009.0625,224379.609375,245819.21875,0.01904296875,0.9931640625,0.19091796875,0.3662109076976776,-0.8544921278953552,-0.7019042372703552,80.0,40648.0,1.0
14294.6555255,290863.34375,298160.40625,368605.59375,364526.65625,288144.65625,258065.03125,224436.296875,245845.15625,0.015380859375,0.994384765625,0.18994140625,0.4882812201976776,-0.9765624403953552,-0.7324218153953552,80.0,40649.0,1.0
14294.6555267,290851.09375,298399.65625,368693.375,364484.46875,288198.03125,258100.078125,224453.375,245832.453125,0.015869140625,0.995849609375,0.19189453125,0.6408690810203552,-1.0070799589157104,-0.8544921278953552,80.0,40650.0,1.0
14294.6555279,290818.90625,298289.5,368592.25,364455.03125,288147.625,258061.90625,224412.953125,245805.625,0.013916015625,0.996337890625,0.195068359375,0.6713866591453552,-1.0375975370407104,-1.0070799589157104,80.0,40651.0,1.0
14294.6584946,290808.5625,297972.90625,368420.5,364477.65625,288057.125,258018.625,224378.796875,245812.0625,0.013916015625,0.99951171875,0.1943359375,0.6408690810203552,-1.0681151151657104,-1.0375975370407104,80.0,40652.0,1.0
14294.6585082,290836.53125,297891.90625,368422.84375,364521.28125,288053.375,258018.890625,224393.90625,245829.953125,0.013427734375,0.999755859375,0.194091796875,0.6408690810203552,-1.1901854276657104,-1.0070799589157104,80.0,40653.0,1.0
14294.6846767,290862.90625,298159.5,368598.4375,364514.0625,288142.0625,258067.890625,224435.125,245828.96875,0.01220703125,1.00048828125,0.198486328125,0.6103515028953552,-1.2207030057907104,-1.2512205839157104,80.0,40654.0,1.0
14294.6846882,290848.34375,298381.125,368670.21875,364472.21875,288187.40625,258093.734375,224449.34375,245819.484375,0.01318359375,0.9990234375,0.197509765625,0.6713866591453552,-1.2817381620407104,-1.2207030057907104,80.0,40655.0,1.0
14294.6846895,290818.375,298270.46875,368560.4375,364447.53125,288134.21875,258063.328125,224413.3125,245810.1875,0.015380859375,0.997802734375,0.19384765625,0.6103515028953552,-1.3122557401657104,-1.1596678495407104,80.0,40656.0,1.0
14294.6846907,290812.03125,297963.0625,368398.875,364466.75,288044.53125,257997.25,224357.34375,245808.671875,0.015625,0.9990234375,0.193115234375,0.4882812201976776,-1.4343260526657104,-1.1901854276657104,80.0,40657.0,1.0
14294.6846919,290850.84375,297904.15625,368431.96875,364517.09375,288058.125,258001.375,224380.328125,245830.3125,0.01416015625,0.99560546875,0.1904296875,0.4882812201976776,-1.4648436307907104,-1.1901854276657104,80.0,40658.0,1.0
14294.6846931,290879.1875,298170.3125,368603.8125,364522.1875,288145.65625,258056.0,224427.53125,245831.921875,0.01513671875,0.99267578125,0.1943359375,0.4272460639476776,-1.5563963651657104,-1.2207030057907104,80.0,40659.0,1.0
14294.7078992,290859.96875,298389.1875,368671.75,364474.8125,288186.875,258066.8125,224429.9375,245818.78125,0.014892578125,0.992919921875,0.192626953125,0.5798339247703552,-1.5869139432907104,-1.1291502714157104,80.0,40660.0,1.0
14294.7316606,290826.0625,298267.5,368562.75,364448.59375,288134.84375,258027.296875,224395.875,245809.390625,0.013671875,0.99560546875,0.192626953125,0.6408690810203552,-1.6174315214157104,-1.0681151151657104,80.0,40661.0,1.0
14294.7341583,290821.34375,297963.4375,368395.75,364467.03125,288045.34375,257989.75,224358.15625,245803.75,0.013671875,0.99609375,0.193359375,0.6408690810203552,-1.7395018339157104,-1.0986326932907104,80.0,40662.0,1.0
14294.7366294,290849.75,297894.21875,368407.0,364507.96875,288046.59375,257996.546875,224378.09375,245829.59375,0.013916015625,0.99609375,0.193115234375,0.7324218153953552,-1.7395018339157104,-1.0070799589157104,80.0,40663.0,1.0
14294.739145,290874.8125,298163.875,368582.59375,364512.4375,288137.0625,258049.828125,224427.171875,245833.890625,0.015625,0.996826171875,0.193603515625,0.6103515028953552,-1.8005369901657104,-0.8850097060203552,80.0,40664.0,1.0
14294.7416566,290861.75,298397.6875,368671.21875,364472.75,288190.34375,258080.765625,224437.1875,245814.578125,0.015625,0.996337890625,0.195556640625,0.4577636420726776,-1.6784666776657104,-0.8239745497703552,80.0,40665.0,1.0
14294.7447592,290861.75,298397.6875,368671.21875,364472.75,288190.34375,258080.765625,224437.1875,245814.578125,0.015625,0.996337890625,0.195556640625,0.4577636420726776,-1.6784666776657104,-0.8239745497703552,80.0,40666.0,0.0
14294.7447635,290861.75,298397.6875,368671.21875,364472.75,288190.34375,258080.765625,224437.1875,245814.578125,0.015625,0.996337890625,0.195556640625,0.4577636420726776,-1.6784666776657104,-0.8239745497703552,80.0,40667.0,0.0
14294.7447648,290861.75,298397.6875,368671.21875,364472.75,288190.34375,258080.765625,224437.1875,245814.578125,0.015625,0.996337890625,0.195556640625,0.4577636420726776,-1.6784666776657104,-0.8239745497703552,80.0,40668.0,0.0
14294.7447661,290861.75,298397.6875,368671.21875,364472.75,288190.34375,258080.765625,224437.1875,245814.578125,0.015625,0.996337890625,0.195556640625,0.4577636420726776,-1.6784666776657104,-0.8239745497703552,80.0,40669.0,0.0
14294.7447673,290861.75,298397.6875,368671.21875,364472.75,288190.34375,258080.765625,224437.1875,245814.578125,0.015625,0.996337890625,0.195556640625,0.4577636420726776,-1.6784666776657104,-0.8239745497703552,80.0,40670.0,0.0
14294.7447685,290861.75,298397.6875,368671.21875,364472.75,288190.34375,258080.765625,224437.1875,245814.578125,0.015625,0.996337890625,0.195556640625,0.4577636420726776,-1.6784666776657104,-0.8239745497703552,80.0,40671.0,0.0
14294.7447697,290861.75,298397.6875,368671.21875,364472.75,288190.34375,258080.765625,224437.1875,245814.578125,0.015625,0.996337890625,0.195556640625,0.4577636420726776,-1.6784666776657104,-0.8239745497703552,80.0,40672.0,0.0
14294.7447708,290861.75,298397.6875,368671.21875,364472.75,288190.34375,258080.765625,224437.1875,245814.578125,0.015625,0.996337890625,0.195556640625,0.4577636420726776,-1.6784666776657104,-0.8239745497703552,80.0,40673.0,0.0
14294.7447718,290861.75,298397.6875,368671.21875,364472.75,288190.34375,258080.765625,224437.1875,245814.578125,0.015625,0.996337890625,0.195556640625,0.4577636420726776,-1.6784666776657104,-0.8239745497703552,80.0,40674.0,0.0
14294.7447732,290861.75,298397.6875,368671.21875,364472.75,288190.34375,258080.765625,224437.1875,245814.578125,0.015625,0.996337890625,0.195556640625,0.4577636420726776,-1.6784666776657104,-0.8239745497703552,80.0,40675.0,0.0
14294.7447742,290861.75,298397.6875,368671.21875,364472.75,288190.34375,258080.765625,224437.1875,245814.578125,0.015625,0.996337890625,0.195556640625,0.4577636420726776,-1.6784666776657104,-0.8239745497703552,80.0,40676.0,0.0
14294.7447743,290861.75,298397.6875,368671.21875,364472.75,288190.34375,258080.765625,224437.1875,245814.578125,0.015625,0.996337890625,0.195556640625,0.4577636420726776,-1.6784666776657104,-0.8239745497703552,80.0,40677.0,0.0
14294.7447745,290861.75,298397.6875,368671.21875,364472.75,288190.34375,258080.765625,224437.1875,245814.578125,0.015625,0.996337890625,0.195556640625,0.4577636420726776,-1.6784666776657104,-0.8239745497703552,80.0,40678.0,0.0
14294.7447747,290861.75,298397.6875,368671.21875,364472.75,288190.34375,258080.765625,224437.1875,245814.578125,0.015625,0.996337890625,0.195556640625,0.4577636420726776,-1.6784666776657104,-0.8239745497703552,80.0,40679.0,0.0
14294.7447749,290942.9375,298417.4375,368685.25,364498.21875,288208.6875,258086.3125,224444.15625,245835.5,0.021484375,0.99267578125,0.193603515625,0.3662109076976776,-2.075195074081421,-0.9460448622703552,80.0,40680.0,1.0
14294.7447783,290917.53125,298298.4375,368578.5,364483.125,288158.0625,258058.6875,224422.25,245836.484375,0.019287109375,0.99169921875,0.193359375,0.4272460639476776,-1.9531248807907104,-0.8544921278953552,80.0,40681.0,1.0
14294.7473102,290911.625,297995.09375,368413.0,364505.28125,288065.625,258011.109375,224383.1875,245843.625,0.018798828125,0.991943359375,0.196533203125,0.5187987685203552,-1.8920897245407104,-0.7324218153953552,80.0,40682.0,1.0
14294.7473234,290943.90625,297927.125,368429.0,364533.8125,288062.9375,258012.8125,224383.265625,245844.34375,0.018310546875,0.993408203125,0.194091796875,0.6713866591453552,-1.7395018339157104,-0.7629393935203552,80.0,40683.0,1.0
14294.7508954,290974.5,298195.875,368606.375,364541.21875,288151.71875,258062.4375,224426.90625,245846.9375,0.021240234375,0.992919921875,0.19140625,0.6713866591453552,-1.7700194120407104,-0.7324218153953552,80.0,40684.0,1.0
14294.7508975,290965.90625,298424.9375,368687.84375,364504.5625,288203.75,258089.96875,224447.28125,245845.421875,0.01904296875,0.990966796875,0.19091796875,0.7324218153953552,-1.5258787870407104,-0.7934569716453552,80.0,40685.0,1.0
14294.7508988,290935.0625,298306.5625,368577.5,364479.71875,288150.84375,258056.984375,224411.703125,245833.34375,0.02001953125,0.992431640625,0.192138671875,0.8850097060203552,-1.4343260526657104,-0.7629393935203552,80.0,40686.0,1.0
14294.7509,290922.28125,297989.8125,368405.21875,364497.78125,288060.1875,258014.15625,224374.328125,245837.90625,0.02197265625,0.99267578125,0.1923828125,0.9460448622703552,-1.2817381620407104,-0.6713866591453552,80.0,40687.0,1.0
14294.7509012,290962.3125,297930.0,368426.40625,364545.0,288070.28125,258027.921875,224394.0,245852.84375,0.022216796875,0.99267578125,0.196044921875,0.9460448622703552,-1.1901854276657104,-0.7324218153953552,80.0,40688.0,1.0
14294.7509025,290992.375,298202.59375,368609.78125,364554.28125,288163.96875,258067.796875,224439.953125,245865.171875,0.02099609375,0.99267578125,0.192626953125,0.9765624403953552,-1.0986326932907104,-0.6408690810203552,80.0,40689.0,1.0
14294.7528376,290977.875,298430.3125,368695.0,364512.96875,288213.78125,258090.78125,224449.609375,245849.53125,0.021484375,0.994873046875,0.191650390625,0.9765624403953552,-1.0070799589157104,-0.6408690810203552,80.0,40690.0,1.0
14294.7779236,290977.875,298430.3125,368695.0,364512.96875,288213.78125,258090.78125,224449.609375,245849.53125,0.021484375,0.994873046875,0.191650390625,0.9765624403953552,-1.0070799589157104,-0.6408690810203552,80.0,40691.0,0.0
14294.7779244,290977.875,298430.3125,368695.0,364512.96875,288213.78125,258090.78125,224449.609375,245849.53125,0.021484375,0.994873046875,0.191650390625,0.9765624403953552,-1.0070799589157104,-0.6408690810203552,80.0,40692.0,0.0
14294.7779246,290977.875,298430.3125,368695.0,364512.96875,288213.78125,258090.78125,224449.609375,245849.53125,0.021484375,0.994873046875,0.191650390625,0.9765624403953552,-1.0070799589157104,-0.6408690810203552,80.0,40693.0,0.0
14294.7779248,290977.875,298430.3125,368695.0,364512.96875,288213.78125,258090.78125,224449.609375,245849.53125,0.021484375,0.994873046875,0.191650390625,0.9765624403953552,-1.0070799589157104,-0.6408690810203552,80.0,40694.0,0.0
14294.777925,290977.875,298430.3125,368695.0,364512.96875,288213.78125,258090.78125,224449.609375,245849.53125,0.021484375,0.994873046875,0.191650390625,0.9765624403953552,-1.0070799589157104,-0.6408690810203552,80.0,40695.0,0.0
14294.7779252,290977.875,298430.3125,368695.0,364512.96875,288213.78125,258090.78125,224449.609375,245849.53125,0.021484375,0.994873046875,0.191650390625,0.9765624403953552,-1.0070799589157104,-0.6408690810203552,80.0,40696.0,0.0
14294.7779253,290977.875,298430.3125,368695.0,364512.96875,288213.78125,258090.78125,224449.609375,245849.53125,0.021484375,0.994873046875,0.191650390625,0.9765624403953552,-1.0070799589157104,-0.6408690810203552,80.0,40697.0,0.0
14294.7779255,290977.875,298430.3125,368695.0,364512.96875,288213.78125,258090.78125,224449.609375,245849.53125,0.021484375,0.994873046875,0.191650390625,0.9765624403953552,-1.0070799589157104,-0.6408690810203552,80.0,40698.0,0.0
14294.7779257,290977.875,298430.3125,368695.0,364512.96875,288213.78125,258090.78125,224449.609375,245849.53125,0.021484375,0.994873046875,0.191650390625,0.9765624403953552,-1.0070799589157104,-0.6408690810203552,80.0,40699.0,0.0
14294.7779259,290977.875,298430.3125,368695.0,364512.96875,288213.78125,258090.78125,224449.609375,245849.53125,0.021484375,0.994873046875,0.191650390625,0.9765624403953552,-1.0070799589157104,-0.6408690810203552,80.0,40700.0,0.0
