Time,FZ,C3,CZ,C4,PZ,PO7,OZ,PO8,AccX,AccY,AccZ,Gyro1,Gyro2,Gyro3,Battery,Counter,Validation
14227.1728418,290889.0,300085.9375,390929.4375,384402.71875,288923.9375,258549.4375,224500.84375,246757.90625,0.01953125,0.994140625,0.236572265625,0.4577636420726776,-2.807616949081421,-1.7395018339157104,80.0,23692.0,1.0
14227.1728592,290889.8125,300396.28125,391150.8125,384381.96875,289026.03125,258580.640625,224531.953125,246756.46875,0.017578125,0.99658203125,0.237060546875,0.4577636420726776,-2.807616949081421,-1.5258787870407104,80.0,23693.0,1.0
14227.1728647,290889.8125,300396.28125,391150.8125,384381.96875,289026.03125,258580.640625,224531.953125,246756.46875,0.017578125,0.99658203125,0.237060546875,0.4577636420726776,-2.807616949081421,-1.5258787870407104,80.0,23694.0,0.0
14227.1728651,290889.8125,300396.28125,391150.8125,384381.96875,289026.03125,258580.640625,224531.953125,246756.46875,0.017578125,0.99658203125,0.237060546875,0.4577636420726776,-2.807616949081421,-1.5258787870407104,80.0,23695.0,0.0
14227.1728654,290889.8125,300396.28125,391150.8125,384381.96875,289026.03125,258580.640625,224531.953125,246756.46875,0.017578125,0.99658203125,0.237060546875,0.4577636420726776,-2.807616949081421,-1.5258787870407104,80.0,23696.0,0.0
14227.1728658,290889.8125,300396.28125,391150.8125,384381.96875,289026.03125,258580.640625,224531.953125,246756.46875,0.017578125,0.99658203125,0.237060546875,0.4577636420726776,-2.807616949081421,-1.5258787870407104,80.0,23697.0,0.0
14227.1728661,290889.8125,300396.28125,391150.8125,384381.96875,289026.03125,258580.640625,224531.953125,246756.46875,0.017578125,0.99658203125,0.237060546875,0.4577636420726776,-2.807616949081421,-1.5258787870407104,80.0,23698.0,0.0
14227.1728664,290889.8125,300396.28125,391150.8125,384381.96875,289026.03125,258580.640625,224531.953125,246756.46875,0.017578125,0.99658203125,0.237060546875,0.4577636420726776,-2.807616949081421,-1.5258787870407104,80.0,23699.0,0.0
14227.1728667,290889.8125,300396.28125,391150.8125,384381.96875,289026.03125,258580.640625,224531.953125,246756.46875,0.017578125,0.99658203125,0.237060546875,0.4577636420726776,-2.807616949081421,-1.5258787870407104,80.0,23700.0,0.0
14227.172867,290889.8125,300396.28125,391150.8125,384381.96875,289026.03125,258580.640625,224531.953125,246756.46875,0.017578125,0.99658203125,0.237060546875,0.4577636420726776,-2.807616949081421,-1.5258787870407104,80.0,23701.0,0.0
14227.1728673,290889.8125,300396.28125,391150.8125,384381.96875,289026.03125,258580.640625,224531.953125,246756.46875,0.017578125,0.99658203125,0.237060546875,0.4577636420726776,-2.807616949081421,-1.5258787870407104,80.0,23702.0,0.0
14227.1728677,290889.8125,300396.28125,391150.8125,384381.96875,289026.03125,258580.640625,224531.953125,246756.46875,0.017578125,0.99658203125,0.237060546875,0.4577636420726776,-2.807616949081421,-1.5258787870407104,80.0,23703.0,0.0
14227.1728679,290889.8125,300396.28125,391150.8125,384381.96875,289026.03125,258580.640625,224531.953125,246756.46875,0.017578125,0.99658203125,0.237060546875,0.4577636420726776,-2.807616949081421,-1.5258787870407104,80.0,23704.0,0.0
14227.1728683,290889.8125,300396.28125,391150.8125,384381.96875,289026.03125,258580.640625,224531.953125,246756.46875,0.017578125,0.99658203125,0.237060546875,0.4577636420726776,-2.807616949081421,-1.5258787870407104,80.0,23705.0,0.0
14227.1728686,290889.8125,300396.28125,391150.8125,384381.96875,289026.03125,258580.640625,224531.953125,246756.46875,0.017578125,0.99658203125,0.237060546875,0.4577636420726776,-2.807616949081421,-1.5258787870407104,80.0,23706.0,0.0
14227.1728689,290889.8125,300396.28125,391150.8125,384381.96875,289026.03125,258580.640625,224531.953125,246756.46875,0.017578125,0.99658203125,0.237060546875,0.4577636420726776,-2.807616949081421,-1.5258787870407104,80.0,23707.0,0.0
14227.1728692,290889.8125,300396.28125,391150.8125,384381.96875,289026.03125,258580.640625,224531.953125,246756.46875,0.017578125,0.99658203125,0.237060546875,0.4577636420726776,-2.807616949081421,-1.5258787870407104,80.0,23708.0,0.0
14227.1728695,290889.8125,300396.28125,391150.8125,384381.96875,289026.03125,258580.640625,224531.953125,246756.46875,0.017578125,0.99658203125,0.237060546875,0.4577636420726776,-2.807616949081421,-1.5258787870407104,80.0,23709.0,0.0
14227.1728698,290889.8125,300396.28125,391150.8125,384381.96875,289026.03125,258580.640625,224531.953125,246756.46875,0.017578125,0.99658203125,0.237060546875,0.4577636420726776,-2.807616949081421,-1.5258787870407104,80.0,23710.0,0.0
14227.1728701,290889.8125,300396.28125,391150.8125,384381.96875,289026.03125,258580.640625,224531.953125,246756.46875,0.017578125,0.99658203125,0.237060546875,0.4577636420726776,-2.807616949081421,-1.5258787870407104,80.0,23711.0,0.0
14227.1728704,290889.8125,300396.28125,391150.8125,384381.96875,289026.03125,258580.640625,224531.953125,246756.46875,0.017578125,0.99658203125,0.237060546875,0.4577636420726776,-2.807616949081421,-1.5258787870407104,80.0,23712.0,0.0
14227.1728707,290889.8125,300396.28125,391150.8125,384381.96875,289026.03125,258580.640625,224531.953125,246756.46875,0.017578125,0.99658203125,0.237060546875,0.4577636420726776,-2.807616949081421,-1.5258787870407104,80.0,23713.0,0.0
14227.172871,290889.8125,300396.28125,391150.8125,384381.96875,289026.03125,258580.640625,224531.953125,246756.46875,0.017578125,0.99658203125,0.237060546875,0.4577636420726776,-2.807616949081421,-1.5258787870407104,80.0,23714.0,0.0
14227.1728713,290889.8125,300396.28125,391150.8125,384381.96875,289026.03125,258580.640625,224531.953125,246756.46875,0.017578125,0.99658203125,0.237060546875,0.4577636420726776,-2.807616949081421,-1.5258787870407104,80.0,23715.0,0.0
14227.1728718,290889.8125,300396.28125,391150.8125,384381.96875,289026.03125,258580.640625,224531.953125,246756.46875,0.017578125,0.99658203125,0.237060546875,0.4577636420726776,-2.807616949081421,-1.5258787870407104,80.0,23716.0,0.0
14227.1728721,290889.8125,300396.28125,391150.8125,384381.96875,289026.03125,258580.640625,224531.953125,246756.46875,0.017578125,0.99658203125,0.237060546875,0.4577636420726776,-2.807616949081421,-1.5258787870407104,80.0,23717.0,0.0
14227.1728725,290889.8125,300396.28125,391150.8125,384381.96875,289026.03125,258580.640625,224531.953125,246756.46875,0.017578125,0.99658203125,0.237060546875,0.4577636420726776,-2.807616949081421,-1.5258787870407104,80.0,23718.0,0.0
14227.1728751,290889.8125,300396.28125,391150.8125,384381.96875,289026.03125,258580.640625,224531.953125,246756.46875,0.017578125,0.99658203125,0.237060546875,0.4577636420726776,-2.807616949081421,-1.5258787870407104,80.0,23719.0,0.0
14227.1728755,290889.8125,300396.28125,391150.8125,384381.96875,289026.03125,258580.640625,224531.953125,246756.46875,0.017578125,0.99658203125,0.237060546875,0.4577636420726776,-2.807616949081421,-1.5258787870407104,80.0,23720.0,0.0
14227.1728758,290889.8125,300396.28125,391150.8125,384381.96875,289026.03125,258580.640625,224531.953125,246756.46875,0.017578125,0.99658203125,0.237060546875,0.4577636420726776,-2.807616949081421,-1.5258787870407104,80.0,23721.0,0.0
14227.1728761,290889.8125,300396.28125,391150.8125,384381.96875,289026.03125,258580.640625,224531.953125,246756.46875,0.017578125,0.99658203125,0.237060546875,0.4577636420726776,-2.807616949081421,-1.5258787870407104,80.0,23722.0,0.0
14227.1728764,290889.8125,300396.28125,391150.8125,384381.96875,289026.03125,258580.640625,224531.953125,246756.46875,0.017578125,0.99658203125,0.237060546875,0.4577636420726776,-2.807616949081421,-1.5258787870407104,80.0,23723.0,0.0
14227.1728767,290889.8125,300396.28125,391150.8125,384381.96875,289026.03125,258580.640625,224531.953125,246756.46875,0.017578125,0.99658203125,0.237060546875,0.4577636420726776,-2.807616949081421,-1.5258787870407104,80.0,23724.0,0.0
14227.172877,290889.8125,300396.28125,391150.8125,384381.96875,289026.03125,258580.640625,224531.953125,246756.46875,0.017578125,0.99658203125,0.237060546875,0.4577636420726776,-2.807616949081421,-1.5258787870407104,80.0,23725.0,0.0
14227.1728773,290889.8125,300396.28125,391150.8125,384381.96875,289026.03125,258580.640625,224531.953125,246756.46875,0.017578125,0.99658203125,0.237060546875,0.4577636420726776,-2.807616949081421,-1.5258787870407104,80.0,23726.0,0.0
14227.1728776,290889.8125,300396.28125,391150.8125,384381.96875,289026.03125,258580.640625,224531.953125,246756.46875,0.017578125,0.99658203125,0.237060546875,0.4577636420726776,-2.807616949081421,-1.5258787870407104,80.0,23727.0,0.0
14227.1728779,291000.3125,300403.875,391101.28125,384372.15625,289033.625,258589.40625,224536.96875,246756.921875,0.030517578125,0.990234375,0.247802734375,2.929687261581421,-1.9226073026657104,0.2746581733226776,80.0,23728.0,1.0
14227.1728801,290944.90625,300158.5625,390960.5625,384340.59375,288944.6875,258536.203125,224485.640625,246742.4375,0.03125,0.992431640625,0.249267578125,3.234863042831421,-1.7700194120407104,0.3051757514476776,80.0,23729.0,1.0
14227.172882,290907.0,299703.1875,390644.5,384322.53125,288779.90625,258459.9375,224411.53125,246717.578125,0.031005859375,0.995849609375,0.251220703125,3.570556402206421,-1.7395018339157104,0.2441406100988388,80.0,23730.0,1.0
14227.1728839,290943.28125,299673.34375,390598.8125,384358.65625,288787.78125,258481.03125,224451.21875,246757.1875,0.0322265625,1.00048828125,0.25390625,3.662109136581421,-1.5869139432907104,0.2441406100988388,80.0,23731.0,1.0
14227.1728857,290980.3125,300096.59375,390869.8125,384370.71875,288933.9375,258558.734375,224519.171875,246750.578125,0.0302734375,1.005615234375,0.24951171875,3.631591558456421,-1.5563963651657104,0.3051757514476776,80.0,23732.0,1.0
14227.1728874,290978.5,300409.25,391096.4375,384359.71875,289035.4375,258587.078125,224532.40625,246748.875,0.028564453125,1.00830078125,0.25537109375,3.448486089706421,-1.5258787870407104,0.2746581733226776,80.0,23733.0,1.0
14227.1728894,290916.09375,300150.25,390943.03125,384317.6875,288936.375,258512.328125,224465.96875,246743.875,0.030517578125,1.00634765625,0.25390625,3.326415777206421,-1.5869139432907104,0.2746581733226776,80.0,23734.0,1.0
14227.2486547,290878.90625,299693.0,390628.9375,384300.09375,288782.59375,258463.875,224411.875,246724.203125,0.03076171875,1.00390625,0.25341796875,3.265380620956421,-1.5563963651657104,0.3662109076976776,80.0,23735.0,1.0
14227.2486734,290906.90625,299660.09375,390580.40625,384322.15625,288779.90625,258478.796875,224430.921875,246729.75,0.029052734375,1.001953125,0.251953125,3.326415777206421,-1.5563963651657104,0.3051757514476776,80.0,23736.0,1.0
14227.2486758,290959.90625,300101.5,390871.59375,384354.96875,288941.8125,258539.6875,224505.140625,246757.734375,0.029541015625,1.002685546875,0.252685546875,3.570556402206421,-1.4953612089157104,0.2136230319738388,80.0,23737.0,1.0
14227.2486779,290965.71875,300422.125,391110.9375,384354.90625,289055.0,258590.5625,224543.21875,246772.75,0.02587890625,1.00390625,0.255126953125,3.631591558456421,-1.5258787870407104,0.0610351525247097,80.0,23738.0,1.0
14227.2486802,290965.71875,300422.125,391110.9375,384354.90625,289055.0,258590.5625,224543.21875,246772.75,0.02587890625,1.00390625,0.255126953125,3.631591558456421,-1.5258787870407104,0.0610351525247097,80.0,23739.0,0.0
14227.2486805,290965.71875,300422.125,391110.9375,384354.90625,289055.0,258590.5625,224543.21875,246772.75,0.02587890625,1.00390625,0.255126953125,3.631591558456421,-1.5258787870407104,0.0610351525247097,80.0,23740.0,0.0
14227.2486809,290965.71875,300422.125,391110.9375,384354.90625,289055.0,258590.5625,224543.21875,246772.75,0.02587890625,1.00390625,0.255126953125,3.631591558456421,-1.5258787870407104,0.0610351525247097,80.0,23741.0,0.0
14227.2486812,290930.21875,300073.15625,390848.78125,384331.46875,288926.96875,258542.375,224499.765625,246753.53125,0.027587890625,1.003662109375,0.263427734375,3.814697027206421,-2.044677495956421,-0.2441406100988388,80.0,23742.0,1.0
14227.2486831,290929.78125,300382.15625,391067.9375,384318.78125,289024.6875,258578.765625,224523.46875,246749.234375,0.029052734375,1.00537109375,0.2646484375,3.845214605331421,-2.136230230331421,-0.2746581733226776,80.0,23743.0,1.0
14227.248685,290874.71875,300134.15625,390915.3125,384289.0,288934.21875,258538.890625,224481.984375,246730.546875,0.02978515625,1.00341796875,0.261474609375,3.875732183456421,-2.258300542831421,-0.1525878757238388,80.0,23744.0,1.0
14227.248687,290836.53125,299679.15625,390598.4375,384264.9375,288777.65625,258472.453125,224418.59375,246725.8125,0.030029296875,1.002197265625,0.261474609375,3.845214605331421,-2.288818120956421,-0.0915527269244194,80.0,23745.0,1.0
14227.2486895,290871.84375,299649.8125,390565.5625,384295.71875,288781.25,258480.953125,224432.984375,246744.046875,0.029541015625,1.001220703125,0.26171875,4.058837413787842,-2.441406011581421,-0.1220703050494194,80.0,23746.0,1.0
14227.2509503,290925.65625,300078.53125,390851.03125,384322.09375,288931.34375,258547.375,224490.921875,246740.828125,0.028076171875,0.999755859375,0.265869140625,4.333495616912842,-2.532958745956421,-0.1525878757238388,80.0,23747.0,1.0
14227.2540027,290927.5625,300381.4375,391061.125,384312.6875,289028.1875,258572.5,224522.03125,246749.5,0.029296875,0.997802734375,0.2705078125,4.455565929412842,-2.655029058456421,-0.1220703050494194,80.0,23748.0,1.0
14227.2540133,290871.59375,300133.6875,390912.28125,384276.3125,288934.3125,258516.796875,224470.890625,246740.828125,0.028564453125,0.998046875,0.26708984375,4.638671398162842,-2.868652105331421,0.0,80.0,23749.0,1.0
14227.2559474,290825.0,299663.25,390589.25,384250.28125,288767.65625,258459.765625,224402.140625,246715.171875,0.027099609375,0.998046875,0.26953125,4.821776866912842,-2.990722417831421,0.0610351525247097,80.0,23750.0,1.0
14227.2584424,290848.15625,299622.5625,390534.25,384268.0,288757.1875,258467.1875,224408.75,246716.421875,0.027587890625,0.99853515625,0.2734375,5.035399913787842,-3.021239995956421,0.2136230319738388,80.0,23751.0,1.0
14227.260942,290903.5,300056.625,390813.9375,384301.78125,288914.625,258537.71875,224489.578125,246744.140625,0.027099609375,0.994384765625,0.27392578125,5.249022960662842,-3.143310308456421,0.3662109076976776,80.0,23752.0,1.0
14227.2934401,290894.375,300357.65625,391015.96875,384280.5,289005.03125,258561.5,224515.6875,246739.484375,0.026611328125,0.994384765625,0.273193359375,5.523681163787842,-3.448486089706421,0.3662109076976776,80.0,23753.0,1.0
14227.2934567,290859.78125,300130.65625,390892.0625,384259.6875,288931.09375,258515.734375,224461.953125,246724.375,0.02685546875,0.9921875,0.27197265625,5.798339366912842,-3.631591558456421,0.4577636420726776,80.0,23754.0,1.0
14227.2934589,290843.5,299695.25,390600.5,384265.03125,288795.09375,258468.96875,224417.0625,246749.859375,0.026123046875,0.994140625,0.275390625,6.225585460662842,-3.753661870956421,0.4577636420726776,80.0,23755.0,1.0
14227.2934609,290877.65625,299672.4375,390569.40625,384295.0,288801.90625,258499.375,224457.84375,246766.3125,0.0224609375,0.99267578125,0.27685546875,6.469726085662842,-4.028319835662842,0.3967284858226776,80.0,23756.0,1.0
14227.2934628,290924.875,300099.71875,390845.46875,384314.21875,288948.34375,258573.671875,224517.734375,246753.796875,0.0234375,0.99560546875,0.283447265625,6.713866710662842,-4.241942882537842,0.5187987685203552,80.0,23757.0,1.0
14227.2934648,290909.75,300377.6875,391035.21875,384288.28125,289027.90625,258582.96875,224518.015625,246744.859375,0.02490234375,0.995849609375,0.28173828125,6.927489757537842,-4.455565929412842,0.5493163466453552,80.0,23758.0,1.0
14227.2934667,290863.34375,300139.875,390889.375,384260.5625,288940.5625,258544.25,224473.03125,246745.296875,0.02490234375,0.995361328125,0.2822265625,7.141112804412842,-4.730224132537842,0.6408690810203552,80.0,23759.0,1.0
14227.2934686,290831.625,299698.90625,390588.96875,384246.625,288791.0,258495.078125,224416.4375,246729.203125,0.02490234375,0.994384765625,0.282958984375,7.385253429412842,-4.974364757537842,0.7324218153953552,80.0,23760.0,1.0
14227.2934707,290848.875,299657.34375,390543.65625,384255.03125,288778.125,258487.921875,224424.21875,246726.34375,0.021484375,0.99462890625,0.2802734375,7.629394054412842,-5.218505382537842,0.5493163466453552,80.0,23761.0,1.0
14227.2934726,290893.9375,300073.78125,390811.25,384279.53125,288923.9375,258546.578125,224500.125,246755.140625,0.021484375,0.99169921875,0.284912109375,8.026122093200684,-5.554198741912842,0.4272460639476776,80.0,23762.0,1.0
14227.2934746,290892.84375,300366.59375,391007.5,384269.0625,289014.15625,258573.84375,224521.578125,246751.296875,0.02197265625,0.993408203125,0.287109375,8.392333030700684,-5.859374523162842,0.5187987685203552,80.0,23763.0,1.0
14227.3184898,290834.84375,300109.09375,390847.0,384226.5,288910.25,258518.765625,224448.984375,246720.171875,0.020751953125,0.994140625,0.285400390625,8.758543968200684,-6.195067882537842,0.4272460639476776,80.0,23764.0,1.0
14227.3773781,290834.84375,300109.09375,390847.0,384226.5,288910.25,258518.765625,224448.984375,246720.171875,0.020751953125,0.994140625,0.285400390625,8.758543968200684,-6.195067882537842,0.4272460639476776,80.0,23765.0,0.0
14227.3773863,290834.84375,300109.09375,390847.0,384226.5,288910.25,258518.765625,224448.984375,246720.171875,0.020751953125,0.994140625,0.285400390625,8.758543968200684,-6.195067882537842,0.4272460639476776,80.0,23766.0,0.0
14227.3773874,290834.84375,300109.09375,390847.0,384226.5,288910.25,258518.765625,224448.984375,246720.171875,0.020751953125,0.994140625,0.285400390625,8.758543968200684,-6.195067882537842,0.4272460639476776,80.0,23767.0,0.0
14227.3773884,290834.84375,300109.09375,390847.0,384226.5,288910.25,258518.765625,224448.984375,246720.171875,0.020751953125,0.994140625,0.285400390625,8.758543968200684,-6.195067882537842,0.4272460639476776,80.0,23768.0,0.0
14227.3773894,290834.84375,300109.09375,390847.0,384226.5,288910.25,258518.765625,224448.984375,246720.171875,0.020751953125,0.994140625,0.285400390625,8.758543968200684,-6.195067882537842,0.4272460639476776,80.0,23769.0,0.0
14227.3773902,290806.59375,299673.15625,390555.90625,384213.375,288770.0625,258447.78125,224387.390625,246706.765625,0.00537109375,0.97900390625,0.281494140625,11.230467796325684,-8.911131858825684,1.1596678495407104,80.0,23770.0,1.0
14227.3774139,290842.0,299645.0,390536.3125,384243.03125,288775.4375,258463.6875,224402.234375,246721.78125,0.005615234375,0.98095703125,0.279541015625,11.718749046325684,-9.521483421325684,1.3122557401657104,80.0,23771.0,1.0
14227.377418,290890.25,300051.53125,390787.09375,384269.34375,288922.5,258539.0625,224491.8125,246760.859375,0.00634765625,0.978515625,0.282470703125,12.207030296325684,-10.162352561950684,1.6174315214157104,80.0,23772.0,1.0
14227.3774224,290870.96875,300317.78125,390948.21875,384232.3125,288985.375,258542.46875,224480.453125,246720.4375,0.006591796875,0.97802734375,0.28271484375,12.786864280700684,-10.772704124450684,1.7395018339157104,80.0,23773.0,1.0
14227.4010692,290824.71875,300080.9375,390806.6875,384205.5,288900.15625,258502.3125,224432.0,246716.15625,0.009033203125,0.975830078125,0.28466796875,13.519286155700684,-11.230467796325684,1.7395018339157104,80.0,23774.0,1.0
14227.4260398,290797.8125,299655.8125,390524.59375,384196.03125,288756.375,258434.28125,224375.859375,246693.09375,0.01025390625,0.97802734375,0.281005859375,14.160155296325684,-11.718749046325684,1.7700194120407104,80.0,23775.0,1.0
14227.4523005,290845.84375,299662.0625,390521.03125,384242.96875,288782.21875,258475.578125,224427.796875,246729.109375,0.009033203125,0.97705078125,0.27783203125,14.862059593200684,-12.176512718200684,1.7700194120407104,80.0,23776.0,1.0
14227.4847483,290890.96875,300071.65625,390782.53125,384269.78125,288930.28125,258551.21875,224507.734375,246763.625,0.0078125,0.97607421875,0.279296875,15.655516624450684,-12.725829124450684,1.8310545682907104,80.0,23777.0,1.0
14227.5351336,290876.75,300335.21875,390949.71875,384241.96875,289001.71875,258552.828125,224506.921875,246746.1875,0.008056640625,0.9765625,0.27587890625,16.448972702026367,-13.305663108825684,1.7089842557907104,80.0,23778.0,1.0
14227.5351427,290830.90625,300092.46875,390796.9375,384208.96875,288909.09375,258503.390625,224452.921875,246723.65625,0.008056640625,0.979736328125,0.281494140625,17.089841842651367,-13.824461936950684,1.8005369901657104,80.0,23779.0,1.0
14227.535144,290805.15625,299677.8125,390529.78125,384197.09375,288766.9375,258454.3125,224383.265625,246687.984375,0.006103515625,0.97998046875,0.27978515625,17.486570358276367,-14.343260765075684,1.9836424589157104,80.0,23780.0,1.0
14227.5351452,290838.40625,299658.3125,390522.8125,384226.875,288774.4375,258455.375,224405.4375,246712.390625,0.001220703125,0.97802734375,0.280029296875,17.944334030151367,-14.892577171325684,2.227782964706421,80.0,23781.0,1.0
14227.5351465,290895.8125,300072.28125,390781.65625,384259.125,288924.90625,258533.4375,224494.765625,246758.625,-0.004638671875,0.978515625,0.2744140625,18.676755905151367,-15.472411155700684,2.532958745956421,80.0,23782.0,1.0
14227.5351478,290873.0,300319.84375,390921.125,384229.09375,288993.9375,258558.28125,224521.765625,246764.515625,-0.00732421875,0.977783203125,0.26708984375,19.439695358276367,-16.204832077026367,2.807616949081421,80.0,23783.0,1.0
14227.535149,290816.0625,300081.46875,390773.5,384182.78125,288893.625,258493.28125,224441.03125,246700.6875,-0.0068359375,0.98046875,0.26171875,20.019529342651367,-17.059324264526367,3.356933355331421,80.0,23784.0,1.0
14227.5351502,290790.84375,299677.71875,390522.0,384175.1875,288755.84375,258433.109375,224370.484375,246682.625,-0.0009765625,0.975830078125,0.25439453125,20.416257858276367,-18.218992233276367,3.967284917831421,80.0,23785.0,1.0
14227.5351514,290836.875,299676.5625,390529.96875,384221.3125,288778.21875,258475.234375,224410.0,246721.25,0.003662109375,0.967041015625,0.251220703125,20.935056686401367,-19.256589889526367,4.638671398162842,80.0,23786.0,1.0
14227.6021365,290886.59375,300066.46875,390783.0,384248.0625,288917.5,258528.421875,224470.796875,246752.8125,0.01123046875,0.95849609375,0.241455078125,21.728513717651367,-20.019529342651367,5.310058116912842,80.0,23787.0,1.0
14227.6021456,290893.3125,300340.84375,390952.0625,384238.5,289008.6875,258580.546875,224524.171875,246761.296875,0.017333984375,0.951416015625,0.23388671875,22.979734420776367,-20.568845748901367,5.645751476287842,80.0,23788.0,1.0
14227.602147,290849.125,300107.15625,390799.78125,384209.59375,288921.625,258537.71875,224477.234375,246745.921875,0.021240234375,0.954345703125,0.224853515625,24.322507858276367,-20.904539108276367,6.072997570037842,80.0,23789.0,1.0
14227.6021488,290849.125,300107.15625,390799.78125,384209.59375,288921.625,258537.71875,224477.234375,246745.921875,0.021240234375,0.954345703125,0.224853515625,24.322507858276367,-20.904539108276367,6.072997570037842,80.0,23790.0,0.0
14227.6021489,290849.125,300107.15625,390799.78125,384209.59375,288921.625,258537.71875,224477.234375,246745.921875,0.021240234375,0.954345703125,0.224853515625,24.322507858276367,-20.904539108276367,6.072997570037842,80.0,23791.0,0.0
14227.6021491,290849.125,300107.15625,390799.78125,384209.59375,288921.625,258537.71875,224477.234375,246745.921875,0.021240234375,0.954345703125,0.224853515625,24.322507858276367,-20.904539108276367,6.072997570037842,80.0,23792.0,0.0
14227.6021493,290849.125,300107.15625,390799.78125,384209.59375,288921.625,258537.71875,224477.234375,246745.921875,0.021240234375,0.954345703125,0.224853515625,24.322507858276367,-20.904539108276367,6.072997570037842,80.0,23793.0,0.0
14227.6021495,290849.125,300107.15625,390799.78125,384209.59375,288921.625,258537.71875,224477.234375,246745.921875,0.021240234375,0.954345703125,0.224853515625,24.322507858276367,-20.904539108276367,6.072997570037842,80.0,23794.0,0.0
14227.6021496,290849.125,300107.15625,390799.78125,384209.59375,288921.625,258537.71875,224477.234375,246745.921875,0.021240234375,0.954345703125,0.224853515625,24.322507858276367,-20.904539108276367,6.072997570037842,80.0,23795.0,0.0
14227.6021498,290849.125,300107.15625,390799.78125,384209.59375,288921.625,258537.71875,224477.234375,246745.921875,0.021240234375,0.954345703125,0.224853515625,24.322507858276367,-20.904539108276367,6.072997570037842,80.0,23796.0,0.0
14227.60215,290849.125,300107.15625,390799.78125,384209.59375,288921.625,258537.71875,224477.234375,246745.921875,0.021240234375,0.954345703125,0.224853515625,24.322507858276367,-20.904539108276367,6.072997570037842,80.0,23797.0,0.0
14227.6021502,290849.125,300107.15625,390799.78125,384209.59375,288921.625,258537.71875,224477.234375,246745.921875,0.021240234375,0.954345703125,0.224853515625,24.322507858276367,-20.904539108276367,6.072997570037842,80.0,23798.0,0.0
14227.6021504,290849.125,300107.15625,390799.78125,384209.59375,288921.625,258537.71875,224477.234375,246745.921875,0.021240234375,0.954345703125,0.224853515625,24.322507858276367,-20.904539108276367,6.072997570037842,80.0,23799.0,0.0
14227.6021505,290817.5625,299712.84375,390589.25,384187.0625,288803.25,258466.109375,224412.515625,246725.0,0.045166015625,0.96923828125,0.126220703125,33.569332122802734,-24.047849655151367,10.162352561950684,80.0,23800.0,1.0
14227.6021518,290857.375,299717.78125,390627.875,384224.53125,288822.0,258468.796875,224428.609375,246742.625,0.048095703125,0.97216796875,0.118896484375,33.630367279052734,-24.017332077026367,10.253905296325684,80.0,23801.0,1.0
14227.602153,290889.8125,300073.4375,390844.9375,384232.40625,288945.9375,258542.640625,224497.4375,246763.625,0.051025390625,0.972900390625,0.10986328125,33.691402435302734,-23.834226608276367,10.253905296325684,80.0,23802.0,1.0
14227.6021542,290870.5,300283.375,390931.21875,384196.375,288995.46875,258570.625,224518.90625,246758.4375,0.05712890625,0.978515625,0.1015625,33.538814544677734,-23.742673873901367,10.192870140075684,80.0,23803.0,1.0
14227.6021554,290831.78125,300053.9375,390768.5,384168.65625,288909.1875,258525.5625,224471.703125,246744.765625,0.0615234375,0.9833984375,0.096435546875,33.416744232177734,-23.498533248901367,10.162352561950684,80.0,23804.0,1.0
14227.6021566,290820.875,299686.46875,390548.375,384179.5625,288797.59375,258469.6875,224422.34375,246753.609375,0.064208984375,0.98828125,0.090087890625,33.050533294677734,-23.345945358276367,10.040282249450684,80.0,23805.0,1.0
14227.6273337,290857.375,299696.125,390578.875,384208.53125,288816.75,258483.09375,224425.734375,246725.359375,0.071533203125,0.9892578125,0.08251953125,32.562252044677734,-23.132322311401367,9.765624046325684,80.0,23806.0,1.0
14227.6528318,290889.5625,300058.59375,390796.84375,384222.75,288942.1875,258542.90625,224481.984375,246748.34375,0.073974609375,0.986572265625,0.08154296875,31.921384811401367,-22.674558639526367,9.643553733825684,80.0,23807.0,1.0
14227.6528397,290871.3125,300290.25,390910.9375,384188.15625,289007.53125,258573.671875,224499.40625,246746.1875,0.077392578125,0.986328125,0.078369140625,31.249998092651367,-22.094724655151367,9.582518577575684,80.0,23808.0,1.0
14227.6547485,290825.53125,300057.78125,390751.15625,384153.625,288921.625,258534.328125,224462.75,246739.125,0.078857421875,0.9853515625,0.073486328125,30.700681686401367,-21.301267623901367,9.429930686950684,80.0,23809.0,1.0
14227.6573484,290825.53125,300057.78125,390751.15625,384153.625,288921.625,258534.328125,224462.75,246739.125,0.078857421875,0.9853515625,0.073486328125,30.700681686401367,-21.301267623901367,9.429930686950684,80.0,23810.0,0.0
14227.6573518,290825.53125,300057.78125,390751.15625,384153.625,288921.625,258534.328125,224462.75,246739.125,0.078857421875,0.9853515625,0.073486328125,30.700681686401367,-21.301267623901367,9.429930686950684,80.0,23811.0,0.0
14227.657353,290825.53125,300057.78125,390751.15625,384153.625,288921.625,258534.328125,224462.75,246739.125,0.078857421875,0.9853515625,0.073486328125,30.700681686401367,-21.301267623901367,9.429930686950684,80.0,23812.0,0.0
14227.6573543,290825.53125,300057.78125,390751.15625,384153.625,288921.625,258534.328125,224462.75,246739.125,0.078857421875,0.9853515625,0.073486328125,30.700681686401367,-21.301267623901367,9.429930686950684,80.0,23813.0,0.0
14227.6573555,290825.53125,300057.78125,390751.15625,384153.625,288921.625,258534.328125,224462.75,246739.125,0.078857421875,0.9853515625,0.073486328125,30.700681686401367,-21.301267623901367,9.429930686950684,80.0,23814.0,0.0
14227.6573566,290825.53125,300057.78125,390751.15625,384153.625,288921.625,258534.328125,224462.75,246739.125,0.078857421875,0.9853515625,0.073486328125,30.700681686401367,-21.301267623901367,9.429930686950684,80.0,23815.0,0.0
14227.6573578,290825.53125,300057.78125,390751.15625,384153.625,288921.625,258534.328125,224462.75,246739.125,0.078857421875,0.9853515625,0.073486328125,30.700681686401367,-21.301267623901367,9.429930686950684,80.0,23816.0,0.0
14227.6573588,290825.53125,300057.78125,390751.15625,384153.625,288921.625,258534.328125,224462.75,246739.125,0.078857421875,0.9853515625,0.073486328125,30.700681686401367,-21.301267623901367,9.429930686950684,80.0,23817.0,0.0
14227.6573599,290825.53125,300057.78125,390751.15625,384153.625,288921.625,258534.328125,224462.75,246739.125,0.078857421875,0.9853515625,0.073486328125,30.700681686401367,-21.301267623901367,9.429930686950684,80.0,23818.0,0.0
14227.6573609,290825.53125,300057.78125,390751.15625,384153.625,288921.625,258534.328125,224462.75,246739.125,0.078857421875,0.9853515625,0.073486328125,30.700681686401367,-21.301267623901367,9.429930686950684,80.0,23819.0,0.0
14227.6573626,290825.53125,300057.78125,390751.15625,384153.625,288921.625,258534.328125,224462.75,246739.125,0.078857421875,0.9853515625,0.073486328125,30.700681686401367,-21.301267623901367,9.429930686950684,80.0,23820.0,0.0
14227.6573631,290825.53125,300057.78125,390751.15625,384153.625,288921.625,258534.328125,224462.75,246739.125,0.078857421875,0.9853515625,0.073486328125,30.700681686401367,-21.301267623901367,9.429930686950684,80.0,23821.0,0.0
14227.6573633,290825.53125,300057.78125,390751.15625,384153.625,288921.625,258534.328125,224462.75,246739.125,0.078857421875,0.9853515625,0.073486328125,30.700681686401367,-21.301267623901367,9.429930686950684,80.0,23822.0,0.0
14227.6573634,290825.53125,300057.78125,390751.15625,384153.625,288921.625,258534.328125,224462.75,246739.125,0.078857421875,0.9853515625,0.073486328125,30.700681686401367,-21.301267623901367,9.429930686950684,80.0,23823.0,0.0
14227.6573636,290817.65625,300027.84375,390667.46875,384124.3125,288927.4375,258531.28125,224478.9375,246749.234375,0.072998046875,1.014892578125,0.074462890625,15.106200218200684,-10.742186546325684,1.1596678495407104,80.0,23824.0,1.0
14227.6597518,290809.96875,299668.59375,390457.1875,384139.6875,288818.875,258472.546875,224432.53125,246760.234375,0.0732421875,1.01171875,0.082275390625,14.190672874450684,-10.040282249450684,0.7629393935203552,80.0,23825.0,1.0
14227.6655786,290845.125,299685.15625,390483.5625,384171.625,288836.0625,258477.1875,224453.09375,246761.75,0.0751953125,1.01025390625,0.08984375,13.458250999450684,-9.368895530700684,0.1525878757238388,80.0,23826.0,1.0
14227.6655851,290868.09375,300034.09375,390688.21875,384170.90625,288949.15625,258542.8125,224506.296875,246755.046875,0.07763671875,1.008056640625,0.09228515625,12.603758811950684,-8.636473655700684,-0.1831054538488388,80.0,23827.0,1.0
14227.6655865,290853.0625,300253.78125,390789.59375,384147.75,289013.0625,258579.390625,224532.3125,246768.8125,0.079833984375,1.004638671875,0.091552734375,11.810301780700684,-7.843017101287842,-0.4882812201976776,80.0,23828.0,1.0
14227.6655877,290816.40625,300032.3125,390635.375,384128.0625,288931.71875,258539.515625,224478.578125,246756.5625,0.07763671875,1.00048828125,0.093505859375,10.955809593200684,-7.141112804412842,-0.5798339247703552,80.0,23829.0,1.0
14227.665589,290813.5625,299690.59375,390436.09375,384138.53125,288824.25,258490.78125,224435.21875,246740.65625,0.077392578125,0.992431640625,0.09521484375,10.131834983825684,-6.347655773162842,-0.8239745497703552,80.0,23830.0,1.0
14227.6655903,290840.65625,299699.09375,390468.8125,384157.03125,288842.75,258496.0625,224462.484375,246762.828125,0.079833984375,0.9912109375,0.098388671875,9.674071311950684,-5.615233898162842,-1.0375975370407104,80.0,23831.0,1.0
14227.6655917,290851.28125,300032.3125,390665.875,384158.5625,288947.28125,258531.640625,224499.40625,246764.25,0.08203125,0.987060546875,0.099853515625,9.490965843200684,-4.669188976287842,-1.4343260526657104,80.0,23832.0,1.0
14227.6678334,290837.0625,300251.28125,390769.21875,384122.71875,289009.21875,258568.390625,224520.515625,246757.734375,0.08154296875,0.98876953125,0.10205078125,9.368895530700684,-3.875732183456421,-1.5869139432907104,80.0,23833.0,1.0
14227.6678377,290837.0625,300251.28125,390769.21875,384122.71875,289009.21875,258568.390625,224520.515625,246757.734375,0.08154296875,0.98876953125,0.10205078125,9.368895530700684,-3.875732183456421,-1.5869139432907104,80.0,23834.0,0.0
14227.6678379,290837.0625,300251.28125,390769.21875,384122.71875,289009.21875,258568.390625,224520.515625,246757.734375,0.08154296875,0.98876953125,0.10205078125,9.368895530700684,-3.875732183456421,-1.5869139432907104,80.0,23835.0,0.0
14227.6678381,290837.0625,300251.28125,390769.21875,384122.71875,289009.21875,258568.390625,224520.515625,246757.734375,0.08154296875,0.98876953125,0.10205078125,9.368895530700684,-3.875732183456421,-1.5869139432907104,80.0,23836.0,0.0
14227.6678383,290837.0625,300251.28125,390769.21875,384122.71875,289009.21875,258568.390625,224520.515625,246757.734375,0.08154296875,0.98876953125,0.10205078125,9.368895530700684,-3.875732183456421,-1.5869139432907104,80.0,23837.0,0.0
14227.6678385,290837.0625,300251.28125,390769.21875,384122.71875,289009.21875,258568.390625,224520.515625,246757.734375,0.08154296875,0.98876953125,0.10205078125,9.368895530700684,-3.875732183456421,-1.5869139432907104,80.0,23838.0,0.0
14227.6678386,290837.0625,300251.28125,390769.21875,384122.71875,289009.21875,258568.390625,224520.515625,246757.734375,0.08154296875,0.98876953125,0.10205078125,9.368895530700684,-3.875732183456421,-1.5869139432907104,80.0,23839.0,0.0
14227.6678388,290837.0625,300251.28125,390769.21875,384122.71875,289009.21875,258568.390625,224520.515625,246757.734375,0.08154296875,0.98876953125,0.10205078125,9.368895530700684,-3.875732183456421,-1.5869139432907104,80.0,23840.0,0.0
14227.667839,290837.0625,300251.28125,390769.21875,384122.71875,289009.21875,258568.390625,224520.515625,246757.734375,0.08154296875,0.98876953125,0.10205078125,9.368895530700684,-3.875732183456421,-1.5869139432907104,80.0,23841.0,0.0
14227.6678392,290837.0625,300251.28125,390769.21875,384122.71875,289009.21875,258568.390625,224520.515625,246757.734375,0.08154296875,0.98876953125,0.10205078125,9.368895530700684,-3.875732183456421,-1.5869139432907104,80.0,23842.0,0.0
14227.6678394,290837.0625,300251.28125,390769.21875,384122.71875,289009.21875,258568.390625,224520.515625,246757.734375,0.08154296875,0.98876953125,0.10205078125,9.368895530700684,-3.875732183456421,-1.5869139432907104,80.0,23843.0,0.0
14227.6678396,290837.0625,300251.28125,390769.21875,384122.71875,289009.21875,258568.390625,224520.515625,246757.734375,0.08154296875,0.98876953125,0.10205078125,9.368895530700684,-3.875732183456421,-1.5869139432907104,80.0,23844.0,0.0
14227.6678398,290837.0625,300251.28125,390769.21875,384122.71875,289009.21875,258568.390625,224520.515625,246757.734375,0.08154296875,0.98876953125,0.10205078125,9.368895530700684,-3.875732183456421,-1.5869139432907104,80.0,23845.0,0.0
14227.6678399,290837.0625,300251.28125,390769.21875,384122.71875,289009.21875,258568.390625,224520.515625,246757.734375,0.08154296875,0.98876953125,0.10205078125,9.368895530700684,-3.875732183456421,-1.5869139432907104,80.0,23846.0,0.0
14227.6678401,290837.0625,300251.28125,390769.21875,384122.71875,289009.21875,258568.390625,224520.515625,246757.734375,0.08154296875,0.98876953125,0.10205078125,9.368895530700684,-3.875732183456421,-1.5869139432907104,80.0,23847.0,0.0
14227.6678403,290837.0625,300251.28125,390769.21875,384122.71875,289009.21875,258568.390625,224520.515625,246757.734375,0.08154296875,0.98876953125,0.10205078125,9.368895530700684,-3.875732183456421,-1.5869139432907104,80.0,23848.0,0.0
14227.6678404,290837.0625,300251.28125,390769.21875,384122.71875,289009.21875,258568.390625,224520.515625,246757.734375,0.08154296875,0.98876953125,0.10205078125,9.368895530700684,-3.875732183456421,-1.5869139432907104,80.0,23849.0,0.0
14227.6678406,290837.0625,300251.28125,390769.21875,384122.71875,289009.21875,258568.390625,224520.515625,246757.734375,0.08154296875,0.98876953125,0.10205078125,9.368895530700684,-3.875732183456421,-1.5869139432907104,80.0,23850.0,0.0
14227.6678408,290837.0625,300251.28125,390769.21875,384122.71875,289009.21875,258568.390625,224520.515625,246757.734375,0.08154296875,0.98876953125,0.10205078125,9.368895530700684,-3.875732183456421,-1.5869139432907104,80.0,23851.0,0.0
14227.6678409,290837.0625,300251.28125,390769.21875,384122.71875,289009.21875,258568.390625,224520.515625,246757.734375,0.08154296875,0.98876953125,0.10205078125,9.368895530700684,-3.875732183456421,-1.5869139432907104,80.0,23852.0,0.0
14227.6678411,290837.0625,300251.28125,390769.21875,384122.71875,289009.21875,258568.390625,224520.515625,246757.734375,0.08154296875,0.98876953125,0.10205078125,9.368895530700684,-3.875732183456421,-1.5869139432907104,80.0,23853.0,0.0
14227.6678413,290837.0625,300251.28125,390769.21875,384122.71875,289009.21875,258568.390625,224520.515625,246757.734375,0.08154296875,0.98876953125,0.10205078125,9.368895530700684,-3.875732183456421,-1.5869139432907104,80.0,23854.0,0.0
14227.6678414,290837.0625,300251.28125,390769.21875,384122.71875,289009.21875,258568.390625,224520.515625,246757.734375,0.08154296875,0.98876953125,0.10205078125,9.368895530700684,-3.875732183456421,-1.5869139432907104,80.0,23855.0,0.0
14227.6678416,290837.0625,300251.28125,390769.21875,384122.71875,289009.21875,258568.390625,224520.515625,246757.734375,0.08154296875,0.98876953125,0.10205078125,9.368895530700684,-3.875732183456421,-1.5869139432907104,80.0,23856.0,0.0
14227.6678418,290837.0625,300251.28125,390769.21875,384122.71875,289009.21875,258568.390625,224520.515625,246757.734375,0.08154296875,0.98876953125,0.10205078125,9.368895530700684,-3.875732183456421,-1.5869139432907104,80.0,23857.0,0.0
14227.6678419,290837.0625,300251.28125,390769.21875,384122.71875,289009.21875,258568.390625,224520.515625,246757.734375,0.08154296875,0.98876953125,0.10205078125,9.368895530700684,-3.875732183456421,-1.5869139432907104,80.0,23858.0,0.0
14227.6678421,290837.0625,300251.28125,390769.21875,384122.71875,289009.21875,258568.390625,224520.515625,246757.734375,0.08154296875,0.98876953125,0.10205078125,9.368895530700684,-3.875732183456421,-1.5869139432907104,80.0,23859.0,0.0
14227.6678423,290837.0625,300251.28125,390769.21875,384122.71875,289009.21875,258568.390625,224520.515625,246757.734375,0.08154296875,0.98876953125,0.10205078125,9.368895530700684,-3.875732183456421,-1.5869139432907104,80.0,23860.0,0.0
14227.6678425,290837.0625,300251.28125,390769.21875,384122.71875,289009.21875,258568.390625,224520.515625,246757.734375,0.08154296875,0.98876953125,0.10205078125,9.368895530700684,-3.875732183456421,-1.5869139432907104,80.0,23861.0,0.0
14227.6678426,290837.0625,300251.28125,390769.21875,384122.71875,289009.21875,258568.390625,224520.515625,246757.734375,0.08154296875,0.98876953125,0.10205078125,9.368895530700684,-3.875732183456421,-1.5869139432907104,80.0,23862.0,0.0
14227.6678428,290837.0625,300251.28125,390769.21875,384122.71875,289009.21875,258568.390625,224520.515625,246757.734375,0.08154296875,0.98876953125,0.10205078125,9.368895530700684,-3.875732183456421,-1.5869139432907104,80.0,23863.0,0.0
14227.667843,290837.0625,300251.28125,390769.21875,384122.71875,289009.21875,258568.390625,224520.515625,246757.734375,0.08154296875,0.98876953125,0.10205078125,9.368895530700684,-3.875732183456421,-1.5869139432907104,80.0,23864.0,0.0
14227.6678432,290837.0625,300251.28125,390769.21875,384122.71875,289009.21875,258568.390625,224520.515625,246757.734375,0.08154296875,0.98876953125,0.10205078125,9.368895530700684,-3.875732183456421,-1.5869139432907104,80.0,23865.0,0.0
14227.6678433,290837.0625,300251.28125,390769.21875,384122.71875,289009.21875,258568.390625,224520.515625,246757.734375,0.08154296875,0.98876953125,0.10205078125,9.368895530700684,-3.875732183456421,-1.5869139432907104,80.0,23866.0,0.0
14227.6678435,290837.0625,300251.28125,390769.21875,384122.71875,289009.21875,258568.390625,224520.515625,246757.734375,0.08154296875,0.98876953125,0.10205078125,9.368895530700684,-3.875732183456421,-1.5869139432907104,80.0,23867.0,0.0
14227.6678437,290837.0625,300251.28125,390769.21875,384122.71875,289009.21875,258568.390625,224520.515625,246757.734375,0.08154296875,0.98876953125,0.10205078125,9.368895530700684,-3.875732183456421,-1.5869139432907104,80.0,23868.0,0.0
14227.6678438,290837.0625,300251.28125,390769.21875,384122.71875,289009.21875,258568.390625,224520.515625,246757.734375,0.08154296875,0.98876953125,0.10205078125,9.368895530700684,-3.875732183456421,-1.5869139432907104,80.0,23869.0,0.0
14227.667844,290837.0625,300251.28125,390769.21875,384122.71875,289009.21875,258568.390625,224520.515625,246757.734375,0.08154296875,0.98876953125,0.10205078125,9.368895530700684,-3.875732183456421,-1.5869139432907104,80.0,23870.0,0.0
14227.6678442,290837.0625,300251.28125,390769.21875,384122.71875,289009.21875,258568.390625,224520.515625,246757.734375,0.08154296875,0.98876953125,0.10205078125,9.368895530700684,-3.875732183456421,-1.5869139432907104,80.0,23871.0,0.0
14227.6678443,290837.0625,300251.28125,390769.21875,384122.71875,289009.21875,258568.390625,224520.515625,246757.734375,0.08154296875,0.98876953125,0.10205078125,9.368895530700684,-3.875732183456421,-1.5869139432907104,80.0,23872.0,0.0
14227.6678445,290837.0625,300251.28125,390769.21875,384122.71875,289009.21875,258568.390625,224520.515625,246757.734375,0.08154296875,0.98876953125,0.10205078125,9.368895530700684,-3.875732183456421,-1.5869139432907104,80.0,23873.0,0.0
14227.6678447,290837.0625,300251.28125,390769.21875,384122.71875,289009.21875,258568.390625,224520.515625,246757.734375,0.08154296875,0.98876953125,0.10205078125,9.368895530700684,-3.875732183456421,-1.5869139432907104,80.0,23874.0,0.0
14227.6678449,290837.0625,300251.28125,390769.21875,384122.71875,289009.21875,258568.390625,224520.515625,246757.734375,0.08154296875,0.98876953125,0.10205078125,9.368895530700684,-3.875732183456421,-1.5869139432907104,80.0,23875.0,0.0
14227.667845,290826.96875,299704.53125,390456.21875,384085.59375,288845.53125,258498.5625,224472.59375,246776.328125,0.04638671875,0.993896484375,0.123046875,11.077879905700684,-3.387450933456421,-2.532958745956421,80.0,23876.0,1.0
14227.6678464,290856.03125,300041.34375,390670.5,384087.84375,288955.84375,258538.265625,224510.234375,246777.671875,0.044677734375,0.99951171875,0.12255859375,11.047362327575684,-3.845214605331421,-2.685546636581421,80.0,23877.0,1.0
14227.6699259,290851.71875,300253.15625,390762.15625,384075.40625,289009.21875,258562.578125,224519.171875,246768.28125,0.0478515625,1.000732421875,0.12353515625,10.986327171325684,-4.089354991912842,-2.624511480331421,80.0,23878.0,1.0
14227.6739575,290813.03125,300032.75,390625.1875,384072.53125,288931.0,258507.40625,224472.765625,246756.390625,0.049072265625,1.00390625,0.123291015625,10.894774436950684,-4.486083507537842,-2.807616949081421,80.0,23879.0,1.0
14227.6739611,290798.1875,299698.8125,390437.34375,384045.375,288823.4375,258471.65625,224428.875,246744.671875,0.052001953125,1.010986328125,0.12255859375,10.986327171325684,-4.821776866912842,-2.838134527206421,80.0,23880.0,1.0
14227.6739624,290848.4375,299754.625,390515.65625,384108.3125,288873.59375,258514.75,224474.921875,246777.671875,0.0517578125,1.012451171875,0.1181640625,10.894774436950684,-5.157470226287842,-2.624511480331421,80.0,23881.0,1.0
14227.6739635,290873.375,300087.21875,390721.46875,384108.75,288984.46875,258572.234375,224523.734375,246783.203125,0.046875,1.0146484375,0.1142578125,10.833739280700684,-5.523681163787842,-2.716064214706421,80.0,23882.0,1.0
14227.6739647,290850.375,300270.65625,390785.59375,384079.96875,289017.28125,258561.859375,224511.03125,246763.890625,0.043212890625,1.01953125,0.1171875,10.803221702575684,-5.828856945037842,-2.746581792831421,80.0,23883.0,1.0
14227.673966,290807.03125,300012.5625,390606.40625,384034.5625,288914.0,258493.5625,224449.796875,246746.1875,0.04345703125,1.023193359375,0.113525390625,10.711668968200684,-6.256103038787842,-2.929687261581421,80.0,23884.0,1.0
14227.6766147,290801.125,299693.0,390418.75,384032.59375,288813.6875,258467.625,224421.53125,246742.265625,0.044189453125,1.02978515625,0.111328125,10.528563499450684,-6.774901866912842,-3.082275152206421,80.0,23885.0,1.0
14227.6766274,290858.625,299764.90625,390515.3125,384120.46875,288876.0,258518.328125,224478.765625,246789.90625,0.044921875,1.036376953125,0.11474609375,10.375975608825684,-7.171630382537842,-3.143310308456421,80.0,23886.0,1.0
14227.7010236,290863.625,300070.3125,390710.84375,384115.28125,288970.25,258554.0,224515.59375,246773.015625,0.048828125,1.03955078125,0.11181640625,10.040282249450684,-7.446288585662842,-3.051757574081421,80.0,23887.0,1.0
14227.728942,290832.78125,300234.625,390773.59375,384055.375,289004.84375,258561.421875,224512.46875,246757.015625,0.0478515625,1.04296875,0.1103515625,9.613036155700684,-7.781981945037842,-3.051757574081421,80.0,23888.0,1.0
14227.7289568,290787.8125,300008.25,390597.75,383985.90625,288905.0625,258504.46875,224454.984375,246741.09375,0.04638671875,1.044189453125,0.1123046875,9.216307640075684,-8.026122093200684,-3.112792730331421,80.0,23889.0,1.0
14227.7289603,290796.46875,299699.90625,390431.875,384026.0625,288817.09375,258482.46875,224433.34375,246749.953125,0.04443359375,1.04443359375,0.111083984375,8.758543968200684,-8.239745140075684,-3.234863042831421,80.0,23890.0,1.0
14227.7289616,290827.21875,299717.0625,390492.40625,384061.0,288843.375,258506.078125,224454.890625,246760.40625,0.04296875,1.047607421875,0.11083984375,8.453368186950684,-8.453368186950684,-3.540038824081421,80.0,23891.0,1.0
14227.7289628,290850.65625,300048.9375,390694.375,384062.96875,288952.1875,258545.6875,224496.8125,246768.28125,0.04150390625,1.049072265625,0.106689453125,8.087157249450684,-8.758543968200684,-3.845214605331421,80.0,23892.0,1.0
14227.7289642,290829.1875,300237.9375,390764.65625,384022.9375,288995.65625,258556.59375,224501.375,246754.234375,0.044189453125,1.044189453125,0.10546875,7.751464366912842,-8.819579124450684,-4.241942882537842,80.0,23893.0,1.0
14227.752344,290795.3125,300012.625,390605.96875,384003.53125,288912.75,258518.40625,224456.765625,246740.5625,0.044677734375,1.0390625,0.098876953125,7.354735851287842,-8.789061546325684,-4.699706554412842,80.0,23894.0,1.0
14227.7735259,290791.84375,299680.40625,390426.0,384027.40625,288816.125,258482.5625,224425.46875,246745.84375,0.044677734375,1.031982421875,0.094482421875,7.232665538787842,-8.911131858825684,-4.882812023162842,80.0,23895.0,1.0
14227.7760185,290829.125,299710.875,390485.875,384065.65625,288844.625,258496.5,224447.5625,246764.4375,0.044677734375,1.022705078125,0.093017578125,7.049560070037842,-9.002684593200684,-5.035399913787842,80.0,23896.0,1.0
14227.7846809,290852.71875,300038.03125,390679.09375,384064.5,288949.15625,258536.65625,224485.546875,246769.265625,0.045654296875,1.01904296875,0.09033203125,7.019042491912842,-8.972167015075684,-5.187987804412842,80.0,23897.0,1.0
14227.7846888,290833.59375,300228.03125,390742.84375,384024.96875,288992.15625,258557.21875,224498.078125,246757.734375,0.0498046875,1.0078125,0.08251953125,7.141112804412842,-8.758543968200684,-5.401610851287842,80.0,23898.0,1.0
14227.7846902,290802.375,300002.625,390596.65625,384006.90625,288915.0,258514.390625,224461.6875,246751.640625,0.0498046875,1.005615234375,0.08056640625,7.659911632537842,-8.666991233825684,-5.584716320037842,80.0,23899.0,1.0
14227.7846914,290794.0625,299672.8125,390410.875,384023.28125,288811.03125,258465.65625,224418.40625,246748.15625,0.050537109375,1.00390625,0.078369140625,8.239745140075684,-8.392333030700684,-5.706786632537842,80.0,23900.0,1.0
14227.7846926,290830.53125,299703.03125,390472.375,384062.90625,288838.375,258474.15625,224432.71875,246753.703125,0.052490234375,0.99755859375,0.067626953125,8.422850608825684,-7.965087413787842,-6.256103038787842,80.0,23901.0,1.0
14227.7846938,290843.59375,300027.65625,390667.28125,384051.09375,288942.28125,258526.453125,224477.59375,246761.296875,0.049560546875,0.997802734375,0.070068359375,9.521483421325684,-7.659911632537842,-6.378173351287842,80.0,23902.0,1.0
14227.7846951,290826.59375,300214.15625,390731.40625,384017.84375,288988.75,258550.78125,224487.796875,246758.625,0.047119140625,0.991455078125,0.080078125,9.918211936950684,-7.324218273162842,-6.256103038787842,80.0,23903.0,1.0
14227.7846962,290803.4375,300010.65625,390587.0,384008.34375,288922.34375,258514.5625,224454.796875,246752.8125,0.044677734375,0.976806640625,0.08349609375,9.552000999450684,-7.507323741912842,-6.134032726287842,80.0,23904.0,1.0
14227.7846975,290790.9375,299678.0,390393.25,384022.375,288817.71875,258459.3125,224413.40625,246756.390625,0.04833984375,0.95947265625,0.0859375,9.246825218200684,-7.537841320037842,-5.950927257537842,80.0,23905.0,1.0
14227.7873347,290825.34375,299695.4375,390432.59375,384066.5625,288848.84375,258480.765625,224456.234375,246815.03125,0.0498046875,0.93994140625,0.084228515625,9.155272483825684,-7.293700695037842,-5.584716320037842,80.0,23906.0,1.0
14227.7904023,290859.96875,300033.03125,390634.21875,384067.4375,288968.09375,258566.6875,224509.25,246787.953125,0.051513671875,0.93115234375,0.084716796875,9.582518577575684,-6.835937023162842,-5.432128429412842,80.0,23907.0,1.0
14227.7904161,290845.65625,300230.78125,390707.71875,384026.6875,289014.15625,258592.171875,224508.171875,246748.421875,0.050048828125,0.92333984375,0.086669921875,10.040282249450684,-6.256103038787842,-5.432128429412842,80.0,23908.0,1.0
14227.7904233,290802.28125,300015.21875,390553.3125,383993.15625,288922.0625,258519.03125,224433.34375,246711.59375,0.04443359375,0.924560546875,0.0966796875,10.101317405700684,-5.828856945037842,-5.004882335662842,80.0,23909.0,1.0
14227.7923237,290802.28125,300015.21875,390553.3125,383993.15625,288922.0625,258519.03125,224433.34375,246711.59375,0.04443359375,0.924560546875,0.0966796875,10.101317405700684,-5.828856945037842,-5.004882335662842,80.0,23910.0,0.0
14227.7923266,290802.28125,300015.21875,390553.3125,383993.15625,288922.0625,258519.03125,224433.34375,246711.59375,0.04443359375,0.924560546875,0.0966796875,10.101317405700684,-5.828856945037842,-5.004882335662842,80.0,23911.0,0.0
14227.7923279,290802.28125,300015.21875,390553.3125,383993.15625,288922.0625,258519.03125,224433.34375,246711.59375,0.04443359375,0.924560546875,0.0966796875,10.101317405700684,-5.828856945037842,-5.004882335662842,80.0,23912.0,0.0
14227.7923289,290802.28125,300015.21875,390553.3125,383993.15625,288922.0625,258519.03125,224433.34375,246711.59375,0.04443359375,0.924560546875,0.0966796875,10.101317405700684,-5.828856945037842,-5.004882335662842,80.0,23913.0,0.0
14227.79233,290802.28125,300015.21875,390553.3125,383993.15625,288922.0625,258519.03125,224433.34375,246711.59375,0.04443359375,0.924560546875,0.0966796875,10.101317405700684,-5.828856945037842,-5.004882335662842,80.0,23914.0,0.0
14227.7923311,290802.28125,300015.21875,390553.3125,383993.15625,288922.0625,258519.03125,224433.34375,246711.59375,0.04443359375,0.924560546875,0.0966796875,10.101317405700684,-5.828856945037842,-5.004882335662842,80.0,23915.0,0.0
14227.7923323,290802.28125,300015.21875,390553.3125,383993.15625,288922.0625,258519.03125,224433.34375,246711.59375,0.04443359375,0.924560546875,0.0966796875,10.101317405700684,-5.828856945037842,-5.004882335662842,80.0,23916.0,0.0
14227.7923334,290802.28125,300015.21875,390553.3125,383993.15625,288922.0625,258519.03125,224433.34375,246711.59375,0.04443359375,0.924560546875,0.0966796875,10.101317405700684,-5.828856945037842,-5.004882335662842,80.0,23917.0,0.0
14227.7923345,290802.28125,300015.21875,390553.3125,383993.15625,288922.0625,258519.03125,224433.34375,246711.59375,0.04443359375,0.924560546875,0.0966796875,10.101317405700684,-5.828856945037842,-5.004882335662842,80.0,23918.0,0.0
14227.7923356,290802.28125,300015.21875,390553.3125,383993.15625,288922.0625,258519.03125,224433.34375,246711.59375,0.04443359375,0.924560546875,0.0966796875,10.101317405700684,-5.828856945037842,-5.004882335662842,80.0,23919.0,0.0
14227.7923367,290802.28125,300015.21875,390553.3125,383993.15625,288922.0625,258519.03125,224433.34375,246711.59375,0.04443359375,0.924560546875,0.0966796875,10.101317405700684,-5.828856945037842,-5.004882335662842,80.0,23920.0,0.0
14227.7923378,290802.28125,300015.21875,390553.3125,383993.15625,288922.0625,258519.03125,224433.34375,246711.59375,0.04443359375,0.924560546875,0.0966796875,10.101317405700684,-5.828856945037842,-5.004882335662842,80.0,23921.0,0.0
14227.7923388,290802.28125,300015.21875,390553.3125,383993.15625,288922.0625,258519.03125,224433.34375,246711.59375,0.04443359375,0.924560546875,0.0966796875,10.101317405700684,-5.828856945037842,-5.004882335662842,80.0,23922.0,0.0
14227.7923399,290802.28125,300015.21875,390553.3125,383993.15625,288922.0625,258519.03125,224433.34375,246711.59375,0.04443359375,0.924560546875,0.0966796875,10.101317405700684,-5.828856945037842,-5.004882335662842,80.0,23923.0,0.0
14227.7923411,290802.28125,300015.21875,390553.3125,383993.15625,288922.0625,258519.03125,224433.34375,246711.59375,0.04443359375,0.924560546875,0.0966796875,10.101317405700684,-5.828856945037842,-5.004882335662842,80.0,23924.0,0.0
14227.7923423,290802.28125,300015.21875,390553.3125,383993.15625,288922.0625,258519.03125,224433.34375,246711.59375,0.04443359375,0.924560546875,0.0966796875,10.101317405700684,-5.828856945037842,-5.004882335662842,80.0,23925.0,0.0
14227.7923425,290802.28125,300015.21875,390553.3125,383993.15625,288922.0625,258519.03125,224433.34375,246711.59375,0.04443359375,0.924560546875,0.0966796875,10.101317405700684,-5.828856945037842,-5.004882335662842,80.0,23926.0,0.0
14227.7923426,290802.28125,300015.21875,390553.3125,383993.15625,288922.0625,258519.03125,224433.34375,246711.59375,0.04443359375,0.924560546875,0.0966796875,10.101317405700684,-5.828856945037842,-5.004882335662842,80.0,23927.0,0.0
14227.7923428,290840.65625,300240.28125,390704.125,383979.125,289001.53125,258581.4375,224505.578125,246765.78125,0.048583984375,0.934814453125,0.03369140625,7.049560070037842,-2.563476324081421,-2.227782964706421,80.0,23928.0,1.0
14227.7947808,290804.78125,300031.6875,390544.4375,383969.1875,288918.125,258529.3125,224460.078125,246777.578125,0.051025390625,0.9482421875,0.032958984375,7.598876476287842,-2.258300542831421,-2.014159917831421,80.0,23929.0,1.0
14227.8230917,290799.59375,299699.4375,390373.15625,383986.1875,288817.1875,258471.921875,224413.40625,246768.015625,0.0546875,0.9599609375,0.033447265625,7.781981945037842,-1.8310545682907104,-2.227782964706421,80.0,23930.0,1.0
14227.8230977,290837.875,299733.59375,390441.0,384020.25,288842.3125,258487.46875,224421.453125,246756.828125,0.052978515625,0.979736328125,0.039306640625,7.812499523162842,-1.4953612089157104,-2.227782964706421,80.0,23931.0,1.0
14227.823099,290873.53125,300078.96875,390658.53125,384029.1875,288957.46875,258554.984375,224465.265625,246749.6875,0.05029296875,0.9912109375,0.038818359375,7.507323741912842,-1.1291502714157104,-2.410888433456421,80.0,23932.0,1.0
14227.8231002,290855.40625,300274.59375,390735.0625,383979.125,289012.4375,258581.984375,224491.640625,246749.953125,0.046875,1.001220703125,0.039794921875,6.866454601287842,-0.8239745497703552,-2.563476324081421,80.0,23933.0,1.0
14227.8231014,290817.5625,300055.71875,390586.5625,383965.96875,288933.3125,258544.703125,224453.015625,246741.015625,0.04248046875,1.00537109375,0.03857421875,6.164550304412842,-0.5798339247703552,-2.655029058456421,80.0,23934.0,1.0
14227.8231027,290801.84375,299715.625,390401.9375,383972.84375,288817.8125,258462.078125,224391.9375,246732.328125,0.0390625,1.007080078125,0.031494140625,5.462646007537842,-0.4577636420726776,-2.777099370956421,80.0,23935.0,1.0
14227.8231039,290826.96875,299737.25,390460.125,383985.03125,288838.28125,258474.78125,224407.953125,246741.71875,0.03564453125,1.0087890625,0.031005859375,5.218505382537842,-0.2746581733226776,-2.929687261581421,80.0,23936.0,1.0
14227.8466289,290851.90625,300069.3125,390667.21875,383997.625,288956.75,258549.875,224469.734375,246765.5,0.03173828125,1.0126953125,0.023681640625,5.004882335662842,-0.2441406100988388,-3.295898199081421,80.0,23937.0,1.0
14227.8466486,290828.5,300257.78125,390735.15625,383953.625,288998.5,258563.109375,224474.109375,246757.28125,0.02490234375,1.02099609375,0.023681640625,5.065917491912842,-0.2441406100988388,-3.326415777206421,80.0,23938.0,1.0
14227.8466499,290792.90625,300050.71875,390591.375,383932.34375,288919.125,258515.90625,224425.5625,246728.578125,0.023193359375,1.023681640625,0.02001953125,4.730224132537842,-0.3662109076976776,-3.540038824081421,80.0,23939.0,1.0
14227.8711721,290792.90625,300050.71875,390591.375,383932.34375,288919.125,258515.90625,224425.5625,246728.578125,0.023193359375,1.023681640625,0.02001953125,4.730224132537842,-0.3662109076976776,-3.540038824081421,80.0,23940.0,0.0
14227.871173,290792.90625,300050.71875,390591.375,383932.34375,288919.125,258515.90625,224425.5625,246728.578125,0.023193359375,1.023681640625,0.02001953125,4.730224132537842,-0.3662109076976776,-3.540038824081421,80.0,23941.0,0.0
14227.8711732,290792.90625,300050.71875,390591.375,383932.34375,288919.125,258515.90625,224425.5625,246728.578125,0.023193359375,1.023681640625,0.02001953125,4.730224132537842,-0.3662109076976776,-3.540038824081421,80.0,23942.0,0.0
14227.8711734,290792.90625,300050.71875,390591.375,383932.34375,288919.125,258515.90625,224425.5625,246728.578125,0.023193359375,1.023681640625,0.02001953125,4.730224132537842,-0.3662109076976776,-3.540038824081421,80.0,23943.0,0.0
14227.8711735,290792.90625,300050.71875,390591.375,383932.34375,288919.125,258515.90625,224425.5625,246728.578125,0.023193359375,1.023681640625,0.02001953125,4.730224132537842,-0.3662109076976776,-3.540038824081421,80.0,23944.0,0.0
14227.8711737,290792.90625,300050.71875,390591.375,383932.34375,288919.125,258515.90625,224425.5625,246728.578125,0.023193359375,1.023681640625,0.02001953125,4.730224132537842,-0.3662109076976776,-3.540038824081421,80.0,23945.0,0.0
14227.8711739,290792.90625,300050.71875,390591.375,383932.34375,288919.125,258515.90625,224425.5625,246728.578125,0.023193359375,1.023681640625,0.02001953125,4.730224132537842,-0.3662109076976776,-3.540038824081421,80.0,23946.0,0.0
14227.8711741,290792.90625,300050.71875,390591.375,383932.34375,288919.125,258515.90625,224425.5625,246728.578125,0.023193359375,1.023681640625,0.02001953125,4.730224132537842,-0.3662109076976776,-3.540038824081421,80.0,23947.0,0.0
14227.8711743,290792.90625,300050.71875,390591.375,383932.34375,288919.125,258515.90625,224425.5625,246728.578125,0.023193359375,1.023681640625,0.02001953125,4.730224132537842,-0.3662109076976776,-3.540038824081421,80.0,23948.0,0.0
14227.8711744,290792.90625,300050.71875,390591.375,383932.34375,288919.125,258515.90625,224425.5625,246728.578125,0.023193359375,1.023681640625,0.02001953125,4.730224132537842,-0.3662109076976776,-3.540038824081421,80.0,23949.0,0.0
14227.8711746,290792.90625,300050.71875,390591.375,383932.34375,288919.125,258515.90625,224425.5625,246728.578125,0.023193359375,1.023681640625,0.02001953125,4.730224132537842,-0.3662109076976776,-3.540038824081421,80.0,23950.0,0.0
14227.8711748,290792.90625,300050.71875,390591.375,383932.34375,288919.125,258515.90625,224425.5625,246728.578125,0.023193359375,1.023681640625,0.02001953125,4.730224132537842,-0.3662109076976776,-3.540038824081421,80.0,23951.0,0.0
14227.871175,290792.90625,300050.71875,390591.375,383932.34375,288919.125,258515.90625,224425.5625,246728.578125,0.023193359375,1.023681640625,0.02001953125,4.730224132537842,-0.3662109076976776,-3.540038824081421,80.0,23952.0,0.0
14227.8711751,290792.90625,300050.71875,390591.375,383932.34375,288919.125,258515.90625,224425.5625,246728.578125,0.023193359375,1.023681640625,0.02001953125,4.730224132537842,-0.3662109076976776,-3.540038824081421,80.0,23953.0,0.0
14227.8711753,290792.90625,300050.71875,390591.375,383932.34375,288919.125,258515.90625,224425.5625,246728.578125,0.023193359375,1.023681640625,0.02001953125,4.730224132537842,-0.3662109076976776,-3.540038824081421,80.0,23954.0,0.0
14227.8711755,290792.90625,300050.71875,390591.375,383932.34375,288919.125,258515.90625,224425.5625,246728.578125,0.023193359375,1.023681640625,0.02001953125,4.730224132537842,-0.3662109076976776,-3.540038824081421,80.0,23955.0,0.0
14227.8711757,290792.90625,300050.71875,390591.375,383932.34375,288919.125,258515.90625,224425.5625,246728.578125,0.023193359375,1.023681640625,0.02001953125,4.730224132537842,-0.3662109076976776,-3.540038824081421,80.0,23956.0,0.0
14227.8711758,290792.90625,300050.71875,390591.375,383932.34375,288919.125,258515.90625,224425.5625,246728.578125,0.023193359375,1.023681640625,0.02001953125,4.730224132537842,-0.3662109076976776,-3.540038824081421,80.0,23957.0,0.0
14227.871176,290792.90625,300050.71875,390591.375,383932.34375,288919.125,258515.90625,224425.5625,246728.578125,0.023193359375,1.023681640625,0.02001953125,4.730224132537842,-0.3662109076976776,-3.540038824081421,80.0,23958.0,0.0
14227.8711762,290792.90625,300050.71875,390591.375,383932.34375,288919.125,258515.90625,224425.5625,246728.578125,0.023193359375,1.023681640625,0.02001953125,4.730224132537842,-0.3662109076976776,-3.540038824081421,80.0,23959.0,0.0
14227.8711763,290792.90625,300050.71875,390591.375,383932.34375,288919.125,258515.90625,224425.5625,246728.578125,0.023193359375,1.023681640625,0.02001953125,4.730224132537842,-0.3662109076976776,-3.540038824081421,80.0,23960.0,0.0
14227.8711765,290792.90625,300050.71875,390591.375,383932.34375,288919.125,258515.90625,224425.5625,246728.578125,0.023193359375,1.023681640625,0.02001953125,4.730224132537842,-0.3662109076976776,-3.540038824081421,80.0,23961.0,0.0
14227.8711767,290792.90625,300050.71875,390591.375,383932.34375,288919.125,258515.90625,224425.5625,246728.578125,0.023193359375,1.023681640625,0.02001953125,4.730224132537842,-0.3662109076976776,-3.540038824081421,80.0,23962.0,0.0
14227.8711769,290792.90625,300050.71875,390591.375,383932.34375,288919.125,258515.90625,224425.5625,246728.578125,0.023193359375,1.023681640625,0.02001953125,4.730224132537842,-0.3662109076976776,-3.540038824081421,80.0,23963.0,0.0
14227.871177,290792.90625,300050.71875,390591.375,383932.34375,288919.125,258515.90625,224425.5625,246728.578125,0.023193359375,1.023681640625,0.02001953125,4.730224132537842,-0.3662109076976776,-3.540038824081421,80.0,23964.0,0.0
14227.8711772,290792.90625,300050.71875,390591.375,383932.34375,288919.125,258515.90625,224425.5625,246728.578125,0.023193359375,1.023681640625,0.02001953125,4.730224132537842,-0.3662109076976776,-3.540038824081421,80.0,23965.0,0.0
14227.8711774,290821.96875,299722.25,390382.53125,383956.59375,288853.65625,258501.875,224403.484375,246743.421875,0.02099609375,1.0087890625,-0.020751953125,-4.547118663787842,-1.7395018339157104,3.723144292831421,80.0,23966.0,1.0
14227.9064886,290847.25,300061.1875,390565.375,383953.1875,288961.65625,258564.09375,224466.78125,246763.53125,0.01611328125,1.00537109375,-0.0244140625,-4.699706554412842,-1.7700194120407104,3.906249761581421,80.0,23967.0,1.0
14227.9064933,290833.21875,300273.0,390650.3125,383922.15625,289021.75,258592.078125,224482.25,246765.328125,0.017822265625,1.0,-0.02294921875,-4.699706554412842,-1.8920897245407104,4.058837413787842,80.0,23968.0,1.0
14227.9064946,290801.03125,300059.03125,390518.6875,383902.21875,288948.4375,258537.90625,224425.296875,246738.5,0.019287109375,0.995361328125,-0.0205078125,-4.699706554412842,-2.075195074081421,4.302978038787842,80.0,23969.0,1.0
14227.9064957,290788.25,299700.25,390312.34375,383921.375,288831.125,258466.734375,224369.765625,246730.09375,0.024658203125,0.98974609375,-0.013916015625,-4.669188976287842,-2.105712652206421,4.486083507537842,80.0,23970.0,1.0
14227.9064975,290820.15625,299699.625,390329.96875,383955.875,288847.84375,258480.140625,224392.65625,246750.75,0.032958984375,0.983642578125,-0.009033203125,-4.730224132537842,-2.136230230331421,4.760741710662842,80.0,23971.0,1.0
14227.9064987,290851.5625,300036.78125,390522.0,383943.09375,288960.875,258540.5,224448.625,246762.90625,0.04150390625,0.979248046875,-0.005615234375,-4.852294445037842,-2.014159917831421,5.004882335662842,80.0,23972.0,1.0
14227.9318343,290838.0625,300253.78125,390614.53125,383913.40625,289015.5,258563.5625,224464.71875,246761.296875,0.048828125,0.97509765625,-0.00341796875,-4.791259288787842,-1.7700194120407104,5.401610851287842,80.0,23973.0,1.0
14227.9318497,290802.1875,300051.625,390471.84375,383894.53125,288939.40625,258523.0625,224421.53125,246751.46875,0.054931640625,0.973876953125,-0.0087890625,-4.821776866912842,-1.3427733182907104,5.798339366912842,80.0,23974.0,1.0
14227.931851,290787.90625,299682.90625,390247.34375,383905.4375,288821.3125,258466.640625,224372.359375,246747.71875,0.058349609375,0.97607421875,-0.00634765625,-4.913329601287842,-0.9460448622703552,5.981444835662842,80.0,23975.0,1.0
14227.9318522,290820.78125,299678.875,390258.25,383940.21875,288838.65625,258487.125,224398.734375,246758.890625,0.0654296875,0.97705078125,-0.00634765625,-4.852294445037842,-0.5493163466453552,6.164550304412842,80.0,23976.0,1.0
14227.9568633,290849.75,300032.03125,390464.0625,383945.59375,288954.78125,258551.3125,224460.78125,246773.46875,0.068359375,0.9794921875,-0.00244140625,-4.791259288787842,-0.0915527269244194,6.347655773162842,80.0,23977.0,1.0
14227.956883,290849.75,300032.03125,390464.0625,383945.59375,288954.78125,258551.3125,224460.78125,246773.46875,0.068359375,0.9794921875,-0.00244140625,-4.791259288787842,-0.0915527269244194,6.347655773162842,80.0,23978.0,0.0
14227.9568832,290849.75,300032.03125,390464.0625,383945.59375,288954.78125,258551.3125,224460.78125,246773.46875,0.068359375,0.9794921875,-0.00244140625,-4.791259288787842,-0.0915527269244194,6.347655773162842,80.0,23979.0,0.0
14227.9568834,290849.75,300032.03125,390464.0625,383945.59375,288954.78125,258551.3125,224460.78125,246773.46875,0.068359375,0.9794921875,-0.00244140625,-4.791259288787842,-0.0915527269244194,6.347655773162842,80.0,23980.0,0.0
14227.9568838,290849.75,300032.03125,390464.0625,383945.59375,288954.78125,258551.3125,224460.78125,246773.46875,0.068359375,0.9794921875,-0.00244140625,-4.791259288787842,-0.0915527269244194,6.347655773162842,80.0,23981.0,0.0
14227.956884,290849.75,300032.03125,390464.0625,383945.59375,288954.78125,258551.3125,224460.78125,246773.46875,0.068359375,0.9794921875,-0.00244140625,-4.791259288787842,-0.0915527269244194,6.347655773162842,80.0,23982.0,0.0
14227.9568842,290849.75,300032.03125,390464.0625,383945.59375,288954.78125,258551.3125,224460.78125,246773.46875,0.068359375,0.9794921875,-0.00244140625,-4.791259288787842,-0.0915527269244194,6.347655773162842,80.0,23983.0,0.0
14227.9568846,290849.75,300032.03125,390464.0625,383945.59375,288954.78125,258551.3125,224460.78125,246773.46875,0.068359375,0.9794921875,-0.00244140625,-4.791259288787842,-0.0915527269244194,6.347655773162842,80.0,23984.0,0.0
14227.9568848,290849.75,300032.03125,390464.0625,383945.59375,288954.78125,258551.3125,224460.78125,246773.46875,0.068359375,0.9794921875,-0.00244140625,-4.791259288787842,-0.0915527269244194,6.347655773162842,80.0,23985.0,0.0
14227.956885,290849.75,300032.03125,390464.0625,383945.59375,288954.78125,258551.3125,224460.78125,246773.46875,0.068359375,0.9794921875,-0.00244140625,-4.791259288787842,-0.0915527269244194,6.347655773162842,80.0,23986.0,0.0
14227.9568852,290858.71875,300053.0625,390456.28125,383937.53125,288954.5,258565.34375,224455.15625,246769.703125,0.067138671875,0.98388671875,0.02099609375,-8.361815452575684,3.875732183456421,3.204345464706421,80.0,23987.0,1.0
14227.9568865,290837.78125,300286.125,390581.71875,383897.65625,289018.0,258564.359375,224462.84375,246765.6875,0.065185546875,0.974853515625,0.0224609375,-8.544920921325684,4.119872570037842,2.807616949081421,80.0,23988.0,1.0
14227.9816262,290796.9375,300075.40625,390458.0,383867.34375,288942.71875,258523.953125,224415.8125,246748.25,0.06884765625,0.959716796875,0.020263671875,-8.850096702575684,4.272460460662842,2.288818120956421,80.0,23989.0,1.0
14227.9816471,290784.9375,299690.5,390225.90625,383876.75,288819.6875,258469.140625,224362.34375,246729.109375,0.06689453125,0.9541015625,0.021240234375,-8.819579124450684,4.272460460662842,2.105712652206421,80.0,23990.0,1.0
14228.0078654,290822.40625,299684.6875,390222.5,383913.65625,288832.65625,258486.578125,224385.6875,246745.84375,0.067626953125,0.939697265625,0.020263671875,-8.575438499450684,4.547118663787842,1.5869139432907104,80.0,23991.0,1.0
14228.0078837,290858.625,300041.34375,390431.96875,383918.84375,288955.59375,258555.78125,224449.796875,246767.921875,0.070068359375,0.927490234375,0.018798828125,-8.422850608825684,4.669188976287842,1.1596678495407104,80.0,23992.0,1.0
14228.0477315,290854.6875,300280.59375,390558.21875,383886.84375,289025.0625,258589.125,224474.5625,246762.28125,0.07080078125,0.917724609375,0.01953125,-7.904052257537842,4.821776866912842,0.9155272841453552,80.0,23993.0,1.0
14228.0730397,290830.375,300073.625,390436.625,383882.5625,288951.84375,258544.515625,224427.0,246748.875,0.072021484375,0.91259765625,0.0205078125,-7.354735851287842,5.065917491912842,0.4577636420726776,80.0,23994.0,1.0
14228.0730553,290811.6875,299687.65625,390201.84375,383875.125,288823.53125,258481.9375,224372.71875,246742.171875,0.07421875,0.9150390625,0.02685546875,-6.469726085662842,5.310058116912842,0.0,80.0,23995.0,1.0
14228.0730569,290845.75,299673.875,390197.90625,383905.625,288834.1875,258500.53125,224395.875,246757.09375,0.07470703125,0.919677734375,0.025146484375,-5.676269054412842,5.462646007537842,-0.4882812201976776,80.0,23996.0,1.0
14228.0973238,290881.6875,300037.6875,390408.90625,383926.1875,288959.53125,258570.453125,224460.4375,246777.9375,0.0751953125,0.9296875,0.0234375,-5.279540538787842,5.737304210662842,-0.7629393935203552,80.0,23997.0,1.0
14228.124797,290866.21875,300283.1875,390538.46875,383881.03125,289022.28125,258588.0625,224476.96875,246767.46875,0.076416015625,0.943359375,0.021240234375,-4.913329601287842,5.920409679412842,-0.9765624403953552,80.0,23998.0,1.0
14228.1448123,290829.28125,300084.625,390425.09375,383864.9375,288945.125,258531.828125,224422.078125,246751.921875,0.076904296875,0.953125,0.024658203125,-4.913329601287842,5.981444835662842,-1.0681151151657104,80.0,23999.0,1.0
14228.1548165,290818.375,299706.5,390213.09375,383884.4375,288831.3125,258495.078125,224385.859375,246749.859375,0.076171875,0.960693359375,0.0244140625,-4.913329601287842,5.950927257537842,-1.1596678495407104,80.0,24000.0,1.0
14228.1573189,290844.125,299683.09375,390212.65625,383896.5,288835.6875,258520.921875,224415.375,246769.171875,0.073974609375,0.964599609375,0.026123046875,-5.004882335662842,5.920409679412842,-1.4038084745407104,80.0,24001.0,1.0
14228.1597973,290874.25,300038.9375,390425.375,383921.71875,288961.9375,258595.390625,224498.875,246814.046875,0.07275390625,0.969970703125,0.023193359375,-5.218505382537842,6.072997570037842,-1.5869139432907104,80.0,24002.0,1.0
14228.1673189,290857.8125,300285.25,390562.96875,383902.6875,289029.53125,258610.671875,224506.5625,246785.0,0.072021484375,0.9765625,0.02197265625,-5.310058116912842,6.042479991912842,-1.9226073026657104,80.0,24003.0,1.0
14228.1941783,290811.78125,300078.0,390445.375,383845.90625,288937.71875,258524.046875,224404.46875,246723.390625,0.070556640625,0.98388671875,0.024658203125,-5.584716320037842,6.072997570037842,-2.227782964706421,80.0,24004.0,1.0
14228.1941842,290808.09375,299719.5625,390240.8125,383864.40625,288827.8125,258477.734375,224360.03125,246733.59375,0.070068359375,0.992431640625,0.03125,-6.103515148162842,6.011962413787842,-2.471923589706421,80.0,24005.0,1.0
14228.1941855,290836.34375,299691.84375,390234.65625,383890.875,288838.03125,258509.109375,224409.015625,246776.0625,0.0703125,0.994873046875,0.033447265625,-6.805419445037842,5.950927257537842,-2.777099370956421,80.0,24006.0,1.0
14228.1941866,290864.96875,300030.875,390428.65625,383907.15625,288939.9375,258535.84375,224437.71875,246756.390625,0.071533203125,0.99853515625,0.037353515625,-7.507323741912842,5.889892101287842,-3.143310308456421,80.0,24007.0,1.0
14228.2173314,290856.8125,300283.90625,390562.59375,383863.15625,289007.4375,258566.59375,224450.6875,246739.125,0.071044921875,1.0,0.0322265625,-7.904052257537842,6.103515148162842,-3.356933355331421,80.0,24008.0,1.0
14228.2492053,290823.125,300095.53125,390455.21875,383841.6875,288945.5,258546.65625,224417.6875,246736.09375,0.070068359375,1.001708984375,0.032958984375,-8.300780296325684,6.225585460662842,-3.662109136581421,80.0,24009.0,1.0
14228.2492149,290796.5625,299724.21875,390243.9375,383849.46875,288825.15625,258473.34375,224366.90625,246732.6875,0.069580078125,1.0048828125,0.02880859375,-8.728026390075684,6.286620616912842,-3.845214605331421,80.0,24010.0,1.0
14228.2492162,290824.0,299707.5,390251.5625,383873.71875,288825.0625,258469.140625,224373.890625,246736.53125,0.070068359375,1.008544921875,0.02880859375,-9.063719749450684,6.225585460662842,-3.997802495956421,80.0,24011.0,1.0
14228.2492174,290848.59375,300027.21875,390434.46875,383873.875,288931.71875,258528.25,224431.109375,246755.3125,0.07275390625,1.01123046875,0.02880859375,-9.246825218200684,6.134032726287842,-4.119872570037842,80.0,24012.0,1.0
14228.2492187,290832.34375,300252.59375,390532.8125,383841.875,288990.90625,258560.078125,224456.5,246743.6875,0.07373046875,1.0087890625,0.025390625,-9.368895530700684,6.011962413787842,-3.997802495956421,80.0,24013.0,1.0
14228.24922,290802.46875,300078.96875,390434.3125,383828.03125,288930.5625,258537.640625,224425.46875,246738.953125,0.0732421875,1.00732421875,0.023193359375,-9.521483421325684,5.889892101287842,-3.936767339706421,80.0,24014.0,1.0
14228.2492213,290790.5,299740.65625,390266.5625,383849.125,288832.90625,258488.453125,224386.3125,246736.984375,0.074951171875,1.00341796875,0.02392578125,-9.490965843200684,5.767821788787842,-3.845214605331421,80.0,24015.0,1.0
14228.2522979,290825.0,299735.125,390304.9375,383886.59375,288854.03125,258501.875,224403.5625,246757.8125,0.078369140625,1.000244140625,0.025146484375,-9.368895530700684,5.767821788787842,-3.692626714706421,80.0,24016.0,1.0
14228.2523118,290844.21875,300049.125,390478.75,383888.0,288955.3125,258561.421875,224448.8125,246759.6875,0.078369140625,0.998046875,0.02734375,-9.185790061950684,5.737304210662842,-3.723144292831421,80.0,24017.0,1.0
14228.2523191,290818.03125,300234.375,390516.1875,383815.5,288982.9375,258573.84375,224453.453125,246744.140625,0.079833984375,0.998291015625,0.033935546875,-9.155272483825684,5.889892101287842,-3.631591558456421,80.0,24018.0,1.0
14228.255389,290788.6875,300049.75,390384.9375,383811.46875,288918.75,258536.65625,224418.859375,246742.265625,0.081298828125,0.998291015625,0.033447265625,-9.124754905700684,6.072997570037842,-3.631591558456421,80.0,24019.0,1.0
14228.2554071,290792.0,299748.34375,390253.4375,383850.90625,288844.0,258486.40625,224392.03125,246751.015625,0.083984375,1.001220703125,0.033447265625,-9.033202171325684,6.256103038787842,-3.601073980331421,80.0,24020.0,1.0
14228.2573493,290825.8125,299779.46875,390342.21875,383880.15625,288877.71875,258512.515625,224420.28125,246765.140625,0.0830078125,1.00146484375,0.033447265625,-9.002684593200684,6.561278820037842,-3.448486089706421,80.0,24021.0,1.0
14228.2597909,290838.59375,300087.65625,390528.8125,383877.1875,288969.625,258568.484375,224464.90625,246775.609375,0.085693359375,1.003173828125,0.0380859375,-9.002684593200684,6.927489757537842,-3.479003667831421,80.0,24022.0,1.0
14228.2847899,290805.40625,300234.90625,390542.125,383820.5,288982.78125,258571.609375,224462.390625,246751.921875,0.084228515625,1.00390625,0.0380859375,-9.124754905700684,7.202147960662842,-3.479003667831421,80.0,24023.0,1.0
14228.309811,290763.84375,299997.8125,390356.96875,383784.3125,288886.75,258517.25,224403.296875,246713.65625,0.08251953125,1.002197265625,0.03857421875,-9.216307640075684,7.293700695037842,-3.570556402206421,80.0,24024.0,1.0
14228.3348072,290766.34375,299684.25,390189.3125,383816.84375,288797.34375,258465.578125,224364.671875,246723.03125,0.080322265625,0.99853515625,0.038330078125,-9.185790061950684,7.629394054412842,-3.601073980331421,80.0,24025.0,1.0
14228.3747998,290819.53125,299750.3125,390302.0625,383872.625,288853.03125,258495.609375,224404.1875,246749.5,0.07666015625,0.99560546875,0.040771484375,-9.185790061950684,7.720946788787842,-3.631591558456421,80.0,24026.0,1.0
14228.3997786,290842.78125,300083.28125,390512.09375,383875.40625,288966.5,258565.96875,224463.296875,246770.328125,0.075927734375,0.990966796875,0.041015625,-9.216307640075684,7.904052257537842,-3.784179449081421,80.0,24027.0,1.0
14228.4497858,290806.75,300228.03125,390519.3125,383818.09375,288978.9375,258562.84375,224451.125,246743.515625,0.0712890625,0.9912109375,0.041748046875,-9.185790061950684,8.117674827575684,-3.906249761581421,80.0,24028.0,1.0
14228.4497906,290770.09375,300005.5625,390332.09375,383792.96875,288892.46875,258517.25,224406.078125,246723.65625,0.068359375,0.9970703125,0.04248046875,-9.155272483825684,8.453368186950684,-4.150390148162842,80.0,24029.0,1.0
14228.4497919,290774.5625,299691.5,390174.21875,383824.71875,288811.375,258474.953125,224386.40625,246741.90625,0.0625,0.99951171875,0.044677734375,-9.216307640075684,8.453368186950684,-4.394530773162842,80.0,24030.0,1.0
14228.4497931,290811.40625,299738.34375,390273.71875,383849.3125,288848.375,258480.234375,224403.75,246756.65625,0.05859375,1.005615234375,0.044677734375,-9.429930686950684,8.483885765075684,-4.516601085662842,80.0,24031.0,1.0
14228.4497943,290837.96875,300074.15625,390482.03125,383866.46875,288965.96875,258544.34375,224471.34375,246801.09375,0.052490234375,1.01025390625,0.044677734375,-9.613036155700684,8.331297874450684,-4.699706554412842,80.0,24032.0,1.0
14228.4497956,290807.46875,300219.53125,390496.875,383810.3125,288988.5,258561.78125,224471.96875,246772.390625,0.048095703125,1.015380859375,0.05029296875,-10.040282249450684,8.178709983825684,-4.913329601287842,80.0,24033.0,1.0
14228.501059,290776.90625,300003.25,390318.96875,383775.53125,288895.15625,258516.53125,224403.125,246718.921875,0.043701171875,1.020263671875,0.054931640625,-10.528563499450684,7.873534679412842,-4.943847179412842,80.0,24034.0,1.0
14228.5260528,290781.375,299701.40625,390170.1875,383812.8125,288817.46875,258475.859375,224372.0,246730.453125,0.0419921875,1.024658203125,0.066650390625,-11.230467796325684,7.476806163787842,-4.913329601287842,80.0,24035.0,1.0
14228.551001,290815.0625,299752.46875,390273.53125,383845.8125,288856.34375,258489.078125,224384.171875,246732.0625,0.03662109375,1.02587890625,0.072265625,-12.145995140075684,7.202147960662842,-5.035399913787842,80.0,24036.0,1.0
14228.5989986,290829.90625,300068.96875,390474.625,383833.84375,288953.1875,258534.765625,224421.265625,246718.65625,0.033447265625,1.0234375,0.07666015625,-12.939452171325684,6.958007335662842,-5.065917491912842,80.0,24037.0,1.0
14228.5990043,290797.28125,300208.4375,390479.0,383785.09375,288964.25,258528.25,224406.34375,246704.796875,0.03076171875,1.019775390625,0.08203125,-13.610838890075684,6.774901866912842,-5.065917491912842,80.0,24038.0,1.0
14228.5990056,290763.03125,299970.96875,390282.125,383772.59375,288870.75,258475.3125,224362.265625,246701.84375,0.029541015625,1.0166015625,0.079833984375,-14.129637718200684,6.469726085662842,-5.126952648162842,80.0,24039.0,1.0
14228.599007,290772.53125,299675.125,390125.40625,383797.09375,288796.4375,258464.140625,224360.109375,246728.578125,0.029541015625,1.00927734375,0.07568359375,-14.434813499450684,6.042479991912842,-5.157470226287842,80.0,24040.0,1.0
14228.5990082,290824.46875,299749.15625,390238.21875,383858.40625,288856.71875,258489.71875,224401.15625,246755.765625,0.02880859375,1.00244140625,0.077880859375,-14.495848655700684,5.462646007537842,-5.187987804412842,80.0,24041.0,1.0
14228.5990094,290836.71875,300054.84375,390425.90625,383832.03125,288945.40625,258525.75,224430.296875,246738.765625,0.031494140625,1.0009765625,0.080322265625,-14.373778343200684,4.882812023162842,-5.065917491912842,80.0,24042.0,1.0
14228.5990106,290803.8125,300182.875,390412.5625,383782.59375,288951.65625,258532.890625,224430.84375,246734.578125,0.03466796875,1.001953125,0.08544921875,-14.099120140075684,4.516601085662842,-4.852294445037842,80.0,24043.0,1.0
14228.5990118,290773.40625,299973.03125,390237.0625,383764.28125,288873.78125,258500.171875,224395.34375,246728.140625,0.03662109375,1.00537109375,0.092041015625,-13.885497093200684,4.119872570037842,-4.638671398162842,80.0,24044.0,1.0
14228.599013,290776.09375,299681.46875,390098.75,383789.3125,288795.375,258463.609375,224366.28125,246719.734375,0.03955078125,1.007080078125,0.099853515625,-13.854979515075684,3.814697027206421,-4.516601085662842,80.0,24045.0,1.0
14228.6035548,290816.5,299737.53125,390202.125,383838.75,288842.40625,258489.796875,224405.890625,246751.828125,0.040283203125,1.00634765625,0.107177734375,-14.007567405700684,3.540038824081421,-4.211425304412842,80.0,24046.0,1.0
14228.6060425,290832.0625,300060.84375,390397.09375,383833.90625,288944.59375,258548.8125,224454.53125,246757.640625,0.04150390625,1.001953125,0.109375,-14.038084983825684,3.356933355331421,-3.814697027206421,80.0,24047.0,1.0
14228.6141832,290793.0,300190.46875,390393.8125,383765.875,288948.78125,258542.8125,224428.78125,246718.03125,0.043212890625,0.997314453125,0.111083984375,-13.977049827575684,3.173827886581421,-3.540038824081421,80.0,24048.0,1.0
14228.6141961,290763.84375,299973.21875,390213.90625,383748.8125,288866.09375,258494.09375,224385.859375,246715.53125,0.045166015625,0.99462890625,0.111572265625,-13.885497093200684,3.143310308456421,-3.326415777206421,80.0,24049.0,1.0
14228.6142042,290776.4375,299689.34375,390082.65625,383794.9375,288799.75,258468.703125,224373.265625,246738.953125,0.04736328125,0.99169921875,0.117919921875,-13.763426780700684,3.112792730331421,-2.838134527206421,80.0,24050.0,1.0
14228.6142094,290821.59375,299759.96875,390211.21875,383843.75,288854.375,258496.421875,224405.53125,246743.6875,0.043701171875,0.98876953125,0.115966796875,-13.427733421325684,2.960204839706421,-2.593993902206421,80.0,24051.0,1.0
14228.6160255,290833.59375,300067.625,390405.4375,383815.15625,288946.65625,258543.890625,224437.546875,246736.0,0.041748046875,0.9873046875,0.11962890625,-12.969969749450684,2.990722417831421,-2.319335699081421,80.0,24052.0,1.0
14228.6426077,290804.34375,300197.1875,390399.53125,383768.375,288959.6875,258559.265625,224433.96875,246725.1875,0.0390625,0.985107421875,0.12353515625,-12.451170921325684,2.990722417831421,-2.105712652206421,80.0,24053.0,1.0
14228.6426149,290772.59375,299970.53125,390216.59375,383750.0625,288877.8125,258513.9375,224392.21875,246718.921875,0.0380859375,0.982421875,0.12158203125,-11.962889671325684,2.899169683456421,-1.9531248807907104,80.0,24054.0,1.0
14228.6426162,290788.4375,299698.1875,390087.21875,383783.75,288812.28125,258479.703125,224371.5625,246734.75,0.033935546875,0.9814453125,0.117431640625,-11.596678733825684,2.716064214706421,-1.7395018339157104,80.0,24055.0,1.0
14228.6655468,290832.0625,299768.125,390206.59375,383836.5,288864.46875,258501.609375,224406.25,246756.921875,0.03125,0.97802734375,0.11865234375,-11.199950218200684,2.563476324081421,-1.6174315214157104,80.0,24056.0,1.0
14228.6673039,290832.0625,299768.125,390206.59375,383836.5,288864.46875,258501.609375,224406.25,246756.921875,0.03125,0.97802734375,0.11865234375,-11.199950218200684,2.563476324081421,-1.6174315214157104,80.0,24057.0,0.0
14228.6673044,290832.0625,299768.125,390206.59375,383836.5,288864.46875,258501.609375,224406.25,246756.921875,0.03125,0.97802734375,0.11865234375,-11.199950218200684,2.563476324081421,-1.6174315214157104,80.0,24058.0,0.0
14228.6673046,290832.0625,299768.125,390206.59375,383836.5,288864.46875,258501.609375,224406.25,246756.921875,0.03125,0.97802734375,0.11865234375,-11.199950218200684,2.563476324081421,-1.6174315214157104,80.0,24059.0,0.0
14228.6673048,290832.0625,299768.125,390206.59375,383836.5,288864.46875,258501.609375,224406.25,246756.921875,0.03125,0.97802734375,0.11865234375,-11.199950218200684,2.563476324081421,-1.6174315214157104,80.0,24060.0,0.0
14228.667305,290832.0625,299768.125,390206.59375,383836.5,288864.46875,258501.609375,224406.25,246756.921875,0.03125,0.97802734375,0.11865234375,-11.199950218200684,2.563476324081421,-1.6174315214157104,80.0,24061.0,0.0
14228.6673052,290832.0625,299768.125,390206.59375,383836.5,288864.46875,258501.609375,224406.25,246756.921875,0.03125,0.97802734375,0.11865234375,-11.199950218200684,2.563476324081421,-1.6174315214157104,80.0,24062.0,0.0
14228.6673054,290832.0625,299768.125,390206.59375,383836.5,288864.46875,258501.609375,224406.25,246756.921875,0.03125,0.97802734375,0.11865234375,-11.199950218200684,2.563476324081421,-1.6174315214157104,80.0,24063.0,0.0
14228.6673056,290832.0625,299768.125,390206.59375,383836.5,288864.46875,258501.609375,224406.25,246756.921875,0.03125,0.97802734375,0.11865234375,-11.199950218200684,2.563476324081421,-1.6174315214157104,80.0,24064.0,0.0
14228.6673057,290832.0625,299768.125,390206.59375,383836.5,288864.46875,258501.609375,224406.25,246756.921875,0.03125,0.97802734375,0.11865234375,-11.199950218200684,2.563476324081421,-1.6174315214157104,80.0,24065.0,0.0
14228.6673059,290832.0625,299768.125,390206.59375,383836.5,288864.46875,258501.609375,224406.25,246756.921875,0.03125,0.97802734375,0.11865234375,-11.199950218200684,2.563476324081421,-1.6174315214157104,80.0,24066.0,0.0
14228.6673061,290832.0625,299768.125,390206.59375,383836.5,288864.46875,258501.609375,224406.25,246756.921875,0.03125,0.97802734375,0.11865234375,-11.199950218200684,2.563476324081421,-1.6174315214157104,80.0,24067.0,0.0
14228.6673062,290832.0625,299768.125,390206.59375,383836.5,288864.46875,258501.609375,224406.25,246756.921875,0.03125,0.97802734375,0.11865234375,-11.199950218200684,2.563476324081421,-1.6174315214157104,80.0,24068.0,0.0
14228.6673064,290832.0625,299768.125,390206.59375,383836.5,288864.46875,258501.609375,224406.25,246756.921875,0.03125,0.97802734375,0.11865234375,-11.199950218200684,2.563476324081421,-1.6174315214157104,80.0,24069.0,0.0
14228.6673066,290832.0625,299768.125,390206.59375,383836.5,288864.46875,258501.609375,224406.25,246756.921875,0.03125,0.97802734375,0.11865234375,-11.199950218200684,2.563476324081421,-1.6174315214157104,80.0,24070.0,0.0
14228.6673067,290832.0625,299768.125,390206.59375,383836.5,288864.46875,258501.609375,224406.25,246756.921875,0.03125,0.97802734375,0.11865234375,-11.199950218200684,2.563476324081421,-1.6174315214157104,80.0,24071.0,0.0
14228.6673069,290832.0625,299768.125,390206.59375,383836.5,288864.46875,258501.609375,224406.25,246756.921875,0.03125,0.97802734375,0.11865234375,-11.199950218200684,2.563476324081421,-1.6174315214157104,80.0,24072.0,0.0
14228.6673071,290832.0625,299768.125,390206.59375,383836.5,288864.46875,258501.609375,224406.25,246756.921875,0.03125,0.97802734375,0.11865234375,-11.199950218200684,2.563476324081421,-1.6174315214157104,80.0,24073.0,0.0
14228.6673072,290832.0625,299768.125,390206.59375,383836.5,288864.46875,258501.609375,224406.25,246756.921875,0.03125,0.97802734375,0.11865234375,-11.199950218200684,2.563476324081421,-1.6174315214157104,80.0,24074.0,0.0
14228.6673074,290832.0625,299768.125,390206.59375,383836.5,288864.46875,258501.609375,224406.25,246756.921875,0.03125,0.97802734375,0.11865234375,-11.199950218200684,2.563476324081421,-1.6174315214157104,80.0,24075.0,0.0
14228.6673076,290832.0625,299768.125,390206.59375,383836.5,288864.46875,258501.609375,224406.25,246756.921875,0.03125,0.97802734375,0.11865234375,-11.199950218200684,2.563476324081421,-1.6174315214157104,80.0,24076.0,0.0
14228.6673077,290832.0625,299768.125,390206.59375,383836.5,288864.46875,258501.609375,224406.25,246756.921875,0.03125,0.97802734375,0.11865234375,-11.199950218200684,2.563476324081421,-1.6174315214157104,80.0,24077.0,0.0
14228.6673079,290832.0625,299768.125,390206.59375,383836.5,288864.46875,258501.609375,224406.25,246756.921875,0.03125,0.97802734375,0.11865234375,-11.199950218200684,2.563476324081421,-1.6174315214157104,80.0,24078.0,0.0
14228.6673081,290832.0625,299768.125,390206.59375,383836.5,288864.46875,258501.609375,224406.25,246756.921875,0.03125,0.97802734375,0.11865234375,-11.199950218200684,2.563476324081421,-1.6174315214157104,80.0,24079.0,0.0
14228.6673083,290832.0625,299768.125,390206.59375,383836.5,288864.46875,258501.609375,224406.25,246756.921875,0.03125,0.97802734375,0.11865234375,-11.199950218200684,2.563476324081421,-1.6174315214157104,80.0,24080.0,0.0
14228.6673084,290832.0625,299768.125,390206.59375,383836.5,288864.46875,258501.609375,224406.25,246756.921875,0.03125,0.97802734375,0.11865234375,-11.199950218200684,2.563476324081421,-1.6174315214157104,80.0,24081.0,0.0
14228.6673086,290832.0625,299768.125,390206.59375,383836.5,288864.46875,258501.609375,224406.25,246756.921875,0.03125,0.97802734375,0.11865234375,-11.199950218200684,2.563476324081421,-1.6174315214157104,80.0,24082.0,0.0
14228.6673088,290832.0625,299768.125,390206.59375,383836.5,288864.46875,258501.609375,224406.25,246756.921875,0.03125,0.97802734375,0.11865234375,-11.199950218200684,2.563476324081421,-1.6174315214157104,80.0,24083.0,0.0
14228.6673089,290832.0625,299768.125,390206.59375,383836.5,288864.46875,258501.609375,224406.25,246756.921875,0.03125,0.97802734375,0.11865234375,-11.199950218200684,2.563476324081421,-1.6174315214157104,80.0,24084.0,0.0
14228.6673091,290832.0625,299768.125,390206.59375,383836.5,288864.46875,258501.609375,224406.25,246756.921875,0.03125,0.97802734375,0.11865234375,-11.199950218200684,2.563476324081421,-1.6174315214157104,80.0,24085.0,0.0
14228.6673093,290832.0625,299768.125,390206.59375,383836.5,288864.46875,258501.609375,224406.25,246756.921875,0.03125,0.97802734375,0.11865234375,-11.199950218200684,2.563476324081421,-1.6174315214157104,80.0,24086.0,0.0
14228.6673095,290832.0625,299768.125,390206.59375,383836.5,288864.46875,258501.609375,224406.25,246756.921875,0.03125,0.97802734375,0.11865234375,-11.199950218200684,2.563476324081421,-1.6174315214157104,80.0,24087.0,0.0
14228.6673096,290832.0625,299768.125,390206.59375,383836.5,288864.46875,258501.609375,224406.25,246756.921875,0.03125,0.97802734375,0.11865234375,-11.199950218200684,2.563476324081421,-1.6174315214157104,80.0,24088.0,0.0
14228.6673098,290832.0625,299768.125,390206.59375,383836.5,288864.46875,258501.609375,224406.25,246756.921875,0.03125,0.97802734375,0.11865234375,-11.199950218200684,2.563476324081421,-1.6174315214157104,80.0,24089.0,0.0
14228.66731,290832.0625,299768.125,390206.59375,383836.5,288864.46875,258501.609375,224406.25,246756.921875,0.03125,0.97802734375,0.11865234375,-11.199950218200684,2.563476324081421,-1.6174315214157104,80.0,24090.0,0.0
14228.6673101,290832.0625,299768.125,390206.59375,383836.5,288864.46875,258501.609375,224406.25,246756.921875,0.03125,0.97802734375,0.11865234375,-11.199950218200684,2.563476324081421,-1.6174315214157104,80.0,24091.0,0.0
14228.6673103,290832.0625,299768.125,390206.59375,383836.5,288864.46875,258501.609375,224406.25,246756.921875,0.03125,0.97802734375,0.11865234375,-11.199950218200684,2.563476324081421,-1.6174315214157104,80.0,24092.0,0.0
14228.6673105,290832.0625,299768.125,390206.59375,383836.5,288864.46875,258501.609375,224406.25,246756.921875,0.03125,0.97802734375,0.11865234375,-11.199950218200684,2.563476324081421,-1.6174315214157104,80.0,24093.0,0.0
14228.6673107,290832.0625,299768.125,390206.59375,383836.5,288864.46875,258501.609375,224406.25,246756.921875,0.03125,0.97802734375,0.11865234375,-11.199950218200684,2.563476324081421,-1.6174315214157104,80.0,24094.0,0.0
14228.6673108,290832.0625,299768.125,390206.59375,383836.5,288864.46875,258501.609375,224406.25,246756.921875,0.03125,0.97802734375,0.11865234375,-11.199950218200684,2.563476324081421,-1.6174315214157104,80.0,24095.0,0.0
14228.667311,290832.0625,299768.125,390206.59375,383836.5,288864.46875,258501.609375,224406.25,246756.921875,0.03125,0.97802734375,0.11865234375,-11.199950218200684,2.563476324081421,-1.6174315214157104,80.0,24096.0,0.0
14228.6673112,290832.0625,299768.125,390206.59375,383836.5,288864.46875,258501.609375,224406.25,246756.921875,0.03125,0.97802734375,0.11865234375,-11.199950218200684,2.563476324081421,-1.6174315214157104,80.0,24097.0,0.0
14228.6673113,290832.0625,299768.125,390206.59375,383836.5,288864.46875,258501.609375,224406.25,246756.921875,0.03125,0.97802734375,0.11865234375,-11.199950218200684,2.563476324081421,-1.6174315214157104,80.0,24098.0,0.0
14228.6673115,290832.0625,299768.125,390206.59375,383836.5,288864.46875,258501.609375,224406.25,246756.921875,0.03125,0.97802734375,0.11865234375,-11.199950218200684,2.563476324081421,-1.6174315214157104,80.0,24099.0,0.0
14228.6673117,290832.0625,299768.125,390206.59375,383836.5,288864.46875,258501.609375,224406.25,246756.921875,0.03125,0.97802734375,0.11865234375,-11.199950218200684,2.563476324081421,-1.6174315214157104,80.0,24100.0,0.0
14228.6673118,290832.0625,299768.125,390206.59375,383836.5,288864.46875,258501.609375,224406.25,246756.921875,0.03125,0.97802734375,0.11865234375,-11.199950218200684,2.563476324081421,-1.6174315214157104,80.0,24101.0,0.0
14228.6673121,290809.0,300043.46875,390279.09375,383726.375,288927.6875,258530.75,224419.484375,246726.171875,0.051513671875,0.986572265625,0.168212890625,-9.338377952575684,-4.577636241912842,0.3051757514476776,80.0,24102.0,1.0
14228.6940709,290795.5,300215.15625,390312.53125,383685.15625,288958.34375,258550.515625,224423.140625,246712.046875,0.05078125,0.988525390625,0.16650390625,-9.399413108825684,-4.272460460662842,0.4272460639476776,80.0,24103.0,1.0
14228.6940755,290776.4375,300019.0625,390162.40625,383676.75,288893.4375,258522.4375,224394.625,246713.734375,0.0517578125,0.99072265625,0.1689453125,-9.643553733825684,-3.936767339706421,0.7019042372703552,80.0,24104.0,1.0
14228.6940768,290780.21875,299710.0,390012.21875,383708.03125,288815.75,258489.796875,224377.1875,246735.640625,0.051513671875,0.992919921875,0.167724609375,-9.826659202575684,-3.662109136581421,0.7324218153953552,80.0,24105.0,1.0
14228.6940783,290816.875,299747.375,390101.96875,383744.4375,288846.875,258493.640625,224389.703125,246740.296875,0.052001953125,0.9951171875,0.169677734375,-9.887694358825684,-3.356933355331421,0.6713866591453552,80.0,24106.0,1.0
14228.7141674,290828.75,300055.03125,390283.75,383733.25,288938.59375,258524.578125,224421.453125,246759.78125,0.051025390625,0.996337890625,0.1728515625,-9.735106468200684,-3.051757574081421,0.6408690810203552,80.0,24107.0,1.0
14228.7141729,290800.78125,300208.15625,390299.84375,383682.1875,288960.0625,258529.140625,224418.59375,246736.0,0.0537109375,0.9892578125,0.171875,-10.192870140075684,-2.777099370956421,0.2441406100988388,80.0,24108.0,1.0
14228.7160399,290770.375,299996.46875,390129.6875,383657.34375,288875.75,258474.6875,224362.625,246700.234375,0.05615234375,0.983154296875,0.1767578125,-10.162352561950684,-2.624511480331421,0.1525878757238388,80.0,24109.0,1.0
14228.7191688,290771.53125,299689.78125,389978.40625,383685.9375,288791.34375,258446.078125,224338.296875,246710.34375,0.057373046875,0.980712890625,0.17822265625,-10.131834983825684,-2.197265386581421,0.0610351525247097,80.0,24110.0,1.0
14228.7191715,290811.21875,299736.0,390071.5,383729.75,288830.6875,258480.765625,224372.8125,246737.078125,0.058349609375,0.980712890625,0.181396484375,-9.826659202575684,-1.7395018339157104,0.1525878757238388,80.0,24111.0,1.0
14228.7216726,290833.9375,300056.0,390268.0,383729.3125,288934.5625,258537.640625,224428.25,246745.125,0.05712890625,0.983154296875,0.181396484375,-9.765624046325684,-1.4343260526657104,0.2746581733226776,80.0,24112.0,1.0
14228.7216907,290812.9375,300220.96875,390302.5,383683.96875,288961.5,258557.21875,224432.171875,246724.28125,0.05615234375,0.98583984375,0.179931640625,-9.613036155700684,-1.1596678495407104,0.1220703050494194,80.0,24113.0,1.0
14228.7235568,290788.4375,300012.1875,390144.875,383663.59375,288887.28125,258529.765625,224399.09375,246726.25,0.05615234375,0.989501953125,0.17529296875,-9.216307640075684,-0.7934569716453552,0.03051757626235485,80.0,24114.0,1.0
14228.7260425,290786.90625,299701.40625,389991.90625,383683.71875,288799.40625,258483.546875,224360.5625,246723.484375,0.05615234375,0.992431640625,0.176025390625,-8.789061546325684,-0.5493163466453552,0.0,80.0,24115.0,1.0
14228.7331388,290827.3125,299757.5625,390097.9375,383730.84375,288845.0,258504.109375,224391.9375,246742.53125,0.054931640625,0.9951171875,0.178955078125,-8.636473655700684,-0.5493163466453552,-0.1525878757238388,80.0,24116.0,1.0
14228.7331454,290842.0625,300074.96875,390289.09375,383722.34375,288946.03125,258563.109375,224441.75,246754.328125,0.054931640625,0.997802734375,0.180908203125,-8.392333030700684,-0.6408690810203552,-0.1525878757238388,80.0,24117.0,1.0
14228.7331466,290807.84375,300222.3125,390299.5625,383670.9375,288963.46875,258559.8125,224436.921875,246744.765625,0.057373046875,0.997314453125,0.183349609375,-8.178709983825684,-0.5187987685203552,-0.2136230319738388,80.0,24118.0,1.0
14228.7331478,290767.25,299984.21875,390114.9375,383647.9375,288872.09375,258510.71875,224391.5,246735.546875,0.0517578125,1.0,0.1845703125,-7.751464366912842,-0.3356933295726776,-0.3967284858226776,80.0,24119.0,1.0
14228.733149,290771.53125,299666.0,389952.40625,383672.1875,288778.5625,258473.0,224355.640625,246723.75,0.048828125,1.000732421875,0.185546875,-7.476806163787842,-0.3051757514476776,-0.6408690810203552,80.0,24120.0,1.0
14228.7331502,290822.125,299744.6875,390064.6875,383721.28125,288833.625,258500.0,224393.109375,246751.734375,0.05029296875,1.003173828125,0.18701171875,-7.232665538787842,-0.3662109076976776,-0.7934569716453552,80.0,24121.0,1.0
14228.7331514,290837.96875,300076.125,390273.0,383712.15625,288939.59375,258553.453125,224431.015625,246749.859375,0.048583984375,1.006103515625,0.185791015625,-7.049560070037842,-0.4272460639476776,-0.9460448622703552,80.0,24122.0,1.0
14228.7359961,290801.21875,300216.84375,390287.21875,383655.71875,288952.09375,258556.59375,224423.859375,246730.8125,0.046142578125,1.0068359375,0.18701171875,-6.927489757537842,-0.4882812201976776,-1.2207030057907104,80.0,24123.0,1.0
14228.7360127,290766.15625,299984.46875,390112.0625,383630.25,288861.25,258502.765625,224373.171875,246718.75,0.043212890625,1.009765625,0.186279296875,-6.805419445037842,-0.5798339247703552,-1.3427733182907104,80.0,24124.0,1.0
14228.7360144,290765.53125,299683.8125,389966.0625,383653.3125,288777.03125,258446.96875,224328.734375,246709.359375,0.041748046875,1.010986328125,0.188232421875,-6.530761241912842,-0.7934569716453552,-1.4953612089157104,80.0,24125.0,1.0
14228.7865601,290808.90625,299742.1875,390073.375,383704.28125,288827.75,258480.765625,224370.75,246727.234375,0.04052734375,1.010009765625,0.191650390625,-6.378173351287842,-0.8544921278953552,-1.6784666776657104,80.0,24126.0,1.0
14228.7865658,290808.90625,299742.1875,390073.375,383704.28125,288827.75,258480.765625,224370.75,246727.234375,0.04052734375,1.010009765625,0.191650390625,-6.378173351287842,-0.8544921278953552,-1.6784666776657104,80.0,24127.0,0.0
14228.7865659,290808.90625,299742.1875,390073.375,383704.28125,288827.75,258480.765625,224370.75,246727.234375,0.04052734375,1.010009765625,0.191650390625,-6.378173351287842,-0.8544921278953552,-1.6784666776657104,80.0,24128.0,0.0
14228.7865661,290808.90625,299742.1875,390073.375,383704.28125,288827.75,258480.765625,224370.75,246727.234375,0.04052734375,1.010009765625,0.191650390625,-6.378173351287842,-0.8544921278953552,-1.6784666776657104,80.0,24129.0,0.0
14228.7865663,290808.90625,299742.1875,390073.375,383704.28125,288827.75,258480.765625,224370.75,246727.234375,0.04052734375,1.010009765625,0.191650390625,-6.378173351287842,-0.8544921278953552,-1.6784666776657104,80.0,24130.0,0.0
14228.7865666,290808.90625,299742.1875,390073.375,383704.28125,288827.75,258480.765625,224370.75,246727.234375,0.04052734375,1.010009765625,0.191650390625,-6.378173351287842,-0.8544921278953552,-1.6784666776657104,80.0,24131.0,0.0
14228.7865672,290808.90625,299742.1875,390073.375,383704.28125,288827.75,258480.765625,224370.75,246727.234375,0.04052734375,1.010009765625,0.191650390625,-6.378173351287842,-0.8544921278953552,-1.6784666776657104,80.0,24132.0,0.0
14228.7865674,290808.90625,299742.1875,390073.375,383704.28125,288827.75,258480.765625,224370.75,246727.234375,0.04052734375,1.010009765625,0.191650390625,-6.378173351287842,-0.8544921278953552,-1.6784666776657104,80.0,24133.0,0.0
14228.7865677,290808.90625,299742.1875,390073.375,383704.28125,288827.75,258480.765625,224370.75,246727.234375,0.04052734375,1.010009765625,0.191650390625,-6.378173351287842,-0.8544921278953552,-1.6784666776657104,80.0,24134.0,0.0
14228.7865679,290808.90625,299742.1875,390073.375,383704.28125,288827.75,258480.765625,224370.75,246727.234375,0.04052734375,1.010009765625,0.191650390625,-6.378173351287842,-0.8544921278953552,-1.6784666776657104,80.0,24135.0,0.0
14228.7865681,290829.125,299740.46875,390051.625,383695.96875,288830.6875,258483.28125,224366.203125,246736.71875,0.0458984375,0.979248046875,0.186767578125,-3.082275152206421,-1.5258787870407104,-3.387450933456421,80.0,24136.0,1.0
14228.7865694,290844.84375,300058.78125,390239.9375,383686.75,288928.84375,258537.640625,224413.578125,246741.71875,0.0439453125,0.98486328125,0.185302734375,-2.624511480331421,-1.5869139432907104,-3.509521245956421,80.0,24137.0,1.0
14228.7865706,290820.0,300220.15625,390271.125,383639.09375,288956.46875,258556.59375,224422.4375,246727.421875,0.042724609375,0.98974609375,0.1845703125,-2.105712652206421,-1.6174315214157104,-3.570556402206421,80.0,24138.0,1.0
14228.7865718,290790.125,300006.03125,390107.34375,383622.75,288877.90625,258519.03125,224378.09375,246719.640625,0.040283203125,0.9921875,0.185546875,-1.6174315214157104,-1.7395018339157104,-3.875732183456421,80.0,24139.0,1.0
14228.7865732,290789.875,299697.03125,389954.625,383648.21875,288794.3125,258475.765625,224347.953125,246721.78125,0.04052734375,0.995361328125,0.1865234375,-1.2512205839157104,-1.9226073026657104,-3.936767339706421,80.0,24140.0,1.0
14228.7865744,290826.96875,299738.15625,390042.34375,383691.5,288833.09375,258491.140625,224381.484375,246739.578125,0.041015625,0.99609375,0.190185546875,-0.9765624403953552,-2.075195074081421,-4.058837413787842,80.0,24141.0,1.0
14228.7865756,290840.71875,300058.875,390240.375,383687.28125,288938.40625,258542.46875,224432.0,246745.484375,0.0439453125,0.997802734375,0.18994140625,-0.7934569716453552,-2.105712652206421,-4.150390148162842,80.0,24142.0,1.0
14228.7865768,290812.65625,300212.375,390269.34375,383626.3125,288961.9375,258554.078125,224429.671875,246732.421875,0.044921875,1.000244140625,0.185546875,-0.6103515028953552,-2.166747808456421,-4.272460460662842,80.0,24143.0,1.0
14228.8122981,290780.03125,299993.6875,390097.9375,383607.28125,288877.34375,258514.390625,224387.46875,246720.890625,0.046630859375,1.00048828125,0.18505859375,-0.3967284858226776,-2.075195074081421,-4.455565929412842,80.0,24144.0,1.0
14228.823514,290778.3125,299675.40625,389932.28125,383630.4375,288784.90625,258477.90625,224358.59375,246727.328125,0.04296875,1.0009765625,0.18505859375,-0.2136230319738388,-2.044677495956421,-4.730224132537842,80.0,24145.0,1.0
14228.8279038,290814.90625,299719.75,390020.78125,383670.75,288821.3125,258488.640625,224378.984375,246745.484375,0.040771484375,1.00390625,0.183349609375,-0.03051757626235485,-1.8920897245407104,-4.852294445037842,80.0,24146.0,1.0
14228.8279106,290814.90625,299719.75,390020.78125,383670.75,288821.3125,258488.640625,224378.984375,246745.484375,0.040771484375,1.00390625,0.183349609375,-0.03051757626235485,-1.8920897245407104,-4.852294445037842,80.0,24147.0,0.0
14228.827911,290814.90625,299719.75,390020.78125,383670.75,288821.3125,258488.640625,224378.984375,246745.484375,0.040771484375,1.00390625,0.183349609375,-0.03051757626235485,-1.8920897245407104,-4.852294445037842,80.0,24148.0,0.0
14228.8279113,290777.78125,299980.375,390077.84375,383603.4375,288874.21875,258513.9375,224391.40625,246743.6875,0.031982421875,1.01171875,0.18212890625,0.1220703050494194,-2.197265386581421,-5.249022960662842,80.0,24149.0,1.0
14228.8279131,290781.28125,299683.1875,389938.375,383625.0625,288791.96875,258468.703125,224350.640625,246723.125,0.0322265625,1.013427734375,0.182861328125,-0.03051757626235485,-2.471923589706421,-5.249022960662842,80.0,24150.0,1.0
14228.8279148,290822.5,299733.59375,390037.96875,383664.5,288833.375,258486.578125,224371.828125,246722.6875,0.030029296875,1.017822265625,0.180419921875,-0.2441406100988388,-2.624511480331421,-5.157470226287842,80.0,24151.0,1.0
14228.8297886,290843.0625,300055.46875,390226.53125,383661.28125,288938.875,258558.46875,224428.875,246738.765625,0.02978515625,1.015380859375,0.1787109375,-0.4882812201976776,-2.807616949081421,-5.065917491912842,80.0,24152.0,1.0
14228.8588656,290818.75,300215.6875,390254.25,383617.03125,288967.46875,258572.953125,224433.875,246740.921875,0.0302734375,1.011474609375,0.17919921875,-0.6713866591453552,-2.929687261581421,-5.004882335662842,80.0,24153.0,1.0
14228.858877,290788.625,300004.15625,390102.78125,383597.25,288887.625,258511.265625,224388.1875,246725.625,0.02490234375,1.006591796875,0.177001953125,-0.6408690810203552,-2.960204839706421,-4.760741710662842,80.0,24154.0,1.0
14228.858879,290789.40625,299693.375,389954.0,383627.03125,288804.75,258476.84375,224367.8125,246739.046875,0.024169921875,1.00244140625,0.171630859375,-0.6713866591453552,-3.082275152206421,-4.608153820037842,80.0,24155.0,1.0
14228.8588814,290824.0,299730.46875,390031.15625,383665.84375,288841.5,258503.84375,224397.40625,246757.8125,0.01953125,0.9990234375,0.175048828125,-0.4577636420726776,-3.356933355331421,-4.364013195037842,80.0,24156.0,1.0
14228.8835264,290848.4375,300060.46875,390227.6875,383663.15625,288944.0625,258538.078125,224419.390625,246745.125,0.01904296875,0.99658203125,0.172119140625,-0.3967284858226776,-3.723144292831421,-4.211425304412842,80.0,24157.0,1.0
14228.9103604,290827.15625,300210.40625,390246.1875,383612.46875,288962.84375,258546.125,224411.796875,246718.921875,0.019775390625,0.98876953125,0.17333984375,-0.3662109076976776,-3.997802495956421,-3.967284917831421,80.0,24158.0,1.0
14228.9103674,290789.78125,299979.28125,390073.28125,383581.78125,288876.09375,258500.171875,224367.8125,246707.5625,0.021240234375,0.983154296875,0.168701171875,-0.3967284858226776,-4.394530773162842,-3.540038824081421,80.0,24159.0,1.0
14228.9103705,290789.78125,299979.28125,390073.28125,383581.78125,288876.09375,258500.171875,224367.8125,246707.5625,0.021240234375,0.983154296875,0.168701171875,-0.3967284858226776,-4.394530773162842,-3.540038824081421,80.0,24160.0,0.0
14228.9103707,290789.78125,299979.28125,390073.28125,383581.78125,288876.09375,258500.171875,224367.8125,246707.5625,0.021240234375,0.983154296875,0.168701171875,-0.3967284858226776,-4.394530773162842,-3.540038824081421,80.0,24161.0,0.0
14228.9103709,290789.78125,299979.28125,390073.28125,383581.78125,288876.09375,258500.171875,224367.8125,246707.5625,0.021240234375,0.983154296875,0.168701171875,-0.3967284858226776,-4.394530773162842,-3.540038824081421,80.0,24162.0,0.0
14228.910371,290789.78125,299979.28125,390073.28125,383581.78125,288876.09375,258500.171875,224367.8125,246707.5625,0.021240234375,0.983154296875,0.168701171875,-0.3967284858226776,-4.394530773162842,-3.540038824081421,80.0,24163.0,0.0
14228.9103712,290789.78125,299979.28125,390073.28125,383581.78125,288876.09375,258500.171875,224367.8125,246707.5625,0.021240234375,0.983154296875,0.168701171875,-0.3967284858226776,-4.394530773162842,-3.540038824081421,80.0,24164.0,0.0
14228.9103714,290789.78125,299979.28125,390073.28125,383581.78125,288876.09375,258500.171875,224367.8125,246707.5625,0.021240234375,0.983154296875,0.168701171875,-0.3967284858226776,-4.394530773162842,-3.540038824081421,80.0,24165.0,0.0
14228.9103716,290789.78125,299979.28125,390073.28125,383581.78125,288876.09375,258500.171875,224367.8125,246707.5625,0.021240234375,0.983154296875,0.168701171875,-0.3967284858226776,-4.394530773162842,-3.540038824081421,80.0,24166.0,0.0
14228.9103718,290789.78125,299979.28125,390073.28125,383581.78125,288876.09375,258500.171875,224367.8125,246707.5625,0.021240234375,0.983154296875,0.168701171875,-0.3967284858226776,-4.394530773162842,-3.540038824081421,80.0,24167.0,0.0
14228.910372,290789.78125,299979.28125,390073.28125,383581.78125,288876.09375,258500.171875,224367.8125,246707.5625,0.021240234375,0.983154296875,0.168701171875,-0.3967284858226776,-4.394530773162842,-3.540038824081421,80.0,24168.0,0.0
14228.9103722,290789.78125,299979.28125,390073.28125,383581.78125,288876.09375,258500.171875,224367.8125,246707.5625,0.021240234375,0.983154296875,0.168701171875,-0.3967284858226776,-4.394530773162842,-3.540038824081421,80.0,24169.0,0.0
14228.9103724,290789.78125,299979.28125,390073.28125,383581.78125,288876.09375,258500.171875,224367.8125,246707.5625,0.021240234375,0.983154296875,0.168701171875,-0.3967284858226776,-4.394530773162842,-3.540038824081421,80.0,24170.0,0.0
14228.9103725,290789.78125,299979.28125,390073.28125,383581.78125,288876.09375,258500.171875,224367.8125,246707.5625,0.021240234375,0.983154296875,0.168701171875,-0.3967284858226776,-4.394530773162842,-3.540038824081421,80.0,24171.0,0.0
14228.9103728,290789.78125,299979.28125,390073.28125,383581.78125,288876.09375,258500.171875,224367.8125,246707.5625,0.021240234375,0.983154296875,0.168701171875,-0.3967284858226776,-4.394530773162842,-3.540038824081421,80.0,24172.0,0.0
14228.9103729,290789.78125,299979.28125,390073.28125,383581.78125,288876.09375,258500.171875,224367.8125,246707.5625,0.021240234375,0.983154296875,0.168701171875,-0.3967284858226776,-4.394530773162842,-3.540038824081421,80.0,24173.0,0.0
14228.9103731,290789.78125,299979.28125,390073.28125,383581.78125,288876.09375,258500.171875,224367.8125,246707.5625,0.021240234375,0.983154296875,0.168701171875,-0.3967284858226776,-4.394530773162842,-3.540038824081421,80.0,24174.0,0.0
14228.9103733,290789.78125,299979.28125,390073.28125,383581.78125,288876.09375,258500.171875,224367.8125,246707.5625,0.021240234375,0.983154296875,0.168701171875,-0.3967284858226776,-4.394530773162842,-3.540038824081421,80.0,24175.0,0.0
14228.9103735,290789.78125,299979.28125,390073.28125,383581.78125,288876.09375,258500.171875,224367.8125,246707.5625,0.021240234375,0.983154296875,0.168701171875,-0.3967284858226776,-4.394530773162842,-3.540038824081421,80.0,24176.0,0.0
14228.9103736,290789.78125,299979.28125,390073.28125,383581.78125,288876.09375,258500.171875,224367.8125,246707.5625,0.021240234375,0.983154296875,0.168701171875,-0.3967284858226776,-4.394530773162842,-3.540038824081421,80.0,24177.0,0.0
14228.9103738,290789.78125,299979.28125,390073.28125,383581.78125,288876.09375,258500.171875,224367.8125,246707.5625,0.021240234375,0.983154296875,0.168701171875,-0.3967284858226776,-4.394530773162842,-3.540038824081421,80.0,24178.0,0.0
14228.910374,290789.78125,299979.28125,390073.28125,383581.78125,288876.09375,258500.171875,224367.8125,246707.5625,0.021240234375,0.983154296875,0.168701171875,-0.3967284858226776,-4.394530773162842,-3.540038824081421,80.0,24179.0,0.0
14228.9103742,290789.78125,299979.28125,390073.28125,383581.78125,288876.09375,258500.171875,224367.8125,246707.5625,0.021240234375,0.983154296875,0.168701171875,-0.3967284858226776,-4.394530773162842,-3.540038824081421,80.0,24180.0,0.0
14228.9103743,290789.78125,299979.28125,390073.28125,383581.78125,288876.09375,258500.171875,224367.8125,246707.5625,0.021240234375,0.983154296875,0.168701171875,-0.3967284858226776,-4.394530773162842,-3.540038824081421,80.0,24181.0,0.0
14228.9103745,290789.78125,299979.28125,390073.28125,383581.78125,288876.09375,258500.171875,224367.8125,246707.5625,0.021240234375,0.983154296875,0.168701171875,-0.3967284858226776,-4.394530773162842,-3.540038824081421,80.0,24182.0,0.0
14228.9103747,290789.78125,299979.28125,390073.28125,383581.78125,288876.09375,258500.171875,224367.8125,246707.5625,0.021240234375,0.983154296875,0.168701171875,-0.3967284858226776,-4.394530773162842,-3.540038824081421,80.0,24183.0,0.0
14228.9103749,290789.78125,299979.28125,390073.28125,383581.78125,288876.09375,258500.171875,224367.8125,246707.5625,0.021240234375,0.983154296875,0.168701171875,-0.3967284858226776,-4.394530773162842,-3.540038824081421,80.0,24184.0,0.0
14228.910375,290789.78125,299979.28125,390073.28125,383581.78125,288876.09375,258500.171875,224367.8125,246707.5625,0.021240234375,0.983154296875,0.168701171875,-0.3967284858226776,-4.394530773162842,-3.540038824081421,80.0,24185.0,0.0
14228.9103752,290789.78125,299979.28125,390073.28125,383581.78125,288876.09375,258500.171875,224367.8125,246707.5625,0.021240234375,0.983154296875,0.168701171875,-0.3967284858226776,-4.394530773162842,-3.540038824081421,80.0,24186.0,0.0
14228.9103754,290789.78125,299979.28125,390073.28125,383581.78125,288876.09375,258500.171875,224367.8125,246707.5625,0.021240234375,0.983154296875,0.168701171875,-0.3967284858226776,-4.394530773162842,-3.540038824081421,80.0,24187.0,0.0
14228.9103755,290789.78125,299979.28125,390073.28125,383581.78125,288876.09375,258500.171875,224367.8125,246707.5625,0.021240234375,0.983154296875,0.168701171875,-0.3967284858226776,-4.394530773162842,-3.540038824081421,80.0,24188.0,0.0
14228.9103757,290789.78125,299979.28125,390073.28125,383581.78125,288876.09375,258500.171875,224367.8125,246707.5625,0.021240234375,0.983154296875,0.168701171875,-0.3967284858226776,-4.394530773162842,-3.540038824081421,80.0,24189.0,0.0
14228.9103759,290789.78125,299979.28125,390073.28125,383581.78125,288876.09375,258500.171875,224367.8125,246707.5625,0.021240234375,0.983154296875,0.168701171875,-0.3967284858226776,-4.394530773162842,-3.540038824081421,80.0,24190.0,0.0
14228.910376,290789.78125,299979.28125,390073.28125,383581.78125,288876.09375,258500.171875,224367.8125,246707.5625,0.021240234375,0.983154296875,0.168701171875,-0.3967284858226776,-4.394530773162842,-3.540038824081421,80.0,24191.0,0.0
14228.9103762,290789.78125,299979.28125,390073.28125,383581.78125,288876.09375,258500.171875,224367.8125,246707.5625,0.021240234375,0.983154296875,0.168701171875,-0.3967284858226776,-4.394530773162842,-3.540038824081421,80.0,24192.0,0.0
14228.9103764,290789.78125,299979.28125,390073.28125,383581.78125,288876.09375,258500.171875,224367.8125,246707.5625,0.021240234375,0.983154296875,0.168701171875,-0.3967284858226776,-4.394530773162842,-3.540038824081421,80.0,24193.0,0.0
14228.9103766,290789.78125,299979.28125,390073.28125,383581.78125,288876.09375,258500.171875,224367.8125,246707.5625,0.021240234375,0.983154296875,0.168701171875,-0.3967284858226776,-4.394530773162842,-3.540038824081421,80.0,24194.0,0.0
14228.9103768,290789.78125,299979.28125,390073.28125,383581.78125,288876.09375,258500.171875,224367.8125,246707.5625,0.021240234375,0.983154296875,0.168701171875,-0.3967284858226776,-4.394530773162842,-3.540038824081421,80.0,24195.0,0.0
14228.9103769,290789.78125,299979.28125,390073.28125,383581.78125,288876.09375,258500.171875,224367.8125,246707.5625,0.021240234375,0.983154296875,0.168701171875,-0.3967284858226776,-4.394530773162842,-3.540038824081421,80.0,24196.0,0.0
14228.9103771,290859.0625,300048.5,390126.21875,383602.8125,288946.5625,258562.9375,224439.59375,246759.515625,0.045654296875,0.9853515625,0.14208984375,2.105712652206421,-4.791259288787842,-0.9765624403953552,80.0,24197.0,1.0
14228.9103785,290831.34375,300203.25,390146.9375,383549.0625,288963.625,258559.453125,224429.578125,246739.578125,0.044921875,0.986572265625,0.143310546875,1.9836424589157104,-4.425048351287842,-1.2512205839157104,80.0,24198.0,1.0
14229.0257098,290801.40625,299991.71875,389991.90625,383525.90625,288877.34375,258501.421875,224369.421875,246710.515625,0.043212890625,0.9853515625,0.148193359375,1.8310545682907104,-4.211425304412842,-1.3122557401657104,80.0,24199.0,1.0
14229.0257311,290803.09375,299690.5,389849.21875,383549.96875,288790.625,258455.109375,224332.3125,246703.71875,0.043701171875,0.9853515625,0.1484375,1.6479490995407104,-4.089354991912842,-1.3732908964157104,80.0,24200.0,1.0
14229.0257323,290843.0625,299735.46875,389939.625,383592.0625,288828.28125,258472.640625,224348.84375,246718.390625,0.044677734375,0.985595703125,0.146728515625,1.3732908964157104,-3.936767339706421,-1.3122557401657104,80.0,24201.0,1.0
14229.0257336,290860.5,300051.96875,390124.15625,383594.5625,288930.90625,258534.328125,224407.859375,246736.09375,0.04443359375,0.984619140625,0.1455078125,1.2512205839157104,-3.692626714706421,-1.4038084745407104,80.0,24202.0,1.0
14229.0257347,290831.4375,300207.46875,390143.71875,383536.65625,288956.125,258557.75,224423.234375,246728.140625,0.042236328125,0.983642578125,0.142578125,1.2512205839157104,-3.601073980331421,-1.3427733182907104,80.0,24203.0,1.0
14229.0278649,290800.78125,299996.71875,389985.46875,383521.71875,288880.5625,258517.875,224388.546875,246725.265625,0.0390625,0.986083984375,0.141357421875,1.3122557401657104,-3.387450933456421,-1.4038084745407104,80.0,24204.0,1.0
14229.0278799,290805.0625,299701.0625,389848.0625,383553.71875,288806.375,258476.75,224351.265625,246732.6875,0.03955078125,0.98583984375,0.14111328125,1.3427733182907104,-3.295898199081421,-1.3122557401657104,80.0,24205.0,1.0
14229.0535344,290805.0625,299701.0625,389848.0625,383553.71875,288806.375,258476.75,224351.265625,246732.6875,0.03955078125,0.98583984375,0.14111328125,1.3427733182907104,-3.295898199081421,-1.3122557401657104,80.0,24206.0,0.0
14229.0535371,290805.0625,299701.0625,389848.0625,383553.71875,288806.375,258476.75,224351.265625,246732.6875,0.03955078125,0.98583984375,0.14111328125,1.3427733182907104,-3.295898199081421,-1.3122557401657104,80.0,24207.0,0.0
14229.0535373,290805.0625,299701.0625,389848.0625,383553.71875,288806.375,258476.75,224351.265625,246732.6875,0.03955078125,0.98583984375,0.14111328125,1.3427733182907104,-3.295898199081421,-1.3122557401657104,80.0,24208.0,0.0
14229.0535375,290805.0625,299701.0625,389848.0625,383553.71875,288806.375,258476.75,224351.265625,246732.6875,0.03955078125,0.98583984375,0.14111328125,1.3427733182907104,-3.295898199081421,-1.3122557401657104,80.0,24209.0,0.0
14229.0535377,290805.0625,299701.0625,389848.0625,383553.71875,288806.375,258476.75,224351.265625,246732.6875,0.03955078125,0.98583984375,0.14111328125,1.3427733182907104,-3.295898199081421,-1.3122557401657104,80.0,24210.0,0.0
14229.0535379,290805.0625,299701.0625,389848.0625,383553.71875,288806.375,258476.75,224351.265625,246732.6875,0.03955078125,0.98583984375,0.14111328125,1.3427733182907104,-3.295898199081421,-1.3122557401657104,80.0,24211.0,0.0
14229.0535381,290805.0625,299701.0625,389848.0625,383553.71875,288806.375,258476.75,224351.265625,246732.6875,0.03955078125,0.98583984375,0.14111328125,1.3427733182907104,-3.295898199081421,-1.3122557401657104,80.0,24212.0,0.0
