Time,FZ,C3,CZ,C4,PZ,PO7,OZ,PO8,AccX,AccY,AccZ,Gyro1,Gyro2,Gyro3,Battery,Counter,Validation
14815.0365669,294185.375,295161.875,328966.46875,323005.96875,285207.1875,255959.9375,222401.390625,246215.828125,0.045654296875,0.991455078125,0.070556640625,1.0070799589157104,-1.4953612089157104,-1.1596678495407104,80.0,170692.0,1.0
14815.0365682,294185.53125,294884.6875,328787.75,323036.53125,285082.3125,255911.484375,222364.109375,246224.234375,0.045654296875,0.99365234375,0.0732421875,1.0070799589157104,-1.4953612089157104,-1.2512205839157104,80.0,170693.0,1.0
14815.0365695,294229.875,294984.03125,328921.84375,323090.0,285154.28125,255939.90625,222407.015625,246249.984375,0.045166015625,0.993896484375,0.072021484375,0.9765624403953552,-1.5258787870407104,-1.3122557401657104,80.0,170694.0,1.0
14815.0365707,294251.34375,295298.03125,329160.5625,323088.40625,285307.875,256001.96875,222463.25,246255.703125,0.043212890625,0.994384765625,0.071044921875,0.9460448622703552,-1.5258787870407104,-1.3122557401657104,80.0,170695.0,1.0
14815.0365719,294220.84375,295401.03125,329173.1875,323030.90625,285332.46875,256012.15625,222452.796875,246230.765625,0.03955078125,0.994140625,0.069091796875,0.8850097060203552,-1.6174315214157104,-1.3732908964157104,80.0,170696.0,1.0
14815.0365731,294186.625,295160.875,328965.125,323007.3125,285206.5,255954.84375,222394.140625,246213.5,0.0419921875,0.992919921875,0.07080078125,0.8239745497703552,-1.6174315214157104,-1.3732908964157104,80.0,170697.0,1.0
14815.0365743,294190.375,294885.5,328797.5625,323042.90625,285090.0625,255913.265625,222361.0625,246222.453125,0.04345703125,0.99169921875,0.072265625,0.7019042372703552,-1.6784666776657104,-1.4648436307907104,80.0,170698.0,1.0
14815.0365757,294228.28125,294970.875,328921.5,323092.78125,285152.3125,255930.53125,222397.1875,246245.875,0.046142578125,0.98828125,0.074462890625,0.7324218153953552,-1.7700194120407104,-1.3427733182907104,80.0,170699.0,1.0
14815.0805766,294253.75,295286.84375,329157.78125,323092.875,285303.5,255997.484375,222457.359375,246252.3125,0.046875,0.987060546875,0.07177734375,0.7934569716453552,-1.6479490995407104,-1.2817381620407104,80.0,170700.0,1.0
14815.0805875,294235.53125,295398.78125,329178.625,323043.34375,285336.21875,256014.296875,222454.671875,246234.078125,0.047119140625,0.989013671875,0.0712890625,0.8239745497703552,-1.7089842557907104,-1.1901854276657104,80.0,170701.0,1.0
14815.0805888,294200.03125,295156.6875,328970.5625,323017.78125,285211.21875,255949.5625,222392.171875,246216.8125,0.04443359375,0.99267578125,0.07080078125,0.9765624403953552,-1.5563963651657104,-1.1596678495407104,80.0,170702.0,1.0
14815.0805901,294198.21875,294883.71875,328807.5,323049.5,285096.34375,255903.25,222360.0,246226.921875,0.042236328125,0.993408203125,0.0673828125,0.9460448622703552,-1.5869139432907104,-1.0375975370407104,80.0,170703.0,1.0
14815.0805913,294237.65625,294974.09375,328936.5,323098.78125,285163.84375,255935.171875,222402.546875,246250.609375,0.0419921875,0.993896484375,0.070556640625,0.7934569716453552,-1.5258787870407104,-1.0375975370407104,80.0,170704.0,1.0
14815.0805928,294259.9375,295286.125,329165.5625,323094.75,285308.6875,256002.671875,222457.0,246251.5,0.04443359375,0.991943359375,0.072265625,0.6408690810203552,-1.5869139432907104,-0.9765624403953552,80.0,170705.0,1.0
14815.1045427,294240.25,295398.78125,329185.40625,323048.0,285341.65625,256019.9375,222464.0625,246238.546875,0.043701171875,0.990966796875,0.069091796875,0.6713866591453552,-1.5563963651657104,-0.9155272841453552,80.0,170706.0,1.0
14815.1045534,294200.03125,295158.09375,328975.40625,323020.0,285216.59375,255960.828125,222405.765625,246221.109375,0.04296875,0.98779296875,0.0673828125,0.6713866591453552,-1.5869139432907104,-1.0375975370407104,80.0,170707.0,1.0
14815.104555,294199.75,294889.34375,328807.78125,323048.34375,285097.78125,255913.09375,222365.796875,246229.421875,0.040283203125,0.986572265625,0.068359375,0.8239745497703552,-1.6174315214157104,-0.8850097060203552,80.0,170708.0,1.0
14815.129422,294241.875,294986.0,328938.65625,323096.1875,285166.15625,255943.125,222412.296875,246254.1875,0.041259765625,0.988525390625,0.0693359375,0.8239745497703552,-1.5563963651657104,-1.0070799589157104,80.0,170709.0,1.0
14815.1294373,294263.21875,295292.40625,329164.15625,323088.125,285310.5625,255998.03125,222463.078125,246253.921875,0.040771484375,0.990966796875,0.069580078125,0.7629393935203552,-1.5258787870407104,-1.0375975370407104,80.0,170710.0,1.0
14815.1545214,294238.03125,295399.25,329172.625,323027.6875,285333.25,256007.140625,222452.078125,246232.546875,0.04052734375,0.9931640625,0.06982421875,0.7324218153953552,-1.6174315214157104,-1.1596678495407104,80.0,170711.0,1.0
14815.154527,294199.5,295163.65625,328962.625,322998.46875,285209.0625,255962.265625,222400.046875,246217.984375,0.03857421875,0.99462890625,0.06982421875,0.6103515028953552,-1.6784666776657104,-1.1901854276657104,80.0,170712.0,1.0
14815.1687922,294202.25,294903.65625,328810.34375,323036.46875,285103.84375,255925.609375,222370.09375,246227.640625,0.04052734375,0.994873046875,0.0654296875,0.6408690810203552,-1.8615721464157104,-1.1291502714157104,80.0,170713.0,1.0
14815.1713452,294241.59375,294996.71875,328946.71875,323088.03125,285172.59375,255952.25,222413.90625,246252.3125,0.040283203125,0.99267578125,0.069580078125,0.4882812201976776,-1.8615721464157104,-1.2207030057907104,80.0,170714.0,1.0
14815.1737624,294255.09375,295292.75,329161.90625,323078.75,285306.625,255993.203125,222457.265625,246250.875,0.040771484375,0.991455078125,0.067138671875,0.5187987685203552,-2.044677495956421,-1.4343260526657104,80.0,170715.0,1.0
14815.1762627,294227.46875,295390.9375,329170.125,323028.0625,285330.3125,256002.140625,222449.84375,246234.25,0.040771484375,0.990478515625,0.0703125,0.5798339247703552,-2.014159917831421,-1.4343260526657104,80.0,170716.0,1.0
14815.1837737,294192.4375,295154.96875,328959.3125,323004.0,285202.90625,255953.5,222393.703125,246216.453125,0.04248046875,0.990478515625,0.0693359375,0.4882812201976776,-2.075195074081421,-1.5563963651657104,80.0,170717.0,1.0
14815.1862484,294196.625,294896.5,328800.0,323039.40625,285090.78125,255908.359375,222367.6875,246229.59375,0.0419921875,0.989990234375,0.06689453125,0.6713866591453552,-2.044677495956421,-1.4343260526657104,80.0,170718.0,1.0
14815.2913148,294238.8125,294992.4375,328937.59375,323092.0625,285163.03125,255941.875,222410.859375,246257.046875,0.04296875,0.988525390625,0.070068359375,0.5798339247703552,-2.014159917831421,-1.4038084745407104,80.0,170719.0,1.0
14815.291323,294263.3125,295305.1875,329171.5625,323089.21875,285312.6875,256002.953125,222466.296875,246260.09375,0.043701171875,0.989501953125,0.06982421875,0.6408690810203552,-1.9531248807907104,-1.2817381620407104,80.0,170720.0,1.0
14815.2913243,294233.71875,295397.375,329171.65625,323031.375,285326.375,255999.28125,222451.546875,246229.0625,0.04345703125,0.991943359375,0.067626953125,0.5493163466453552,-1.8920897245407104,-1.2512205839157104,80.0,170721.0,1.0
14815.2913256,294201.53125,295154.4375,328961.46875,323010.78125,285200.9375,255943.046875,222394.40625,246220.296875,0.044189453125,0.991455078125,0.0693359375,0.5493163466453552,-1.8920897245407104,-1.3427733182907104,80.0,170722.0,1.0
14815.2913268,294199.125,294888.28125,328802.75,323039.21875,285087.40625,255895.296875,222357.40625,246227.90625,0.044189453125,0.9912109375,0.0673828125,0.6103515028953552,-1.8005369901657104,-1.2207030057907104,80.0,170723.0,1.0
14815.2913281,294238.8125,294982.78125,328937.9375,323088.59375,285155.6875,255928.109375,222403.0,246247.125,0.043701171875,0.99169921875,0.067626953125,0.5187987685203552,-1.8310545682907104,-1.1901854276657104,80.0,170724.0,1.0
14815.2913293,294259.3125,295284.96875,329163.53125,323082.5,285298.9375,255989.265625,222458.078125,246249.625,0.045654296875,0.990966796875,0.065185546875,0.5798339247703552,-1.8310545682907104,-1.2512205839157104,80.0,170725.0,1.0
14815.2913305,294234.09375,295385.28125,329166.46875,323031.375,285319.0625,256003.65625,222450.203125,246230.765625,0.0439453125,0.989990234375,0.068359375,0.5798339247703552,-1.7395018339157104,-1.1291502714157104,80.0,170726.0,1.0
14815.2913318,294197.6875,295146.40625,328954.75,323008.65625,285195.65625,255955.734375,222394.40625,246215.734375,0.042724609375,0.98974609375,0.07080078125,0.5493163466453552,-1.7395018339157104,-1.0070799589157104,80.0,170727.0,1.0
14815.291333,294198.15625,294882.71875,328797.65625,323041.71875,285084.96875,255904.859375,222363.921875,246226.203125,0.0419921875,0.9892578125,0.06884765625,0.5798339247703552,-1.6479490995407104,-1.0070799589157104,80.0,170728.0,1.0
14815.2913342,294244.625,294979.90625,328933.46875,323097.6875,285156.96875,255941.796875,222412.65625,246255.96875,0.04150390625,0.990234375,0.066650390625,0.5798339247703552,-1.6479490995407104,-0.9765624403953552,80.0,170729.0,1.0
14815.3162455,294269.3125,295291.78125,329162.53125,323091.875,285300.28125,256005.359375,222468.796875,246255.171875,0.0400390625,0.9892578125,0.069091796875,0.5798339247703552,-1.7089842557907104,-0.9460448622703552,80.0,170730.0,1.0
14815.3413627,294239.375,295400.65625,329179.25,323037.09375,285329.15625,256010.359375,222459.5,246231.296875,0.039306640625,0.990234375,0.07373046875,0.5187987685203552,-1.7089842557907104,-0.8850097060203552,80.0,170731.0,1.0
14815.3688559,294204.125,295160.34375,328970.21875,323011.875,285205.84375,255954.125,222400.046875,246216.375,0.039306640625,0.990234375,0.0693359375,0.4577636420726776,-1.6784666776657104,-0.9765624403953552,80.0,170732.0,1.0
14815.3938234,294204.84375,294894.0,328807.84375,323040.375,285092.84375,255903.4375,222361.6875,246230.21875,0.038818359375,0.98876953125,0.06640625,0.4577636420726776,-1.7395018339157104,-0.9460448622703552,80.0,170733.0,1.0
14815.4013846,294242.3125,294982.6875,328930.34375,323086.53125,285155.4375,255931.859375,222402.109375,246253.109375,0.041259765625,0.989501953125,0.068115234375,0.4577636420726776,-1.6784666776657104,-0.9155272841453552,80.0,170734.0,1.0
14815.4074253,294261.96875,295288.46875,329156.28125,323080.53125,285303.125,256005.890625,222462.8125,246252.046875,0.0419921875,0.989990234375,0.067626953125,0.4577636420726776,-1.7700194120407104,-1.0375975370407104,80.0,170735.0,1.0
14815.4074339,294229.4375,295389.9375,329165.46875,323020.8125,285327.28125,256013.40625,222454.40625,246224.953125,0.040771484375,0.988037109375,0.07177734375,0.3662109076976776,-1.6479490995407104,-0.9765624403953552,80.0,170736.0,1.0
14815.4074353,294192.96875,295152.84375,328956.90625,322991.03125,285201.84375,255950.640625,222389.234375,246202.78125,0.04248046875,0.98876953125,0.0693359375,0.3356933295726776,-1.6174315214157104,-1.0375975370407104,80.0,170737.0,1.0
14815.4074366,294198.21875,294893.5625,328805.0,323025.90625,285095.53125,255911.578125,222362.578125,246217.4375,0.042724609375,0.989013671875,0.069091796875,0.3051757514476776,-1.6479490995407104,-1.0681151151657104,80.0,170738.0,1.0
14815.4074378,294243.90625,294994.65625,328954.03125,323082.9375,285174.65625,255940.984375,222410.59375,246252.21875,0.04296875,0.990234375,0.06982421875,0.2441406100988388,-1.6174315214157104,-1.0375975370407104,80.0,170739.0,1.0
14815.4103041,294262.53125,295298.65625,329180.6875,323077.40625,285315.84375,256000.0,222462.09375,246252.75,0.044189453125,0.98974609375,0.06591796875,0.2441406100988388,-1.4953612089157104,-1.0986326932907104,80.0,170740.0,1.0
14815.4103121,294262.53125,295298.65625,329180.6875,323077.40625,285315.84375,256000.0,222462.09375,246252.75,0.044189453125,0.98974609375,0.06591796875,0.2441406100988388,-1.4953612089157104,-1.0986326932907104,80.0,170741.0,0.0
14815.4103123,294262.53125,295298.65625,329180.6875,323077.40625,285315.84375,256000.0,222462.09375,246252.75,0.044189453125,0.98974609375,0.06591796875,0.2441406100988388,-1.4953612089157104,-1.0986326932907104,80.0,170742.0,0.0
14815.4103125,294262.53125,295298.65625,329180.6875,323077.40625,285315.84375,256000.0,222462.09375,246252.75,0.044189453125,0.98974609375,0.06591796875,0.2441406100988388,-1.4953612089157104,-1.0986326932907104,80.0,170743.0,0.0
14815.4103128,294262.53125,295298.65625,329180.6875,323077.40625,285315.84375,256000.0,222462.09375,246252.75,0.044189453125,0.98974609375,0.06591796875,0.2441406100988388,-1.4953612089157104,-1.0986326932907104,80.0,170744.0,0.0
14815.4103129,294262.53125,295298.65625,329180.6875,323077.40625,285315.84375,256000.0,222462.09375,246252.75,0.044189453125,0.98974609375,0.06591796875,0.2441406100988388,-1.4953612089157104,-1.0986326932907104,80.0,170745.0,0.0
14815.4103131,294262.53125,295298.65625,329180.6875,323077.40625,285315.84375,256000.0,222462.09375,246252.75,0.044189453125,0.98974609375,0.06591796875,0.2441406100988388,-1.4953612089157104,-1.0986326932907104,80.0,170746.0,0.0
14815.4103133,294262.53125,295298.65625,329180.6875,323077.40625,285315.84375,256000.0,222462.09375,246252.75,0.044189453125,0.98974609375,0.06591796875,0.2441406100988388,-1.4953612089157104,-1.0986326932907104,80.0,170747.0,0.0
14815.4103135,294262.53125,295298.65625,329180.6875,323077.40625,285315.84375,256000.0,222462.09375,246252.75,0.044189453125,0.98974609375,0.06591796875,0.2441406100988388,-1.4953612089157104,-1.0986326932907104,80.0,170748.0,0.0
14815.4103136,294262.53125,295298.65625,329180.6875,323077.40625,285315.84375,256000.0,222462.09375,246252.75,0.044189453125,0.98974609375,0.06591796875,0.2441406100988388,-1.4953612089157104,-1.0986326932907104,80.0,170749.0,0.0
14815.4103138,294262.53125,295298.65625,329180.6875,323077.40625,285315.84375,256000.0,222462.09375,246252.75,0.044189453125,0.98974609375,0.06591796875,0.2441406100988388,-1.4953612089157104,-1.0986326932907104,80.0,170750.0,0.0
14815.410314,294262.53125,295298.65625,329180.6875,323077.40625,285315.84375,256000.0,222462.09375,246252.75,0.044189453125,0.98974609375,0.06591796875,0.2441406100988388,-1.4953612089157104,-1.0986326932907104,80.0,170751.0,0.0
14815.4103141,294262.53125,295298.65625,329180.6875,323077.40625,285315.84375,256000.0,222462.09375,246252.75,0.044189453125,0.98974609375,0.06591796875,0.2441406100988388,-1.4953612089157104,-1.0986326932907104,80.0,170752.0,0.0
14815.4103143,294262.53125,295298.65625,329180.6875,323077.40625,285315.84375,256000.0,222462.09375,246252.75,0.044189453125,0.98974609375,0.06591796875,0.2441406100988388,-1.4953612089157104,-1.0986326932907104,80.0,170753.0,0.0
14815.4103145,294262.53125,295298.65625,329180.6875,323077.40625,285315.84375,256000.0,222462.09375,246252.75,0.044189453125,0.98974609375,0.06591796875,0.2441406100988388,-1.4953612089157104,-1.0986326932907104,80.0,170754.0,0.0
14815.4103147,294262.53125,295298.65625,329180.6875,323077.40625,285315.84375,256000.0,222462.09375,246252.75,0.044189453125,0.98974609375,0.06591796875,0.2441406100988388,-1.4953612089157104,-1.0986326932907104,80.0,170755.0,0.0
14815.4103149,294262.53125,295298.65625,329180.6875,323077.40625,285315.84375,256000.0,222462.09375,246252.75,0.044189453125,0.98974609375,0.06591796875,0.2441406100988388,-1.4953612089157104,-1.0986326932907104,80.0,170756.0,0.0
14815.410315,294262.53125,295298.65625,329180.6875,323077.40625,285315.84375,256000.0,222462.09375,246252.75,0.044189453125,0.98974609375,0.06591796875,0.2441406100988388,-1.4953612089157104,-1.0986326932907104,80.0,170757.0,0.0
14815.4103152,294262.53125,295298.65625,329180.6875,323077.40625,285315.84375,256000.0,222462.09375,246252.75,0.044189453125,0.98974609375,0.06591796875,0.2441406100988388,-1.4953612089157104,-1.0986326932907104,80.0,170758.0,0.0
14815.4103154,294262.53125,295298.65625,329180.6875,323077.40625,285315.84375,256000.0,222462.09375,246252.75,0.044189453125,0.98974609375,0.06591796875,0.2441406100988388,-1.4953612089157104,-1.0986326932907104,80.0,170759.0,0.0
14815.4103155,294262.53125,295298.65625,329180.6875,323077.40625,285315.84375,256000.0,222462.09375,246252.75,0.044189453125,0.98974609375,0.06591796875,0.2441406100988388,-1.4953612089157104,-1.0986326932907104,80.0,170760.0,0.0
14815.4103157,294262.53125,295298.65625,329180.6875,323077.40625,285315.84375,256000.0,222462.09375,246252.75,0.044189453125,0.98974609375,0.06591796875,0.2441406100988388,-1.4953612089157104,-1.0986326932907104,80.0,170761.0,0.0
14815.4103159,294262.53125,295298.65625,329180.6875,323077.40625,285315.84375,256000.0,222462.09375,246252.75,0.044189453125,0.98974609375,0.06591796875,0.2441406100988388,-1.4953612089157104,-1.0986326932907104,80.0,170762.0,0.0
14815.4103161,294262.53125,295298.65625,329180.6875,323077.40625,285315.84375,256000.0,222462.09375,246252.75,0.044189453125,0.98974609375,0.06591796875,0.2441406100988388,-1.4953612089157104,-1.0986326932907104,80.0,170763.0,0.0
14815.4103162,294262.53125,295298.65625,329180.6875,323077.40625,285315.84375,256000.0,222462.09375,246252.75,0.044189453125,0.98974609375,0.06591796875,0.2441406100988388,-1.4953612089157104,-1.0986326932907104,80.0,170764.0,0.0
14815.4103164,294262.53125,295298.65625,329180.6875,323077.40625,285315.84375,256000.0,222462.09375,246252.75,0.044189453125,0.98974609375,0.06591796875,0.2441406100988388,-1.4953612089157104,-1.0986326932907104,80.0,170765.0,0.0
14815.4103166,294262.53125,295298.65625,329180.6875,323077.40625,285315.84375,256000.0,222462.09375,246252.75,0.044189453125,0.98974609375,0.06591796875,0.2441406100988388,-1.4953612089157104,-1.0986326932907104,80.0,170766.0,0.0
14815.4103168,294262.53125,295298.65625,329180.6875,323077.40625,285315.84375,256000.0,222462.09375,246252.75,0.044189453125,0.98974609375,0.06591796875,0.2441406100988388,-1.4953612089157104,-1.0986326932907104,80.0,170767.0,0.0
14815.410317,294262.53125,295298.65625,329180.6875,323077.40625,285315.84375,256000.0,222462.09375,246252.75,0.044189453125,0.98974609375,0.06591796875,0.2441406100988388,-1.4953612089157104,-1.0986326932907104,80.0,170768.0,0.0
14815.4103171,294262.53125,295298.65625,329180.6875,323077.40625,285315.84375,256000.0,222462.09375,246252.75,0.044189453125,0.98974609375,0.06591796875,0.2441406100988388,-1.4953612089157104,-1.0986326932907104,80.0,170769.0,0.0
14815.4103173,294262.53125,295298.65625,329180.6875,323077.40625,285315.84375,256000.0,222462.09375,246252.75,0.044189453125,0.98974609375,0.06591796875,0.2441406100988388,-1.4953612089157104,-1.0986326932907104,80.0,170770.0,0.0
14815.4103175,294262.53125,295298.65625,329180.6875,323077.40625,285315.84375,256000.0,222462.09375,246252.75,0.044189453125,0.98974609375,0.06591796875,0.2441406100988388,-1.4953612089157104,-1.0986326932907104,80.0,170771.0,0.0
14815.4103177,294262.53125,295298.65625,329180.6875,323077.40625,285315.84375,256000.0,222462.09375,246252.75,0.044189453125,0.98974609375,0.06591796875,0.2441406100988388,-1.4953612089157104,-1.0986326932907104,80.0,170772.0,0.0
14815.4103178,294262.53125,295298.65625,329180.6875,323077.40625,285315.84375,256000.0,222462.09375,246252.75,0.044189453125,0.98974609375,0.06591796875,0.2441406100988388,-1.4953612089157104,-1.0986326932907104,80.0,170773.0,0.0
14815.410318,294262.53125,295298.65625,329180.6875,323077.40625,285315.84375,256000.0,222462.09375,246252.75,0.044189453125,0.98974609375,0.06591796875,0.2441406100988388,-1.4953612089157104,-1.0986326932907104,80.0,170774.0,0.0
14815.4103182,294262.53125,295298.65625,329180.6875,323077.40625,285315.84375,256000.0,222462.09375,246252.75,0.044189453125,0.98974609375,0.06591796875,0.2441406100988388,-1.4953612089157104,-1.0986326932907104,80.0,170775.0,0.0
14815.4103184,294262.53125,295298.65625,329180.6875,323077.40625,285315.84375,256000.0,222462.09375,246252.75,0.044189453125,0.98974609375,0.06591796875,0.2441406100988388,-1.4953612089157104,-1.0986326932907104,80.0,170776.0,0.0
14815.4103185,294262.53125,295298.65625,329180.6875,323077.40625,285315.84375,256000.0,222462.09375,246252.75,0.044189453125,0.98974609375,0.06591796875,0.2441406100988388,-1.4953612089157104,-1.0986326932907104,80.0,170777.0,0.0
14815.4103187,294262.53125,295298.65625,329180.6875,323077.40625,285315.84375,256000.0,222462.09375,246252.75,0.044189453125,0.98974609375,0.06591796875,0.2441406100988388,-1.4953612089157104,-1.0986326932907104,80.0,170778.0,0.0
14815.4103189,294262.53125,295298.65625,329180.6875,323077.40625,285315.84375,256000.0,222462.09375,246252.75,0.044189453125,0.98974609375,0.06591796875,0.2441406100988388,-1.4953612089157104,-1.0986326932907104,80.0,170779.0,0.0
14815.4103191,294262.53125,295298.65625,329180.6875,323077.40625,285315.84375,256000.0,222462.09375,246252.75,0.044189453125,0.98974609375,0.06591796875,0.2441406100988388,-1.4953612089157104,-1.0986326932907104,80.0,170780.0,0.0
14815.4103193,294262.53125,295298.65625,329180.6875,323077.40625,285315.84375,256000.0,222462.09375,246252.75,0.044189453125,0.98974609375,0.06591796875,0.2441406100988388,-1.4953612089157104,-1.0986326932907104,80.0,170781.0,0.0
14815.4103194,294262.53125,295298.65625,329180.6875,323077.40625,285315.84375,256000.0,222462.09375,246252.75,0.044189453125,0.98974609375,0.06591796875,0.2441406100988388,-1.4953612089157104,-1.0986326932907104,80.0,170782.0,0.0
14815.4103197,294262.53125,295298.65625,329180.6875,323077.40625,285315.84375,256000.0,222462.09375,246252.75,0.044189453125,0.98974609375,0.06591796875,0.2441406100988388,-1.4953612089157104,-1.0986326932907104,80.0,170783.0,0.0
14815.4103198,294262.53125,295298.65625,329180.6875,323077.40625,285315.84375,256000.0,222462.09375,246252.75,0.044189453125,0.98974609375,0.06591796875,0.2441406100988388,-1.4953612089157104,-1.0986326932907104,80.0,170784.0,0.0
14815.41032,294262.53125,295298.65625,329180.6875,323077.40625,285315.84375,256000.0,222462.09375,246252.75,0.044189453125,0.98974609375,0.06591796875,0.2441406100988388,-1.4953612089157104,-1.0986326932907104,80.0,170785.0,0.0
14815.4103202,294262.53125,295298.65625,329180.6875,323077.40625,285315.84375,256000.0,222462.09375,246252.75,0.044189453125,0.98974609375,0.06591796875,0.2441406100988388,-1.4953612089157104,-1.0986326932907104,80.0,170786.0,0.0
14815.4103203,294262.53125,295298.65625,329180.6875,323077.40625,285315.84375,256000.0,222462.09375,246252.75,0.044189453125,0.98974609375,0.06591796875,0.2441406100988388,-1.4953612089157104,-1.0986326932907104,80.0,170787.0,0.0
14815.4103205,294191.53125,294888.90625,328796.3125,323021.625,285095.4375,255909.25,222359.015625,246216.1875,0.042724609375,0.989990234375,0.073974609375,0.3356933295726776,-0.8850097060203552,-0.9460448622703552,80.0,170788.0,1.0
14815.4125195,294233.8125,294983.21875,328923.28125,323077.3125,285162.59375,255937.671875,222403.4375,246251.234375,0.04248046875,0.989013671875,0.0751953125,0.3356933295726776,-0.9155272841453552,-0.9460448622703552,80.0,170789.0,1.0
14815.4150064,294252.15625,295285.59375,329137.3125,323069.34375,285301.25,255992.484375,222457.359375,246257.9375,0.04052734375,0.99169921875,0.07275390625,0.3356933295726776,-1.0070799589157104,-0.8850097060203552,80.0,170790.0,1.0
14815.4175124,294226.03125,295388.34375,329146.25,323016.15625,285324.5,256001.78125,222450.296875,246227.640625,0.0400390625,0.989990234375,0.073974609375,0.4272460639476776,-1.0375975370407104,-0.8850097060203552,80.0,170791.0,1.0
14815.4200252,294192.78125,295151.03125,328945.625,322994.4375,285203.1875,255946.796875,222388.515625,246209.65625,0.041015625,0.990234375,0.074462890625,0.4272460639476776,-1.0375975370407104,-0.7934569716453552,80.0,170792.0,1.0
14815.4493747,294195.09375,294880.3125,328784.6875,323030.65625,285090.875,255906.390625,222354.625,246226.03125,0.04296875,0.98974609375,0.072998046875,0.5493163466453552,-1.0986326932907104,-0.8544921278953552,80.0,170793.0,1.0
14815.4493805,294237.40625,294975.0,328918.53125,323080.71875,285163.375,255939.640625,222399.953125,246247.296875,0.04296875,0.989990234375,0.073974609375,0.3967284858226776,-1.2512205839157104,-0.8544921278953552,80.0,170794.0,1.0
14815.4493818,294257.59375,295286.75,329151.28125,323074.09375,285312.34375,255998.921875,222456.90625,246246.765625,0.04248046875,0.98828125,0.07373046875,0.3356933295726776,-1.2207030057907104,-0.9460448622703552,80.0,170795.0,1.0
14815.449383,294228.09375,295382.0625,329155.75,323020.8125,285331.03125,256007.78125,222450.203125,246227.71875,0.0419921875,0.990234375,0.072265625,0.4272460639476776,-1.1901854276657104,-0.7934569716453552,80.0,170796.0,1.0
14815.4493843,294195.5625,295143.4375,328946.34375,322998.28125,285204.875,255946.53125,222392.171875,246212.34375,0.041259765625,0.990234375,0.073974609375,0.4577636420726776,-1.1596678495407104,-0.8850097060203552,80.0,170797.0,1.0
14815.4493855,294193.59375,294875.75,328782.8125,323026.34375,285089.1875,255895.921875,222352.84375,246220.5625,0.042724609375,0.9892578125,0.07080078125,0.4882812201976776,-1.2817381620407104,-0.8544921278953552,80.0,170798.0,1.0
14815.4493867,294243.375,294978.84375,328924.1875,323081.4375,285164.09375,255934.734375,222400.3125,246251.140625,0.041748046875,0.9892578125,0.067626953125,0.4577636420726776,-1.4038084745407104,-0.8850097060203552,80.0,170799.0,1.0
14815.4493879,294271.09375,295293.75,329160.84375,323078.21875,285313.59375,255992.484375,222454.671875,246246.3125,0.041748046875,0.989013671875,0.0703125,0.6103515028953552,-1.3732908964157104,-0.7324218153953552,80.0,170800.0,1.0
14815.4493893,294240.0,295388.40625,329162.90625,323020.8125,285330.59375,255992.75,222441.625,246219.40625,0.043212890625,0.98876953125,0.071044921875,0.6408690810203552,-1.3427733182907104,-0.6713866591453552,80.0,170801.0,1.0
14815.4725168,294204.21875,295138.15625,328947.59375,322997.65625,285203.53125,255946.53125,222385.109375,246211.09375,0.04345703125,0.98828125,0.07177734375,0.6408690810203552,-1.4648436307907104,-0.7019042372703552,80.0,170802.0,1.0
14815.4976163,294209.6875,294886.75,328801.34375,323033.6875,285101.96875,255919.265625,222363.921875,246228.96875,0.042724609375,0.987548828125,0.070556640625,0.7324218153953552,-1.4953612089157104,-0.6103515028953552,80.0,170803.0,1.0
14815.5518503,294248.84375,294992.15625,328943.3125,323083.125,285177.59375,255960.65625,222415.0625,246253.109375,0.043212890625,0.98876953125,0.072509765625,0.7324218153953552,-1.4953612089157104,-0.6713866591453552,80.0,170804.0,1.0
14815.5518597,294267.15625,295299.71875,329173.625,323075.625,285324.875,256019.03125,222472.28125,246254.359375,0.04345703125,0.9892578125,0.072998046875,0.6408690810203552,-1.4343260526657104,-0.7019042372703552,80.0,170805.0,1.0
14815.5518609,294232.9375,295395.03125,329180.0625,323013.75,285344.4375,256017.609375,222461.46875,246231.5625,0.044921875,0.989501953125,0.075439453125,0.6713866591453552,-1.4648436307907104,-0.6408690810203552,80.0,170806.0,1.0
14815.5518622,294188.03125,295135.40625,328952.34375,322977.71875,285203.96875,255957.703125,222394.765625,246211.71875,0.043701171875,0.989013671875,0.07373046875,0.7019042372703552,-1.4648436307907104,-0.7019042372703552,80.0,170807.0,1.0
14815.5751213,294177.3125,294842.5,328760.125,322996.03125,285064.40625,255887.15625,222339.703125,246209.84375,0.044189453125,0.988037109375,0.070556640625,0.5798339247703552,-1.5258787870407104,-0.7934569716453552,80.0,170808.0,1.0
14815.6001344,294222.375,294945.3125,328893.59375,323050.5,285132.1875,255914.171875,222382.25,246231.03125,0.044677734375,0.99072265625,0.07275390625,0.5493163466453552,-1.4648436307907104,-0.8239745497703552,80.0,170809.0,1.0
14815.6514912,294256.875,295280.0625,329144.46875,323059.0,285295.625,255988.015625,222449.75,246245.328125,0.042724609375,0.989990234375,0.072021484375,0.6103515028953552,-1.4953612089157104,-0.7324218153953552,80.0,170810.0,1.0
14815.6514964,294232.46875,295384.75,329161.71875,323011.34375,285323.875,255995.96875,222444.03125,246223.25,0.04296875,0.989990234375,0.071044921875,0.6408690810203552,-1.4953612089157104,-0.7629393935203552,80.0,170811.0,1.0
14815.6514977,294197.6875,295141.75,328956.09375,322990.9375,285200.75,255940.890625,222383.5,246208.234375,0.04638671875,0.989013671875,0.0712890625,0.6103515028953552,-1.4343260526657104,-0.8544921278953552,80.0,170812.0,1.0
14815.6514989,294202.96875,294882.03125,328802.40625,323030.1875,285095.0,255910.765625,222357.21875,246224.421875,0.04541015625,0.98876953125,0.072265625,0.6103515028953552,-1.4038084745407104,-0.8544921278953552,80.0,170813.0,1.0
14815.6515001,294245.875,294984.3125,328947.875,323082.78125,285175.5625,255950.828125,222409.96875,246255.34375,0.046630859375,0.98974609375,0.071044921875,0.6408690810203552,-1.4343260526657104,-0.7934569716453552,80.0,170814.0,1.0
14815.6515013,294259.21875,295290.0625,329163.59375,323070.625,285311.4375,255999.09375,222454.046875,246254.8125,0.044677734375,0.989990234375,0.072265625,0.5798339247703552,-1.4648436307907104,-0.8544921278953552,80.0,170815.0,1.0
14815.6515026,294229.25,295395.40625,329168.15625,323016.25,285331.5625,256007.953125,222446.890625,246227.28125,0.045166015625,0.989013671875,0.073486328125,0.6713866591453552,-1.4648436307907104,-0.7934569716453552,80.0,170816.0,1.0
14815.6515038,294196.0,295148.28125,328957.15625,322994.875,285205.0625,255958.328125,222397.71875,246217.890625,0.0439453125,0.990966796875,0.07275390625,0.5493163466453552,-1.3427733182907104,-0.8544921278953552,80.0,170817.0,1.0
14815.651505,294198.875,294878.8125,328793.28125,323027.6875,285086.9375,255909.96875,222357.578125,246222.890625,0.046875,0.991943359375,0.072509765625,0.5493163466453552,-1.3122557401657104,-0.8544921278953552,80.0,170818.0,1.0
14815.6515063,294238.1875,294978.75,328925.59375,323076.40625,285153.65625,255931.78125,222395.046875,246244.4375,0.04638671875,0.990234375,0.0712890625,0.4882812201976776,-1.2512205839157104,-0.8239745497703552,80.0,170819.0,1.0
14815.6515076,294257.5,295287.375,329154.9375,323072.84375,285299.375,255984.703125,222451.984375,246246.671875,0.044921875,0.990234375,0.0712890625,0.5798339247703552,-1.2207030057907104,-0.7629393935203552,80.0,170820.0,1.0
14815.6550169,294226.5,295378.9375,329157.0,323014.90625,285315.65625,255991.234375,222441.625,246220.75,0.04541015625,0.991943359375,0.070068359375,0.6713866591453552,-1.2207030057907104,-0.8239745497703552,80.0,170821.0,1.0
14815.6587404,294226.5,295378.9375,329157.0,323014.90625,285315.65625,255991.234375,222441.625,246220.75,0.04541015625,0.991943359375,0.070068359375,0.6713866591453552,-1.2207030057907104,-0.8239745497703552,80.0,170822.0,0.0
14815.6587413,294226.5,295378.9375,329157.0,323014.90625,285315.65625,255991.234375,222441.625,246220.75,0.04541015625,0.991943359375,0.070068359375,0.6713866591453552,-1.2207030057907104,-0.8239745497703552,80.0,170823.0,0.0
14815.6587415,294226.5,295378.9375,329157.0,323014.90625,285315.65625,255991.234375,222441.625,246220.75,0.04541015625,0.991943359375,0.070068359375,0.6713866591453552,-1.2207030057907104,-0.8239745497703552,80.0,170824.0,0.0
14815.6587417,294226.5,295378.9375,329157.0,323014.90625,285315.65625,255991.234375,222441.625,246220.75,0.04541015625,0.991943359375,0.070068359375,0.6713866591453552,-1.2207030057907104,-0.8239745497703552,80.0,170825.0,0.0
14815.6587418,294226.5,295378.9375,329157.0,323014.90625,285315.65625,255991.234375,222441.625,246220.75,0.04541015625,0.991943359375,0.070068359375,0.6713866591453552,-1.2207030057907104,-0.8239745497703552,80.0,170826.0,0.0
14815.6587421,294226.5,295378.9375,329157.0,323014.90625,285315.65625,255991.234375,222441.625,246220.75,0.04541015625,0.991943359375,0.070068359375,0.6713866591453552,-1.2207030057907104,-0.8239745497703552,80.0,170827.0,0.0
14815.6587423,294226.5,295378.9375,329157.0,323014.90625,285315.65625,255991.234375,222441.625,246220.75,0.04541015625,0.991943359375,0.070068359375,0.6713866591453552,-1.2207030057907104,-0.8239745497703552,80.0,170828.0,0.0
14815.6587424,294226.5,295378.9375,329157.0,323014.90625,285315.65625,255991.234375,222441.625,246220.75,0.04541015625,0.991943359375,0.070068359375,0.6713866591453552,-1.2207030057907104,-0.8239745497703552,80.0,170829.0,0.0
14815.6587426,294226.5,295378.9375,329157.0,323014.90625,285315.65625,255991.234375,222441.625,246220.75,0.04541015625,0.991943359375,0.070068359375,0.6713866591453552,-1.2207030057907104,-0.8239745497703552,80.0,170830.0,0.0
14815.6587428,294226.5,295378.9375,329157.0,323014.90625,285315.65625,255991.234375,222441.625,246220.75,0.04541015625,0.991943359375,0.070068359375,0.6713866591453552,-1.2207030057907104,-0.8239745497703552,80.0,170831.0,0.0
14815.658743,294226.5,295378.9375,329157.0,323014.90625,285315.65625,255991.234375,222441.625,246220.75,0.04541015625,0.991943359375,0.070068359375,0.6713866591453552,-1.2207030057907104,-0.8239745497703552,80.0,170832.0,0.0
14815.6587432,294226.5,295378.9375,329157.0,323014.90625,285315.65625,255991.234375,222441.625,246220.75,0.04541015625,0.991943359375,0.070068359375,0.6713866591453552,-1.2207030057907104,-0.8239745497703552,80.0,170833.0,0.0
14815.6587434,294226.5,295378.9375,329157.0,323014.90625,285315.65625,255991.234375,222441.625,246220.75,0.04541015625,0.991943359375,0.070068359375,0.6713866591453552,-1.2207030057907104,-0.8239745497703552,80.0,170834.0,0.0
14815.6587435,294226.5,295378.9375,329157.0,323014.90625,285315.65625,255991.234375,222441.625,246220.75,0.04541015625,0.991943359375,0.070068359375,0.6713866591453552,-1.2207030057907104,-0.8239745497703552,80.0,170835.0,0.0
14815.6587437,294226.5,295378.9375,329157.0,323014.90625,285315.65625,255991.234375,222441.625,246220.75,0.04541015625,0.991943359375,0.070068359375,0.6713866591453552,-1.2207030057907104,-0.8239745497703552,80.0,170836.0,0.0
14815.6587439,294226.5,295378.9375,329157.0,323014.90625,285315.65625,255991.234375,222441.625,246220.75,0.04541015625,0.991943359375,0.070068359375,0.6713866591453552,-1.2207030057907104,-0.8239745497703552,80.0,170837.0,0.0
14815.658744,294226.5,295378.9375,329157.0,323014.90625,285315.65625,255991.234375,222441.625,246220.75,0.04541015625,0.991943359375,0.070068359375,0.6713866591453552,-1.2207030057907104,-0.8239745497703552,80.0,170838.0,0.0
14815.6587442,294226.5,295378.9375,329157.0,323014.90625,285315.65625,255991.234375,222441.625,246220.75,0.04541015625,0.991943359375,0.070068359375,0.6713866591453552,-1.2207030057907104,-0.8239745497703552,80.0,170839.0,0.0
14815.6587444,294226.5,295378.9375,329157.0,323014.90625,285315.65625,255991.234375,222441.625,246220.75,0.04541015625,0.991943359375,0.070068359375,0.6713866591453552,-1.2207030057907104,-0.8239745497703552,80.0,170840.0,0.0
14815.6587445,294226.5,295378.9375,329157.0,323014.90625,285315.65625,255991.234375,222441.625,246220.75,0.04541015625,0.991943359375,0.070068359375,0.6713866591453552,-1.2207030057907104,-0.8239745497703552,80.0,170841.0,0.0
14815.6587447,294226.5,295378.9375,329157.0,323014.90625,285315.65625,255991.234375,222441.625,246220.75,0.04541015625,0.991943359375,0.070068359375,0.6713866591453552,-1.2207030057907104,-0.8239745497703552,80.0,170842.0,0.0
14815.6587449,294226.5,295378.9375,329157.0,323014.90625,285315.65625,255991.234375,222441.625,246220.75,0.04541015625,0.991943359375,0.070068359375,0.6713866591453552,-1.2207030057907104,-0.8239745497703552,80.0,170843.0,0.0
14815.6587451,294249.46875,294979.21875,328939.8125,323075.25,285166.34375,255939.640625,222406.65625,246253.921875,0.04443359375,0.988037109375,0.0693359375,0.5493163466453552,-0.9765624403953552,-0.7324218153953552,80.0,170844.0,1.0
14815.658748,294264.75,295274.5,329149.21875,323067.3125,285295.71875,255986.40625,222450.203125,246256.953125,0.04345703125,0.989990234375,0.070556640625,0.5798339247703552,-1.0681151151657104,-0.8544921278953552,80.0,170845.0,1.0
14815.6587493,294235.0625,295375.71875,329145.28125,323014.09375,285312.15625,255995.53125,222440.8125,246236.75,0.043212890625,0.992919921875,0.067626953125,0.5798339247703552,-1.0375975370407104,-0.9155272841453552,80.0,170846.0,1.0
14815.664616,294202.15625,295141.03125,328941.875,322991.5625,285193.6875,255947.875,222389.40625,246215.921875,0.0439453125,0.992431640625,0.067626953125,0.5798339247703552,-1.0375975370407104,-1.0986326932907104,80.0,170847.0,1.0
14815.6646181,294204.21875,294879.34375,328790.5,323027.5,285089.0,255907.640625,222360.53125,246228.96875,0.04443359375,0.994873046875,0.068115234375,0.4577636420726776,-1.0986326932907104,-1.1901854276657104,80.0,170848.0,1.0
14815.6646194,294248.84375,294985.03125,328939.71875,323084.03125,285170.8125,255947.421875,222414.4375,246264.296875,0.044677734375,0.99560546875,0.07177734375,0.3662109076976776,-1.1291502714157104,-1.1901854276657104,80.0,170849.0,1.0
14815.6646206,294265.375,295288.71875,329163.15625,323068.46875,285309.40625,255997.578125,222460.484375,246248.90625,0.043212890625,0.993896484375,0.07080078125,0.2441406100988388,-1.2512205839157104,-1.3427733182907104,80.0,170850.0,1.0
14815.6646219,294238.90625,295386.28125,329166.75,323014.0,285330.125,256013.765625,222458.609375,246233.796875,0.04443359375,0.99365234375,0.069091796875,0.2136230319738388,-1.3122557401657104,-1.3732908964157104,80.0,170851.0,1.0
14815.6662558,294197.59375,295132.1875,328942.25,322982.375,285192.53125,255949.65625,222391.375,246216.28125,0.0439453125,0.9912109375,0.067626953125,0.1220703050494194,-1.3122557401657104,-1.4953612089157104,80.0,170852.0,1.0
14815.6946644,294207.625,294882.8125,328792.21875,323022.15625,285090.25,255910.140625,222369.203125,246232.90625,0.04345703125,0.990234375,0.069580078125,0.0915527269244194,-1.2817381620407104,-1.5563963651657104,80.0,170853.0,1.0
14815.6946699,294248.84375,294990.46875,328934.375,323074.8125,285165.71875,255942.78125,222417.578125,246258.03125,0.044677734375,0.990478515625,0.068603515625,0.0610351525247097,-1.2512205839157104,-1.4648436307907104,80.0,170854.0,1.0
14815.6946712,294266.1875,295304.46875,329162.96875,323068.90625,285313.59375,256007.328125,222476.21875,246267.234375,0.044189453125,0.990478515625,0.06982421875,0.1220703050494194,-1.3427733182907104,-1.3732908964157104,80.0,170855.0,1.0
14815.7188768,294231.59375,295404.15625,329168.0,323014.0,285334.0625,256019.84375,222466.65625,246242.828125,0.043212890625,0.98876953125,0.069580078125,0.0610351525247097,-1.2817381620407104,-1.2817381620407104,80.0,170856.0,1.0
14815.7438717,294193.0625,295160.4375,328954.125,322991.03125,285208.0,255973.984375,222410.0625,246221.734375,0.04345703125,0.98828125,0.071044921875,0.0610351525247097,-1.3732908964157104,-1.2512205839157104,80.0,170857.0,1.0
14815.7801025,294194.75,294897.40625,328796.59375,323024.03125,285096.875,255915.78125,222370.984375,246233.359375,0.04248046875,0.988525390625,0.072509765625,0.1220703050494194,-1.3732908964157104,-1.2512205839157104,80.0,170858.0,1.0
14815.8318401,294237.03125,294996.625,328937.3125,323077.125,285171.15625,255943.3125,222411.84375,246258.75,0.041259765625,0.988525390625,0.070068359375,0.1831054538488388,-1.4343260526657104,-1.0986326932907104,80.0,170859.0,1.0
14815.8318462,294263.6875,295315.5625,329169.0625,323076.25,285321.1875,256014.390625,222473.09375,246267.421875,0.041015625,0.990234375,0.073974609375,0.0610351525247097,-1.4343260526657104,-1.1901854276657104,80.0,170860.0,1.0
14815.8318475,294235.34375,295422.3125,329178.4375,323024.125,285345.34375,256024.671875,222466.203125,246250.25,0.041259765625,0.99169921875,0.069580078125,0.0,-1.5258787870407104,-1.0681151151657104,80.0,170861.0,1.0
14815.8318487,294201.625,295176.78125,328965.75,323000.34375,285218.8125,255965.484375,222409.171875,246236.390625,0.040283203125,0.990478515625,0.07080078125,0.0,-1.5869139432907104,-1.0070799589157104,80.0,170862.0,1.0
14815.8318499,294206.5625,294909.03125,328804.8125,323032.15625,285103.03125,255923.90625,222368.84375,246232.546875,0.040771484375,0.9873046875,0.07470703125,0.03051757626235485,-1.5258787870407104,-0.8239745497703552,80.0,170863.0,1.0
14815.8318512,294249.1875,295009.96875,328941.0625,323082.6875,285173.9375,255954.671875,222412.46875,246256.515625,0.0390625,0.98974609375,0.071533203125,0.03051757626235485,-1.5563963651657104,-0.6713866591453552,80.0,170864.0,1.0
14815.8318525,294265.90625,295316.96875,329173.4375,323074.625,285322.28125,256009.65625,222469.15625,246264.109375,0.0419921875,0.989501953125,0.0703125,0.0610351525247097,-1.7089842557907104,-0.6408690810203552,80.0,170865.0,1.0
14815.8318537,294239.1875,295411.5,329175.3125,323019.1875,285338.4375,256011.0,222456.109375,246234.703125,0.0419921875,0.989501953125,0.070068359375,0.0915527269244194,-1.7395018339157104,-0.6408690810203552,80.0,170866.0,1.0
14815.8318551,294205.125,295166.6875,328955.90625,322993.28125,285204.78125,255960.921875,222396.375,246217.0,0.041748046875,0.989013671875,0.07080078125,0.0610351525247097,-1.7700194120407104,-0.6713866591453552,80.0,170867.0,1.0
14815.8751367,294203.5,294897.21875,328794.90625,323024.65625,285091.0625,255910.765625,222355.609375,246222.453125,0.044189453125,0.989501953125,0.072509765625,0.03051757626235485,-1.8005369901657104,-0.5493163466453552,80.0,170868.0,1.0
14815.9001149,294203.5,294897.21875,328794.90625,323024.65625,285091.0625,255910.765625,222355.609375,246222.453125,0.044189453125,0.989501953125,0.072509765625,0.03051757626235485,-1.8005369901657104,-0.5493163466453552,80.0,170869.0,0.0
14815.900116,294203.5,294897.21875,328794.90625,323024.65625,285091.0625,255910.765625,222355.609375,246222.453125,0.044189453125,0.989501953125,0.072509765625,0.03051757626235485,-1.8005369901657104,-0.5493163466453552,80.0,170870.0,0.0
14815.9001162,294203.5,294897.21875,328794.90625,323024.65625,285091.0625,255910.765625,222355.609375,246222.453125,0.044189453125,0.989501953125,0.072509765625,0.03051757626235485,-1.8005369901657104,-0.5493163466453552,80.0,170871.0,0.0
14815.9001164,294203.5,294897.21875,328794.90625,323024.65625,285091.0625,255910.765625,222355.609375,246222.453125,0.044189453125,0.989501953125,0.072509765625,0.03051757626235485,-1.8005369901657104,-0.5493163466453552,80.0,170872.0,0.0
14815.9001166,294203.5,294897.21875,328794.90625,323024.65625,285091.0625,255910.765625,222355.609375,246222.453125,0.044189453125,0.989501953125,0.072509765625,0.03051757626235485,-1.8005369901657104,-0.5493163466453552,80.0,170873.0,0.0
14815.9001168,294203.5,294897.21875,328794.90625,323024.65625,285091.0625,255910.765625,222355.609375,246222.453125,0.044189453125,0.989501953125,0.072509765625,0.03051757626235485,-1.8005369901657104,-0.5493163466453552,80.0,170874.0,0.0
14815.9001169,294203.5,294897.21875,328794.90625,323024.65625,285091.0625,255910.765625,222355.609375,246222.453125,0.044189453125,0.989501953125,0.072509765625,0.03051757626235485,-1.8005369901657104,-0.5493163466453552,80.0,170875.0,0.0
14815.9001171,294203.5,294897.21875,328794.90625,323024.65625,285091.0625,255910.765625,222355.609375,246222.453125,0.044189453125,0.989501953125,0.072509765625,0.03051757626235485,-1.8005369901657104,-0.5493163466453552,80.0,170876.0,0.0
14815.9001173,294203.5,294897.21875,328794.90625,323024.65625,285091.0625,255910.765625,222355.609375,246222.453125,0.044189453125,0.989501953125,0.072509765625,0.03051757626235485,-1.8005369901657104,-0.5493163466453552,80.0,170877.0,0.0
14815.9001175,294203.5,294897.21875,328794.90625,323024.65625,285091.0625,255910.765625,222355.609375,246222.453125,0.044189453125,0.989501953125,0.072509765625,0.03051757626235485,-1.8005369901657104,-0.5493163466453552,80.0,170878.0,0.0
14815.9001176,294203.5,294897.21875,328794.90625,323024.65625,285091.0625,255910.765625,222355.609375,246222.453125,0.044189453125,0.989501953125,0.072509765625,0.03051757626235485,-1.8005369901657104,-0.5493163466453552,80.0,170879.0,0.0
14815.9001178,294203.5,294897.21875,328794.90625,323024.65625,285091.0625,255910.765625,222355.609375,246222.453125,0.044189453125,0.989501953125,0.072509765625,0.03051757626235485,-1.8005369901657104,-0.5493163466453552,80.0,170880.0,0.0
14815.900118,294203.5,294897.21875,328794.90625,323024.65625,285091.0625,255910.765625,222355.609375,246222.453125,0.044189453125,0.989501953125,0.072509765625,0.03051757626235485,-1.8005369901657104,-0.5493163466453552,80.0,170881.0,0.0
14815.9001181,294203.5,294897.21875,328794.90625,323024.65625,285091.0625,255910.765625,222355.609375,246222.453125,0.044189453125,0.989501953125,0.072509765625,0.03051757626235485,-1.8005369901657104,-0.5493163466453552,80.0,170882.0,0.0
14815.9001183,294203.5,294897.21875,328794.90625,323024.65625,285091.0625,255910.765625,222355.609375,246222.453125,0.044189453125,0.989501953125,0.072509765625,0.03051757626235485,-1.8005369901657104,-0.5493163466453552,80.0,170883.0,0.0
14815.9001185,294203.5,294897.21875,328794.90625,323024.65625,285091.0625,255910.765625,222355.609375,246222.453125,0.044189453125,0.989501953125,0.072509765625,0.03051757626235485,-1.8005369901657104,-0.5493163466453552,80.0,170884.0,0.0
14815.9001186,294203.5,294897.21875,328794.90625,323024.65625,285091.0625,255910.765625,222355.609375,246222.453125,0.044189453125,0.989501953125,0.072509765625,0.03051757626235485,-1.8005369901657104,-0.5493163466453552,80.0,170885.0,0.0
14815.9001188,294203.5,294897.21875,328794.90625,323024.65625,285091.0625,255910.765625,222355.609375,246222.453125,0.044189453125,0.989501953125,0.072509765625,0.03051757626235485,-1.8005369901657104,-0.5493163466453552,80.0,170886.0,0.0
14815.900119,294203.5,294897.21875,328794.90625,323024.65625,285091.0625,255910.765625,222355.609375,246222.453125,0.044189453125,0.989501953125,0.072509765625,0.03051757626235485,-1.8005369901657104,-0.5493163466453552,80.0,170887.0,0.0
14815.9001192,294203.5,294897.21875,328794.90625,323024.65625,285091.0625,255910.765625,222355.609375,246222.453125,0.044189453125,0.989501953125,0.072509765625,0.03051757626235485,-1.8005369901657104,-0.5493163466453552,80.0,170888.0,0.0
14815.9001194,294203.5,294897.21875,328794.90625,323024.65625,285091.0625,255910.765625,222355.609375,246222.453125,0.044189453125,0.989501953125,0.072509765625,0.03051757626235485,-1.8005369901657104,-0.5493163466453552,80.0,170889.0,0.0
14815.9001195,294203.5,294897.21875,328794.90625,323024.65625,285091.0625,255910.765625,222355.609375,246222.453125,0.044189453125,0.989501953125,0.072509765625,0.03051757626235485,-1.8005369901657104,-0.5493163466453552,80.0,170890.0,0.0
14815.9001197,294203.5,294897.21875,328794.90625,323024.65625,285091.0625,255910.765625,222355.609375,246222.453125,0.044189453125,0.989501953125,0.072509765625,0.03051757626235485,-1.8005369901657104,-0.5493163466453552,80.0,170891.0,0.0
14815.9001199,294203.5,294897.21875,328794.90625,323024.65625,285091.0625,255910.765625,222355.609375,246222.453125,0.044189453125,0.989501953125,0.072509765625,0.03051757626235485,-1.8005369901657104,-0.5493163466453552,80.0,170892.0,0.0
14815.90012,294203.5,294897.21875,328794.90625,323024.65625,285091.0625,255910.765625,222355.609375,246222.453125,0.044189453125,0.989501953125,0.072509765625,0.03051757626235485,-1.8005369901657104,-0.5493163466453552,80.0,170893.0,0.0
14815.9001202,294203.5,294897.21875,328794.90625,323024.65625,285091.0625,255910.765625,222355.609375,246222.453125,0.044189453125,0.989501953125,0.072509765625,0.03051757626235485,-1.8005369901657104,-0.5493163466453552,80.0,170894.0,0.0
14815.9001204,294203.5,294897.21875,328794.90625,323024.65625,285091.0625,255910.765625,222355.609375,246222.453125,0.044189453125,0.989501953125,0.072509765625,0.03051757626235485,-1.8005369901657104,-0.5493163466453552,80.0,170895.0,0.0
14815.9001206,294203.5,294897.21875,328794.90625,323024.65625,285091.0625,255910.765625,222355.609375,246222.453125,0.044189453125,0.989501953125,0.072509765625,0.03051757626235485,-1.8005369901657104,-0.5493163466453552,80.0,170896.0,0.0
14815.9001208,294203.5,294897.21875,328794.90625,323024.65625,285091.0625,255910.765625,222355.609375,246222.453125,0.044189453125,0.989501953125,0.072509765625,0.03051757626235485,-1.8005369901657104,-0.5493163466453552,80.0,170897.0,0.0
14815.9001209,294203.5,294897.21875,328794.90625,323024.65625,285091.0625,255910.765625,222355.609375,246222.453125,0.044189453125,0.989501953125,0.072509765625,0.03051757626235485,-1.8005369901657104,-0.5493163466453552,80.0,170898.0,0.0
14815.9001211,294203.5,294897.21875,328794.90625,323024.65625,285091.0625,255910.765625,222355.609375,246222.453125,0.044189453125,0.989501953125,0.072509765625,0.03051757626235485,-1.8005369901657104,-0.5493163466453552,80.0,170899.0,0.0
14815.9001213,294203.5,294897.21875,328794.90625,323024.65625,285091.0625,255910.765625,222355.609375,246222.453125,0.044189453125,0.989501953125,0.072509765625,0.03051757626235485,-1.8005369901657104,-0.5493163466453552,80.0,170900.0,0.0
14815.9001215,294203.5,294897.21875,328794.90625,323024.65625,285091.0625,255910.765625,222355.609375,246222.453125,0.044189453125,0.989501953125,0.072509765625,0.03051757626235485,-1.8005369901657104,-0.5493163466453552,80.0,170901.0,0.0
14815.9001216,294203.5,294897.21875,328794.90625,323024.65625,285091.0625,255910.765625,222355.609375,246222.453125,0.044189453125,0.989501953125,0.072509765625,0.03051757626235485,-1.8005369901657104,-0.5493163466453552,80.0,170902.0,0.0
14815.9001218,294203.5,294897.21875,328794.90625,323024.65625,285091.0625,255910.765625,222355.609375,246222.453125,0.044189453125,0.989501953125,0.072509765625,0.03051757626235485,-1.8005369901657104,-0.5493163466453552,80.0,170903.0,0.0
14815.900122,294322.6875,295035.25,328965.3125,323089.84375,285199.40625,255968.53125,222426.0625,246267.59375,0.04345703125,0.98876953125,0.07470703125,0.6103515028953552,-1.5258787870407104,-0.6103515028953552,80.0,170904.0,1.0
14815.9280612,294337.96875,295334.5,329181.65625,323076.6875,285332.09375,256021.28125,222471.75,246266.171875,0.04296875,0.9912109375,0.072509765625,0.6408690810203552,-1.4953612089157104,-0.6713866591453552,80.0,170905.0,1.0
14815.9280667,294315.96875,295437.15625,329193.1875,323029.40625,285357.5,256043.09375,222471.390625,246250.15625,0.04345703125,0.9931640625,0.072509765625,0.7019042372703552,-1.5563963651657104,-0.7629393935203552,80.0,170906.0,1.0
14815.928068,294279.875,295190.75,328981.9375,323008.125,285230.1875,255988.640625,222413.28125,246228.609375,0.040771484375,0.99267578125,0.072509765625,0.6713866591453552,-1.5563963651657104,-0.8850097060203552,80.0,170907.0,1.0
14815.9280693,294276.71875,294928.40625,328820.0,323039.125,285115.65625,255932.5,222373.40625,246239.25,0.041259765625,0.99267578125,0.070068359375,0.6713866591453552,-1.6784666776657104,-0.9765624403953552,80.0,170908.0,1.0
14815.9519252,294314.46875,295030.875,328962.625,323089.375,285190.84375,255955.921875,222412.109375,246265.984375,0.041015625,0.99267578125,0.068359375,0.5798339247703552,-1.6784666776657104,-1.0070799589157104,80.0,170909.0,1.0
14815.9519305,294327.53125,295327.4375,329179.4375,323078.375,285327.4375,256000.078125,222460.03125,246268.140625,0.0419921875,0.9931640625,0.067138671875,0.6103515028953552,-1.7700194120407104,-1.0070799589157104,80.0,170910.0,1.0
14816.0275979,294294.53125,295420.4375,329178.4375,323020.625,285342.28125,256003.484375,222447.34375,246242.390625,0.04443359375,0.992431640625,0.072509765625,0.6103515028953552,-1.8310545682907104,-1.0986326932907104,80.0,170911.0,1.0
14816.0276053,294259.46875,295177.59375,328969.78125,322998.71875,285220.25,255956.8125,222394.59375,246231.828125,0.045654296875,0.990966796875,0.0732421875,0.6103515028953552,-1.8310545682907104,-1.2512205839157104,80.0,170912.0,1.0
14816.0276066,294260.625,294926.0,328815.90625,323030.28125,285113.78125,255921.046875,222365.890625,246237.640625,0.0458984375,0.987548828125,0.0732421875,0.7019042372703552,-1.8310545682907104,-1.2817381620407104,80.0,170913.0,1.0
14816.0276078,294298.09375,295031.59375,328955.65625,323079.09375,285188.0625,255959.9375,222414.078125,246258.390625,0.045654296875,0.9873046875,0.072021484375,0.7629393935203552,-1.7700194120407104,-1.2512205839157104,80.0,170914.0,1.0
14816.027609,294311.96875,295335.65625,329181.125,323072.3125,285329.34375,256011.078125,222463.609375,246262.40625,0.04541015625,0.98828125,0.0703125,0.7629393935203552,-1.7395018339157104,-1.2207030057907104,80.0,170915.0,1.0
14816.0276103,294277.28125,295420.15625,329174.96875,323012.40625,285338.1875,256004.734375,222448.59375,246232.734375,0.04541015625,0.988525390625,0.0673828125,0.7324218153953552,-1.7700194120407104,-1.3427733182907104,80.0,170916.0,1.0
14816.0276115,294240.6875,295169.90625,328957.78125,322989.0625,285206.40625,255954.484375,222392.984375,246217.34375,0.04541015625,0.98876953125,0.06884765625,0.8239745497703552,-1.7700194120407104,-1.3122557401657104,80.0,170917.0,1.0
14816.0276128,294241.15625,294906.78125,328800.4375,323021.96875,285096.34375,255910.234375,222360.4375,246227.09375,0.044921875,0.9892578125,0.068115234375,0.8850097060203552,-1.7395018339157104,-1.2817381620407104,80.0,170918.0,1.0
14816.027614,294282.53125,295023.1875,328947.59375,323075.625,285174.84375,255949.296875,222411.84375,246257.046875,0.043701171875,0.9892578125,0.067626953125,0.9155272841453552,-1.6784666776657104,-1.1596678495407104,80.0,170919.0,1.0
14816.0276152,294294.71875,295326.0,329169.96875,323066.6875,285317.15625,256001.96875,222461.640625,246261.078125,0.04443359375,0.989990234375,0.0712890625,0.8544921278953552,-1.7700194120407104,-1.1291502714157104,80.0,170920.0,1.0
14816.0276164,294263.21875,295419.8125,329175.125,323009.28125,285336.65625,256005.71875,222446.1875,246230.859375,0.04345703125,0.990478515625,0.071044921875,0.9765624403953552,-1.7395018339157104,-0.9765624403953552,80.0,170921.0,1.0
14816.0526582,294223.0,295170.625,328965.46875,322981.125,285209.875,255951.265625,222383.5,246206.4375,0.04443359375,0.991455078125,0.06982421875,1.0070799589157104,-1.6174315214157104,-1.0375975370407104,80.0,170922.0,1.0
14816.1012489,294215.40625,294896.3125,328797.40625,323006.0625,285087.46875,255905.046875,222347.75,246213.421875,0.044189453125,0.99267578125,0.07275390625,1.0375975370407104,-1.5563963651657104,-0.9460448622703552,80.0,170923.0,1.0
14816.1012581,294267.34375,295003.625,328937.3125,323064.53125,285164.09375,255946.625,222398.078125,246245.25,0.044921875,0.9921875,0.07177734375,0.9155272841453552,-1.4648436307907104,-0.8239745497703552,80.0,170924.0,1.0
14816.1012594,294286.75,295306.875,329157.71875,323055.6875,285305.71875,256006.875,222450.46875,246245.15625,0.04248046875,0.99072265625,0.0712890625,0.8850097060203552,-1.4648436307907104,-0.8850097060203552,80.0,170925.0,1.0
14816.1012607,294257.15625,295404.875,329168.15625,323001.3125,285331.65625,256016.71875,222451.71875,246226.828125,0.0419921875,0.9892578125,0.072265625,0.8239745497703552,-1.4648436307907104,-0.7629393935203552,80.0,170926.0,1.0
14816.1012619,294218.34375,295158.28125,328958.40625,322976.8125,285209.34375,255969.328125,222402.640625,246217.984375,0.040771484375,0.989013671875,0.06884765625,0.7934569716453552,-1.5563963651657104,-0.8239745497703552,80.0,170927.0,1.0
14816.1012632,294217.53125,294897.125,328799.53125,323006.78125,285100.1875,255928.46875,222368.671875,246225.21875,0.04150390625,0.99072265625,0.068359375,0.7324218153953552,-1.5563963651657104,-0.8544921278953552,80.0,170928.0,1.0
14816.1012646,294256.875,294999.15625,328937.5,323054.59375,285175.71875,255958.59375,222411.671875,246251.421875,0.041015625,0.991455078125,0.06884765625,0.7324218153953552,-1.6174315214157104,-0.8544921278953552,80.0,170929.0,1.0
14816.1012658,294275.40625,295313.21875,329169.96875,323048.71875,285328.875,256024.765625,222471.65625,246260.0,0.041015625,0.991455078125,0.06982421875,0.7324218153953552,-1.6784666776657104,-0.8544921278953552,80.0,170930.0,1.0
14816.1037904,294236.78125,295404.96875,329167.375,322987.09375,285342.65625,256023.328125,222457.53125,246232.46875,0.0390625,0.993408203125,0.069091796875,0.7324218153953552,-1.6174315214157104,-0.8239745497703552,80.0,170931.0,1.0
14816.1102766,294196.34375,295150.59375,328947.15625,322959.84375,285205.5,255957.078125,222390.5625,246213.0625,0.041748046875,0.990234375,0.072998046875,0.6713866591453552,-1.5869139432907104,-0.8239745497703552,80.0,170932.0,1.0
14816.1102802,294196.28125,294883.28125,328781.21875,322991.5625,285086.9375,255908.53125,222354.453125,246216.546875,0.04443359375,0.98974609375,0.072998046875,0.5187987685203552,-1.6174315214157104,-0.8239745497703552,80.0,170933.0,1.0
14816.1102815,294240.4375,294992.34375,328919.875,323049.15625,285162.3125,255946.34375,222402.015625,246244.796875,0.041748046875,0.989501953125,0.069091796875,0.4882812201976776,-1.6174315214157104,-0.7934569716453552,80.0,170934.0,1.0
14816.1102827,294262.4375,295308.9375,329155.75,323050.125,285314.125,256016.359375,222465.046875,246260.625,0.04345703125,0.9892578125,0.067138671875,0.4577636420726776,-1.5258787870407104,-0.7934569716453552,80.0,170935.0,1.0
14816.1125412,294262.4375,295308.9375,329155.75,323050.125,285314.125,256016.359375,222465.046875,246260.625,0.04345703125,0.9892578125,0.067138671875,0.4577636420726776,-1.5258787870407104,-0.7934569716453552,80.0,170936.0,0.0
14816.1125418,294262.4375,295308.9375,329155.75,323050.125,285314.125,256016.359375,222465.046875,246260.625,0.04345703125,0.9892578125,0.067138671875,0.4577636420726776,-1.5258787870407104,-0.7934569716453552,80.0,170937.0,0.0
14816.112542,294262.4375,295308.9375,329155.75,323050.125,285314.125,256016.359375,222465.046875,246260.625,0.04345703125,0.9892578125,0.067138671875,0.4577636420726776,-1.5258787870407104,-0.7934569716453552,80.0,170938.0,0.0
14816.1125422,294262.4375,295308.9375,329155.75,323050.125,285314.125,256016.359375,222465.046875,246260.625,0.04345703125,0.9892578125,0.067138671875,0.4577636420726776,-1.5258787870407104,-0.7934569716453552,80.0,170939.0,0.0
14816.1125424,294262.4375,295308.9375,329155.75,323050.125,285314.125,256016.359375,222465.046875,246260.625,0.04345703125,0.9892578125,0.067138671875,0.4577636420726776,-1.5258787870407104,-0.7934569716453552,80.0,170940.0,0.0
14816.1125426,294262.4375,295308.9375,329155.75,323050.125,285314.125,256016.359375,222465.046875,246260.625,0.04345703125,0.9892578125,0.067138671875,0.4577636420726776,-1.5258787870407104,-0.7934569716453552,80.0,170941.0,0.0
14816.1125428,294262.4375,295308.9375,329155.75,323050.125,285314.125,256016.359375,222465.046875,246260.625,0.04345703125,0.9892578125,0.067138671875,0.4577636420726776,-1.5258787870407104,-0.7934569716453552,80.0,170942.0,0.0
14816.112543,294262.4375,295308.9375,329155.75,323050.125,285314.125,256016.359375,222465.046875,246260.625,0.04345703125,0.9892578125,0.067138671875,0.4577636420726776,-1.5258787870407104,-0.7934569716453552,80.0,170943.0,0.0
14816.1125431,294262.4375,295308.9375,329155.75,323050.125,285314.125,256016.359375,222465.046875,246260.625,0.04345703125,0.9892578125,0.067138671875,0.4577636420726776,-1.5258787870407104,-0.7934569716453552,80.0,170944.0,0.0
14816.1125433,294262.4375,295308.9375,329155.75,323050.125,285314.125,256016.359375,222465.046875,246260.625,0.04345703125,0.9892578125,0.067138671875,0.4577636420726776,-1.5258787870407104,-0.7934569716453552,80.0,170945.0,0.0
14816.1125435,294262.4375,295308.9375,329155.75,323050.125,285314.125,256016.359375,222465.046875,246260.625,0.04345703125,0.9892578125,0.067138671875,0.4577636420726776,-1.5258787870407104,-0.7934569716453552,80.0,170946.0,0.0
14816.1125437,294262.4375,295308.9375,329155.75,323050.125,285314.125,256016.359375,222465.046875,246260.625,0.04345703125,0.9892578125,0.067138671875,0.4577636420726776,-1.5258787870407104,-0.7934569716453552,80.0,170947.0,0.0
14816.1125438,294262.4375,295308.9375,329155.75,323050.125,285314.125,256016.359375,222465.046875,246260.625,0.04345703125,0.9892578125,0.067138671875,0.4577636420726776,-1.5258787870407104,-0.7934569716453552,80.0,170948.0,0.0
14816.112544,294262.4375,295308.9375,329155.75,323050.125,285314.125,256016.359375,222465.046875,246260.625,0.04345703125,0.9892578125,0.067138671875,0.4577636420726776,-1.5258787870407104,-0.7934569716453552,80.0,170949.0,0.0
14816.1125442,294262.4375,295308.9375,329155.75,323050.125,285314.125,256016.359375,222465.046875,246260.625,0.04345703125,0.9892578125,0.067138671875,0.4577636420726776,-1.5258787870407104,-0.7934569716453552,80.0,170950.0,0.0
14816.1125443,294262.4375,295308.9375,329155.75,323050.125,285314.125,256016.359375,222465.046875,246260.625,0.04345703125,0.9892578125,0.067138671875,0.4577636420726776,-1.5258787870407104,-0.7934569716453552,80.0,170951.0,0.0
14816.1125445,294262.4375,295308.9375,329155.75,323050.125,285314.125,256016.359375,222465.046875,246260.625,0.04345703125,0.9892578125,0.067138671875,0.4577636420726776,-1.5258787870407104,-0.7934569716453552,80.0,170952.0,0.0
14816.1125447,294262.4375,295308.9375,329155.75,323050.125,285314.125,256016.359375,222465.046875,246260.625,0.04345703125,0.9892578125,0.067138671875,0.4577636420726776,-1.5258787870407104,-0.7934569716453552,80.0,170953.0,0.0
14816.1125448,294262.4375,295308.9375,329155.75,323050.125,285314.125,256016.359375,222465.046875,246260.625,0.04345703125,0.9892578125,0.067138671875,0.4577636420726776,-1.5258787870407104,-0.7934569716453552,80.0,170954.0,0.0
14816.112545,294256.625,295298.5625,329157.96875,323045.03125,285306.34375,255993.640625,222451.984375,246250.875,0.04296875,0.98876953125,0.0693359375,0.0915527269244194,-1.4038084745407104,-0.9460448622703552,80.0,170955.0,1.0
14816.1834487,294224.4375,295388.40625,329159.03125,322989.53125,285323.875,255998.03125,222438.21875,246226.203125,0.044677734375,0.990234375,0.0703125,0.0610351525247097,-1.3732908964157104,-0.9155272841453552,80.0,170956.0,1.0
14816.183463,294185.53125,295143.28125,328943.21875,322969.40625,285195.84375,255946.984375,222384.9375,246218.609375,0.04296875,0.99072265625,0.06689453125,0.03051757626235485,-1.4038084745407104,-0.9765624403953552,80.0,170957.0,1.0
14816.1834645,294185.1875,294882.09375,328781.03125,323002.21875,285084.53125,255909.34375,222356.59375,246233.359375,0.04248046875,0.990478515625,0.066650390625,0.03051757626235485,-1.3122557401657104,-0.8544921278953552,80.0,170958.0,1.0
14816.1834658,294231.5,294993.0625,328920.15625,323051.375,285159.46875,255938.75,222394.765625,246247.125,0.04345703125,0.990234375,0.06689453125,0.0915527269244194,-1.4038084745407104,-0.8239745497703552,80.0,170959.0,1.0
14816.1834671,294254.46875,295305.375,329153.9375,323047.1875,285309.40625,255999.015625,222452.96875,246258.125,0.043212890625,0.989501953125,0.068115234375,0.03051757626235485,-1.3732908964157104,-0.8239745497703552,80.0,170960.0,1.0
14816.1834684,294226.65625,295401.21875,329163.4375,322993.28125,285331.125,256004.28125,222450.109375,246233.4375,0.044677734375,0.989013671875,0.07177734375,0.0915527269244194,-1.4343260526657104,-0.8239745497703552,80.0,170961.0,1.0
14816.1834697,294189.5625,295146.5625,328946.15625,322968.875,285199.5,255950.015625,222388.6875,246213.953125,0.04248046875,0.98974609375,0.07080078125,0.0610351525247097,-1.3732908964157104,-0.7324218153953552,80.0,170962.0,1.0
14816.1834711,294191.53125,294876.21875,328774.875,322999.4375,285077.5625,255902.984375,222348.453125,246224.5,0.042724609375,0.99267578125,0.0712890625,0.03051757626235485,-1.3427733182907104,-0.7629393935203552,80.0,170963.0,1.0
14816.1834725,294243.375,294994.03125,328914.0625,323055.0625,285154.0,255939.734375,222397.453125,246253.734375,0.044677734375,0.992431640625,0.068115234375,-0.03051757626235485,-1.3732908964157104,-0.7324218153953552,80.0,170964.0,1.0
14816.1834739,294263.40625,295307.0625,329145.0,323047.46875,285301.78125,256000.265625,222451.90625,246247.75,0.043212890625,0.990234375,0.0673828125,-0.0610351525247097,-1.3732908964157104,-0.6408690810203552,80.0,170965.0,1.0
14816.1850194,294229.0,295394.59375,329140.375,322990.40625,285313.78125,255999.09375,222436.875,246221.640625,0.044189453125,0.98779296875,0.068603515625,0.03051757626235485,-1.3427733182907104,-0.7934569716453552,80.0,170966.0,1.0
14816.1876765,294229.0,295394.59375,329140.375,322990.40625,285313.78125,255999.09375,222436.875,246221.640625,0.044189453125,0.98779296875,0.068603515625,0.03051757626235485,-1.3427733182907104,-0.7934569716453552,80.0,170967.0,0.0
14816.1876775,294229.0,295394.59375,329140.375,322990.40625,285313.78125,255999.09375,222436.875,246221.640625,0.044189453125,0.98779296875,0.068603515625,0.03051757626235485,-1.3427733182907104,-0.7934569716453552,80.0,170968.0,0.0
14816.1876777,294229.0,295394.59375,329140.375,322990.40625,285313.78125,255999.09375,222436.875,246221.640625,0.044189453125,0.98779296875,0.068603515625,0.03051757626235485,-1.3427733182907104,-0.7934569716453552,80.0,170969.0,0.0
14816.1876779,294260.8125,295308.03125,329155.1875,323049.40625,285309.5625,256006.25,222453.59375,246251.234375,0.04541015625,0.991455078125,0.0693359375,0.0610351525247097,-1.2817381620407104,-0.7324218153953552,80.0,170970.0,1.0
14816.1917659,294229.875,295395.21875,329156.1875,322991.75,285324.15625,256007.234375,222439.125,246219.5,0.046630859375,0.991943359375,0.06787109375,0.0915527269244194,-1.2207030057907104,-0.6713866591453552,80.0,170971.0,1.0
14816.1917737,294193.59375,295147.125,328944.75,322967.78125,285198.09375,255940.984375,222381.625,246210.375,0.04638671875,0.9912109375,0.06982421875,0.0,-1.2207030057907104,-0.6713866591453552,80.0,170972.0,1.0
14816.1917751,294198.875,294886.5,328782.375,323004.4375,285086.5,255896.015625,222356.140625,246232.46875,0.04638671875,0.98974609375,0.0732421875,0.03051757626235485,-1.2207030057907104,-0.5798339247703552,80.0,170973.0,1.0
14816.1917764,294239.90625,294992.78125,328919.25,323054.34375,285158.21875,255930.34375,222394.859375,246254.90625,0.046875,0.990966796875,0.070556640625,0.0,-1.0986326932907104,-0.7019042372703552,80.0,170974.0,1.0
14816.194371,294261.34375,295306.15625,329154.40625,323048.34375,285310.375,255999.8125,222451.359375,246248.640625,0.0458984375,0.988037109375,0.070556640625,-0.03051757626235485,-1.0986326932907104,-0.7324218153953552,80.0,170975.0,1.0
14816.194378,294232.84375,295395.21875,329152.0625,322993.4375,285327.09375,256008.9375,222442.96875,246226.65625,0.0439453125,0.986328125,0.070556640625,0.0610351525247097,-1.0375975370407104,-0.6713866591453552,80.0,170976.0,1.0
14816.2077914,294197.0625,295142.5625,328935.0,322970.75,285196.28125,255947.609375,222380.203125,246211.984375,0.044677734375,0.987060546875,0.069580078125,0.0610351525247097,-1.0681151151657104,-0.6103515028953552,80.0,170977.0,1.0
14816.2077964,294201.28125,294884.25,328781.75,323004.53125,285089.28125,255904.78125,222348.28125,246222.8125,0.045166015625,0.987060546875,0.069580078125,0.0915527269244194,-0.9765624403953552,-0.6713866591453552,80.0,170978.0,1.0
14816.2077977,294245.25,294991.625,328922.125,323057.1875,285165.1875,255946.078125,222399.15625,246253.5625,0.045654296875,0.988037109375,0.06884765625,0.1525878757238388,-1.0070799589157104,-0.7629393935203552,80.0,170979.0,1.0
14816.2077989,294259.21875,295296.6875,329144.28125,323044.6875,285304.65625,255992.578125,222449.21875,246256.15625,0.046875,0.988525390625,0.06884765625,0.1831054538488388,-0.9765624403953552,-0.6713866591453552,80.0,170980.0,1.0
14816.2078001,294234.4375,295394.3125,329150.5625,322991.03125,285327.71875,256000.0,222441.078125,246231.296875,0.0458984375,0.98876953125,0.06787109375,0.1831054538488388,-1.0070799589157104,-0.5493163466453552,80.0,170981.0,1.0
14816.2078013,294202.25,295144.15625,328934.46875,322966.8125,285199.96875,255952.078125,222385.46875,246215.46875,0.04638671875,0.989990234375,0.0703125,0.1525878757238388,-0.9155272841453552,-0.5493163466453552,80.0,170982.0,1.0
14816.2078025,294198.21875,294876.28125,328772.625,322993.1875,285084.625,255908.53125,222351.40625,246226.828125,0.04541015625,0.9912109375,0.07470703125,0.1525878757238388,-0.9155272841453552,-0.6103515028953552,80.0,170983.0,1.0
14816.2078037,294253.5,295006.03125,328941.59375,323055.21875,285181.53125,255955.296875,222410.6875,246261.078125,0.046630859375,0.992919921875,0.0703125,0.0610351525247097,-0.8544921278953552,-0.6713866591453552,80.0,170984.0,1.0
14816.207805,294265.90625,295303.125,329159.6875,323037.34375,285315.46875,256003.390625,222451.71875,246254.8125,0.046630859375,0.9921875,0.071044921875,0.0610351525247097,-0.8544921278953552,-0.6103515028953552,80.0,170985.0,1.0
14816.2078063,294237.40625,295393.78125,329157.09375,322980.125,285328.34375,256013.859375,222442.25,246231.65625,0.044677734375,0.989990234375,0.068603515625,0.0610351525247097,-0.8850097060203552,-0.6103515028953552,80.0,170986.0,1.0
14816.2078075,294202.25,295152.46875,328947.875,322958.21875,285202.8125,255956.640625,222385.03125,246209.390625,0.04541015625,0.99072265625,0.070556640625,0.03051757626235485,-0.7934569716453552,-0.6408690810203552,80.0,170987.0,1.0
14816.2100101,294201.375,294893.1875,328793.0,322991.40625,285094.46875,255910.859375,222350.96875,246221.109375,0.045654296875,0.98828125,0.069580078125,0.0,-0.8544921278953552,-0.6408690810203552,80.0,170988.0,1.0
14816.261265,294245.96875,295001.8125,328935.25,323045.84375,285172.0625,255944.921875,222397.984375,246251.0625,0.045654296875,0.98828125,0.069091796875,0.0610351525247097,-0.8850097060203552,-0.7934569716453552,80.0,170989.0,1.0
14816.2612711,294245.96875,295001.8125,328935.25,323045.84375,285172.0625,255944.921875,222397.984375,246251.0625,0.045654296875,0.98828125,0.069091796875,0.0610351525247097,-0.8850097060203552,-0.7934569716453552,80.0,170990.0,0.0
14816.2612714,294245.96875,295001.8125,328935.25,323045.84375,285172.0625,255944.921875,222397.984375,246251.0625,0.045654296875,0.98828125,0.069091796875,0.0610351525247097,-0.8850097060203552,-0.7934569716453552,80.0,170991.0,0.0
14816.2612716,294245.96875,295001.8125,328935.25,323045.84375,285172.0625,255944.921875,222397.984375,246251.0625,0.045654296875,0.98828125,0.069091796875,0.0610351525247097,-0.8850097060203552,-0.7934569716453552,80.0,170992.0,0.0
14816.2612718,294245.96875,295001.8125,328935.25,323045.84375,285172.0625,255944.921875,222397.984375,246251.0625,0.045654296875,0.98828125,0.069091796875,0.0610351525247097,-0.8850097060203552,-0.7934569716453552,80.0,170993.0,0.0
14816.261272,294245.96875,295001.8125,328935.25,323045.84375,285172.0625,255944.921875,222397.984375,246251.0625,0.045654296875,0.98828125,0.069091796875,0.0610351525247097,-0.8850097060203552,-0.7934569716453552,80.0,170994.0,0.0
14816.2612722,294245.96875,295001.8125,328935.25,323045.84375,285172.0625,255944.921875,222397.984375,246251.0625,0.045654296875,0.98828125,0.069091796875,0.0610351525247097,-0.8850097060203552,-0.7934569716453552,80.0,170995.0,0.0
14816.2612724,294245.96875,295001.8125,328935.25,323045.84375,285172.0625,255944.921875,222397.984375,246251.0625,0.045654296875,0.98828125,0.069091796875,0.0610351525247097,-0.8850097060203552,-0.7934569716453552,80.0,170996.0,0.0
14816.2612726,294245.96875,295001.8125,328935.25,323045.84375,285172.0625,255944.921875,222397.984375,246251.0625,0.045654296875,0.98828125,0.069091796875,0.0610351525247097,-0.8850097060203552,-0.7934569716453552,80.0,170997.0,0.0
14816.2612728,294245.96875,295001.8125,328935.25,323045.84375,285172.0625,255944.921875,222397.984375,246251.0625,0.045654296875,0.98828125,0.069091796875,0.0610351525247097,-0.8850097060203552,-0.7934569716453552,80.0,170998.0,0.0
14816.261273,294245.96875,295001.8125,328935.25,323045.84375,285172.0625,255944.921875,222397.984375,246251.0625,0.045654296875,0.98828125,0.069091796875,0.0610351525247097,-0.8850097060203552,-0.7934569716453552,80.0,170999.0,0.0
14816.2612731,294245.96875,295001.8125,328935.25,323045.84375,285172.0625,255944.921875,222397.984375,246251.0625,0.045654296875,0.98828125,0.069091796875,0.0610351525247097,-0.8850097060203552,-0.7934569716453552,80.0,171000.0,0.0
14816.2612733,294245.96875,295001.8125,328935.25,323045.84375,285172.0625,255944.921875,222397.984375,246251.0625,0.045654296875,0.98828125,0.069091796875,0.0610351525247097,-0.8850097060203552,-0.7934569716453552,80.0,171001.0,0.0
14816.2612735,294245.96875,295001.8125,328935.25,323045.84375,285172.0625,255944.921875,222397.984375,246251.0625,0.045654296875,0.98828125,0.069091796875,0.0610351525247097,-0.8850097060203552,-0.7934569716453552,80.0,171002.0,0.0
14816.2612737,294245.96875,295001.8125,328935.25,323045.84375,285172.0625,255944.921875,222397.984375,246251.0625,0.045654296875,0.98828125,0.069091796875,0.0610351525247097,-0.8850097060203552,-0.7934569716453552,80.0,171003.0,0.0
14816.2612739,294245.96875,295001.8125,328935.25,323045.84375,285172.0625,255944.921875,222397.984375,246251.0625,0.045654296875,0.98828125,0.069091796875,0.0610351525247097,-0.8850097060203552,-0.7934569716453552,80.0,171004.0,0.0
14816.2612741,294245.96875,295001.8125,328935.25,323045.84375,285172.0625,255944.921875,222397.984375,246251.0625,0.045654296875,0.98828125,0.069091796875,0.0610351525247097,-0.8850097060203552,-0.7934569716453552,80.0,171005.0,0.0
14816.2612743,294245.96875,295001.8125,328935.25,323045.84375,285172.0625,255944.921875,222397.984375,246251.0625,0.045654296875,0.98828125,0.069091796875,0.0610351525247097,-0.8850097060203552,-0.7934569716453552,80.0,171006.0,0.0
14816.2612744,294186.0,295125.21875,328923.625,322946.34375,285191.03125,255943.9375,222378.328125,246202.59375,0.04541015625,0.989013671875,0.073486328125,0.4272460639476776,-1.3122557401657104,-0.8239745497703552,80.0,171007.0,1.0
14816.2612758,294186.875,294859.40625,328756.34375,322976.5625,285071.21875,255900.75,222341.578125,246211.09375,0.047119140625,0.98779296875,0.07275390625,0.3967284858226776,-1.4648436307907104,-0.7629393935203552,80.0,171008.0,1.0
14816.261277,294236.0625,294984.84375,328912.5625,323033.875,285156.25,255934.453125,222391.203125,246240.328125,0.047119140625,0.99072265625,0.07470703125,0.3967284858226776,-1.3732908964157104,-0.7324218153953552,80.0,171009.0,1.0
14816.2612782,294260.0,295304.375,329147.15625,323031.71875,285305.90625,255993.640625,222445.46875,246246.40625,0.04736328125,0.990234375,0.076416015625,0.4272460639476776,-1.3732908964157104,-0.7934569716453552,80.0,171010.0,1.0
14816.2612794,294234.96875,295393.15625,329141.0625,322980.65625,285319.21875,255999.015625,222436.609375,246230.5,0.0458984375,0.987548828125,0.070068359375,0.3967284858226776,-1.3732908964157104,-0.7629393935203552,80.0,171011.0,1.0
14816.2612807,294201.28125,295144.15625,328926.0625,322960.71875,285190.75,255953.328125,222382.875,246217.34375,0.046875,0.988037109375,0.075439453125,0.3967284858226776,-1.4953612089157104,-0.7324218153953552,80.0,171012.0,1.0
14816.2612819,294200.1875,294883.375,328773.6875,322993.53125,285082.3125,255907.09375,222350.515625,246224.6875,0.0439453125,0.9892578125,0.0751953125,0.3051757514476776,-1.5258787870407104,-0.7629393935203552,80.0,171013.0,1.0
14816.2816931,294255.53125,295004.5,328926.78125,323054.59375,285169.1875,255937.671875,222398.890625,246252.125,0.04541015625,0.990478515625,0.07373046875,0.3051757514476776,-1.4648436307907104,-0.8239745497703552,80.0,171014.0,1.0
14816.2852755,294274.59375,295314.9375,329149.375,323044.59375,285308.9375,255988.375,222441.984375,246249.71875,0.046630859375,0.98974609375,0.070068359375,0.3967284858226776,-1.5258787870407104,-0.8544921278953552,80.0,171015.0,1.0
14816.2852784,294240.96875,295391.5625,329142.15625,322986.65625,285319.6875,255987.03125,222428.828125,246230.5,0.04736328125,0.990234375,0.071044921875,0.3051757514476776,-1.4648436307907104,-0.8544921278953552,80.0,171016.0,1.0
14816.2852818,294240.96875,295391.5625,329142.15625,322986.65625,285319.6875,255987.03125,222428.828125,246230.5,0.04736328125,0.990234375,0.071044921875,0.3051757514476776,-1.4648436307907104,-0.8544921278953552,80.0,171017.0,0.0
14816.285282,294240.96875,295391.5625,329142.15625,322986.65625,285319.6875,255987.03125,222428.828125,246230.5,0.04736328125,0.990234375,0.071044921875,0.3051757514476776,-1.4648436307907104,-0.8544921278953552,80.0,171018.0,0.0
14816.2852823,294240.96875,295391.5625,329142.15625,322986.65625,285319.6875,255987.03125,222428.828125,246230.5,0.04736328125,0.990234375,0.071044921875,0.3051757514476776,-1.4648436307907104,-0.8544921278953552,80.0,171019.0,0.0
14816.2852825,294240.96875,295391.5625,329142.15625,322986.65625,285319.6875,255987.03125,222428.828125,246230.5,0.04736328125,0.990234375,0.071044921875,0.3051757514476776,-1.4648436307907104,-0.8544921278953552,80.0,171020.0,0.0
14816.2852827,294240.96875,295391.5625,329142.15625,322986.65625,285319.6875,255987.03125,222428.828125,246230.5,0.04736328125,0.990234375,0.071044921875,0.3051757514476776,-1.4648436307907104,-0.8544921278953552,80.0,171021.0,0.0
14816.2852829,294240.96875,295391.5625,329142.15625,322986.65625,285319.6875,255987.03125,222428.828125,246230.5,0.04736328125,0.990234375,0.071044921875,0.3051757514476776,-1.4648436307907104,-0.8544921278953552,80.0,171022.0,0.0
14816.2852831,294240.96875,295391.5625,329142.15625,322986.65625,285319.6875,255987.03125,222428.828125,246230.5,0.04736328125,0.990234375,0.071044921875,0.3051757514476776,-1.4648436307907104,-0.8544921278953552,80.0,171023.0,0.0
14816.2852833,294240.96875,295391.5625,329142.15625,322986.65625,285319.6875,255987.03125,222428.828125,246230.5,0.04736328125,0.990234375,0.071044921875,0.3051757514476776,-1.4648436307907104,-0.8544921278953552,80.0,171024.0,0.0
14816.2852835,294240.96875,295391.5625,329142.15625,322986.65625,285319.6875,255987.03125,222428.828125,246230.5,0.04736328125,0.990234375,0.071044921875,0.3051757514476776,-1.4648436307907104,-0.8544921278953552,80.0,171025.0,0.0
14816.2852837,294240.96875,295391.5625,329142.15625,322986.65625,285319.6875,255987.03125,222428.828125,246230.5,0.04736328125,0.990234375,0.071044921875,0.3051757514476776,-1.4648436307907104,-0.8544921278953552,80.0,171026.0,0.0
14816.2852838,294240.96875,295391.5625,329142.15625,322986.65625,285319.6875,255987.03125,222428.828125,246230.5,0.04736328125,0.990234375,0.071044921875,0.3051757514476776,-1.4648436307907104,-0.8544921278953552,80.0,171027.0,0.0
14816.285284,294240.96875,295391.5625,329142.15625,322986.65625,285319.6875,255987.03125,222428.828125,246230.5,0.04736328125,0.990234375,0.071044921875,0.3051757514476776,-1.4648436307907104,-0.8544921278953552,80.0,171028.0,0.0
14816.2852842,294240.96875,295391.5625,329142.15625,322986.65625,285319.6875,255987.03125,222428.828125,246230.5,0.04736328125,0.990234375,0.071044921875,0.3051757514476776,-1.4648436307907104,-0.8544921278953552,80.0,171029.0,0.0
14816.2852844,294240.96875,295391.5625,329142.15625,322986.65625,285319.6875,255987.03125,222428.828125,246230.5,0.04736328125,0.990234375,0.071044921875,0.3051757514476776,-1.4648436307907104,-0.8544921278953552,80.0,171030.0,0.0
14816.2852846,294239.90625,295378.40625,329133.5625,322978.4375,285314.84375,255999.90625,222431.25,246228.890625,0.047607421875,0.990234375,0.069091796875,0.0915527269244194,-1.4648436307907104,-0.7324218153953552,80.0,171031.0,1.0
14816.285286,294206.71875,295134.0625,328920.0625,322955.09375,285186.90625,255948.234375,222375.453125,246211.1875,0.048583984375,0.989990234375,0.069091796875,0.1220703050494194,-1.4953612089157104,-0.6103515028953552,80.0,171032.0,1.0
14816.2900539,294210.125,294878.875,328771.28125,322991.75,285084.09375,255908.0,222349.703125,246231.390625,0.04833984375,0.9892578125,0.071533203125,0.1220703050494194,-1.4038084745407104,-0.6103515028953552,80.0,171033.0,1.0
14816.2973714,294250.4375,294992.625,328920.5,323044.78125,285166.78125,255948.140625,222406.390625,246263.578125,0.04931640625,0.988525390625,0.071044921875,0.0915527269244194,-1.4038084745407104,-0.4882812201976776,80.0,171034.0,1.0
14816.2973747,294270.375,295307.875,329155.75,323041.65625,285319.9375,256015.734375,222470.328125,246269.46875,0.048828125,0.98876953125,0.070068359375,0.1220703050494194,-1.3122557401657104,-0.3967284858226776,80.0,171035.0,1.0
14816.2973759,294242.5,295397.53125,329153.15625,322988.34375,285335.6875,256016.265625,222458.609375,246244.171875,0.050048828125,0.988525390625,0.065673828125,0.1525878757238388,-1.2817381620407104,-0.4577636420726776,80.0,171036.0,1.0
14816.2973771,294204.03125,295142.0,328932.75,322960.625,285200.5,255950.546875,222383.15625,246214.84375,0.047119140625,0.98779296875,0.06591796875,0.1831054538488388,-1.2207030057907104,-0.5798339247703552,80.0,171037.0,1.0
14816.2973783,294208.59375,294889.8125,328782.46875,322996.125,285095.875,255907.90625,222346.84375,246225.390625,0.04736328125,0.98974609375,0.069580078125,0.1831054538488388,-1.0986326932907104,-0.6103515028953552,80.0,171038.0,1.0
14816.2973795,294255.625,295013.34375,328934.625,323051.3125,285179.5625,255946.796875,222396.375,246257.3125,0.048095703125,0.989501953125,0.071533203125,0.1220703050494194,-1.0986326932907104,-0.7019042372703552,80.0,171039.0,1.0
14816.2973808,294276.09375,295317.34375,329152.78125,323043.4375,285317.875,256001.15625,222448.234375,246264.828125,0.0458984375,0.98583984375,0.070068359375,0.2441406100988388,-1.1291502714157104,-0.7934569716453552,80.0,171040.0,1.0
14816.2973822,294246.6875,295404.34375,329145.375,322986.9375,285331.46875,256003.578125,222439.921875,246241.484375,0.044677734375,0.98779296875,0.072265625,0.2441406100988388,-1.0070799589157104,-0.8239745497703552,80.0,171041.0,1.0
14816.3006308,294206.90625,295141.46875,328916.03125,322957.5,285190.9375,255937.140625,222367.328125,246214.046875,0.0458984375,0.986328125,0.07080078125,0.3662109076976776,-1.0986326932907104,-0.8850097060203552,80.0,171042.0,1.0
14816.3006338,294206.90625,295141.46875,328916.03125,322957.5,285190.9375,255937.140625,222367.328125,246214.046875,0.0458984375,0.986328125,0.07080078125,0.3662109076976776,-1.0986326932907104,-0.8850097060203552,80.0,171043.0,0.0
14816.3006341,294206.90625,295141.46875,328916.03125,322957.5,285190.9375,255937.140625,222367.328125,246214.046875,0.0458984375,0.986328125,0.07080078125,0.3662109076976776,-1.0986326932907104,-0.8850097060203552,80.0,171044.0,0.0
14816.3006343,294206.90625,295141.46875,328916.03125,322957.5,285190.9375,255937.140625,222367.328125,246214.046875,0.0458984375,0.986328125,0.07080078125,0.3662109076976776,-1.0986326932907104,-0.8850097060203552,80.0,171045.0,0.0
14816.3006345,294206.90625,295141.46875,328916.03125,322957.5,285190.9375,255937.140625,222367.328125,246214.046875,0.0458984375,0.986328125,0.07080078125,0.3662109076976776,-1.0986326932907104,-0.8850097060203552,80.0,171046.0,0.0
14816.3006347,294206.90625,295141.46875,328916.03125,322957.5,285190.9375,255937.140625,222367.328125,246214.046875,0.0458984375,0.986328125,0.07080078125,0.3662109076976776,-1.0986326932907104,-0.8850097060203552,80.0,171047.0,0.0
14816.3006348,294206.90625,295141.46875,328916.03125,322957.5,285190.9375,255937.140625,222367.328125,246214.046875,0.0458984375,0.986328125,0.07080078125,0.3662109076976776,-1.0986326932907104,-0.8850097060203552,80.0,171048.0,0.0
14816.300635,294206.90625,295141.46875,328916.03125,322957.5,285190.9375,255937.140625,222367.328125,246214.046875,0.0458984375,0.986328125,0.07080078125,0.3662109076976776,-1.0986326932907104,-0.8850097060203552,80.0,171049.0,0.0
14816.3006352,294206.90625,295141.46875,328916.03125,322957.5,285190.9375,255937.140625,222367.328125,246214.046875,0.0458984375,0.986328125,0.07080078125,0.3662109076976776,-1.0986326932907104,-0.8850097060203552,80.0,171050.0,0.0
14816.3006354,294206.90625,295141.46875,328916.03125,322957.5,285190.9375,255937.140625,222367.328125,246214.046875,0.0458984375,0.986328125,0.07080078125,0.3662109076976776,-1.0986326932907104,-0.8850097060203552,80.0,171051.0,0.0
14816.3006356,294206.90625,295141.46875,328916.03125,322957.5,285190.9375,255937.140625,222367.328125,246214.046875,0.0458984375,0.986328125,0.07080078125,0.3662109076976776,-1.0986326932907104,-0.8850097060203552,80.0,171052.0,0.0
14816.3006358,294206.90625,295141.46875,328916.03125,322957.5,285190.9375,255937.140625,222367.328125,246214.046875,0.0458984375,0.986328125,0.07080078125,0.3662109076976776,-1.0986326932907104,-0.8850097060203552,80.0,171053.0,0.0
14816.3006359,294206.90625,295141.46875,328916.03125,322957.5,285190.9375,255937.140625,222367.328125,246214.046875,0.0458984375,0.986328125,0.07080078125,0.3662109076976776,-1.0986326932907104,-0.8850097060203552,80.0,171054.0,0.0
14816.3006361,294206.90625,295141.46875,328916.03125,322957.5,285190.9375,255937.140625,222367.328125,246214.046875,0.0458984375,0.986328125,0.07080078125,0.3662109076976776,-1.0986326932907104,-0.8850097060203552,80.0,171055.0,0.0
14816.3006363,294206.90625,295141.46875,328916.03125,322957.5,285190.9375,255937.140625,222367.328125,246214.046875,0.0458984375,0.986328125,0.07080078125,0.3662109076976776,-1.0986326932907104,-0.8850097060203552,80.0,171056.0,0.0
14816.3006365,294206.90625,295141.46875,328916.03125,322957.5,285190.9375,255937.140625,222367.328125,246214.046875,0.0458984375,0.986328125,0.07080078125,0.3662109076976776,-1.0986326932907104,-0.8850097060203552,80.0,171057.0,0.0
14816.3006367,294206.90625,295141.46875,328916.03125,322957.5,285190.9375,255937.140625,222367.328125,246214.046875,0.0458984375,0.986328125,0.07080078125,0.3662109076976776,-1.0986326932907104,-0.8850097060203552,80.0,171058.0,0.0
14816.3006369,294206.90625,295141.46875,328916.03125,322957.5,285190.9375,255937.140625,222367.328125,246214.046875,0.0458984375,0.986328125,0.07080078125,0.3662109076976776,-1.0986326932907104,-0.8850097060203552,80.0,171059.0,0.0
14816.3006371,294206.90625,295141.46875,328916.03125,322957.5,285190.9375,255937.140625,222367.328125,246214.046875,0.0458984375,0.986328125,0.07080078125,0.3662109076976776,-1.0986326932907104,-0.8850097060203552,80.0,171060.0,0.0
14816.3006372,294206.90625,295141.46875,328916.03125,322957.5,285190.9375,255937.140625,222367.328125,246214.046875,0.0458984375,0.986328125,0.07080078125,0.3662109076976776,-1.0986326932907104,-0.8850097060203552,80.0,171061.0,0.0
14816.3006374,294215.03125,295178.59375,328945.71875,322967.34375,285209.4375,255962.890625,222385.828125,246220.390625,0.042724609375,0.99072265625,0.073486328125,0.2746581733226776,-1.8310545682907104,-0.6408690810203552,80.0,171062.0,1.0
14816.3263368,294213.6875,294909.1875,328782.46875,322999.1875,285093.65625,255909.25,222342.203125,246225.484375,0.044189453125,0.99169921875,0.07421875,0.2746581733226776,-1.8920897245407104,-0.6103515028953552,80.0,171063.0,1.0
14816.3514345,294254.1875,295020.25,328922.28125,323048.875,285168.84375,255942.5,222387.703125,246250.15625,0.0439453125,0.99169921875,0.075439453125,0.1220703050494194,-1.8005369901657104,-0.5187987685203552,80.0,171064.0,1.0
14816.4264466,294275.3125,295332.8125,329149.03125,323042.53125,285315.5625,256010.359375,222448.6875,246255.171875,0.044189453125,0.98974609375,0.075927734375,0.1525878757238388,-1.8005369901657104,-0.5187987685203552,80.0,171065.0,1.0
14816.426453,294245.1875,295415.34375,329140.90625,322982.375,285324.40625,256004.734375,222434.203125,246229.421875,0.045166015625,0.98876953125,0.0751953125,0.1220703050494194,-1.8615721464157104,-0.4577636420726776,80.0,171066.0,1.0
14816.4264544,294210.5625,295163.03125,328925.6875,322957.78125,285193.34375,255937.5,222369.46875,246211.453125,0.044921875,0.98779296875,0.07373046875,0.2136230319738388,-1.8615721464157104,-0.5493163466453552,80.0,171067.0,1.0
14816.4264556,294221.46875,294913.3125,328782.46875,323000.0625,285092.5,255904.515625,222344.796875,246232.546875,0.044189453125,0.98681640625,0.073974609375,0.2441406100988388,-1.7700194120407104,-0.6713866591453552,80.0,171068.0,1.0
14816.4264568,294265.90625,295025.875,328933.75,323053.71875,285174.84375,255944.296875,222395.125,246261.875,0.044677734375,0.98583984375,0.076904296875,0.3356933295726776,-1.7089842557907104,-0.7019042372703552,80.0,171069.0,1.0
14816.4264581,294283.78125,295331.46875,329157.25,323043.78125,285318.0625,256000.078125,222445.28125,246257.5,0.04833984375,0.986572265625,0.07470703125,0.2746581733226776,-1.7700194120407104,-0.6408690810203552,80.0,171070.0,1.0
14816.4761597,294256.34375,295410.3125,329145.375,322990.59375,285330.125,256009.921875,222435.359375,246235.234375,0.048828125,0.989013671875,0.07568359375,0.3051757514476776,-1.7700194120407104,-0.6713866591453552,80.0,171071.0,1.0
14816.4761678,294224.875,295161.3125,328928.5625,322968.78125,285203.0,255967.09375,222380.90625,246219.9375,0.047607421875,0.98974609375,0.07373046875,0.3356933295726776,-1.6479490995407104,-0.7324218153953552,80.0,171072.0,1.0
14816.4761691,294230.78125,294910.28125,328780.6875,323005.78125,285100.8125,255924.625,222352.125,246235.40625,0.049560546875,0.989990234375,0.072021484375,0.3051757514476776,-1.5563963651657104,-0.7629393935203552,80.0,171073.0,1.0
14816.4761704,294271.375,295020.0625,328927.03125,323055.40625,285178.21875,255951.890625,222397.984375,246261.609375,0.0498046875,0.989501953125,0.07275390625,0.2746581733226776,-1.5258787870407104,-0.7934569716453552,80.0,171074.0,1.0
14816.4761717,294289.0625,295326.1875,329153.6875,323043.15625,285321.1875,255999.1875,222447.875,246255.4375,0.051513671875,0.988525390625,0.072021484375,0.3356933295726776,-1.3732908964157104,-0.7019042372703552,80.0,171075.0,1.0
14816.5013925,294261.34375,295415.25,329155.28125,322983.78125,285335.78125,256001.34375,222432.140625,246222.0,0.049560546875,0.98779296875,0.073486328125,0.4882812201976776,-1.3122557401657104,-0.8239745497703552,80.0,171076.0,1.0
14816.501398,294230.78125,295174.65625,328950.5625,322964.65625,285211.59375,255949.921875,222380.5625,246212.53125,0.0498046875,0.98779296875,0.074951171875,0.4577636420726776,-1.2207030057907104,-0.8239745497703552,80.0,171077.0,1.0
14816.5263468,294230.78125,295174.65625,328950.5625,322964.65625,285211.59375,255949.921875,222380.5625,246212.53125,0.0498046875,0.98779296875,0.074951171875,0.4577636420726776,-1.2207030057907104,-0.8239745497703552,80.0,171078.0,0.0
14816.5263478,294230.78125,295174.65625,328950.5625,322964.65625,285211.59375,255949.921875,222380.5625,246212.53125,0.0498046875,0.98779296875,0.074951171875,0.4577636420726776,-1.2207030057907104,-0.8239745497703552,80.0,171079.0,0.0
14816.526348,294230.78125,295174.65625,328950.5625,322964.65625,285211.59375,255949.921875,222380.5625,246212.53125,0.0498046875,0.98779296875,0.074951171875,0.4577636420726776,-1.2207030057907104,-0.8239745497703552,80.0,171080.0,0.0
14816.5263482,294230.78125,295174.65625,328950.5625,322964.65625,285211.59375,255949.921875,222380.5625,246212.53125,0.0498046875,0.98779296875,0.074951171875,0.4577636420726776,-1.2207030057907104,-0.8239745497703552,80.0,171081.0,0.0
14816.5263484,294230.78125,295174.65625,328950.5625,322964.65625,285211.59375,255949.921875,222380.5625,246212.53125,0.0498046875,0.98779296875,0.074951171875,0.4577636420726776,-1.2207030057907104,-0.8239745497703552,80.0,171082.0,0.0
14816.5263485,294230.78125,295174.65625,328950.5625,322964.65625,285211.59375,255949.921875,222380.5625,246212.53125,0.0498046875,0.98779296875,0.074951171875,0.4577636420726776,-1.2207030057907104,-0.8239745497703552,80.0,171083.0,0.0
14816.5263487,294273.96875,295021.03125,328929.71875,323048.09375,285171.4375,255950.375,222399.78125,246249.1875,0.0458984375,0.98828125,0.074951171875,0.6713866591453552,-0.9155272841453552,-0.7934569716453552,80.0,171084.0,1.0
14816.5514045,294293.0,295334.15625,329157.96875,323041.8125,285318.59375,256006.515625,222453.6875,246256.953125,0.045166015625,0.987548828125,0.0732421875,0.8239745497703552,-0.8239745497703552,-0.8239745497703552,80.0,171085.0,1.0
14816.5764156,294262.15625,295417.03125,329152.78125,322987.28125,285333.34375,256012.78125,222441.359375,246238.1875,0.04541015625,0.98876953125,0.071044921875,0.7629393935203552,-0.8850097060203552,-0.9155272841453552,80.0,171086.0,1.0
14816.6013602,294219.875,295151.59375,328922.84375,322954.03125,285188.0625,255933.65625,222361.15625,246204.5625,0.045166015625,0.988525390625,0.071044921875,0.8850097060203552,-0.8544921278953552,-0.9155272841453552,80.0,171087.0,1.0
14816.6511877,294220.125,294893.8125,328764.84375,322987.5625,285078.1875,255892.625,222332.8125,246212.25,0.044677734375,0.991943359375,0.072509765625,0.7934569716453552,-1.0070799589157104,-0.8850097060203552,80.0,171088.0,1.0
14816.6959402,294267.0625,295019.875,328921.65625,323046.90625,285167.3125,255944.296875,222393.34375,246249.53125,0.04248046875,0.991455078125,0.073486328125,0.7934569716453552,-1.0070799589157104,-0.9155272841453552,80.0,171089.0,1.0
14816.695946,294283.15625,295325.65625,329149.75,323035.75,285309.40625,256002.953125,222444.484375,246252.125,0.0419921875,0.9921875,0.073486328125,0.6713866591453552,-1.1291502714157104,-0.8850097060203552,80.0,171090.0,1.0
14816.6959473,294252.15625,295414.15625,329151.28125,322978.53125,285324.78125,256010.8125,222432.953125,246222.265625,0.04150390625,0.9912109375,0.072998046875,0.6103515028953552,-1.1291502714157104,-1.0375975370407104,80.0,171091.0,1.0
14816.6959485,294222.28125,295173.5,328942.59375,322963.6875,285203.1875,255964.671875,222377.421875,246215.828125,0.04345703125,0.987548828125,0.070068359375,0.6408690810203552,-1.1901854276657104,-0.9765624403953552,80.0,171092.0,1.0
14816.6959498,294225.25,294912.875,328790.6875,322996.40625,285095.96875,255905.671875,222341.03125,246227.09375,0.04248046875,0.988037109375,0.07421875,0.7019042372703552,-1.3732908964157104,-0.9460448622703552,80.0,171093.0,1.0
14816.695951,294264.65625,295012.90625,328922.125,323043.53125,285163.5625,255925.96875,222381.265625,246249.453125,0.045654296875,0.9873046875,0.072998046875,0.7324218153953552,-1.4953612089157104,-1.0070799589157104,80.0,171094.0,1.0
14816.6959522,294283.09375,295320.125,329141.625,323035.28125,285302.875,255987.484375,222439.296875,246252.125,0.046875,0.9873046875,0.076904296875,0.8544921278953552,-1.5869139432907104,-0.9155272841453552,80.0,171095.0,1.0
14816.6959534,294251.34375,295411.21875,329144.46875,322980.84375,285321.28125,256000.265625,222438.484375,246235.140625,0.046142578125,0.989501953125,0.072021484375,0.7934569716453552,-1.6784666776657104,-0.8239745497703552,80.0,171096.0,1.0
14816.6959547,294216.90625,295161.9375,328933.90625,322956.875,285196.46875,255953.765625,222380.828125,246217.078125,0.04736328125,0.993408203125,0.0693359375,0.7629393935203552,-1.6174315214157104,-0.6408690810203552,80.0,171097.0,1.0
14816.7219505,294222.8125,294913.9375,328789.625,322992.28125,285095.25,255917.296875,222353.375,246226.5625,0.04443359375,0.9921875,0.06884765625,0.7629393935203552,-1.6174315214157104,-0.6408690810203552,80.0,171098.0,1.0
14816.7219556,294264.5,295028.03125,328943.40625,323045.40625,285180.46875,255949.84375,222403.09375,246254.90625,0.045166015625,0.99072265625,0.0693359375,0.5798339247703552,-1.5563963651657104,-0.6408690810203552,80.0,171099.0,1.0
14816.7219569,294277.71875,295322.09375,329159.3125,323030.8125,285314.5,255995.96875,222444.390625,246251.234375,0.04638671875,0.99072265625,0.070556640625,0.5187987685203552,-1.6174315214157104,-0.5798339247703552,80.0,171100.0,1.0
14816.7219581,294249.375,295397.53125,329148.0625,322973.59375,285321.46875,255995.4375,222430.09375,246229.0625,0.047119140625,0.987548828125,0.07177734375,0.4577636420726776,-1.5258787870407104,-0.5798339247703552,80.0,171101.0,1.0
14816.7219597,294249.375,295397.53125,329148.0625,322973.59375,285321.46875,255995.4375,222430.09375,246229.0625,0.047119140625,0.987548828125,0.07177734375,0.4577636420726776,-1.5258787870407104,-0.5798339247703552,80.0,171102.0,0.0
14816.7219598,294220.21875,294887.75,328780.9375,322985.75,285086.6875,255912.203125,222346.671875,246220.65625,0.04833984375,0.986572265625,0.071044921875,0.5493163466453552,-1.5869139432907104,-0.7019042372703552,80.0,171103.0,1.0
14816.7451336,294256.78125,294995.75,328920.5,323034.75,285159.375,255944.390625,222396.5625,246251.953125,0.047119140625,0.988037109375,0.071533203125,0.5493163466453552,-1.5563963651657104,-0.6408690810203552,80.0,171104.0,1.0
14816.7701516,294275.3125,295310.71875,329143.5,323024.84375,285299.5625,256002.046875,222446.359375,246250.703125,0.046875,0.98974609375,0.069091796875,0.6103515028953552,-1.6174315214157104,-0.7324218153953552,80.0,171105.0,1.0
14816.7807042,294244.46875,295397.625,329143.125,322971.0,285317.0,256010.359375,222437.953125,246226.65625,0.046630859375,0.99072265625,0.072265625,0.6103515028953552,-1.5869139432907104,-0.7629393935203552,80.0,171106.0,1.0
14816.7807094,294210.75,295154.25,328935.34375,322950.09375,285191.46875,255957.96875,222380.28125,246211.1875,0.0439453125,0.99365234375,0.0703125,0.3662109076976776,-1.7089842557907104,-0.8850097060203552,80.0,171107.0,1.0
14816.7826486,294214.96875,294903.46875,328788.71875,322987.90625,285087.5625,255904.15625,222336.75,246220.921875,0.042236328125,0.9921875,0.068603515625,0.3967284858226776,-1.6479490995407104,-1.0070799589157104,80.0,171108.0,1.0
14816.7851234,294257.96875,295020.40625,328936.5,323044.15625,285170.71875,255939.46875,222385.921875,246254.453125,0.043701171875,0.9912109375,0.070068359375,0.3051757514476776,-1.7700194120407104,-1.0986326932907104,80.0,171109.0,1.0
14816.7875615,294273.15625,295321.46875,329151.28125,323033.0625,285310.8125,255997.9375,222440.8125,246259.375,0.046142578125,0.989013671875,0.0693359375,0.1831054538488388,-1.8920897245407104,-1.2207030057907104,80.0,171110.0,1.0
14816.7913057,294245.8125,295411.5,329150.71875,322977.96875,285329.0625,256004.90625,222430.796875,246228.53125,0.045166015625,0.98779296875,0.068603515625,0.1525878757238388,-1.8310545682907104,-1.2817381620407104,80.0,171111.0,1.0
14816.791311,294208.96875,295152.65625,328927.9375,322953.125,285193.96875,255943.9375,222369.5625,246211.09375,0.0458984375,0.987060546875,0.06787109375,0.2441406100988388,-1.8615721464157104,-1.2817381620407104,80.0,171112.0,1.0
14816.7913125,294212.53125,294895.875,328778.09375,322987.5625,285087.84375,255899.953125,222337.640625,246222.359375,0.046142578125,0.988037109375,0.06884765625,0.2136230319738388,-1.8615721464157104,-1.2817381620407104,80.0,171113.0,1.0
14816.7938893,294257.25,295014.875,328931.5,323043.25,285173.3125,255942.0625,222388.609375,246253.296875,0.0478515625,0.987548828125,0.067626953125,0.3967284858226776,-1.7700194120407104,-1.2512205839157104,80.0,171114.0,1.0
14816.8263659,294270.84375,295315.09375,329148.21875,323031.09375,285310.71875,255994.453125,222436.4375,246250.34375,0.044921875,0.989013671875,0.070068359375,0.3662109076976776,-1.7395018339157104,-1.2817381620407104,80.0,171115.0,1.0
14816.8263717,294240.53125,295401.46875,329135.4375,322972.96875,285317.96875,255995.53125,222428.390625,246223.96875,0.045166015625,0.98876953125,0.072998046875,0.4577636420726776,-1.7700194120407104,-1.2512205839157104,80.0,171116.0,1.0
14816.8263729,294212.09375,295156.40625,328931.25,322957.5,285199.0625,255949.5625,222381.359375,246216.453125,0.046875,0.98876953125,0.068603515625,0.4272460639476776,-1.7089842557907104,-1.2817381620407104,80.0,171117.0,1.0
14816.8263742,294219.34375,294899.46875,328781.03125,322993.71875,285093.03125,255907.015625,222348.546875,246226.734375,0.0478515625,0.9892578125,0.0703125,0.4272460639476776,-1.7089842557907104,-1.3427733182907104,80.0,171118.0,1.0
14816.8263754,294265.03125,295017.28125,328924.0,323042.96875,285166.78125,255941.4375,222390.84375,246253.109375,0.04638671875,0.990234375,0.069580078125,0.4577636420726776,-1.6479490995407104,-1.3427733182907104,80.0,171119.0,1.0
14816.8263766,294280.5,295323.96875,329149.375,323031.28125,285308.84375,255995.078125,222442.875,246257.40625,0.046142578125,0.9912109375,0.068359375,0.3967284858226776,-1.6479490995407104,-1.2207030057907104,80.0,171120.0,1.0
14816.8263779,294255.0,295407.90625,329150.65625,322978.34375,285325.84375,256000.984375,222431.078125,246234.078125,0.04443359375,0.992919921875,0.067626953125,0.5493163466453552,-1.7089842557907104,-1.0986326932907104,80.0,171121.0,1.0
14816.8263791,294223.28125,295153.71875,328930.625,322956.34375,285193.6875,255944.828125,222368.484375,246213.6875,0.04541015625,0.992431640625,0.06787109375,0.6713866591453552,-1.7395018339157104,-1.0375975370407104,80.0,171122.0,1.0
14816.8263803,294227.8125,294892.125,328771.90625,322990.21875,285083.46875,255899.40625,222336.921875,246224.0625,0.042236328125,0.991455078125,0.067626953125,0.5798339247703552,-1.6784666776657104,-1.0681151151657104,80.0,171123.0,1.0
14816.8263815,294275.40625,295010.75,328925.875,323040.5625,285168.03125,255936.78125,222382.515625,246243.28125,0.043701171875,0.9921875,0.065673828125,0.5493163466453552,-1.6479490995407104,-0.8850097060203552,80.0,171124.0,1.0
14816.8263829,294287.46875,295312.6875,329147.15625,323025.46875,285306.0,255985.515625,222429.28125,246245.96875,0.043212890625,0.99169921875,0.0693359375,0.4577636420726776,-1.7700194120407104,-0.9155272841453552,80.0,171125.0,1.0
14816.8307101,294264.5,295397.1875,329147.59375,322978.53125,285323.34375,255996.0625,222429.1875,246235.40625,0.043212890625,0.989990234375,0.069580078125,0.4882812201976776,-1.6784666776657104,-0.8850097060203552,80.0,171126.0,1.0
14816.8307153,294234.4375,295144.34375,328933.65625,322960.09375,285196.03125,255951.53125,222381.8125,246218.515625,0.043701171875,0.989501953125,0.069091796875,0.4882812201976776,-1.7395018339157104,-0.7934569716453552,80.0,171127.0,1.0
14816.8551502,294235.0625,294890.875,328779.34375,322992.1875,285086.5,255912.015625,222347.390625,246227.359375,0.04296875,0.989990234375,0.07275390625,0.4882812201976776,-1.8615721464157104,-0.7324218153953552,80.0,171128.0,1.0
14816.8776293,294276.71875,295011.21875,328928.71875,323044.15625,285168.84375,255939.375,222392.71875,246258.84375,0.043212890625,0.989990234375,0.068603515625,0.6103515028953552,-1.9226073026657104,-0.8239745497703552,80.0,171129.0,1.0
14816.8801478,294293.53125,295324.5,329155.75,323034.03125,285314.75,256000.984375,222446.265625,246258.390625,0.044921875,0.989990234375,0.071044921875,0.5187987685203552,-1.8920897245407104,-0.9460448622703552,80.0,171130.0,1.0
14816.8838371,294262.59375,295410.875,329152.78125,322980.5625,285330.59375,256006.875,222435.09375,246237.109375,0.045654296875,0.990234375,0.072265625,0.4882812201976776,-1.8005369901657104,-0.9460448622703552,80.0,171131.0,1.0
14816.8838425,294225.78125,295154.875,328932.40625,322960.71875,285200.9375,255952.96875,222380.203125,246226.03125,0.045654296875,0.9892578125,0.0693359375,0.4882812201976776,-1.8310545682907104,-0.8850097060203552,80.0,171132.0,1.0
14816.8838438,294225.5,294897.40625,328777.375,322996.59375,285094.28125,255916.046875,222354.53125,246242.390625,0.045166015625,0.990234375,0.06884765625,0.4272460639476776,-1.8615721464157104,-0.8544921278953552,80.0,171133.0,1.0
14816.8946776,294265.8125,295016.5625,328925.4375,323042.96875,285172.78125,255946.53125,222395.75,246257.046875,0.044677734375,0.990966796875,0.069091796875,0.3051757514476776,-1.8615721464157104,-0.8850097060203552,80.0,171134.0,1.0
14816.8946826,294284.875,295326.28125,329147.4375,323035.28125,285316.1875,256012.78125,222451.1875,246262.0625,0.044921875,0.98876953125,0.067138671875,0.3356933295726776,-1.8310545682907104,-0.9765624403953552,80.0,171135.0,1.0
14816.8946839,294259.21875,295417.03125,329150.09375,322984.40625,285334.6875,256018.953125,222443.40625,246240.78125,0.04541015625,0.989990234375,0.06884765625,0.3356933295726776,-1.8615721464157104,-0.9460448622703552,80.0,171136.0,1.0
14816.8946851,294214.78125,295154.625,328930.15625,322954.8125,285200.5,255949.84375,222376.53125,246217.796875,0.047119140625,0.990478515625,0.06787109375,0.1831054538488388,-1.8005369901657104,-0.9155272841453552,80.0,171137.0,1.0
14816.8946863,294215.75,294896.5,328776.21875,322990.40625,285091.40625,255904.0625,222344.34375,246229.953125,0.04931640625,0.98974609375,0.068603515625,0.0915527269244194,-1.6784666776657104,-0.9155272841453552,80.0,171138.0,1.0
14816.8946876,294260.90625,295018.0,328927.125,323043.6875,285175.90625,255946.171875,222395.578125,246257.671875,0.047607421875,0.987548828125,0.07177734375,0.2136230319738388,-1.6784666776657104,-0.9460448622703552,80.0,171139.0,1.0
14816.8946888,294279.78125,295329.0625,329153.0625,323037.15625,285322.4375,256009.65625,222454.140625,246265.625,0.04833984375,0.988037109375,0.070556640625,0.2136230319738388,-1.7089842557907104,-0.8850097060203552,80.0,171140.0,1.0
14816.89469,294249.375,295412.1875,329147.15625,322982.09375,285337.09375,256017.34375,222446.890625,246243.015625,0.046875,0.987548828125,0.06884765625,0.1831054538488388,-1.6479490995407104,-0.9155272841453552,80.0,171141.0,1.0
14816.8946912,294212.625,295158.09375,328926.3125,322956.71875,285204.0625,255951.453125,222375.1875,246223.515625,0.045166015625,0.988037109375,0.07177734375,0.2136230319738388,-1.5563963651657104,-1.0070799589157104,80.0,171142.0,1.0
14816.8983076,294212.09375,294900.875,328772.8125,322986.9375,285095.34375,255908.359375,222340.5,246225.125,0.048583984375,0.98876953125,0.070068359375,0.2441406100988388,-1.5258787870407104,-0.9460448622703552,80.0,171143.0,1.0
14816.898313,294256.34375,295011.5625,328917.03125,323035.5625,285170.28125,255940.890625,222387.0,246250.515625,0.04736328125,0.98974609375,0.068359375,0.2441406100988388,-1.4648436307907104,-1.0070799589157104,80.0,171144.0,1.0
14816.8983143,294280.125,295327.34375,329148.5,323030.375,285319.21875,256005.265625,222446.984375,246254.359375,0.047607421875,0.989013671875,0.06787109375,0.1831054538488388,-1.5258787870407104,-1.0070799589157104,80.0,171145.0,1.0
14816.8983172,294280.125,295327.34375,329148.5,323030.375,285319.21875,256005.265625,222446.984375,246254.359375,0.047607421875,0.989013671875,0.06787109375,0.1831054538488388,-1.5258787870407104,-1.0070799589157104,80.0,171146.0,0.0
14816.8983175,294280.125,295327.34375,329148.5,323030.375,285319.21875,256005.265625,222446.984375,246254.359375,0.047607421875,0.989013671875,0.06787109375,0.1831054538488388,-1.5258787870407104,-1.0070799589157104,80.0,171147.0,0.0
14816.8983177,294280.125,295327.34375,329148.5,323030.375,285319.21875,256005.265625,222446.984375,246254.359375,0.047607421875,0.989013671875,0.06787109375,0.1831054538488388,-1.5258787870407104,-1.0070799589157104,80.0,171148.0,0.0
14816.8983179,294280.125,295327.34375,329148.5,323030.375,285319.21875,256005.265625,222446.984375,246254.359375,0.047607421875,0.989013671875,0.06787109375,0.1831054538488388,-1.5258787870407104,-1.0070799589157104,80.0,171149.0,0.0
14816.8983181,294280.125,295327.34375,329148.5,323030.375,285319.21875,256005.265625,222446.984375,246254.359375,0.047607421875,0.989013671875,0.06787109375,0.1831054538488388,-1.5258787870407104,-1.0070799589157104,80.0,171150.0,0.0
14816.8983183,294280.125,295327.34375,329148.5,323030.375,285319.21875,256005.265625,222446.984375,246254.359375,0.047607421875,0.989013671875,0.06787109375,0.1831054538488388,-1.5258787870407104,-1.0070799589157104,80.0,171151.0,0.0
14816.8983189,294280.125,295327.34375,329148.5,323030.375,285319.21875,256005.265625,222446.984375,246254.359375,0.047607421875,0.989013671875,0.06787109375,0.1831054538488388,-1.5258787870407104,-1.0070799589157104,80.0,171152.0,0.0
14816.8983191,294280.125,295327.34375,329148.5,323030.375,285319.21875,256005.265625,222446.984375,246254.359375,0.047607421875,0.989013671875,0.06787109375,0.1831054538488388,-1.5258787870407104,-1.0070799589157104,80.0,171153.0,0.0
14816.8983197,294280.125,295327.34375,329148.5,323030.375,285319.21875,256005.265625,222446.984375,246254.359375,0.047607421875,0.989013671875,0.06787109375,0.1831054538488388,-1.5258787870407104,-1.0070799589157104,80.0,171154.0,0.0
14816.8983199,294280.125,295327.34375,329148.5,323030.375,285319.21875,256005.265625,222446.984375,246254.359375,0.047607421875,0.989013671875,0.06787109375,0.1831054538488388,-1.5258787870407104,-1.0070799589157104,80.0,171155.0,0.0
14816.8983201,294280.125,295327.34375,329148.5,323030.375,285319.21875,256005.265625,222446.984375,246254.359375,0.047607421875,0.989013671875,0.06787109375,0.1831054538488388,-1.5258787870407104,-1.0070799589157104,80.0,171156.0,0.0
14816.8983203,294280.125,295327.34375,329148.5,323030.375,285319.21875,256005.265625,222446.984375,246254.359375,0.047607421875,0.989013671875,0.06787109375,0.1831054538488388,-1.5258787870407104,-1.0070799589157104,80.0,171157.0,0.0
14816.8983205,294280.125,295327.34375,329148.5,323030.375,285319.21875,256005.265625,222446.984375,246254.359375,0.047607421875,0.989013671875,0.06787109375,0.1831054538488388,-1.5258787870407104,-1.0070799589157104,80.0,171158.0,0.0
14816.8983206,294280.125,295327.34375,329148.5,323030.375,285319.21875,256005.265625,222446.984375,246254.359375,0.047607421875,0.989013671875,0.06787109375,0.1831054538488388,-1.5258787870407104,-1.0070799589157104,80.0,171159.0,0.0
14816.8983208,294280.125,295327.34375,329148.5,323030.375,285319.21875,256005.265625,222446.984375,246254.359375,0.047607421875,0.989013671875,0.06787109375,0.1831054538488388,-1.5258787870407104,-1.0070799589157104,80.0,171160.0,0.0
14816.898321,294280.125,295327.34375,329148.5,323030.375,285319.21875,256005.265625,222446.984375,246254.359375,0.047607421875,0.989013671875,0.06787109375,0.1831054538488388,-1.5258787870407104,-1.0070799589157104,80.0,171161.0,0.0
14816.8983212,294280.125,295327.34375,329148.5,323030.375,285319.21875,256005.265625,222446.984375,246254.359375,0.047607421875,0.989013671875,0.06787109375,0.1831054538488388,-1.5258787870407104,-1.0070799589157104,80.0,171162.0,0.0
14816.8983213,294280.125,295327.34375,329148.5,323030.375,285319.21875,256005.265625,222446.984375,246254.359375,0.047607421875,0.989013671875,0.06787109375,0.1831054538488388,-1.5258787870407104,-1.0070799589157104,80.0,171163.0,0.0
14816.8983215,294280.125,295327.34375,329148.5,323030.375,285319.21875,256005.265625,222446.984375,246254.359375,0.047607421875,0.989013671875,0.06787109375,0.1831054538488388,-1.5258787870407104,-1.0070799589157104,80.0,171164.0,0.0
14816.8983217,294280.125,295327.34375,329148.5,323030.375,285319.21875,256005.265625,222446.984375,246254.359375,0.047607421875,0.989013671875,0.06787109375,0.1831054538488388,-1.5258787870407104,-1.0070799589157104,80.0,171165.0,0.0
14816.8983219,294280.125,295327.34375,329148.5,323030.375,285319.21875,256005.265625,222446.984375,246254.359375,0.047607421875,0.989013671875,0.06787109375,0.1831054538488388,-1.5258787870407104,-1.0070799589157104,80.0,171166.0,0.0
14816.898322,294280.125,295327.34375,329148.5,323030.375,285319.21875,256005.265625,222446.984375,246254.359375,0.047607421875,0.989013671875,0.06787109375,0.1831054538488388,-1.5258787870407104,-1.0070799589157104,80.0,171167.0,0.0
14816.8983222,294280.125,295327.34375,329148.5,323030.375,285319.21875,256005.265625,222446.984375,246254.359375,0.047607421875,0.989013671875,0.06787109375,0.1831054538488388,-1.5258787870407104,-1.0070799589157104,80.0,171168.0,0.0
14816.8983224,294280.125,295327.34375,329148.5,323030.375,285319.21875,256005.265625,222446.984375,246254.359375,0.047607421875,0.989013671875,0.06787109375,0.1831054538488388,-1.5258787870407104,-1.0070799589157104,80.0,171169.0,0.0
14816.8983226,294280.125,295327.34375,329148.5,323030.375,285319.21875,256005.265625,222446.984375,246254.359375,0.047607421875,0.989013671875,0.06787109375,0.1831054538488388,-1.5258787870407104,-1.0070799589157104,80.0,171170.0,0.0
14816.8983228,294280.125,295327.34375,329148.5,323030.375,285319.21875,256005.265625,222446.984375,246254.359375,0.047607421875,0.989013671875,0.06787109375,0.1831054538488388,-1.5258787870407104,-1.0070799589157104,80.0,171171.0,0.0
14816.8983229,294280.125,295327.34375,329148.5,323030.375,285319.21875,256005.265625,222446.984375,246254.359375,0.047607421875,0.989013671875,0.06787109375,0.1831054538488388,-1.5258787870407104,-1.0070799589157104,80.0,171172.0,0.0
14816.8983231,294280.125,295327.34375,329148.5,323030.375,285319.21875,256005.265625,222446.984375,246254.359375,0.047607421875,0.989013671875,0.06787109375,0.1831054538488388,-1.5258787870407104,-1.0070799589157104,80.0,171173.0,0.0
14816.8983233,294280.125,295327.34375,329148.5,323030.375,285319.21875,256005.265625,222446.984375,246254.359375,0.047607421875,0.989013671875,0.06787109375,0.1831054538488388,-1.5258787870407104,-1.0070799589157104,80.0,171174.0,0.0
14816.8983234,294280.125,295327.34375,329148.5,323030.375,285319.21875,256005.265625,222446.984375,246254.359375,0.047607421875,0.989013671875,0.06787109375,0.1831054538488388,-1.5258787870407104,-1.0070799589157104,80.0,171175.0,0.0
14816.8983236,294280.125,295327.34375,329148.5,323030.375,285319.21875,256005.265625,222446.984375,246254.359375,0.047607421875,0.989013671875,0.06787109375,0.1831054538488388,-1.5258787870407104,-1.0070799589157104,80.0,171176.0,0.0
14816.8983238,294280.125,295327.34375,329148.5,323030.375,285319.21875,256005.265625,222446.984375,246254.359375,0.047607421875,0.989013671875,0.06787109375,0.1831054538488388,-1.5258787870407104,-1.0070799589157104,80.0,171177.0,0.0
14816.898324,294280.125,295327.34375,329148.5,323030.375,285319.21875,256005.265625,222446.984375,246254.359375,0.047607421875,0.989013671875,0.06787109375,0.1831054538488388,-1.5258787870407104,-1.0070799589157104,80.0,171178.0,0.0
14816.8983242,294280.125,295327.34375,329148.5,323030.375,285319.21875,256005.265625,222446.984375,246254.359375,0.047607421875,0.989013671875,0.06787109375,0.1831054538488388,-1.5258787870407104,-1.0070799589157104,80.0,171179.0,0.0
14816.8983243,294280.125,295327.34375,329148.5,323030.375,285319.21875,256005.265625,222446.984375,246254.359375,0.047607421875,0.989013671875,0.06787109375,0.1831054538488388,-1.5258787870407104,-1.0070799589157104,80.0,171180.0,0.0
14816.8983245,294232.21875,295374.46875,329119.875,322967.78125,285323.0625,256001.515625,222429.734375,246237.5625,0.04736328125,0.98779296875,0.073974609375,0.1220703050494194,-1.0681151151657104,-0.7934569716453552,80.0,171181.0,1.0
14816.8983257,294192.59375,295121.625,328902.1875,322945.875,285192.0,255942.59375,222372.234375,246225.671875,0.047119140625,0.98876953125,0.07373046875,0.0915527269244194,-1.1291502714157104,-0.8544921278953552,80.0,171182.0,1.0
14816.9000963,294195.5625,294873.96875,328757.34375,322982.53125,285092.65625,255902.71875,222345.15625,246235.6875,0.049072265625,0.989990234375,0.072998046875,0.1220703050494194,-1.0986326932907104,-0.8850097060203552,80.0,171183.0,1.0
14816.9276309,294236.9375,294996.0,328907.09375,323032.25,285177.25,255942.5,222395.3125,246261.515625,0.049072265625,0.989990234375,0.074951171875,0.0610351525247097,-1.0681151151657104,-0.9765624403953552,80.0,171184.0,1.0
14816.9532805,294248.75,295298.375,329124.0,323017.9375,285316.28125,255996.953125,222442.25,246259.46875,0.04931640625,0.99169921875,0.075439453125,0.03051757626235485,-1.0681151151657104,-0.8544921278953552,80.0,171185.0,1.0
14816.9532855,294215.21875,295374.75,329110.0625,322959.9375,285322.90625,255994.1875,222426.515625,246232.90625,0.048583984375,0.990234375,0.073974609375,0.1220703050494194,-1.0681151151657104,-0.9155272841453552,80.0,171186.0,1.0
14816.977642,294181.15625,295125.375,328896.46875,322938.90625,285196.03125,255941.4375,222368.3125,246218.78125,0.04638671875,0.99169921875,0.073486328125,0.1525878757238388,-0.9765624403953552,-0.9460448622703552,80.0,171187.0,1.0
14817.0076465,294188.9375,294875.5,328752.15625,322977.4375,285095.4375,255911.03125,222343.359375,246237.375,0.047119140625,0.99267578125,0.0732421875,0.0915527269244194,-1.0375975370407104,-0.7934569716453552,80.0,171188.0,1.0
14817.0364038,294235.34375,294997.96875,328905.21875,323030.46875,285178.40625,255949.65625,222397.1875,246271.171875,0.046142578125,0.990234375,0.077392578125,0.03051757626235485,-1.0681151151657104,-0.9155272841453552,80.0,171189.0,1.0
14817.0625586,294250.28125,295304.65625,329126.40625,323018.03125,285315.21875,256000.984375,222440.453125,246263.125,0.04541015625,0.987548828125,0.075439453125,0.0915527269244194,-1.0681151151657104,-0.8544921278953552,80.0,171190.0,1.0
14817.0625652,294219.875,295387.15625,329119.71875,322959.3125,285323.4375,255998.03125,222421.234375,246229.15625,0.045166015625,0.98876953125,0.074462890625,0.03051757626235485,-1.0986326932907104,-0.9155272841453552,80.0,171191.0,1.0
14817.0625665,294196.09375,295148.53125,328919.71875,322947.6875,285205.9375,255948.59375,222367.6875,246222.171875,0.043212890625,0.988525390625,0.0732421875,0.03051757626235485,-1.1596678495407104,-1.0070799589157104,80.0,171192.0,1.0
14817.0864983,294199.84375,294889.53125,328769.15625,322981.75,285096.875,255897.0,222332.015625,246226.734375,0.044189453125,0.98974609375,0.072021484375,0.1220703050494194,-1.2207030057907104,-0.9155272841453552,80.0,171193.0,1.0
14817.1900493,294242.65625,294996.625,328908.4375,323032.25,285173.9375,255926.59375,222378.671875,246256.421875,0.043701171875,0.9892578125,0.072265625,0.1525878757238388,-1.2207030057907104,-0.8239745497703552,80.0,171194.0,1.0
14817.1900571,294259.3125,295304.28125,329123.5625,323022.34375,285312.0625,255975.3125,222428.65625,246261.15625,0.04296875,0.98876953125,0.072265625,0.0915527269244194,-1.2817381620407104,-0.8544921278953552,80.0,171195.0,1.0
14817.19006,294259.3125,295304.28125,329123.5625,323022.34375,285312.0625,255975.3125,222428.65625,246261.15625,0.04296875,0.98876953125,0.072265625,0.0915527269244194,-1.2817381620407104,-0.8544921278953552,80.0,171196.0,0.0
14817.1900602,294259.3125,295304.28125,329123.5625,323022.34375,285312.0625,255975.3125,222428.65625,246261.15625,0.04296875,0.98876953125,0.072265625,0.0915527269244194,-1.2817381620407104,-0.8544921278953552,80.0,171197.0,0.0
14817.1900604,294259.3125,295304.28125,329123.5625,323022.34375,285312.0625,255975.3125,222428.65625,246261.15625,0.04296875,0.98876953125,0.072265625,0.0915527269244194,-1.2817381620407104,-0.8544921278953552,80.0,171198.0,0.0
14817.1900606,294259.3125,295304.28125,329123.5625,323022.34375,285312.0625,255975.3125,222428.65625,246261.15625,0.04296875,0.98876953125,0.072265625,0.0915527269244194,-1.2817381620407104,-0.8544921278953552,80.0,171199.0,0.0
14817.1900607,294259.3125,295304.28125,329123.5625,323022.34375,285312.0625,255975.3125,222428.65625,246261.15625,0.04296875,0.98876953125,0.072265625,0.0915527269244194,-1.2817381620407104,-0.8544921278953552,80.0,171200.0,0.0
14817.1900609,294259.3125,295304.28125,329123.5625,323022.34375,285312.0625,255975.3125,222428.65625,246261.15625,0.04296875,0.98876953125,0.072265625,0.0915527269244194,-1.2817381620407104,-0.8544921278953552,80.0,171201.0,0.0
14817.1900611,294259.3125,295304.28125,329123.5625,323022.34375,285312.0625,255975.3125,222428.65625,246261.15625,0.04296875,0.98876953125,0.072265625,0.0915527269244194,-1.2817381620407104,-0.8544921278953552,80.0,171202.0,0.0
14817.1900613,294259.3125,295304.28125,329123.5625,323022.34375,285312.0625,255975.3125,222428.65625,246261.15625,0.04296875,0.98876953125,0.072265625,0.0915527269244194,-1.2817381620407104,-0.8544921278953552,80.0,171203.0,0.0
14817.1900614,294259.3125,295304.28125,329123.5625,323022.34375,285312.0625,255975.3125,222428.65625,246261.15625,0.04296875,0.98876953125,0.072265625,0.0915527269244194,-1.2817381620407104,-0.8544921278953552,80.0,171204.0,0.0
14817.1900616,294259.3125,295304.28125,329123.5625,323022.34375,285312.0625,255975.3125,222428.65625,246261.15625,0.04296875,0.98876953125,0.072265625,0.0915527269244194,-1.2817381620407104,-0.8544921278953552,80.0,171205.0,0.0
14817.1900618,294259.3125,295304.28125,329123.5625,323022.34375,285312.0625,255975.3125,222428.65625,246261.15625,0.04296875,0.98876953125,0.072265625,0.0915527269244194,-1.2817381620407104,-0.8544921278953552,80.0,171206.0,0.0
14817.1900619,294259.3125,295304.28125,329123.5625,323022.34375,285312.0625,255975.3125,222428.65625,246261.15625,0.04296875,0.98876953125,0.072265625,0.0915527269244194,-1.2817381620407104,-0.8544921278953552,80.0,171207.0,0.0
