Time,FZ,C3,CZ,C4,PZ,PO7,OZ,PO8,AccX,AccY,AccZ,Gyro1,Gyro2,Gyro3,Battery,Counter,Validation
14792.8119171,294135.46875,295230.4375,329754.6875,323850.59375,285266.46875,256071.78125,222633.578125,246261.515625,0.04541015625,0.99072265625,0.071533203125,0.7629393935203552,-1.4648436307907104,-1.0681151151657104,80.0,165136.0,1.0
14792.8162745,294128.125,295447.0625,329861.96875,323814.03125,285348.90625,256111.75,222654.953125,246246.140625,0.043701171875,0.98779296875,0.068115234375,0.7629393935203552,-1.4343260526657104,-1.0070799589157104,80.0,165137.0,1.0
14792.8162798,294091.40625,295295.875,329716.40625,323779.53125,285269.25,256076.609375,222609.796875,246226.03125,0.044921875,0.988525390625,0.0673828125,0.7629393935203552,-1.5869139432907104,-1.0375975370407104,80.0,165138.0,1.0
14792.8182032,294073.59375,294973.5625,329497.625,323792.75,285123.6875,256022.53125,222560.4375,246227.28125,0.044921875,0.98974609375,0.067626953125,0.7629393935203552,-1.5869139432907104,-0.9460448622703552,80.0,165139.0,1.0
14792.820642,294105.25,294938.875,329523.90625,323843.09375,285130.3125,256039.953125,222587.984375,246255.34375,0.043701171875,0.98974609375,0.065185546875,0.7934569716453552,-1.6174315214157104,-0.9765624403953552,80.0,165140.0,1.0
14792.8231685,294139.03125,295235.96875,329762.46875,323860.15625,285280.5,256101.203125,222653.421875,246270.375,0.04443359375,0.98974609375,0.06640625,0.6713866591453552,-1.7089842557907104,-1.0375975370407104,80.0,165141.0,1.0
14792.8256181,294126.1875,295447.53125,329868.40625,323816.96875,285358.9375,256118.453125,222662.359375,246249.890625,0.042236328125,0.990966796875,0.0693359375,0.6713866591453552,-1.8310545682907104,-0.9460448622703552,80.0,165142.0,1.0
14792.8281717,294087.625,295296.40625,329719.0,323780.5,285274.25,256078.578125,222615.421875,246230.046875,0.04248046875,0.992431640625,0.072509765625,0.6408690810203552,-1.8310545682907104,-1.0070799589157104,80.0,165143.0,1.0
14792.8532256,294068.3125,294970.09375,329491.09375,323787.75,285121.375,256008.484375,222550.703125,246224.859375,0.04638671875,0.99169921875,0.06982421875,0.4882812201976776,-1.8005369901657104,-1.0681151151657104,80.0,165144.0,1.0
14792.8795702,294104.8125,294940.5,329522.03125,323838.875,285127.28125,256013.046875,222568.9375,246253.65625,0.046630859375,0.990234375,0.06787109375,0.3662109076976776,-1.7395018339157104,-1.0070799589157104,80.0,165145.0,1.0
14792.8795796,294140.5625,295242.25,329760.9375,323856.6875,285278.71875,256086.453125,222639.390625,246272.0625,0.04638671875,0.98974609375,0.069580078125,0.3051757514476776,-1.8310545682907104,-0.9765624403953552,80.0,165146.0,1.0
14792.879581,294130.65625,295449.5,329866.25,323812.59375,285355.09375,256107.640625,222646.90625,246243.28125,0.0478515625,0.990234375,0.068359375,0.3356933295726776,-1.7089842557907104,-1.0070799589157104,80.0,165147.0,1.0
14792.8795822,294094.0,295285.5,329707.90625,323777.09375,285263.25,256063.921875,222596.921875,246228.53125,0.046875,0.990234375,0.068359375,0.3356933295726776,-1.7700194120407104,-0.9460448622703552,80.0,165148.0,1.0
14792.8795835,294073.6875,294970.1875,329490.9375,323788.625,285118.40625,256007.140625,222549.453125,246232.734375,0.04736328125,0.9892578125,0.07177734375,0.3662109076976776,-1.7089842557907104,-0.9155272841453552,80.0,165149.0,1.0
14792.9062175,294104.625,294939.59375,329523.375,323838.09375,285126.71875,256026.375,222573.859375,246249.625,0.046875,0.989013671875,0.072021484375,0.3051757514476776,-1.7089842557907104,-0.9155272841453552,80.0,165150.0,1.0
14792.906224,294133.40625,295234.8125,329756.09375,323848.4375,285270.9375,256088.953125,222631.34375,246254.453125,0.047607421875,0.98681640625,0.06982421875,0.3662109076976776,-1.6479490995407104,-0.8544921278953552,80.0,165151.0,1.0
14792.9062255,294119.375,295445.28125,329867.34375,323801.78125,285352.9375,256103.625,222639.125,246235.046875,0.048095703125,0.9853515625,0.0693359375,0.3662109076976776,-1.6479490995407104,-0.8850097060203552,80.0,165152.0,1.0
14792.9062283,294119.375,295445.28125,329867.34375,323801.78125,285352.9375,256103.625,222639.125,246235.046875,0.048095703125,0.9853515625,0.0693359375,0.3662109076976776,-1.6479490995407104,-0.8850097060203552,80.0,165153.0,0.0
14792.9062285,294119.375,295445.28125,329867.34375,323801.78125,285352.9375,256103.625,222639.125,246235.046875,0.048095703125,0.9853515625,0.0693359375,0.3662109076976776,-1.6479490995407104,-0.8850097060203552,80.0,165154.0,0.0
14792.9062287,294119.375,295445.28125,329867.34375,323801.78125,285352.9375,256103.625,222639.125,246235.046875,0.048095703125,0.9853515625,0.0693359375,0.3662109076976776,-1.6479490995407104,-0.8850097060203552,80.0,165155.0,0.0
14792.9062289,294119.375,295445.28125,329867.34375,323801.78125,285352.9375,256103.625,222639.125,246235.046875,0.048095703125,0.9853515625,0.0693359375,0.3662109076976776,-1.6479490995407104,-0.8850097060203552,80.0,165156.0,0.0
14792.9062291,294119.375,295445.28125,329867.34375,323801.78125,285352.9375,256103.625,222639.125,246235.046875,0.048095703125,0.9853515625,0.0693359375,0.3662109076976776,-1.6479490995407104,-0.8850097060203552,80.0,165157.0,0.0
14792.9062293,294119.375,295445.28125,329867.34375,323801.78125,285352.9375,256103.625,222639.125,246235.046875,0.048095703125,0.9853515625,0.0693359375,0.3662109076976776,-1.6479490995407104,-0.8850097060203552,80.0,165158.0,0.0
14792.9062294,294119.375,295445.28125,329867.34375,323801.78125,285352.9375,256103.625,222639.125,246235.046875,0.048095703125,0.9853515625,0.0693359375,0.3662109076976776,-1.6479490995407104,-0.8850097060203552,80.0,165159.0,0.0
14792.9062297,294119.375,295445.28125,329867.34375,323801.78125,285352.9375,256103.625,222639.125,246235.046875,0.048095703125,0.9853515625,0.0693359375,0.3662109076976776,-1.6479490995407104,-0.8850097060203552,80.0,165160.0,0.0
14792.9062299,294119.375,295445.28125,329867.34375,323801.78125,285352.9375,256103.625,222639.125,246235.046875,0.048095703125,0.9853515625,0.0693359375,0.3662109076976776,-1.6479490995407104,-0.8850097060203552,80.0,165161.0,0.0
14792.9062301,294119.375,295445.28125,329867.34375,323801.78125,285352.9375,256103.625,222639.125,246235.046875,0.048095703125,0.9853515625,0.0693359375,0.3662109076976776,-1.6479490995407104,-0.8850097060203552,80.0,165162.0,0.0
14792.9062303,294119.375,295445.28125,329867.34375,323801.78125,285352.9375,256103.625,222639.125,246235.046875,0.048095703125,0.9853515625,0.0693359375,0.3662109076976776,-1.6479490995407104,-0.8850097060203552,80.0,165163.0,0.0
14792.9062305,294119.375,295445.28125,329867.34375,323801.78125,285352.9375,256103.625,222639.125,246235.046875,0.048095703125,0.9853515625,0.0693359375,0.3662109076976776,-1.6479490995407104,-0.8850097060203552,80.0,165164.0,0.0
14792.9062307,294119.375,295445.28125,329867.34375,323801.78125,285352.9375,256103.625,222639.125,246235.046875,0.048095703125,0.9853515625,0.0693359375,0.3662109076976776,-1.6479490995407104,-0.8850097060203552,80.0,165165.0,0.0
14792.9062308,294119.375,295445.28125,329867.34375,323801.78125,285352.9375,256103.625,222639.125,246235.046875,0.048095703125,0.9853515625,0.0693359375,0.3662109076976776,-1.6479490995407104,-0.8850097060203552,80.0,165166.0,0.0
14792.906231,294119.375,295445.28125,329867.34375,323801.78125,285352.9375,256103.625,222639.125,246235.046875,0.048095703125,0.9853515625,0.0693359375,0.3662109076976776,-1.6479490995407104,-0.8850097060203552,80.0,165167.0,0.0
14792.9062312,294119.375,295445.28125,329867.34375,323801.78125,285352.9375,256103.625,222639.125,246235.046875,0.048095703125,0.9853515625,0.0693359375,0.3662109076976776,-1.6479490995407104,-0.8850097060203552,80.0,165168.0,0.0
14792.9062314,294119.375,295445.28125,329867.34375,323801.78125,285352.9375,256103.625,222639.125,246235.046875,0.048095703125,0.9853515625,0.0693359375,0.3662109076976776,-1.6479490995407104,-0.8850097060203552,80.0,165169.0,0.0
14792.9062316,294119.375,295445.28125,329867.34375,323801.78125,285352.9375,256103.625,222639.125,246235.046875,0.048095703125,0.9853515625,0.0693359375,0.3662109076976776,-1.6479490995407104,-0.8850097060203552,80.0,165170.0,0.0
14792.9062318,294119.375,295445.28125,329867.34375,323801.78125,285352.9375,256103.625,222639.125,246235.046875,0.048095703125,0.9853515625,0.0693359375,0.3662109076976776,-1.6479490995407104,-0.8850097060203552,80.0,165171.0,0.0
14792.9062319,294119.375,295445.28125,329867.34375,323801.78125,285352.9375,256103.625,222639.125,246235.046875,0.048095703125,0.9853515625,0.0693359375,0.3662109076976776,-1.6479490995407104,-0.8850097060203552,80.0,165172.0,0.0
14792.9062321,294119.375,295445.28125,329867.34375,323801.78125,285352.9375,256103.625,222639.125,246235.046875,0.048095703125,0.9853515625,0.0693359375,0.3662109076976776,-1.6479490995407104,-0.8850097060203552,80.0,165173.0,0.0
14792.9062323,294119.375,295445.28125,329867.34375,323801.78125,285352.9375,256103.625,222639.125,246235.046875,0.048095703125,0.9853515625,0.0693359375,0.3662109076976776,-1.6479490995407104,-0.8850097060203552,80.0,165174.0,0.0
14792.9062325,294119.375,295445.28125,329867.34375,323801.78125,285352.9375,256103.625,222639.125,246235.046875,0.048095703125,0.9853515625,0.0693359375,0.3662109076976776,-1.6479490995407104,-0.8850097060203552,80.0,165175.0,0.0
14792.9062326,294119.375,295445.28125,329867.34375,323801.78125,285352.9375,256103.625,222639.125,246235.046875,0.048095703125,0.9853515625,0.0693359375,0.3662109076976776,-1.6479490995407104,-0.8850097060203552,80.0,165176.0,0.0
14792.9062328,294119.375,295445.28125,329867.34375,323801.78125,285352.9375,256103.625,222639.125,246235.046875,0.048095703125,0.9853515625,0.0693359375,0.3662109076976776,-1.6479490995407104,-0.8850097060203552,80.0,165177.0,0.0
14792.906233,294119.375,295445.28125,329867.34375,323801.78125,285352.9375,256103.625,222639.125,246235.046875,0.048095703125,0.9853515625,0.0693359375,0.3662109076976776,-1.6479490995407104,-0.8850097060203552,80.0,165178.0,0.0
14792.9062332,294119.375,295445.28125,329867.34375,323801.78125,285352.9375,256103.625,222639.125,246235.046875,0.048095703125,0.9853515625,0.0693359375,0.3662109076976776,-1.6479490995407104,-0.8850097060203552,80.0,165179.0,0.0
14792.9062333,294119.375,295445.28125,329867.34375,323801.78125,285352.9375,256103.625,222639.125,246235.046875,0.048095703125,0.9853515625,0.0693359375,0.3662109076976776,-1.6479490995407104,-0.8850097060203552,80.0,165180.0,0.0
14792.9062335,294119.375,295445.28125,329867.34375,323801.78125,285352.9375,256103.625,222639.125,246235.046875,0.048095703125,0.9853515625,0.0693359375,0.3662109076976776,-1.6479490995407104,-0.8850097060203552,80.0,165181.0,0.0
14792.9062337,294119.375,295445.28125,329867.34375,323801.78125,285352.9375,256103.625,222639.125,246235.046875,0.048095703125,0.9853515625,0.0693359375,0.3662109076976776,-1.6479490995407104,-0.8850097060203552,80.0,165182.0,0.0
14792.9062338,294081.46875,295272.71875,329694.875,323759.59375,285258.78125,256053.90625,222588.78125,246216.015625,0.049072265625,0.986572265625,0.06884765625,-0.2136230319738388,-1.4343260526657104,-0.7629393935203552,80.0,165183.0,1.0
14792.9062352,294065.1875,294950.875,329469.03125,323770.9375,285107.15625,255992.125,222531.75,246211.265625,0.048828125,0.987060546875,0.071044921875,-0.0915527269244194,-1.4953612089157104,-0.8850097060203552,80.0,165184.0,1.0
14792.9062364,294097.90625,294919.75,329498.96875,323820.5625,285113.59375,256001.0625,222554.90625,246239.703125,0.04833984375,0.98828125,0.07080078125,-0.1220703050494194,-1.3732908964157104,-0.7934569716453552,80.0,165185.0,1.0
14792.9273817,294132.0625,295224.34375,329741.53125,323837.28125,285268.1875,256075.28125,222619.71875,246255.34375,0.04833984375,0.99072265625,0.070068359375,-0.03051757626235485,-1.2817381620407104,-0.7629393935203552,80.0,165186.0,1.0
14792.9273877,294120.90625,295434.90625,329850.25,323793.65625,285350.15625,256097.0,222635.09375,246236.578125,0.048583984375,0.99072265625,0.073974609375,-0.0915527269244194,-1.4038084745407104,-0.7629393935203552,80.0,165187.0,1.0
14792.9312161,294081.375,295273.34375,329694.3125,323754.21875,285261.125,256053.015625,222586.734375,246209.578125,0.047119140625,0.990234375,0.071044921875,-0.03051757626235485,-1.4038084745407104,-0.7934569716453552,80.0,165188.0,1.0
14792.9312243,294062.78125,294947.71875,329465.25,323767.96875,285108.6875,255995.53125,222531.03125,246208.5,0.048583984375,0.988037109375,0.07275390625,0.0915527269244194,-1.3427733182907104,-0.7629393935203552,80.0,165189.0,1.0
14792.9331815,294102.46875,294929.6875,329502.5625,323823.9375,285119.65625,256010.8125,222558.203125,246236.9375,0.047119140625,0.989013671875,0.072998046875,0.1831054538488388,-1.3427733182907104,-0.7629393935203552,80.0,165190.0,1.0
14792.9381393,294135.75,295227.9375,329741.96875,323838.78125,285268.09375,256067.765625,222619.8125,246251.859375,0.04736328125,0.98681640625,0.0732421875,0.1831054538488388,-1.3122557401657104,-0.8239745497703552,80.0,165191.0,1.0
14792.945023,294124.03125,295440.625,329854.0,323797.84375,285352.3125,256098.4375,222640.109375,246240.328125,0.047119140625,0.989990234375,0.073974609375,0.2136230319738388,-1.2817381620407104,-0.8239745497703552,80.0,165192.0,1.0
14792.9450273,294124.03125,295440.625,329854.0,323797.84375,285352.3125,256098.4375,222640.109375,246240.328125,0.047119140625,0.989990234375,0.073974609375,0.2136230319738388,-1.2817381620407104,-0.8239745497703552,80.0,165193.0,0.0
14792.9450275,294124.03125,295440.625,329854.0,323797.84375,285352.3125,256098.4375,222640.109375,246240.328125,0.047119140625,0.989990234375,0.073974609375,0.2136230319738388,-1.2817381620407104,-0.8239745497703552,80.0,165194.0,0.0
14792.9450277,294124.03125,295440.625,329854.0,323797.84375,285352.3125,256098.4375,222640.109375,246240.328125,0.047119140625,0.989990234375,0.073974609375,0.2136230319738388,-1.2817381620407104,-0.8239745497703552,80.0,165195.0,0.0
14792.9450279,294124.03125,295440.625,329854.0,323797.84375,285352.3125,256098.4375,222640.109375,246240.328125,0.047119140625,0.989990234375,0.073974609375,0.2136230319738388,-1.2817381620407104,-0.8239745497703552,80.0,165196.0,0.0
14792.9450281,294124.03125,295440.625,329854.0,323797.84375,285352.3125,256098.4375,222640.109375,246240.328125,0.047119140625,0.989990234375,0.073974609375,0.2136230319738388,-1.2817381620407104,-0.8239745497703552,80.0,165197.0,0.0
14792.9450283,294124.03125,295440.625,329854.0,323797.84375,285352.3125,256098.4375,222640.109375,246240.328125,0.047119140625,0.989990234375,0.073974609375,0.2136230319738388,-1.2817381620407104,-0.8239745497703552,80.0,165198.0,0.0
14792.9450285,294124.03125,295440.625,329854.0,323797.84375,285352.3125,256098.4375,222640.109375,246240.328125,0.047119140625,0.989990234375,0.073974609375,0.2136230319738388,-1.2817381620407104,-0.8239745497703552,80.0,165199.0,0.0
14792.9450287,294124.03125,295440.625,329854.0,323797.84375,285352.3125,256098.4375,222640.109375,246240.328125,0.047119140625,0.989990234375,0.073974609375,0.2136230319738388,-1.2817381620407104,-0.8239745497703552,80.0,165200.0,0.0
14792.9450289,294124.03125,295440.625,329854.0,323797.84375,285352.3125,256098.4375,222640.109375,246240.328125,0.047119140625,0.989990234375,0.073974609375,0.2136230319738388,-1.2817381620407104,-0.8239745497703552,80.0,165201.0,0.0
14792.945029,294124.03125,295440.625,329854.0,323797.84375,285352.3125,256098.4375,222640.109375,246240.328125,0.047119140625,0.989990234375,0.073974609375,0.2136230319738388,-1.2817381620407104,-0.8239745497703552,80.0,165202.0,0.0
14792.9450292,294124.03125,295440.625,329854.0,323797.84375,285352.3125,256098.4375,222640.109375,246240.328125,0.047119140625,0.989990234375,0.073974609375,0.2136230319738388,-1.2817381620407104,-0.8239745497703552,80.0,165203.0,0.0
14792.9450294,294124.03125,295440.625,329854.0,323797.84375,285352.3125,256098.4375,222640.109375,246240.328125,0.047119140625,0.989990234375,0.073974609375,0.2136230319738388,-1.2817381620407104,-0.8239745497703552,80.0,165204.0,0.0
14792.9450295,294124.03125,295440.625,329854.0,323797.84375,285352.3125,256098.4375,222640.109375,246240.328125,0.047119140625,0.989990234375,0.073974609375,0.2136230319738388,-1.2817381620407104,-0.8239745497703552,80.0,165205.0,0.0
14792.9450297,294124.03125,295440.625,329854.0,323797.84375,285352.3125,256098.4375,222640.109375,246240.328125,0.047119140625,0.989990234375,0.073974609375,0.2136230319738388,-1.2817381620407104,-0.8239745497703552,80.0,165206.0,0.0
14792.9450299,294124.03125,295440.625,329854.0,323797.84375,285352.3125,256098.4375,222640.109375,246240.328125,0.047119140625,0.989990234375,0.073974609375,0.2136230319738388,-1.2817381620407104,-0.8239745497703552,80.0,165207.0,0.0
14792.9450301,294124.03125,295440.625,329854.0,323797.84375,285352.3125,256098.4375,222640.109375,246240.328125,0.047119140625,0.989990234375,0.073974609375,0.2136230319738388,-1.2817381620407104,-0.8239745497703552,80.0,165208.0,0.0
14792.9450302,294124.03125,295440.625,329854.0,323797.84375,285352.3125,256098.4375,222640.109375,246240.328125,0.047119140625,0.989990234375,0.073974609375,0.2136230319738388,-1.2817381620407104,-0.8239745497703552,80.0,165209.0,0.0
14792.9450304,294124.03125,295440.625,329854.0,323797.84375,285352.3125,256098.4375,222640.109375,246240.328125,0.047119140625,0.989990234375,0.073974609375,0.2136230319738388,-1.2817381620407104,-0.8239745497703552,80.0,165210.0,0.0
14792.9450306,294124.03125,295440.625,329854.0,323797.84375,285352.3125,256098.4375,222640.109375,246240.328125,0.047119140625,0.989990234375,0.073974609375,0.2136230319738388,-1.2817381620407104,-0.8239745497703552,80.0,165211.0,0.0
14792.9450308,294124.03125,295440.625,329854.0,323797.84375,285352.3125,256098.4375,222640.109375,246240.328125,0.047119140625,0.989990234375,0.073974609375,0.2136230319738388,-1.2817381620407104,-0.8239745497703552,80.0,165212.0,0.0
14792.945031,294124.03125,295440.625,329854.0,323797.84375,285352.3125,256098.4375,222640.109375,246240.328125,0.047119140625,0.989990234375,0.073974609375,0.2136230319738388,-1.2817381620407104,-0.8239745497703552,80.0,165213.0,0.0
14792.9450311,294076.8125,294954.78125,329478.9375,323775.59375,285114.125,255995.4375,222536.578125,246219.5,0.046142578125,0.991455078125,0.070556640625,0.3662109076976776,-1.2817381620407104,-0.5798339247703552,80.0,165214.0,1.0
14792.9450324,294107.3125,294931.1875,329507.03125,323823.0625,285119.65625,256002.5,222555.703125,246242.921875,0.047119140625,0.991455078125,0.07470703125,0.4882812201976776,-1.3122557401657104,-0.5798339247703552,80.0,165215.0,1.0
14792.9450336,294147.28125,295235.96875,329746.71875,323844.0625,285274.0625,256073.125,222625.078125,246263.84375,0.047119140625,0.990478515625,0.07275390625,0.4882812201976776,-1.3427733182907104,-0.6408690810203552,80.0,165216.0,1.0
14792.9450349,294136.8125,295444.5625,329853.90625,323805.96875,285358.21875,256109.078125,222651.640625,246254.015625,0.046875,0.990234375,0.073486328125,0.5187987685203552,-1.4038084745407104,-0.7324218153953552,80.0,165217.0,1.0
14792.9450361,294103.375,295283.8125,329697.90625,323772.46875,285271.125,256070.453125,222599.953125,246227.1875,0.044921875,0.989501953125,0.074951171875,0.4882812201976776,-1.3732908964157104,-0.7934569716453552,80.0,165218.0,1.0
14792.9450373,294086.9375,294957.125,329471.25,323781.84375,285118.78125,255998.296875,222536.484375,246225.3125,0.046630859375,0.990234375,0.0732421875,0.3967284858226776,-1.3122557401657104,-0.8544921278953552,80.0,165219.0,1.0
14792.9450385,294120.0,294925.5625,329502.8125,323831.8125,285124.21875,256000.703125,222557.21875,246252.125,0.04736328125,0.991455078125,0.07421875,0.5493163466453552,-1.3427733182907104,-0.7629393935203552,80.0,165220.0,1.0
14792.9450398,294152.5625,295227.9375,329744.46875,323846.75,285273.09375,256066.515625,222621.953125,246263.125,0.048828125,0.989990234375,0.0751953125,0.5493163466453552,-1.4038084745407104,-0.7324218153953552,80.0,165221.0,1.0
14792.945041,294137.78125,295438.125,329853.125,323800.625,285353.46875,256098.609375,222636.078125,246244.703125,0.049560546875,0.989990234375,0.072998046875,0.5187987685203552,-1.2817381620407104,-0.8850097060203552,80.0,165222.0,1.0
14792.9488397,294101.3125,295277.28125,329702.1875,323764.21875,285267.0,256061.5,222589.765625,246223.4375,0.049560546875,0.989501953125,0.0732421875,0.4882812201976776,-1.3122557401657104,-0.7934569716453552,80.0,165223.0,1.0
14792.9488425,294101.3125,295277.28125,329702.1875,323764.21875,285267.0,256061.5,222589.765625,246223.4375,0.049560546875,0.989501953125,0.0732421875,0.4882812201976776,-1.3122557401657104,-0.7934569716453552,80.0,165224.0,0.0
14792.9488427,294101.3125,295277.28125,329702.1875,323764.21875,285267.0,256061.5,222589.765625,246223.4375,0.049560546875,0.989501953125,0.0732421875,0.4882812201976776,-1.3122557401657104,-0.7934569716453552,80.0,165225.0,0.0
14792.9488429,294101.3125,295277.28125,329702.1875,323764.21875,285267.0,256061.5,222589.765625,246223.4375,0.049560546875,0.989501953125,0.0732421875,0.4882812201976776,-1.3122557401657104,-0.7934569716453552,80.0,165226.0,0.0
14792.9488432,294101.3125,295277.28125,329702.1875,323764.21875,285267.0,256061.5,222589.765625,246223.4375,0.049560546875,0.989501953125,0.0732421875,0.4882812201976776,-1.3122557401657104,-0.7934569716453552,80.0,165227.0,0.0
14792.9488433,294101.3125,295277.28125,329702.1875,323764.21875,285267.0,256061.5,222589.765625,246223.4375,0.049560546875,0.989501953125,0.0732421875,0.4882812201976776,-1.3122557401657104,-0.7934569716453552,80.0,165228.0,0.0
14792.9488435,294101.3125,295277.28125,329702.1875,323764.21875,285267.0,256061.5,222589.765625,246223.4375,0.049560546875,0.989501953125,0.0732421875,0.4882812201976776,-1.3122557401657104,-0.7934569716453552,80.0,165229.0,0.0
14792.9488437,294101.3125,295277.28125,329702.1875,323764.21875,285267.0,256061.5,222589.765625,246223.4375,0.049560546875,0.989501953125,0.0732421875,0.4882812201976776,-1.3122557401657104,-0.7934569716453552,80.0,165230.0,0.0
14792.9488439,294101.3125,295277.28125,329702.1875,323764.21875,285267.0,256061.5,222589.765625,246223.4375,0.049560546875,0.989501953125,0.0732421875,0.4882812201976776,-1.3122557401657104,-0.7934569716453552,80.0,165231.0,0.0
14792.9488441,294101.3125,295277.28125,329702.1875,323764.21875,285267.0,256061.5,222589.765625,246223.4375,0.049560546875,0.989501953125,0.0732421875,0.4882812201976776,-1.3122557401657104,-0.7934569716453552,80.0,165232.0,0.0
14792.9488443,294101.3125,295277.28125,329702.1875,323764.21875,285267.0,256061.5,222589.765625,246223.4375,0.049560546875,0.989501953125,0.0732421875,0.4882812201976776,-1.3122557401657104,-0.7934569716453552,80.0,165233.0,0.0
14792.9488444,294101.3125,295277.28125,329702.1875,323764.21875,285267.0,256061.5,222589.765625,246223.4375,0.049560546875,0.989501953125,0.0732421875,0.4882812201976776,-1.3122557401657104,-0.7934569716453552,80.0,165234.0,0.0
14792.9488446,294101.3125,295277.28125,329702.1875,323764.21875,285267.0,256061.5,222589.765625,246223.4375,0.049560546875,0.989501953125,0.0732421875,0.4882812201976776,-1.3122557401657104,-0.7934569716453552,80.0,165235.0,0.0
14792.9488448,294101.3125,295277.28125,329702.1875,323764.21875,285267.0,256061.5,222589.765625,246223.4375,0.049560546875,0.989501953125,0.0732421875,0.4882812201976776,-1.3122557401657104,-0.7934569716453552,80.0,165236.0,0.0
14792.948845,294131.4375,295445.5625,329853.5625,323794.34375,285344.71875,256100.578125,222634.734375,246243.015625,0.048828125,0.98828125,0.072509765625,0.7629393935203552,-0.9460448622703552,-0.6408690810203552,80.0,165237.0,1.0
14792.9488462,294098.375,295283.46875,329699.15625,323762.0,285258.0625,256065.265625,222594.59375,246231.65625,0.04931640625,0.989501953125,0.0712890625,0.8850097060203552,-1.0070799589157104,-0.7934569716453552,80.0,165238.0,1.0
14792.9488474,294078.15625,294959.625,329476.625,323769.15625,285107.34375,256006.703125,222538.71875,246226.109375,0.048583984375,0.9912109375,0.0703125,0.8239745497703552,-1.0070799589157104,-0.9765624403953552,80.0,165239.0,1.0
14792.9488488,294111.6875,294939.25,329511.59375,323819.21875,285114.9375,256015.8125,222559.640625,246245.421875,0.049560546875,0.992919921875,0.070068359375,0.7324218153953552,-1.0986326932907104,-1.0070799589157104,80.0,165240.0,1.0
14792.950637,294143.0625,295244.46875,329753.96875,323834.59375,285268.96875,256076.265625,222625.625,246262.0625,0.0478515625,0.99365234375,0.07177734375,0.6713866591453552,-1.2207030057907104,-1.0986326932907104,80.0,165241.0,1.0
14792.975699,294124.21875,295439.84375,329846.59375,323783.90625,285339.6875,256098.875,222634.46875,246241.140625,0.047607421875,0.99267578125,0.071533203125,0.6408690810203552,-1.2207030057907104,-1.2817381620407104,80.0,165242.0,1.0
14793.0006809,294088.53125,295274.4375,329677.6875,323748.59375,285240.625,256058.109375,222585.828125,246220.84375,0.04736328125,0.99365234375,0.072998046875,0.6103515028953552,-1.3122557401657104,-1.2817381620407104,80.0,165243.0,1.0
14793.0256908,294078.0625,294964.4375,329469.375,323768.15625,285102.9375,256004.90625,222534.0625,246217.890625,0.049072265625,0.99267578125,0.0732421875,0.5493163466453552,-1.4343260526657104,-1.2512205839157104,80.0,165244.0,1.0
14793.056921,294113.5625,294947.90625,329513.8125,323822.0625,285120.46875,256017.609375,222556.421875,246240.0625,0.04736328125,0.991455078125,0.069091796875,0.5187987685203552,-1.4343260526657104,-1.2817381620407104,80.0,165245.0,1.0
14793.0818686,294143.0625,295240.71875,329743.5,323833.4375,285261.03125,256066.515625,222613.640625,246250.796875,0.046630859375,0.990478515625,0.069580078125,0.5187987685203552,-1.3427733182907104,-1.2512205839157104,80.0,165246.0,1.0
14793.1069431,294132.625,295447.53125,329845.6875,323794.0,285341.9375,256103.078125,222636.171875,246240.953125,0.048095703125,0.98974609375,0.072021484375,0.4882812201976776,-1.4648436307907104,-1.2207030057907104,80.0,165247.0,1.0
14793.1319718,294093.8125,295275.15625,329687.25,323757.6875,285254.3125,256058.921875,222586.109375,246224.5,0.049560546875,0.989501953125,0.073486328125,0.5493163466453552,-1.3427733182907104,-1.1596678495407104,80.0,165248.0,1.0
14793.1632362,294077.90625,294963.46875,329471.0,323773.78125,285113.3125,256000.078125,222536.921875,246232.90625,0.04931640625,0.988525390625,0.0712890625,0.4882812201976776,-1.5563963651657104,-1.1901854276657104,80.0,165249.0,1.0
14793.1881979,294111.34375,294956.21875,329516.0625,323827.4375,285129.25,256017.609375,222562.046875,246256.15625,0.05029296875,0.990478515625,0.072509765625,0.5187987685203552,-1.6479490995407104,-1.0986326932907104,80.0,165250.0,1.0
14793.241383,294141.28125,295256.8125,329745.8125,323835.03125,285270.5,256080.015625,222618.296875,246254.71875,0.0498046875,0.990234375,0.073974609375,0.3967284858226776,-1.5563963651657104,-1.0986326932907104,80.0,165251.0,1.0
14793.2413917,294128.0625,295463.6875,329849.90625,323794.34375,285349.625,256112.640625,222642.421875,246247.84375,0.04833984375,0.990478515625,0.070068359375,0.3356933295726776,-1.5563963651657104,-1.0681151151657104,80.0,165252.0,1.0
14793.241393,294085.125,295289.1875,329683.875,323756.8125,285252.4375,256065.0,222587.4375,246226.921875,0.0478515625,0.989501953125,0.071533203125,0.3662109076976776,-1.5869139432907104,-0.9155272841453552,80.0,165253.0,1.0
14793.2413943,294072.4375,294969.375,329468.21875,323773.34375,285109.84375,256004.015625,222533.171875,246230.859375,0.049072265625,0.9912109375,0.070556640625,0.3051757514476776,-1.6784666776657104,-0.9155272841453552,80.0,165254.0,1.0
14793.2413955,294106.6875,294954.78125,329508.0,323823.9375,285123.0625,256018.6875,222557.671875,246246.9375,0.049560546875,0.989990234375,0.07373046875,0.2441406100988388,-1.7089842557907104,-0.7324218153953552,80.0,165255.0,1.0
14793.2413968,294135.5625,295255.125,329739.3125,323835.5,285268.53125,256079.5625,222621.5,246256.25,0.049072265625,0.989990234375,0.072265625,0.3051757514476776,-1.6784666776657104,-0.7019042372703552,80.0,165256.0,1.0
14793.241398,294114.90625,295451.375,329831.125,323786.40625,285336.84375,256098.96875,222631.078125,246238.1875,0.048095703125,0.990478515625,0.07470703125,0.3051757514476776,-1.6784666776657104,-0.6103515028953552,80.0,165257.0,1.0
14793.2413992,294077.8125,295281.75,329673.125,323753.5,285247.53125,256063.296875,222590.65625,246230.859375,0.0478515625,0.991943359375,0.076171875,0.1831054538488388,-1.7700194120407104,-0.5187987685203552,80.0,165258.0,1.0
14793.2414004,294065.71875,294964.1875,329461.5,323769.875,285108.59375,256010.09375,222544.34375,246231.65625,0.048583984375,0.989501953125,0.07421875,0.2136230319738388,-1.7700194120407104,-0.5798339247703552,80.0,165259.0,1.0
14793.2414017,294103.8125,294949.96875,329506.84375,323818.9375,285123.59375,256023.15625,222564.109375,246247.296875,0.04638671875,0.989013671875,0.07177734375,0.1831054538488388,-1.8005369901657104,-0.4882812201976776,80.0,165260.0,1.0
14793.2414029,294137.09375,295250.09375,329736.15625,323830.9375,285268.0,256084.9375,222624.453125,246254.8125,0.0458984375,0.988525390625,0.07275390625,0.2441406100988388,-1.7395018339157104,-0.5798339247703552,80.0,165261.0,1.0
14793.2414042,294123.21875,295453.0625,329836.125,323789.71875,285346.59375,256111.578125,222646.453125,246246.5,0.04638671875,0.98828125,0.072509765625,0.1831054538488388,-1.7700194120407104,-0.5187987685203552,80.0,165262.0,1.0
14793.2414054,294085.03125,295286.75,329684.75,323754.9375,285256.8125,256060.34375,222590.578125,246223.609375,0.049560546875,0.98876953125,0.073486328125,0.0915527269244194,-1.7395018339157104,-0.7324218153953552,80.0,165263.0,1.0
14793.2414068,294071.375,294969.1875,329471.6875,323765.9375,285112.6875,255995.25,222531.75,246217.265625,0.0498046875,0.987060546875,0.072509765625,0.2136230319738388,-1.7700194120407104,-0.7629393935203552,80.0,165264.0,1.0
14793.2819651,294109.09375,294953.46875,329513.90625,323818.59375,285126.90625,256008.40625,222555.53125,246242.296875,0.049560546875,0.98583984375,0.074951171875,0.3051757514476776,-1.7700194120407104,-0.8850097060203552,80.0,165265.0,1.0
14793.3069713,294136.375,295242.59375,329735.28125,323827.96875,285262.625,256062.140625,222609.34375,246256.421875,0.05078125,0.98681640625,0.07421875,0.2746581733226776,-1.7089842557907104,-0.9155272841453552,80.0,165266.0,1.0
14793.3319857,294117.5,295438.65625,329824.3125,323777.90625,285329.34375,256080.734375,222615.515625,246228.703125,0.052978515625,0.984619140625,0.071533203125,0.3967284858226776,-1.7089842557907104,-0.8544921278953552,80.0,165267.0,1.0
14793.3569982,294078.53125,295264.875,329659.90625,323742.25,285236.09375,256040.40625,222568.578125,246212.078125,0.052490234375,0.986572265625,0.07470703125,0.4577636420726776,-1.6479490995407104,-0.8544921278953552,80.0,165268.0,1.0
14793.3657221,294067.875,294953.625,329452.65625,323763.78125,285101.0,255994.1875,222529.15625,246222.625,0.052490234375,0.98876953125,0.07666015625,0.5187987685203552,-1.6174315214157104,-0.8239745497703552,80.0,165269.0,1.0
14793.3712152,294098.0,294939.78125,329497.90625,323815.1875,285117.625,256007.140625,222555.703125,246249.890625,0.054931640625,0.990234375,0.074951171875,0.5187987685203552,-1.4343260526657104,-0.7934569716453552,80.0,165270.0,1.0
14793.371222,294125.09375,295246.71875,329734.28125,323825.46875,285266.375,256068.21875,222618.375,246259.28125,0.053466796875,0.988525390625,0.07470703125,0.6103515028953552,-1.3427733182907104,-0.7324218153953552,80.0,165271.0,1.0
14793.3712234,294102.75,295440.71875,329820.5625,323775.3125,285332.375,256090.03125,222627.5,246238.359375,0.052734375,0.98876953125,0.07275390625,0.7324218153953552,-1.2207030057907104,-0.7629393935203552,80.0,165272.0,1.0
14793.3712247,294060.625,295262.0,329650.78125,323738.125,285234.46875,256044.515625,222574.75,246213.421875,0.0537109375,0.988037109375,0.0732421875,0.6408690810203552,-1.2512205839157104,-0.7629393935203552,80.0,165273.0,1.0
14793.3712259,294049.5625,294949.34375,329445.15625,323758.59375,285101.53125,255996.859375,222535.234375,246224.234375,0.053955078125,0.987060546875,0.07373046875,0.7019042372703552,-1.0375975370407104,-0.7324218153953552,80.0,165274.0,1.0
14793.3712273,294085.9375,294940.125,329497.375,323811.78125,285121.625,256014.75,222559.546875,246245.0625,0.05126953125,0.987548828125,0.07373046875,0.7324218153953552,-1.0681151151657104,-0.7019042372703552,80.0,165275.0,1.0
14793.375407,294120.1875,295245.5625,329736.625,323823.9375,285271.65625,256079.828125,222618.5625,246257.578125,0.052978515625,0.98779296875,0.07763671875,0.7324218153953552,-0.9765624403953552,-0.6103515028953552,80.0,165276.0,1.0
14793.3754122,294108.125,295442.59375,329832.09375,323779.25,285345.875,256102.09375,222631.34375,246242.5625,0.051513671875,0.988037109375,0.074951171875,0.8544921278953552,-0.9155272841453552,-0.6103515028953552,80.0,165277.0,1.0
14793.3754135,294071.0,295269.78125,329666.34375,323743.5,285249.3125,256057.21875,222580.109375,246223.34375,0.051513671875,0.98779296875,0.07421875,0.8850097060203552,-0.7324218153953552,-0.7019042372703552,80.0,165278.0,1.0
14793.3754148,294057.6875,294955.5,329453.375,323761.5625,285108.9375,256004.015625,222532.734375,246223.078125,0.052490234375,0.98779296875,0.074462890625,0.9155272841453552,-0.7934569716453552,-0.7629393935203552,80.0,165279.0,1.0
14793.375416,294089.4375,294943.8125,329496.8125,323809.65625,285124.0625,256012.515625,222555.4375,246244.359375,0.05126953125,0.989013671875,0.0732421875,0.9155272841453552,-0.8544921278953552,-0.8544921278953552,80.0,165280.0,1.0
14793.3754172,294119.09375,295242.96875,329723.28125,323814.75,285262.90625,256069.015625,222613.1875,246252.84375,0.050048828125,0.989013671875,0.075927734375,0.9765624403953552,-0.8239745497703552,-0.7324218153953552,80.0,165281.0,1.0
14793.3754187,294115.25,295453.34375,329830.21875,323779.78125,285346.6875,256109.96875,222639.125,246245.78125,0.048095703125,0.990478515625,0.077880859375,1.0681151151657104,-0.8850097060203552,-0.7629393935203552,80.0,165282.0,1.0
14793.3768987,294076.1875,295273.96875,329666.15625,323744.46875,285251.375,256065.4375,222587.09375,246227.8125,0.048828125,0.9931640625,0.072021484375,1.0375975370407104,-0.9460448622703552,-0.6713866591453552,80.0,165283.0,1.0
14793.3794077,294065.90625,294964.8125,329454.8125,323760.90625,285108.21875,256001.0625,222532.734375,246227.28125,0.04736328125,0.99462890625,0.072509765625,0.9460448622703552,-1.0070799589157104,-0.7629393935203552,80.0,165284.0,1.0
14793.3819161,294102.65625,294957.46875,329506.65625,323816.0,285127.53125,256009.109375,222559.734375,246257.5,0.044189453125,0.995849609375,0.07275390625,0.8544921278953552,-1.0070799589157104,-0.9155272841453552,80.0,165285.0,1.0
14793.3857328,294142.1875,295261.71875,329744.40625,323830.5625,285278.53125,256081.09375,222626.78125,246265.90625,0.044189453125,0.99609375,0.075439453125,0.8850097060203552,-1.0681151151657104,-0.8850097060203552,80.0,165286.0,1.0
14793.3857348,294124.125,295451.90625,329831.125,323782.03125,285347.03125,256109.78125,222640.640625,246245.96875,0.045166015625,0.99365234375,0.07470703125,0.7934569716453552,-1.2207030057907104,-1.0375975370407104,80.0,165287.0,1.0
14793.3857362,294085.84375,295271.75,329669.75,323748.40625,285252.875,256063.46875,222584.140625,246223.15625,0.045654296875,0.991455078125,0.073974609375,0.7324218153953552,-1.3427733182907104,-1.1596678495407104,80.0,165288.0,1.0
14793.3857374,294074.125,294953.0,329461.875,323764.9375,285114.21875,255997.578125,222528.96875,246220.390625,0.048583984375,0.987548828125,0.071533203125,0.6713866591453552,-1.4038084745407104,-1.0070799589157104,80.0,165289.0,1.0
14793.3857388,294107.03125,294943.1875,329505.78125,323815.90625,285130.75,256004.5625,222555.078125,246247.84375,0.050048828125,0.986083984375,0.07080078125,0.6103515028953552,-1.4953612089157104,-0.9765624403953552,80.0,165290.0,1.0
14793.3887106,294135.75,295249.03125,329733.03125,323826.1875,285274.53125,256058.109375,222611.671875,246261.15625,0.050537109375,0.986328125,0.067626953125,0.6103515028953552,-1.4953612089157104,-0.9460448622703552,80.0,165291.0,1.0
14793.3887133,294116.6875,295439.65625,329828.15625,323777.625,285344.15625,256078.21875,222613.546875,246231.65625,0.05224609375,0.988037109375,0.066162109375,0.7324218153953552,-1.4038084745407104,-0.8850097060203552,80.0,165292.0,1.0
14793.4131492,294075.125,295255.28125,329659.71875,323739.09375,285243.78125,256036.46875,222563.65625,246212.34375,0.052001953125,0.98974609375,0.0703125,0.7629393935203552,-1.4038084745407104,-0.7629393935203552,80.0,165293.0,1.0
14793.4381977,294059.5625,294945.0625,329449.625,323755.28125,285104.1875,255982.828125,222520.484375,246218.609375,0.050537109375,0.990966796875,0.071533203125,0.6408690810203552,-1.3732908964157104,-0.7324218153953552,80.0,165294.0,1.0
14793.4887789,294095.875,294949.875,329504.15625,323807.59375,285125.125,256003.65625,222549.984375,246239.171875,0.0498046875,0.99072265625,0.068115234375,0.6713866591453552,-1.4648436307907104,-0.7019042372703552,80.0,165295.0,1.0
14793.4887855,294123.75,295251.71875,329738.21875,323817.4375,285268.625,256065.078125,222607.296875,246247.921875,0.051513671875,0.98828125,0.066162109375,0.5798339247703552,-1.4648436307907104,-0.6713866591453552,80.0,165296.0,1.0
14793.4887868,294108.90625,295446.96875,329834.25,323773.71875,285340.875,256086.265625,222614.359375,246233.171875,0.051513671875,0.986083984375,0.067138671875,0.6713866591453552,-1.4648436307907104,-0.6408690810203552,80.0,165297.0,1.0
14793.488788,294070.5625,295272.28125,329672.0625,323740.09375,285247.875,256048.359375,222568.046875,246214.21875,0.05126953125,0.984375,0.068115234375,0.7019042372703552,-1.4953612089157104,-0.6103515028953552,80.0,165298.0,1.0
14793.4887892,294059.21875,294956.125,329458.8125,323755.46875,285108.125,255999.28125,222522.625,246217.0,0.052001953125,0.98486328125,0.068359375,0.7324218153953552,-1.4343260526657104,-0.5493163466453552,80.0,165299.0,1.0
14793.4887905,294096.75,294945.0625,329502.8125,323807.40625,285124.84375,256012.875,222545.953125,246244.625,0.05029296875,0.986083984375,0.067626953125,0.8850097060203552,-1.4953612089157104,-0.7019042372703552,80.0,165300.0,1.0
14793.4887917,294128.5,295242.6875,329731.53125,323818.15625,285268.09375,256072.421875,222607.65625,246259.375,0.04931640625,0.9892578125,0.069091796875,0.9155272841453552,-1.4953612089157104,-0.7934569716453552,80.0,165301.0,1.0
14793.4887929,294111.78125,295441.4375,329827.8125,323773.0,285339.53125,256099.6875,222621.859375,246241.578125,0.048828125,0.9921875,0.066162109375,0.8239745497703552,-1.4648436307907104,-0.7934569716453552,80.0,165302.0,1.0
14793.4887941,294072.53125,295266.1875,329667.15625,323736.25,285243.6875,256047.65625,222566.609375,246216.8125,0.048583984375,0.992919921875,0.0673828125,0.7019042372703552,-1.6174315214157104,-0.7934569716453552,80.0,165303.0,1.0
14793.4887954,294061.71875,294955.59375,329464.0,323755.46875,285109.3125,255993.296875,222519.046875,246218.421875,0.04931640625,0.993408203125,0.06640625,0.6713866591453552,-1.5258787870407104,-0.9460448622703552,80.0,165304.0,1.0
14793.4887966,294097.03125,294950.875,329513.28125,323807.40625,285129.40625,256010.1875,222545.0625,246242.75,0.04833984375,0.99267578125,0.0673828125,0.5187987685203552,-1.6174315214157104,-1.0681151151657104,80.0,165305.0,1.0
14793.4902219,294125.375,295247.6875,329740.71875,323813.21875,285271.125,256056.328125,222598.4375,246248.203125,0.04931640625,0.990966796875,0.06494140625,0.3967284858226776,-1.7089842557907104,-1.2207030057907104,80.0,165306.0,1.0
14793.4919225,294125.375,295247.6875,329740.71875,323813.21875,285271.125,256056.328125,222598.4375,246248.203125,0.04931640625,0.990966796875,0.06494140625,0.3967284858226776,-1.7089842557907104,-1.2207030057907104,80.0,165307.0,0.0
14793.4919237,294125.375,295247.6875,329740.71875,323813.21875,285271.125,256056.328125,222598.4375,246248.203125,0.04931640625,0.990966796875,0.06494140625,0.3967284858226776,-1.7089842557907104,-1.2207030057907104,80.0,165308.0,0.0
14793.4919239,294125.375,295247.6875,329740.71875,323813.21875,285271.125,256056.328125,222598.4375,246248.203125,0.04931640625,0.990966796875,0.06494140625,0.3967284858226776,-1.7089842557907104,-1.2207030057907104,80.0,165309.0,0.0
14793.491924,294125.375,295247.6875,329740.71875,323813.21875,285271.125,256056.328125,222598.4375,246248.203125,0.04931640625,0.990966796875,0.06494140625,0.3967284858226776,-1.7089842557907104,-1.2207030057907104,80.0,165310.0,0.0
14793.4919242,294125.375,295247.6875,329740.71875,323813.21875,285271.125,256056.328125,222598.4375,246248.203125,0.04931640625,0.990966796875,0.06494140625,0.3967284858226776,-1.7089842557907104,-1.2207030057907104,80.0,165311.0,0.0
14793.4919244,294125.375,295247.6875,329740.71875,323813.21875,285271.125,256056.328125,222598.4375,246248.203125,0.04931640625,0.990966796875,0.06494140625,0.3967284858226776,-1.7089842557907104,-1.2207030057907104,80.0,165312.0,0.0
14793.4919246,294125.375,295247.6875,329740.71875,323813.21875,285271.125,256056.328125,222598.4375,246248.203125,0.04931640625,0.990966796875,0.06494140625,0.3967284858226776,-1.7089842557907104,-1.2207030057907104,80.0,165313.0,0.0
14793.4919248,294125.375,295247.6875,329740.71875,323813.21875,285271.125,256056.328125,222598.4375,246248.203125,0.04931640625,0.990966796875,0.06494140625,0.3967284858226776,-1.7089842557907104,-1.2207030057907104,80.0,165314.0,0.0
14793.4919299,294125.375,295247.6875,329740.71875,323813.21875,285271.125,256056.328125,222598.4375,246248.203125,0.04931640625,0.990966796875,0.06494140625,0.3967284858226776,-1.7089842557907104,-1.2207030057907104,80.0,165315.0,0.0
14793.4919301,294125.375,295247.6875,329740.71875,323813.21875,285271.125,256056.328125,222598.4375,246248.203125,0.04931640625,0.990966796875,0.06494140625,0.3967284858226776,-1.7089842557907104,-1.2207030057907104,80.0,165316.0,0.0
14793.4919303,294125.375,295247.6875,329740.71875,323813.21875,285271.125,256056.328125,222598.4375,246248.203125,0.04931640625,0.990966796875,0.06494140625,0.3967284858226776,-1.7089842557907104,-1.2207030057907104,80.0,165317.0,0.0
14793.4919305,294125.375,295247.6875,329740.71875,323813.21875,285271.125,256056.328125,222598.4375,246248.203125,0.04931640625,0.990966796875,0.06494140625,0.3967284858226776,-1.7089842557907104,-1.2207030057907104,80.0,165318.0,0.0
14793.4919307,294125.375,295247.6875,329740.71875,323813.21875,285271.125,256056.328125,222598.4375,246248.203125,0.04931640625,0.990966796875,0.06494140625,0.3967284858226776,-1.7089842557907104,-1.2207030057907104,80.0,165319.0,0.0
14793.4919309,294125.375,295247.6875,329740.71875,323813.21875,285271.125,256056.328125,222598.4375,246248.203125,0.04931640625,0.990966796875,0.06494140625,0.3967284858226776,-1.7089842557907104,-1.2207030057907104,80.0,165320.0,0.0
14793.4919312,294147.8125,295267.71875,329754.6875,323820.8125,285279.71875,256057.9375,222598.703125,246248.375,0.044189453125,0.987060546875,0.0693359375,0.2746581733226776,-1.7700194120407104,-1.0070799589157104,80.0,165321.0,1.0
14793.4943809,294128.40625,295457.96875,329844.53125,323774.25,285345.34375,256083.140625,222608.90625,246230.859375,0.044677734375,0.9892578125,0.068359375,0.2746581733226776,-1.9836424589157104,-1.0681151151657104,80.0,165322.0,1.0
14793.4981885,294088.8125,295276.03125,329670.90625,323740.96875,285245.5625,256049.4375,222564.46875,246214.21875,0.046142578125,0.989013671875,0.06787109375,0.2746581733226776,-1.9531248807907104,-1.1291502714157104,80.0,165323.0,1.0
14793.5012377,294073.34375,294960.96875,329457.9375,323758.875,285106.96875,255997.671875,222516.453125,246220.5625,0.044921875,0.990234375,0.06640625,0.3356933295726776,-1.9531248807907104,-1.0070799589157104,80.0,165324.0,1.0
14793.5012401,294103.90625,294952.21875,329506.21875,323806.4375,285122.0,256000.4375,222535.59375,246242.390625,0.047607421875,0.989501953125,0.06884765625,0.3662109076976776,-2.075195074081421,-1.0070799589157104,80.0,165325.0,1.0
14793.5031751,294134.3125,295251.71875,329735.46875,323811.4375,285261.03125,256054.53125,222589.859375,246247.21875,0.046875,0.98779296875,0.070556640625,0.3356933295726776,-2.105712652206421,-1.0070799589157104,80.0,165326.0,1.0
14793.505678,294125.90625,295449.65625,329836.40625,323774.59375,285340.6875,256088.328125,222614.796875,246241.046875,0.050048828125,0.989990234375,0.070556640625,0.3662109076976776,-2.044677495956421,-0.9460448622703552,80.0,165327.0,1.0
14793.5099635,294088.4375,295270.84375,329672.875,323741.6875,285247.34375,256050.328125,222565.71875,246220.390625,0.0498046875,0.988037109375,0.072509765625,0.3051757514476776,-2.014159917831421,-1.0375975370407104,80.0,165328.0,1.0
14793.5099704,294077.53125,294960.15625,329459.46875,323760.46875,285107.875,255998.203125,222520.921875,246224.5,0.049072265625,0.989013671875,0.07177734375,0.3356933295726776,-2.044677495956421,-1.0070799589157104,80.0,165329.0,1.0
14793.5099718,294113.125,294956.6875,329509.6875,323810.90625,285126.5625,256008.75,222549.984375,246248.46875,0.04833984375,0.989990234375,0.0693359375,0.2441406100988388,-2.014159917831421,-0.9460448622703552,80.0,165330.0,1.0
14793.5099731,294148.4375,295264.875,329749.59375,323821.90625,285279.0,256072.421875,222614.53125,246260.265625,0.049560546875,0.991455078125,0.06982421875,0.2441406100988388,-1.9226073026657104,-0.8850097060203552,80.0,165331.0,1.0
14793.5099743,294133.9375,295458.59375,329840.5,323780.15625,285352.3125,256103.703125,222630.359375,246250.609375,0.04931640625,0.9912109375,0.06787109375,0.1831054538488388,-1.8615721464157104,-0.7934569716453552,80.0,165332.0,1.0
14793.5099756,294098.46875,295281.59375,329679.75,323750.46875,285262.71875,256071.703125,222586.015625,246235.765625,0.05126953125,0.98974609375,0.067138671875,0.1831054538488388,-1.9531248807907104,-0.9155272841453552,80.0,165333.0,1.0
14793.559408,294085.84375,294962.9375,329462.40625,323766.65625,285120.75,256014.296875,222537.828125,246237.015625,0.05126953125,0.989501953125,0.067138671875,0.1525878757238388,-1.8615721464157104,-0.9460448622703552,80.0,165334.0,1.0
14793.5594135,294116.875,294958.1875,329508.90625,323812.0625,285134.59375,256014.203125,222555.34375,246256.328125,0.049560546875,0.99072265625,0.0693359375,0.0610351525247097,-1.8615721464157104,-0.9765624403953552,80.0,165335.0,1.0
14793.5594148,294145.40625,295265.5625,329749.40625,323820.90625,285282.40625,256071.078125,222609.4375,246258.84375,0.049560546875,0.989990234375,0.068603515625,0.0915527269244194,-1.7700194120407104,-1.0681151151657104,80.0,165336.0,1.0
14793.5594176,294145.40625,295265.5625,329749.40625,323820.90625,285282.40625,256071.078125,222609.4375,246258.84375,0.049560546875,0.989990234375,0.068603515625,0.0915527269244194,-1.7700194120407104,-1.0681151151657104,80.0,165337.0,0.0
14793.5594178,294145.40625,295265.5625,329749.40625,323820.90625,285282.40625,256071.078125,222609.4375,246258.84375,0.049560546875,0.989990234375,0.068603515625,0.0915527269244194,-1.7700194120407104,-1.0681151151657104,80.0,165338.0,0.0
14793.559418,294145.40625,295265.5625,329749.40625,323820.90625,285282.40625,256071.078125,222609.4375,246258.84375,0.049560546875,0.989990234375,0.068603515625,0.0915527269244194,-1.7700194120407104,-1.0681151151657104,80.0,165339.0,0.0
14793.5594182,294145.40625,295265.5625,329749.40625,323820.90625,285282.40625,256071.078125,222609.4375,246258.84375,0.049560546875,0.989990234375,0.068603515625,0.0915527269244194,-1.7700194120407104,-1.0681151151657104,80.0,165340.0,0.0
14793.5594183,294145.40625,295265.5625,329749.40625,323820.90625,285282.40625,256071.078125,222609.4375,246258.84375,0.049560546875,0.989990234375,0.068603515625,0.0915527269244194,-1.7700194120407104,-1.0681151151657104,80.0,165341.0,0.0
14793.5594185,294145.40625,295265.5625,329749.40625,323820.90625,285282.40625,256071.078125,222609.4375,246258.84375,0.049560546875,0.989990234375,0.068603515625,0.0915527269244194,-1.7700194120407104,-1.0681151151657104,80.0,165342.0,0.0
14793.5594187,294145.40625,295265.5625,329749.40625,323820.90625,285282.40625,256071.078125,222609.4375,246258.84375,0.049560546875,0.989990234375,0.068603515625,0.0915527269244194,-1.7700194120407104,-1.0681151151657104,80.0,165343.0,0.0
14793.5594189,294145.40625,295265.5625,329749.40625,323820.90625,285282.40625,256071.078125,222609.4375,246258.84375,0.049560546875,0.989990234375,0.068603515625,0.0915527269244194,-1.7700194120407104,-1.0681151151657104,80.0,165344.0,0.0
14793.559419,294145.40625,295265.5625,329749.40625,323820.90625,285282.40625,256071.078125,222609.4375,246258.84375,0.049560546875,0.989990234375,0.068603515625,0.0915527269244194,-1.7700194120407104,-1.0681151151657104,80.0,165345.0,0.0
14793.5594192,294145.40625,295265.5625,329749.40625,323820.90625,285282.40625,256071.078125,222609.4375,246258.84375,0.049560546875,0.989990234375,0.068603515625,0.0915527269244194,-1.7700194120407104,-1.0681151151657104,80.0,165346.0,0.0
14793.5594194,294145.40625,295265.5625,329749.40625,323820.90625,285282.40625,256071.078125,222609.4375,246258.84375,0.049560546875,0.989990234375,0.068603515625,0.0915527269244194,-1.7700194120407104,-1.0681151151657104,80.0,165347.0,0.0
14793.5594195,294145.40625,295265.5625,329749.40625,323820.90625,285282.40625,256071.078125,222609.4375,246258.84375,0.049560546875,0.989990234375,0.068603515625,0.0915527269244194,-1.7700194120407104,-1.0681151151657104,80.0,165348.0,0.0
14793.5594197,294145.40625,295265.5625,329749.40625,323820.90625,285282.40625,256071.078125,222609.4375,246258.84375,0.049560546875,0.989990234375,0.068603515625,0.0915527269244194,-1.7700194120407104,-1.0681151151657104,80.0,165349.0,0.0
14793.5594199,294145.40625,295265.5625,329749.40625,323820.90625,285282.40625,256071.078125,222609.4375,246258.84375,0.049560546875,0.989990234375,0.068603515625,0.0915527269244194,-1.7700194120407104,-1.0681151151657104,80.0,165350.0,0.0
14793.5594201,294145.40625,295265.5625,329749.40625,323820.90625,285282.40625,256071.078125,222609.4375,246258.84375,0.049560546875,0.989990234375,0.068603515625,0.0915527269244194,-1.7700194120407104,-1.0681151151657104,80.0,165351.0,0.0
14793.5594203,294145.40625,295265.5625,329749.40625,323820.90625,285282.40625,256071.078125,222609.4375,246258.84375,0.049560546875,0.989990234375,0.068603515625,0.0915527269244194,-1.7700194120407104,-1.0681151151657104,80.0,165352.0,0.0
14793.5594206,294145.40625,295265.5625,329749.40625,323820.90625,285282.40625,256071.078125,222609.4375,246258.84375,0.049560546875,0.989990234375,0.068603515625,0.0915527269244194,-1.7700194120407104,-1.0681151151657104,80.0,165353.0,0.0
14793.5594207,294145.40625,295265.5625,329749.40625,323820.90625,285282.40625,256071.078125,222609.4375,246258.84375,0.049560546875,0.989990234375,0.068603515625,0.0915527269244194,-1.7700194120407104,-1.0681151151657104,80.0,165354.0,0.0
14793.5594209,294145.40625,295265.5625,329749.40625,323820.90625,285282.40625,256071.078125,222609.4375,246258.84375,0.049560546875,0.989990234375,0.068603515625,0.0915527269244194,-1.7700194120407104,-1.0681151151657104,80.0,165355.0,0.0
14793.5594213,294145.40625,295265.5625,329749.40625,323820.90625,285282.40625,256071.078125,222609.4375,246258.84375,0.049560546875,0.989990234375,0.068603515625,0.0915527269244194,-1.7700194120407104,-1.0681151151657104,80.0,165356.0,0.0
14793.5594215,294145.40625,295265.5625,329749.40625,323820.90625,285282.40625,256071.078125,222609.4375,246258.84375,0.049560546875,0.989990234375,0.068603515625,0.0915527269244194,-1.7700194120407104,-1.0681151151657104,80.0,165357.0,0.0
14793.5594216,294145.40625,295265.5625,329749.40625,323820.90625,285282.40625,256071.078125,222609.4375,246258.84375,0.049560546875,0.989990234375,0.068603515625,0.0915527269244194,-1.7700194120407104,-1.0681151151657104,80.0,165358.0,0.0
14793.5594218,294145.40625,295265.5625,329749.40625,323820.90625,285282.40625,256071.078125,222609.4375,246258.84375,0.049560546875,0.989990234375,0.068603515625,0.0915527269244194,-1.7700194120407104,-1.0681151151657104,80.0,165359.0,0.0
14793.559422,294106.5,294945.84375,329502.625,323799.1875,285119.65625,255997.84375,222524.765625,246237.921875,0.050537109375,0.98779296875,0.07080078125,0.2441406100988388,-1.5563963651657104,-0.7019042372703552,80.0,165360.0,1.0
14793.5594232,294135.375,295241.78125,329732.25,323807.59375,285262.46875,256051.84375,222582.53125,246250.25,0.050048828125,0.99072265625,0.07080078125,0.3051757514476776,-1.4953612089157104,-0.7324218153953552,80.0,165361.0,1.0
14793.5594245,294122.25,295442.875,329829.59375,323766.65625,285338.71875,256078.859375,222596.5625,246236.125,0.049560546875,0.990478515625,0.07275390625,0.3662109076976776,-1.3732908964157104,-0.6408690810203552,80.0,165362.0,1.0
14793.5594257,294082.625,295255.90625,329659.71875,323731.59375,285238.3125,256032.625,222538.265625,246210.5625,0.048583984375,0.9892578125,0.0703125,0.2746581733226776,-1.3122557401657104,-0.5798339247703552,80.0,165363.0,1.0
14793.559427,294072.625,294942.09375,329446.9375,323749.375,285099.46875,255980.328125,222492.9375,246215.65625,0.050537109375,0.990234375,0.0712890625,0.2746581733226776,-1.2512205839157104,-0.5798339247703552,80.0,165364.0,1.0
14793.5832307,294114.46875,294949.53125,329500.40625,323802.40625,285122.53125,255998.03125,222523.34375,246240.859375,0.050048828125,0.988525390625,0.070068359375,0.2746581733226776,-1.2817381620407104,-0.5493163466453552,80.0,165365.0,1.0
14793.5969929,294142.90625,295258.5,329737.96875,323811.25,285270.3125,256057.3125,222584.046875,246247.296875,0.048828125,0.987548828125,0.07275390625,0.2746581733226776,-1.1901854276657104,-0.6103515028953552,80.0,165366.0,1.0
14793.6028696,294123.3125,295441.25,329820.65625,323764.21875,285335.21875,256083.859375,222594.5,246233.625,0.051025390625,0.988525390625,0.071044921875,0.2746581733226776,-1.0986326932907104,-0.7019042372703552,80.0,165367.0,1.0
14793.6028751,294075.46875,295258.4375,329641.3125,323723.625,285226.5,256026.015625,222536.84375,246210.46875,0.0517578125,0.990478515625,0.071533203125,0.3051757514476776,-1.0681151151657104,-0.8239745497703552,80.0,165368.0,1.0
14793.6028765,294071.28125,294959.28125,329443.4375,323747.59375,285097.9375,255985.328125,222499.203125,246211.984375,0.052001953125,0.992919921875,0.072509765625,0.3051757514476776,-1.0375975370407104,-0.7324218153953552,80.0,165369.0,1.0
14793.6028789,294071.28125,294959.28125,329443.4375,323747.59375,285097.9375,255985.328125,222499.203125,246211.984375,0.052001953125,0.992919921875,0.072509765625,0.3051757514476776,-1.0375975370407104,-0.7324218153953552,80.0,165370.0,0.0
14793.6028791,294071.28125,294959.28125,329443.4375,323747.59375,285097.9375,255985.328125,222499.203125,246211.984375,0.052001953125,0.992919921875,0.072509765625,0.3051757514476776,-1.0375975370407104,-0.7324218153953552,80.0,165371.0,0.0
14793.6028793,294071.28125,294959.28125,329443.4375,323747.59375,285097.9375,255985.328125,222499.203125,246211.984375,0.052001953125,0.992919921875,0.072509765625,0.3051757514476776,-1.0375975370407104,-0.7324218153953552,80.0,165372.0,0.0
14793.6028794,294071.28125,294959.28125,329443.4375,323747.59375,285097.9375,255985.328125,222499.203125,246211.984375,0.052001953125,0.992919921875,0.072509765625,0.3051757514476776,-1.0375975370407104,-0.7324218153953552,80.0,165373.0,0.0
14793.6028796,294071.28125,294959.28125,329443.4375,323747.59375,285097.9375,255985.328125,222499.203125,246211.984375,0.052001953125,0.992919921875,0.072509765625,0.3051757514476776,-1.0375975370407104,-0.7324218153953552,80.0,165374.0,0.0
14793.6028798,294071.28125,294959.28125,329443.4375,323747.59375,285097.9375,255985.328125,222499.203125,246211.984375,0.052001953125,0.992919921875,0.072509765625,0.3051757514476776,-1.0375975370407104,-0.7324218153953552,80.0,165375.0,0.0
14793.60288,294071.28125,294959.28125,329443.4375,323747.59375,285097.9375,255985.328125,222499.203125,246211.984375,0.052001953125,0.992919921875,0.072509765625,0.3051757514476776,-1.0375975370407104,-0.7324218153953552,80.0,165376.0,0.0
14793.6028802,294071.28125,294959.28125,329443.4375,323747.59375,285097.9375,255985.328125,222499.203125,246211.984375,0.052001953125,0.992919921875,0.072509765625,0.3051757514476776,-1.0375975370407104,-0.7324218153953552,80.0,165377.0,0.0
14793.6028803,294071.28125,294959.28125,329443.4375,323747.59375,285097.9375,255985.328125,222499.203125,246211.984375,0.052001953125,0.992919921875,0.072509765625,0.3051757514476776,-1.0375975370407104,-0.7324218153953552,80.0,165378.0,0.0
14793.6028805,294071.28125,294959.28125,329443.4375,323747.59375,285097.9375,255985.328125,222499.203125,246211.984375,0.052001953125,0.992919921875,0.072509765625,0.3051757514476776,-1.0375975370407104,-0.7324218153953552,80.0,165379.0,0.0
14793.6028807,294071.28125,294959.28125,329443.4375,323747.59375,285097.9375,255985.328125,222499.203125,246211.984375,0.052001953125,0.992919921875,0.072509765625,0.3051757514476776,-1.0375975370407104,-0.7324218153953552,80.0,165380.0,0.0
14793.6028809,294071.28125,294959.28125,329443.4375,323747.59375,285097.9375,255985.328125,222499.203125,246211.984375,0.052001953125,0.992919921875,0.072509765625,0.3051757514476776,-1.0375975370407104,-0.7324218153953552,80.0,165381.0,0.0
14793.602881,294071.28125,294959.28125,329443.4375,323747.59375,285097.9375,255985.328125,222499.203125,246211.984375,0.052001953125,0.992919921875,0.072509765625,0.3051757514476776,-1.0375975370407104,-0.7324218153953552,80.0,165382.0,0.0
14793.6028812,294071.28125,294959.28125,329443.4375,323747.59375,285097.9375,255985.328125,222499.203125,246211.984375,0.052001953125,0.992919921875,0.072509765625,0.3051757514476776,-1.0375975370407104,-0.7324218153953552,80.0,165383.0,0.0
14793.6028818,294071.28125,294959.28125,329443.4375,323747.59375,285097.9375,255985.328125,222499.203125,246211.984375,0.052001953125,0.992919921875,0.072509765625,0.3051757514476776,-1.0375975370407104,-0.7324218153953552,80.0,165384.0,0.0
14793.602882,294071.28125,294959.28125,329443.4375,323747.59375,285097.9375,255985.328125,222499.203125,246211.984375,0.052001953125,0.992919921875,0.072509765625,0.3051757514476776,-1.0375975370407104,-0.7324218153953552,80.0,165385.0,0.0
14793.6028826,294071.28125,294959.28125,329443.4375,323747.59375,285097.9375,255985.328125,222499.203125,246211.984375,0.052001953125,0.992919921875,0.072509765625,0.3051757514476776,-1.0375975370407104,-0.7324218153953552,80.0,165386.0,0.0
14793.6028828,294071.28125,294959.28125,329443.4375,323747.59375,285097.9375,255985.328125,222499.203125,246211.984375,0.052001953125,0.992919921875,0.072509765625,0.3051757514476776,-1.0375975370407104,-0.7324218153953552,80.0,165387.0,0.0
14793.602883,294071.28125,294959.28125,329443.4375,323747.59375,285097.9375,255985.328125,222499.203125,246211.984375,0.052001953125,0.992919921875,0.072509765625,0.3051757514476776,-1.0375975370407104,-0.7324218153953552,80.0,165388.0,0.0
14793.6028832,294071.28125,294959.28125,329443.4375,323747.59375,285097.9375,255985.328125,222499.203125,246211.984375,0.052001953125,0.992919921875,0.072509765625,0.3051757514476776,-1.0375975370407104,-0.7324218153953552,80.0,165389.0,0.0
14793.6028833,294084.78125,294932.0,329483.78125,323781.84375,285115.125,255988.8125,222509.84375,246230.40625,0.047607421875,0.9892578125,0.0751953125,0.1831054538488388,-1.4648436307907104,-0.6713866591453552,80.0,165390.0,1.0
14793.6028846,294110.0,295235.0,329706.21875,323785.40625,285252.625,256044.4375,222563.65625,246237.015625,0.0498046875,0.989501953125,0.076171875,0.1220703050494194,-1.4953612089157104,-0.7019042372703552,80.0,165391.0,1.0
14793.6050462,294090.78125,295414.78125,329780.4375,323742.5,285314.75,256061.859375,222577.609375,246226.296875,0.0498046875,0.989501953125,0.073974609375,0.0915527269244194,-1.4953612089157104,-0.5493163466453552,80.0,165392.0,1.0
14793.6050517,294057.78125,295233.03125,329613.6875,323715.0625,285220.875,256023.234375,222533.265625,246212.875,0.051025390625,0.99072265625,0.07275390625,0.0610351525247097,-1.4038084745407104,-0.5798339247703552,80.0,165393.0,1.0
14793.6075374,294054.03125,294938.96875,329420.28125,323737.59375,285093.84375,255977.46875,222490.265625,246211.8125,0.051513671875,0.989990234375,0.0703125,0.1220703050494194,-1.4953612089157104,-0.7019042372703552,80.0,165394.0,1.0
14793.6075418,294094.53125,294953.375,329487.96875,323790.96875,285123.59375,255997.9375,222523.15625,246237.46875,0.050048828125,0.98828125,0.072021484375,0.03051757626235485,-1.5258787870407104,-0.6408690810203552,80.0,165395.0,1.0
14793.6343718,294129.65625,295260.5625,329726.78125,323803.46875,285275.25,256064.90625,222582.796875,246247.03125,0.050048828125,0.9892578125,0.073974609375,0.0,-1.5258787870407104,-0.6713866591453552,80.0,165396.0,1.0
14793.634377,294119.1875,295456.46875,329818.96875,323760.65625,285349.34375,256093.34375,222597.546875,246233.4375,0.048828125,0.988525390625,0.07373046875,-0.0610351525247097,-1.5258787870407104,-0.7019042372703552,80.0,165397.0,1.0
14793.6343784,294081.75,295270.9375,329651.15625,323725.6875,285251.1875,256048.546875,222546.40625,246213.234375,0.048828125,0.9892578125,0.07275390625,-0.0915527269244194,-1.4953612089157104,-0.7629393935203552,80.0,165398.0,1.0
14793.6343796,294070.90625,294951.40625,329440.84375,323745.90625,285109.375,255988.375,222497.59375,246221.375,0.0498046875,0.98828125,0.072509765625,0.0,-1.5258787870407104,-0.9155272841453552,80.0,165399.0,1.0
14793.6343808,294106.3125,294948.53125,329493.6875,323793.90625,285125.21875,255998.203125,222517.96875,246241.84375,0.049560546875,0.988525390625,0.072509765625,0.0610351525247097,-1.4648436307907104,-0.8850097060203552,80.0,165400.0,1.0
14793.6343822,294142.25,295264.40625,329733.21875,323805.4375,285275.59375,256065.625,222581.8125,246250.796875,0.04931640625,0.990234375,0.072509765625,0.0610351525247097,-1.4953612089157104,-0.9155272841453552,80.0,165401.0,1.0
14793.6596592,294126.0,295452.25,329815.75,323760.03125,285341.3125,256089.140625,222592.625,246234.34375,0.05126953125,0.9912109375,0.074951171875,0.0915527269244194,-1.5258787870407104,-0.8850097060203552,80.0,165402.0,1.0
14793.6844652,294084.96875,295255.65625,329639.15625,323728.03125,285237.875,256043.53125,222539.15625,246213.0625,0.052490234375,0.98828125,0.07421875,0.1831054538488388,-1.4953612089157104,-0.9155272841453552,80.0,165403.0,1.0
14793.716986,294077.09375,294950.25,329436.125,323751.53125,285105.71875,255994.625,222498.84375,246220.484375,0.051513671875,0.987548828125,0.07373046875,0.2746581733226776,-1.5258787870407104,-0.9765624403953552,80.0,165404.0,1.0
14793.7419859,294116.59375,294966.25,329501.21875,323804.5625,285136.3125,256010.71875,222531.203125,246251.328125,0.051513671875,0.986328125,0.07470703125,0.3356933295726776,-1.5258787870407104,-1.0070799589157104,80.0,165405.0,1.0
14793.7669991,294148.0,295273.625,329739.9375,323812.15625,285287.3125,256074.296875,222594.78125,246260.71875,0.05126953125,0.986328125,0.0703125,0.3662109076976776,-1.4648436307907104,-1.2207030057907104,80.0,165406.0,1.0
14793.7982458,294132.34375,295456.28125,329822.4375,323764.5,285351.875,256094.5,222595.9375,246229.15625,0.051025390625,0.989013671875,0.0732421875,0.4882812201976776,-1.4343260526657104,-1.0375975370407104,80.0,165407.0,1.0
14793.82321,294089.96875,295258.875,329645.6875,323728.1875,285245.03125,256038.265625,222538.265625,246205.375,0.05029296875,0.98828125,0.074462890625,0.3662109076976776,-1.4648436307907104,-1.0986326932907104,80.0,165408.0,1.0
14793.8482325,294077.90625,294943.4375,329439.59375,323748.84375,285105.8125,255984.625,222492.3125,246210.015625,0.05126953125,0.989990234375,0.07421875,0.3051757514476776,-1.3427733182907104,-1.0986326932907104,80.0,165409.0,1.0
14793.8762458,294118.75,294955.15625,329503.09375,323804.46875,285133.71875,255993.5625,222519.046875,246238.90625,0.052490234375,0.9892578125,0.073974609375,0.3662109076976776,-1.3122557401657104,-1.0070799589157104,80.0,165410.0,1.0
14793.8762562,294149.6875,295265.5625,329738.59375,323811.34375,285280.78125,256059.890625,222578.328125,246246.3125,0.051025390625,0.989990234375,0.075439453125,0.4577636420726776,-1.4343260526657104,-0.9765624403953552,80.0,165411.0,1.0
14793.8762575,294133.15625,295448.59375,329820.03125,323764.6875,285345.96875,256093.78125,222596.390625,246232.28125,0.05224609375,0.989013671875,0.074951171875,0.3662109076976776,-1.3427733182907104,-1.0681151151657104,80.0,165412.0,1.0
14793.8762588,294090.78125,295253.25,329644.71875,323728.46875,285241.625,256037.640625,222540.953125,246210.375,0.051513671875,0.988037109375,0.07275390625,0.4882812201976776,-1.3122557401657104,-1.0375975370407104,80.0,165413.0,1.0
14793.8994903,294079.9375,294941.46875,329435.9375,323745.625,285104.375,255988.28125,222494.90625,246211.625,0.048583984375,0.99072265625,0.072021484375,0.5493163466453552,-1.3732908964157104,-0.9155272841453552,80.0,165414.0,1.0
14793.9197346,294117.5,294957.46875,329498.0,323797.9375,285133.34375,256010.1875,222527.1875,246241.671875,0.0498046875,0.989990234375,0.07373046875,0.5798339247703552,-1.3732908964157104,-0.9155272841453552,80.0,165415.0,1.0
14793.9197467,294149.40625,295271.03125,329741.8125,323808.5,285285.25,256074.203125,222587.0,246250.796875,0.04931640625,0.989990234375,0.072998046875,0.6103515028953552,-1.3732908964157104,-0.9460448622703552,80.0,165416.0,1.0
14793.919748,294131.8125,295457.875,329831.75,323762.71875,285354.28125,256092.703125,222595.84375,246229.953125,0.05078125,0.99072265625,0.073486328125,0.5493163466453552,-1.4038084745407104,-0.7934569716453552,80.0,165417.0,1.0
14793.9197493,294090.5,295270.125,329665.34375,323726.6875,285256.375,256050.78125,222547.921875,246209.75,0.048583984375,0.98974609375,0.074462890625,0.5493163466453552,-1.3732908964157104,-0.6103515028953552,80.0,165418.0,1.0
14793.9197505,294077.625,294953.28125,329449.625,323744.28125,285113.84375,256000.171875,222502.59375,246216.015625,0.0517578125,0.98779296875,0.0751953125,0.6103515028953552,-1.3732908964157104,-0.6103515028953552,80.0,165419.0,1.0
14793.9197517,294109.53125,294956.84375,329495.75,323792.84375,285130.5625,256012.328125,222528.34375,246240.515625,0.050048828125,0.98828125,0.07080078125,0.5798339247703552,-1.2512205839157104,-0.6103515028953552,80.0,165420.0,1.0
14793.9284765,294137.78125,295269.0625,329734.375,323800.53125,285278.625,256071.703125,222586.546875,246243.1875,0.05078125,0.986572265625,0.066650390625,0.7019042372703552,-1.2512205839157104,-0.5187987685203552,80.0,165421.0,1.0
14793.9284859,294119.375,295448.5,329817.25,323755.90625,285347.21875,256092.171875,222596.296875,246233.0,0.048828125,0.987060546875,0.07177734375,0.7324218153953552,-1.2512205839157104,-0.6713866591453552,80.0,165422.0,1.0
14793.9284872,294078.875,295254.40625,329643.90625,323719.34375,285243.3125,256037.09375,222533.171875,246199.375,0.049072265625,0.987060546875,0.07275390625,0.7019042372703552,-1.2817381620407104,-0.6408690810203552,80.0,165423.0,1.0
14793.9284887,294078.875,295254.40625,329643.90625,323719.34375,285243.3125,256037.09375,222533.171875,246199.375,0.049072265625,0.987060546875,0.07275390625,0.7019042372703552,-1.2817381620407104,-0.6408690810203552,80.0,165424.0,0.0
14793.928489,294078.875,295254.40625,329643.90625,323719.34375,285243.3125,256037.09375,222533.171875,246199.375,0.049072265625,0.987060546875,0.07275390625,0.7019042372703552,-1.2817381620407104,-0.6408690810203552,80.0,165425.0,0.0
14793.9284891,294078.875,295254.40625,329643.90625,323719.34375,285243.3125,256037.09375,222533.171875,246199.375,0.049072265625,0.987060546875,0.07275390625,0.7019042372703552,-1.2817381620407104,-0.6408690810203552,80.0,165426.0,0.0
14793.9284894,294078.875,295254.40625,329643.90625,323719.34375,285243.3125,256037.09375,222533.171875,246199.375,0.049072265625,0.987060546875,0.07275390625,0.7019042372703552,-1.2817381620407104,-0.6408690810203552,80.0,165427.0,0.0
14793.9284896,294073.25,295251.8125,329644.53125,323720.25,285249.9375,256042.90625,222544.96875,246213.234375,0.04833984375,0.99267578125,0.068603515625,0.8544921278953552,-1.3732908964157104,-1.0070799589157104,80.0,165428.0,1.0
14793.9284908,294062.78125,294941.125,329435.65625,323738.46875,285108.84375,255994.8125,222495.984375,246212.34375,0.04931640625,0.99365234375,0.06884765625,0.7629393935203552,-1.4343260526657104,-1.2207030057907104,80.0,165429.0,1.0
14793.9284921,294098.375,294954.34375,329491.71875,323787.75,285130.75,256008.484375,222522.0,246239.4375,0.051025390625,0.995849609375,0.0712890625,0.6103515028953552,-1.4648436307907104,-1.3732908964157104,80.0,165430.0,1.0
14793.9818431,294127.15625,295258.34375,329722.9375,323792.125,285275.5,256054.359375,222578.5,246241.21875,0.051025390625,0.994384765625,0.07275390625,0.6103515028953552,-1.6479490995407104,-1.3427733182907104,80.0,165431.0,1.0
14793.9818575,294107.84375,295431.96875,329800.71875,323744.8125,285337.1875,256069.734375,222586.640625,246226.03125,0.05322265625,0.99169921875,0.07080078125,0.5187987685203552,-1.5563963651657104,-1.3732908964157104,80.0,165432.0,1.0
14793.981859,294073.0625,295242.96875,329630.21875,323713.53125,285235.8125,256027.0,222533.0,246207.0625,0.0517578125,0.989501953125,0.072509765625,0.5798339247703552,-1.4953612089157104,-1.3427733182907104,80.0,165433.0,1.0
14793.9818603,294065.46875,294935.84375,329424.125,323734.46875,285098.84375,255986.671875,222493.125,246211.546875,0.050537109375,0.98828125,0.068115234375,0.5187987685203552,-1.4953612089157104,-1.3122557401657104,80.0,165434.0,1.0
14793.9818616,294100.96875,294957.125,329490.03125,323786.40625,285128.0625,256006.25,222524.6875,246237.5625,0.05078125,0.988037109375,0.068115234375,0.5798339247703552,-1.4648436307907104,-1.3732908964157104,80.0,165435.0,1.0
14793.9818628,294130.5625,295270.65625,329730.1875,323795.0625,285279.1875,256064.8125,222583.328125,246249.0,0.0517578125,0.98876953125,0.06884765625,0.5493163466453552,-1.4343260526657104,-1.3122557401657104,80.0,165436.0,1.0
14793.981864,294114.375,295454.59375,329811.1875,323749.75,285345.25,256085.015625,222595.9375,246234.515625,0.051025390625,0.9892578125,0.070068359375,0.6408690810203552,-1.3732908964157104,-1.1901854276657104,80.0,165437.0,1.0
14793.9818652,294078.25,295264.875,329638.34375,323721.75,285244.5625,256041.390625,222545.78125,246221.640625,0.049072265625,0.987060546875,0.072998046875,0.6408690810203552,-1.4038084745407104,-1.1901854276657104,80.0,165438.0,1.0
14793.9818664,294064.65625,294948.8125,329423.59375,323736.15625,285100.90625,255986.859375,222492.21875,246218.421875,0.049072265625,0.98974609375,0.071533203125,0.5493163466453552,-1.4953612089157104,-1.1291502714157104,80.0,165439.0,1.0
14793.9818676,294103.03125,294961.6875,329488.6875,323787.84375,285129.25,256005.984375,222523.875,246244.890625,0.049072265625,0.991455078125,0.068115234375,0.5187987685203552,-1.4343260526657104,-1.1596678495407104,80.0,165440.0,1.0
14793.9818688,294137.25,295276.75,329729.03125,323798.28125,285280.4375,256076.171875,222588.609375,246255.703125,0.048095703125,0.990234375,0.070556640625,0.4272460639476776,-1.4343260526657104,-1.0986326932907104,80.0,165441.0,1.0
14793.98187,294126.96875,295471.5625,329819.9375,323758.78125,285355.53125,256104.421875,222602.109375,246241.9375,0.0478515625,0.990234375,0.072021484375,0.3967284858226776,-1.4953612089157104,-0.9765624403953552,80.0,165442.0,1.0
14793.9818716,294090.5,295274.25,329648.28125,323727.75,285252.625,256049.4375,222542.375,246217.703125,0.04833984375,0.989990234375,0.071533203125,0.3662109076976776,-1.4648436307907104,-0.9155272841453552,80.0,165443.0,1.0
14794.0056715,294077.4375,294964.1875,329441.75,323744.03125,285115.5625,255995.53125,222493.125,246218.328125,0.04833984375,0.98876953125,0.067626953125,0.3051757514476776,-1.5563963651657104,-0.8850097060203552,80.0,165444.0,1.0
14794.0082288,294109.625,294975.90625,329500.75,323791.40625,285140.21875,256012.25,222519.9375,246242.921875,0.046630859375,0.989013671875,0.06640625,0.2746581733226776,-1.5869139432907104,-0.7934569716453552,80.0,165445.0,1.0
14794.0107607,294137.4375,295278.0,329727.59375,323800.25,285283.09375,256071.078125,222582.078125,246254.90625,0.046142578125,0.989990234375,0.068359375,0.1831054538488388,-1.5869139432907104,-0.6103515028953552,80.0,165446.0,1.0
14794.0131464,294118.65625,295451.8125,329802.5,323751.71875,285342.03125,256084.21875,222586.546875,246232.8125,0.046875,0.988525390625,0.070556640625,0.2136230319738388,-1.6174315214157104,-0.6103515028953552,80.0,165447.0,1.0
14794.0156689,294079.21875,295264.0625,329635.5,323720.5,285244.03125,256029.234375,222537.90625,246217.625,0.046630859375,0.988525390625,0.0703125,0.2441406100988388,-1.6174315214157104,-0.5493163466453552,80.0,165448.0,1.0
14794.0181697,294066.90625,294956.40625,329434.25,323741.25,285110.46875,255983.453125,222494.015625,246217.796875,0.04541015625,0.987548828125,0.072998046875,0.2136230319738388,-1.6784666776657104,-0.6103515028953552,80.0,165449.0,1.0
14794.0206641,294104.1875,294971.78125,329497.71875,323790.78125,285136.65625,256003.75,222524.046875,246240.6875,0.046142578125,0.987548828125,0.070556640625,0.1220703050494194,-1.7395018339157104,-0.7324218153953552,80.0,165450.0,1.0
14794.023175,294129.21875,295269.78125,329719.4375,323792.5625,285274.53125,256057.484375,222583.6875,246251.328125,0.047607421875,0.98779296875,0.0712890625,0.1220703050494194,-1.7700194120407104,-0.7324218153953552,80.0,165451.0,1.0
14794.0256778,294114.625,295451.90625,329798.03125,323746.71875,285339.15625,256086.90625,222595.046875,246228.96875,0.046875,0.98974609375,0.07177734375,0.1220703050494194,-1.8005369901657104,-0.7324218153953552,80.0,165452.0,1.0
14794.0281742,294086.03125,295269.5,329638.71875,323725.96875,285252.15625,256061.15625,222561.609375,246223.515625,0.048095703125,0.989501953125,0.07177734375,0.0915527269244194,-1.8005369901657104,-0.7324218153953552,80.0,165453.0,1.0
14794.0563095,294072.25,294954.53125,329426.1875,323739.03125,285105.375,255994.8125,222499.015625,246213.859375,0.0517578125,0.989501953125,0.072998046875,0.0610351525247097,-1.8005369901657104,-0.8239745497703552,80.0,165454.0,1.0
14794.056315,294108.03125,294964.8125,329485.90625,323785.96875,285128.34375,255998.03125,222520.125,246237.828125,0.052490234375,0.989501953125,0.072509765625,0.0915527269244194,-1.6174315214157104,-0.9155272841453552,80.0,165455.0,1.0
14794.0563163,294141.46875,295276.65625,329732.78125,323799.09375,285283.09375,256063.296875,222587.0,246247.75,0.054443359375,0.989990234375,0.072021484375,0.0915527269244194,-1.6784666776657104,-0.7324218153953552,80.0,165456.0,1.0
14794.0563176,294122.6875,295449.40625,329812.25,323750.625,285345.15625,256075.359375,222588.609375,246226.828125,0.057861328125,0.98779296875,0.06884765625,0.03051757626235485,-1.5869139432907104,-0.7324218153953552,80.0,165457.0,1.0
14794.0812427,294083.4375,295253.9375,329635.5,323716.84375,285240.09375,256028.609375,222532.90625,246208.40625,0.05712890625,0.987060546875,0.070068359375,0.03051757626235485,-1.4648436307907104,-0.7324218153953552,80.0,165458.0,1.0
14794.0812481,294073.875,294945.125,329424.59375,323739.46875,285099.1875,255979.609375,222492.5,246219.671875,0.05615234375,0.987548828125,0.06982421875,0.03051757626235485,-1.4343260526657104,-0.7934569716453552,80.0,165459.0,1.0
14794.0812494,294115.875,294976.25,329494.0625,323793.71875,285133.4375,256011.53125,222536.390625,246250.796875,0.0556640625,0.989013671875,0.069580078125,0.1220703050494194,-1.1901854276657104,-0.7019042372703552,80.0,165460.0,1.0
14794.0812506,294147.4375,295295.875,329738.84375,323801.0625,285287.125,256066.421875,222591.734375,246257.5,0.0556640625,0.988037109375,0.0673828125,0.1831054538488388,-1.0986326932907104,-0.8239745497703552,80.0,165461.0,1.0
14794.1044333,294125.375,295464.40625,329811.8125,323752.59375,285347.65625,256086.09375,222598.171875,246237.203125,0.0576171875,0.988037109375,0.07080078125,0.0915527269244194,-1.0986326932907104,-0.8239745497703552,80.0,165462.0,1.0
14794.1309963,294084.40625,295264.6875,329634.875,323719.71875,285244.75,256040.046875,222541.84375,246211.546875,0.05615234375,0.98828125,0.070068359375,0.2136230319738388,-1.0681151151657104,-0.9155272841453552,80.0,165463.0,1.0
14794.131002,294072.71875,294957.5625,329436.375,323738.84375,285113.40625,255986.5,222491.59375,246214.578125,0.054931640625,0.988037109375,0.072509765625,0.2136230319738388,-0.9460448622703552,-0.9460448622703552,80.0,165464.0,1.0
14794.1310033,294110.4375,294972.3125,329503.71875,323791.21875,285143.4375,256007.78125,222525.578125,246241.3125,0.0546875,0.98681640625,0.070068359375,0.1831054538488388,-0.7934569716453552,-1.0070799589157104,80.0,165465.0,1.0
14794.1310045,294135.90625,295278.09375,329736.34375,323798.21875,285287.3125,256068.03125,222587.4375,246254.453125,0.05419921875,0.989013671875,0.069091796875,0.3356933295726776,-0.7629393935203552,-0.9765624403953552,80.0,165466.0,1.0
14794.1310058,294114.0,295446.90625,329802.15625,323748.125,285339.6875,256085.640625,222590.75,246235.40625,0.052978515625,0.989013671875,0.066650390625,0.3051757514476776,-0.6713866591453552,-1.0986326932907104,80.0,165467.0,1.0
14794.131007,294073.5,295241.0,329617.53125,323712.09375,285227.75,256024.9375,222525.578125,246206.359375,0.052734375,0.98779296875,0.071533203125,0.3967284858226776,-0.7324218153953552,-1.0986326932907104,80.0,165468.0,1.0
14794.1372285,294069.5,294942.8125,329423.6875,323741.25,285101.53125,255976.296875,222489.8125,246216.8125,0.0517578125,0.98828125,0.071533203125,0.4272460639476776,-0.7019042372703552,-1.0986326932907104,80.0,165469.0,1.0
14794.1372349,294069.5,294942.8125,329423.6875,323741.25,285101.53125,255976.296875,222489.8125,246216.8125,0.0517578125,0.98828125,0.071533203125,0.4272460639476776,-0.7019042372703552,-1.0986326932907104,80.0,165470.0,0.0
14794.1372351,294069.5,294942.8125,329423.6875,323741.25,285101.53125,255976.296875,222489.8125,246216.8125,0.0517578125,0.98828125,0.071533203125,0.4272460639476776,-0.7019042372703552,-1.0986326932907104,80.0,165471.0,0.0
14794.1372353,294069.5,294942.8125,329423.6875,323741.25,285101.53125,255976.296875,222489.8125,246216.8125,0.0517578125,0.98828125,0.071533203125,0.4272460639476776,-0.7019042372703552,-1.0986326932907104,80.0,165472.0,0.0
14794.1372355,294069.5,294942.8125,329423.6875,323741.25,285101.53125,255976.296875,222489.8125,246216.8125,0.0517578125,0.98828125,0.071533203125,0.4272460639476776,-0.7019042372703552,-1.0986326932907104,80.0,165473.0,0.0
14794.1372356,294069.5,294942.8125,329423.6875,323741.25,285101.53125,255976.296875,222489.8125,246216.8125,0.0517578125,0.98828125,0.071533203125,0.4272460639476776,-0.7019042372703552,-1.0986326932907104,80.0,165474.0,0.0
14794.1372359,294069.5,294942.8125,329423.6875,323741.25,285101.53125,255976.296875,222489.8125,246216.8125,0.0517578125,0.98828125,0.071533203125,0.4272460639476776,-0.7019042372703552,-1.0986326932907104,80.0,165475.0,0.0
14794.137236,294069.5,294942.8125,329423.6875,323741.25,285101.53125,255976.296875,222489.8125,246216.8125,0.0517578125,0.98828125,0.071533203125,0.4272460639476776,-0.7019042372703552,-1.0986326932907104,80.0,165476.0,0.0
14794.1372362,294069.5,294942.8125,329423.6875,323741.25,285101.53125,255976.296875,222489.8125,246216.8125,0.0517578125,0.98828125,0.071533203125,0.4272460639476776,-0.7019042372703552,-1.0986326932907104,80.0,165477.0,0.0
14794.1372364,294069.5,294942.8125,329423.6875,323741.25,285101.53125,255976.296875,222489.8125,246216.8125,0.0517578125,0.98828125,0.071533203125,0.4272460639476776,-0.7019042372703552,-1.0986326932907104,80.0,165478.0,0.0
14794.1372365,294069.5,294942.8125,329423.6875,323741.25,285101.53125,255976.296875,222489.8125,246216.8125,0.0517578125,0.98828125,0.071533203125,0.4272460639476776,-0.7019042372703552,-1.0986326932907104,80.0,165479.0,0.0
14794.1372367,294069.5,294942.8125,329423.6875,323741.25,285101.53125,255976.296875,222489.8125,246216.8125,0.0517578125,0.98828125,0.071533203125,0.4272460639476776,-0.7019042372703552,-1.0986326932907104,80.0,165480.0,0.0
14794.1372369,294069.5,294942.8125,329423.6875,323741.25,285101.53125,255976.296875,222489.8125,246216.8125,0.0517578125,0.98828125,0.071533203125,0.4272460639476776,-0.7019042372703552,-1.0986326932907104,80.0,165481.0,0.0
14794.1372371,294069.5,294942.8125,329423.6875,323741.25,285101.53125,255976.296875,222489.8125,246216.8125,0.0517578125,0.98828125,0.071533203125,0.4272460639476776,-0.7019042372703552,-1.0986326932907104,80.0,165482.0,0.0
14794.1372373,294069.5,294942.8125,329423.6875,323741.25,285101.53125,255976.296875,222489.8125,246216.8125,0.0517578125,0.98828125,0.071533203125,0.4272460639476776,-0.7019042372703552,-1.0986326932907104,80.0,165483.0,0.0
14794.1372374,294069.5,294942.8125,329423.6875,323741.25,285101.53125,255976.296875,222489.8125,246216.8125,0.0517578125,0.98828125,0.071533203125,0.4272460639476776,-0.7019042372703552,-1.0986326932907104,80.0,165484.0,0.0
14794.1372376,294069.5,294942.8125,329423.6875,323741.25,285101.53125,255976.296875,222489.8125,246216.8125,0.0517578125,0.98828125,0.071533203125,0.4272460639476776,-0.7019042372703552,-1.0986326932907104,80.0,165485.0,0.0
14794.1372378,294141.28125,295272.625,329731.96875,323789.96875,285276.65625,256054.0,222572.6875,246243.8125,0.048095703125,0.98681640625,0.068359375,0.3662109076976776,-1.8005369901657104,-1.0375975370407104,80.0,165486.0,1.0
14794.1372391,294120.625,295439.90625,329801.96875,323740.28125,285331.84375,256073.046875,222577.609375,246225.125,0.0478515625,0.98779296875,0.068603515625,0.3356933295726776,-1.7395018339157104,-1.0681151151657104,80.0,165487.0,1.0
14794.1372403,294081.375,295235.90625,329619.65625,323708.625,285224.0,256026.1875,222520.921875,246204.75,0.047607421875,0.989990234375,0.0703125,0.4272460639476776,-1.7700194120407104,-1.1901854276657104,80.0,165488.0,1.0
14794.1372415,294070.28125,294927.96875,329416.1875,323730.0625,285087.03125,255969.15625,222477.109375,246210.203125,0.046142578125,0.98974609375,0.072265625,0.3967284858226776,-1.9226073026657104,-1.3122557401657104,80.0,165489.0,1.0
14794.1372428,294108.5625,294957.65625,329491.90625,323782.75,285125.03125,255992.125,222514.390625,246236.03125,0.04638671875,0.989501953125,0.07177734375,0.3356933295726776,-2.014159917831421,-1.2817381620407104,80.0,165490.0,1.0
14794.1452098,294128.0625,295265.5625,329724.09375,323784.0,285269.96875,256053.640625,222572.15625,246243.1875,0.047119140625,0.988525390625,0.0703125,0.4577636420726776,-2.044677495956421,-1.3122557401657104,80.0,165491.0,1.0
14794.145215,294117.0625,295443.40625,329805.0,323747.0625,285338.53125,256086.09375,222591.28125,246240.78125,0.048828125,0.988525390625,0.071044921875,0.5493163466453552,-2.166747808456421,-1.4343260526657104,80.0,165492.0,1.0
14794.1452163,294078.4375,295239.46875,329622.53125,323714.96875,285227.40625,256033.96875,222531.46875,246221.203125,0.049072265625,0.989990234375,0.072021484375,0.4577636420726776,-2.227782964706421,-1.3122557401657104,80.0,165493.0,1.0
14794.1452175,294070.375,294938.25,329422.15625,323735.15625,285091.59375,255980.953125,222488.65625,246217.34375,0.047607421875,0.990234375,0.071533203125,0.4882812201976776,-2.197265386581421,-1.4953612089157104,80.0,165494.0,1.0
14794.1452187,294108.65625,294968.75,329498.34375,323787.5625,285128.34375,256014.75,222530.21875,246249.53125,0.048828125,0.99072265625,0.072998046875,0.4272460639476776,-2.319335699081421,-1.3732908964157104,80.0,165495.0,1.0
14794.1452199,294134.3125,295278.0,329737.78125,323792.84375,285276.3125,256065.625,222581.90625,246250.4375,0.049560546875,0.987548828125,0.070068359375,0.4882812201976776,-2.288818120956421,-1.4038084745407104,80.0,165496.0,1.0
14794.1452211,294116.59375,295445.5625,329809.5625,323747.6875,285332.375,256075.984375,222585.921875,246226.921875,0.050537109375,0.986572265625,0.07177734375,0.5798339247703552,-2.227782964706421,-1.4648436307907104,80.0,165497.0,1.0
14794.1452226,294075.375,295232.21875,329611.71875,323711.375,285212.5625,256029.59375,222528.4375,246206.890625,0.05224609375,0.987060546875,0.07080078125,0.5798339247703552,-2.044677495956421,-1.6174315214157104,80.0,165498.0,1.0
14794.1452238,294068.3125,294926.09375,329401.53125,323730.96875,285074.59375,255977.46875,222485.34375,246215.921875,0.051025390625,0.986572265625,0.069580078125,0.8239745497703552,-2.075195074081421,-1.6784666776657104,80.0,165499.0,1.0
14794.1452251,294108.125,294962.21875,329481.53125,323784.78125,285113.5,255998.46875,222517.796875,246244.359375,0.051513671875,0.98974609375,0.071044921875,0.8850097060203552,-1.9531248807907104,-1.6479490995407104,80.0,165500.0,1.0
14794.1452264,294138.15625,295278.8125,329727.6875,323793.28125,285268.09375,256064.375,222578.0625,246253.296875,0.052734375,0.99072265625,0.069091796875,0.8239745497703552,-1.9531248807907104,-1.5869139432907104,80.0,165501.0,1.0
14794.1452278,294124.28125,295453.59375,329808.59375,323748.9375,285334.59375,256086.984375,222588.96875,246238.90625,0.05029296875,0.9912109375,0.068359375,0.9765624403953552,-1.9836424589157104,-1.4038084745407104,80.0,165502.0,1.0
14794.1469139,294089.59375,295250.375,329631.125,323719.96875,285234.28125,256039.0625,222537.640625,246227.8125,0.049072265625,0.990966796875,0.070556640625,0.9460448622703552,-1.8920897245407104,-1.3732908964157104,80.0,165503.0,1.0
14794.1732316,294089.59375,295250.375,329631.125,323719.96875,285234.28125,256039.0625,222537.640625,246227.8125,0.049072265625,0.990966796875,0.070556640625,0.9460448622703552,-1.8920897245407104,-1.3732908964157104,80.0,165504.0,0.0
14794.1732328,294089.59375,295250.375,329631.125,323719.96875,285234.28125,256039.0625,222537.640625,246227.8125,0.049072265625,0.990966796875,0.070556640625,0.9460448622703552,-1.8920897245407104,-1.3732908964157104,80.0,165505.0,0.0
14794.173233,294089.59375,295250.375,329631.125,323719.96875,285234.28125,256039.0625,222537.640625,246227.8125,0.049072265625,0.990966796875,0.070556640625,0.9460448622703552,-1.8920897245407104,-1.3732908964157104,80.0,165506.0,0.0
14794.1732332,294127.59375,295435.34375,329789.8125,323743.65625,285320.03125,256079.03125,222581.0,246229.59375,0.05029296875,0.98828125,0.070068359375,1.0986326932907104,-1.6479490995407104,-1.0681151151657104,80.0,165507.0,1.0
14794.1982542,294083.15625,295236.96875,329611.96875,323712.65625,285215.4375,256021.09375,222521.1875,246210.5625,0.047119140625,0.98828125,0.068115234375,1.1596678495407104,-1.4648436307907104,-1.0986326932907104,80.0,165508.0,1.0
14794.2238217,294068.78125,294925.375,329403.65625,323732.125,285075.59375,255960.390625,222472.46875,246211.453125,0.047607421875,0.988037109375,0.07080078125,1.0375975370407104,-1.4343260526657104,-1.1596678495407104,80.0,165509.0,1.0
14794.2238274,294109.71875,294959.34375,329480.28125,323787.65625,285115.125,255997.578125,222517.078125,246238.265625,0.046630859375,0.988525390625,0.072265625,1.0375975370407104,-1.3732908964157104,-1.2207030057907104,80.0,165510.0,1.0
14794.248253,294139.9375,295279.53125,329723.84375,323796.59375,285271.5625,256067.046875,222587.890625,246260.890625,0.04736328125,0.98876953125,0.070068359375,0.9155272841453552,-1.3427733182907104,-1.1901854276657104,80.0,165511.0,1.0
14794.2757473,294123.75,295452.34375,329802.15625,323748.125,285335.0625,256085.296875,222590.84375,246235.40625,0.0478515625,0.98876953125,0.06787109375,0.8850097060203552,-1.2512205839157104,-1.1901854276657104,80.0,165512.0,1.0
14794.3007472,294085.125,295248.125,329626.71875,323717.65625,285234.75,256040.859375,222538.1875,246217.34375,0.046142578125,0.989013671875,0.06787109375,0.9765624403953552,-1.2817381620407104,-1.1291502714157104,80.0,165513.0,1.0
14794.3258056,294073.4375,294944.0625,329423.4375,323737.40625,285100.90625,255987.03125,222490.34375,246219.671875,0.046142578125,0.99072265625,0.068115234375,1.0375975370407104,-1.2207030057907104,-1.1596678495407104,80.0,165514.0,1.0
14794.3507762,294106.15625,294968.21875,329490.75,323782.8125,285130.65625,255998.125,222516.0,246238.1875,0.046875,0.989990234375,0.0693359375,0.9460448622703552,-1.0681151151657104,-1.0375975370407104,80.0,165515.0,1.0
14794.3757334,294133.875,295277.1875,329724.46875,323789.25,285276.3125,256059.625,222573.671875,246249.265625,0.049560546875,0.989013671875,0.069580078125,0.8850097060203552,-1.0070799589157104,-1.0375975370407104,80.0,165516.0,1.0
14794.4015716,294116.25,295446.09375,329796.96875,323744.5625,285335.15625,256082.15625,222583.6875,246234.078125,0.048095703125,0.99072265625,0.067138671875,0.8544921278953552,-0.9765624403953552,-0.9460448622703552,80.0,165517.0,1.0
14794.4015786,294075.84375,295239.375,329613.40625,323713.28125,285227.3125,256034.78125,222534.0625,246217.078125,0.04541015625,0.99365234375,0.06640625,0.7629393935203552,-0.8239745497703552,-1.0070799589157104,80.0,165518.0,1.0
14794.4015799,294065.46875,294930.03125,329410.1875,323734.90625,285095.1875,255986.671875,222493.828125,246225.125,0.047607421875,0.991943359375,0.068115234375,0.7019042372703552,-0.8239745497703552,-0.9155272841453552,80.0,165519.0,1.0
14794.4377166,294107.75,294965.53125,329490.21875,323788.375,285135.59375,256006.96875,222525.484375,246248.828125,0.047119140625,0.99169921875,0.069091796875,0.5798339247703552,-0.7324218153953552,-0.8850097060203552,80.0,165520.0,1.0
14794.4377243,294107.75,294965.53125,329490.21875,323788.375,285135.59375,256006.96875,222525.484375,246248.828125,0.047119140625,0.99169921875,0.069091796875,0.5798339247703552,-0.7324218153953552,-0.8850097060203552,80.0,165521.0,0.0
14794.4377245,294107.75,294965.53125,329490.21875,323788.375,285135.59375,256006.96875,222525.484375,246248.828125,0.047119140625,0.99169921875,0.069091796875,0.5798339247703552,-0.7324218153953552,-0.8850097060203552,80.0,165522.0,0.0
14794.4377248,294107.75,294965.53125,329490.21875,323788.375,285135.59375,256006.96875,222525.484375,246248.828125,0.047119140625,0.99169921875,0.069091796875,0.5798339247703552,-0.7324218153953552,-0.8850097060203552,80.0,165523.0,0.0
14794.437725,294107.75,294965.53125,329490.21875,323788.375,285135.59375,256006.96875,222525.484375,246248.828125,0.047119140625,0.99169921875,0.069091796875,0.5798339247703552,-0.7324218153953552,-0.8850097060203552,80.0,165524.0,0.0
14794.4377251,294107.75,294965.53125,329490.21875,323788.375,285135.59375,256006.96875,222525.484375,246248.828125,0.047119140625,0.99169921875,0.069091796875,0.5798339247703552,-0.7324218153953552,-0.8850097060203552,80.0,165525.0,0.0
14794.4377253,294107.75,294965.53125,329490.21875,323788.375,285135.59375,256006.96875,222525.484375,246248.828125,0.047119140625,0.99169921875,0.069091796875,0.5798339247703552,-0.7324218153953552,-0.8850097060203552,80.0,165526.0,0.0
14794.4377255,294107.75,294965.53125,329490.21875,323788.375,285135.59375,256006.96875,222525.484375,246248.828125,0.047119140625,0.99169921875,0.069091796875,0.5798339247703552,-0.7324218153953552,-0.8850097060203552,80.0,165527.0,0.0
14794.4377257,294107.75,294965.53125,329490.21875,323788.375,285135.59375,256006.96875,222525.484375,246248.828125,0.047119140625,0.99169921875,0.069091796875,0.5798339247703552,-0.7324218153953552,-0.8850097060203552,80.0,165528.0,0.0
14794.4377259,294107.75,294965.53125,329490.21875,323788.375,285135.59375,256006.96875,222525.484375,246248.828125,0.047119140625,0.99169921875,0.069091796875,0.5798339247703552,-0.7324218153953552,-0.8850097060203552,80.0,165529.0,0.0
14794.437726,294107.75,294965.53125,329490.21875,323788.375,285135.59375,256006.96875,222525.484375,246248.828125,0.047119140625,0.99169921875,0.069091796875,0.5798339247703552,-0.7324218153953552,-0.8850097060203552,80.0,165530.0,0.0
14794.4377262,294107.75,294965.53125,329490.21875,323788.375,285135.59375,256006.96875,222525.484375,246248.828125,0.047119140625,0.99169921875,0.069091796875,0.5798339247703552,-0.7324218153953552,-0.8850097060203552,80.0,165531.0,0.0
14794.4377264,294107.75,294965.53125,329490.21875,323788.375,285135.59375,256006.96875,222525.484375,246248.828125,0.047119140625,0.99169921875,0.069091796875,0.5798339247703552,-0.7324218153953552,-0.8850097060203552,80.0,165532.0,0.0
14794.4377266,294107.75,294965.53125,329490.21875,323788.375,285135.59375,256006.96875,222525.484375,246248.828125,0.047119140625,0.99169921875,0.069091796875,0.5798339247703552,-0.7324218153953552,-0.8850097060203552,80.0,165533.0,0.0
14794.4377268,294107.75,294965.53125,329490.21875,323788.375,285135.59375,256006.96875,222525.484375,246248.828125,0.047119140625,0.99169921875,0.069091796875,0.5798339247703552,-0.7324218153953552,-0.8850097060203552,80.0,165534.0,0.0
14794.4377269,294107.75,294965.53125,329490.21875,323788.375,285135.59375,256006.96875,222525.484375,246248.828125,0.047119140625,0.99169921875,0.069091796875,0.5798339247703552,-0.7324218153953552,-0.8850097060203552,80.0,165535.0,0.0
14794.4377271,294107.75,294965.53125,329490.21875,323788.375,285135.59375,256006.96875,222525.484375,246248.828125,0.047119140625,0.99169921875,0.069091796875,0.5798339247703552,-0.7324218153953552,-0.8850097060203552,80.0,165536.0,0.0
14794.4377273,294107.75,294965.53125,329490.21875,323788.375,285135.59375,256006.96875,222525.484375,246248.828125,0.047119140625,0.99169921875,0.069091796875,0.5798339247703552,-0.7324218153953552,-0.8850097060203552,80.0,165537.0,0.0
14794.4377274,294107.75,294965.53125,329490.21875,323788.375,285135.59375,256006.96875,222525.484375,246248.828125,0.047119140625,0.99169921875,0.069091796875,0.5798339247703552,-0.7324218153953552,-0.8850097060203552,80.0,165538.0,0.0
14794.4377276,294107.75,294965.53125,329490.21875,323788.375,285135.59375,256006.96875,222525.484375,246248.828125,0.047119140625,0.99169921875,0.069091796875,0.5798339247703552,-0.7324218153953552,-0.8850097060203552,80.0,165539.0,0.0
14794.4377278,294107.75,294965.53125,329490.21875,323788.375,285135.59375,256006.96875,222525.484375,246248.828125,0.047119140625,0.99169921875,0.069091796875,0.5798339247703552,-0.7324218153953552,-0.8850097060203552,80.0,165540.0,0.0
14794.437728,294107.75,294965.53125,329490.21875,323788.375,285135.59375,256006.96875,222525.484375,246248.828125,0.047119140625,0.99169921875,0.069091796875,0.5798339247703552,-0.7324218153953552,-0.8850097060203552,80.0,165541.0,0.0
14794.4377282,294107.75,294965.53125,329490.21875,323788.375,285135.59375,256006.96875,222525.484375,246248.828125,0.047119140625,0.99169921875,0.069091796875,0.5798339247703552,-0.7324218153953552,-0.8850097060203552,80.0,165542.0,0.0
14794.4377283,294107.75,294965.53125,329490.21875,323788.375,285135.59375,256006.96875,222525.484375,246248.828125,0.047119140625,0.99169921875,0.069091796875,0.5798339247703552,-0.7324218153953552,-0.8850097060203552,80.0,165543.0,0.0
14794.4377286,294107.75,294965.53125,329490.21875,323788.375,285135.59375,256006.96875,222525.484375,246248.828125,0.047119140625,0.99169921875,0.069091796875,0.5798339247703552,-0.7324218153953552,-0.8850097060203552,80.0,165544.0,0.0
14794.4377288,294107.75,294965.53125,329490.21875,323788.375,285135.59375,256006.96875,222525.484375,246248.828125,0.047119140625,0.99169921875,0.069091796875,0.5798339247703552,-0.7324218153953552,-0.8850097060203552,80.0,165545.0,0.0
14794.437729,294107.75,294965.53125,329490.21875,323788.375,285135.59375,256006.96875,222525.484375,246248.828125,0.047119140625,0.99169921875,0.069091796875,0.5798339247703552,-0.7324218153953552,-0.8850097060203552,80.0,165546.0,0.0
14794.4377292,294107.75,294965.53125,329490.21875,323788.375,285135.59375,256006.96875,222525.484375,246248.828125,0.047119140625,0.99169921875,0.069091796875,0.5798339247703552,-0.7324218153953552,-0.8850097060203552,80.0,165547.0,0.0
14794.4377294,294107.75,294965.53125,329490.21875,323788.375,285135.59375,256006.96875,222525.484375,246248.828125,0.047119140625,0.99169921875,0.069091796875,0.5798339247703552,-0.7324218153953552,-0.8850097060203552,80.0,165548.0,0.0
14794.4377296,294107.75,294965.53125,329490.21875,323788.375,285135.59375,256006.96875,222525.484375,246248.828125,0.047119140625,0.99169921875,0.069091796875,0.5798339247703552,-0.7324218153953552,-0.8850097060203552,80.0,165549.0,0.0
14794.4377297,294107.75,294965.53125,329490.21875,323788.375,285135.59375,256006.96875,222525.484375,246248.828125,0.047119140625,0.99169921875,0.069091796875,0.5798339247703552,-0.7324218153953552,-0.8850097060203552,80.0,165550.0,0.0
14794.4377299,294107.75,294965.53125,329490.21875,323788.375,285135.59375,256006.96875,222525.484375,246248.828125,0.047119140625,0.99169921875,0.069091796875,0.5798339247703552,-0.7324218153953552,-0.8850097060203552,80.0,165551.0,0.0
14794.4377301,294107.75,294965.53125,329490.21875,323788.375,285135.59375,256006.96875,222525.484375,246248.828125,0.047119140625,0.99169921875,0.069091796875,0.5798339247703552,-0.7324218153953552,-0.8850097060203552,80.0,165552.0,0.0
14794.4377302,294107.75,294965.53125,329490.21875,323788.375,285135.59375,256006.96875,222525.484375,246248.828125,0.047119140625,0.99169921875,0.069091796875,0.5798339247703552,-0.7324218153953552,-0.8850097060203552,80.0,165553.0,0.0
14794.4377304,294107.75,294965.53125,329490.21875,323788.375,285135.59375,256006.96875,222525.484375,246248.828125,0.047119140625,0.99169921875,0.069091796875,0.5798339247703552,-0.7324218153953552,-0.8850097060203552,80.0,165554.0,0.0
14794.4377306,294107.75,294965.53125,329490.21875,323788.375,285135.59375,256006.96875,222525.484375,246248.828125,0.047119140625,0.99169921875,0.069091796875,0.5798339247703552,-0.7324218153953552,-0.8850097060203552,80.0,165555.0,0.0
14794.4377308,294107.75,294965.53125,329490.21875,323788.375,285135.59375,256006.96875,222525.484375,246248.828125,0.047119140625,0.99169921875,0.069091796875,0.5798339247703552,-0.7324218153953552,-0.8850097060203552,80.0,165556.0,0.0
14794.437731,294107.75,294965.53125,329490.21875,323788.375,285135.59375,256006.96875,222525.484375,246248.828125,0.047119140625,0.99169921875,0.069091796875,0.5798339247703552,-0.7324218153953552,-0.8850097060203552,80.0,165557.0,0.0
14794.4377311,294107.75,294965.53125,329490.21875,323788.375,285135.59375,256006.96875,222525.484375,246248.828125,0.047119140625,0.99169921875,0.069091796875,0.5798339247703552,-0.7324218153953552,-0.8850097060203552,80.0,165558.0,0.0
14794.4377313,294107.75,294965.53125,329490.21875,323788.375,285135.59375,256006.96875,222525.484375,246248.828125,0.047119140625,0.99169921875,0.069091796875,0.5798339247703552,-0.7324218153953552,-0.8850097060203552,80.0,165559.0,0.0
14794.4377315,294127.15625,294966.6875,329497.90625,323785.96875,285139.4375,255999.453125,222515.46875,246237.640625,0.05224609375,0.99169921875,0.074951171875,0.03051757626235485,-1.4343260526657104,-0.9155272841453552,80.0,165560.0,1.0
14794.437733,294150.65625,295273.625,329727.5,323788.375,285283.28125,256054.53125,222569.109375,246244.078125,0.05078125,0.990966796875,0.073974609375,0.0610351525247097,-1.4953612089157104,-0.9460448622703552,80.0,165561.0,1.0
14794.4625923,294133.59375,295437.15625,329795.90625,323745.0,285340.9375,256074.921875,222578.328125,246231.125,0.051025390625,0.990966796875,0.076171875,0.1220703050494194,-1.5258787870407104,-0.9460448622703552,80.0,165562.0,1.0
14794.4625978,294098.46875,295230.875,329615.90625,323720.78125,285236.625,256035.765625,222534.25,246222.71875,0.05029296875,0.992431640625,0.0732421875,0.1831054538488388,-1.4953612089157104,-0.9765624403953552,80.0,165563.0,1.0
14794.4870155,294084.34375,294925.03125,329409.75,323737.6875,285096.875,255978.984375,222485.875,246221.734375,0.04931640625,0.9931640625,0.073974609375,0.1831054538488388,-1.5258787870407104,-0.9460448622703552,80.0,165564.0,1.0
14794.5119823,294125.53125,294970.875,329495.84375,323790.875,285141.03125,256005.265625,222519.140625,246242.46875,0.049560546875,0.99267578125,0.072265625,0.2136230319738388,-1.5563963651657104,-1.0681151151657104,80.0,165565.0,1.0
14794.5457458,294157.71875,295289.28125,329737.6875,323796.40625,285292.21875,256064.1875,222573.40625,246245.609375,0.0498046875,0.990478515625,0.0771484375,0.1220703050494194,-1.5563963651657104,-1.2512205839157104,80.0,165566.0,1.0
14794.5995352,294135.90625,295446.53125,329799.375,323744.75,285342.03125,256070.71875,222571.0,246223.96875,0.051025390625,0.990478515625,0.07470703125,0.0915527269244194,-1.5563963651657104,-1.1596678495407104,80.0,165567.0,1.0
14794.6245199,294099.71875,295236.875,329615.28125,323715.3125,285233.40625,256029.5,222524.046875,246211.8125,0.050537109375,0.989990234375,0.073486328125,0.1220703050494194,-1.5869139432907104,-1.0986326932907104,80.0,165568.0,1.0
14794.6495069,294092.8125,294931.09375,329414.9375,323739.03125,285099.90625,255983.640625,222486.40625,246216.640625,0.049560546875,0.989501953125,0.0732421875,0.1220703050494194,-1.5563963651657104,-1.1291502714157104,80.0,165569.0,1.0
14794.6832549,294128.84375,294968.375,329496.65625,323789.96875,285140.40625,256007.59375,222521.640625,246238.1875,0.048828125,0.98583984375,0.073486328125,0.1831054538488388,-1.6784666776657104,-1.1901854276657104,80.0,165570.0,1.0
14794.7082855,294159.0625,295284.71875,329738.03125,323798.03125,285293.75,256073.75,222585.75,246251.5,0.048583984375,0.98779296875,0.072021484375,0.2746581733226776,-1.7395018339157104,-1.1596678495407104,80.0,165571.0,1.0
14794.7350249,294139.6875,295446.34375,329799.46875,323747.6875,285343.28125,256086.453125,222591.734375,246236.125,0.04833984375,0.986083984375,0.066650390625,0.3051757514476776,-1.7700194120407104,-1.1901854276657104,80.0,165572.0,1.0
14794.735031,294100.34375,295226.59375,329606.4375,323716.21875,285228.03125,256036.828125,222540.953125,246226.03125,0.0498046875,0.98583984375,0.069091796875,0.3356933295726776,-1.7089842557907104,-1.1596678495407104,80.0,165573.0,1.0
14794.7350323,294095.15625,294932.0,329414.46875,323739.03125,285099.03125,255989.265625,222500.265625,246227.640625,0.048583984375,0.9873046875,0.07275390625,0.3662109076976776,-1.7700194120407104,-1.1596678495407104,80.0,165574.0,1.0
14794.7350337,294132.25,294972.40625,329497.4375,323788.8125,285139.53125,256009.203125,222533.359375,246248.734375,0.05078125,0.989501953125,0.070068359375,0.3356933295726776,-1.8005369901657104,-1.1596678495407104,80.0,165575.0,1.0
14794.7582779,294158.8125,295290.34375,329742.4375,323791.9375,285294.90625,256082.25,222599.78125,246257.671875,0.048583984375,0.99072265625,0.074462890625,0.3356933295726776,-1.8615721464157104,-1.1596678495407104,80.0,165576.0,1.0
14794.8070232,294138.875,295451.0,329815.5625,323745.90625,285355.4375,256105.3125,222610.25,246238.984375,0.046630859375,0.9912109375,0.075439453125,0.2441406100988388,-1.9226073026657104,-1.1291502714157104,80.0,165577.0,1.0
14794.8320243,294099.4375,295242.5,329630.75,323715.6875,285246.625,256056.234375,222556.78125,246223.609375,0.04833984375,0.99072265625,0.07568359375,0.2441406100988388,-1.9836424589157104,-1.1596678495407104,80.0,165578.0,1.0
14794.9141282,294081.1875,294931.8125,329421.28125,323729.8125,285107.15625,255999.8125,222509.5625,246227.90625,0.0498046875,0.98828125,0.071044921875,0.3356933295726776,-1.9226073026657104,-1.0986326932907104,80.0,165579.0,1.0
14794.9141355,294104.71875,294952.5625,329484.5,323767.09375,285128.0,256011.4375,222529.78125,246238.265625,0.048583984375,0.989013671875,0.0712890625,0.2136230319738388,-1.9531248807907104,-1.1596678495407104,80.0,165580.0,1.0
14794.9141368,294117.40625,295248.9375,329699.78125,323757.25,285257.90625,256054.71875,222575.375,246233.796875,0.048828125,0.989501953125,0.074462890625,0.3356933295726776,-1.9836424589157104,-1.2512205839157104,80.0,165581.0,1.0
14794.9141381,294105.53125,295419.1875,329770.3125,323719.53125,285321.375,256077.0625,222595.84375,246228.53125,0.048828125,0.98779296875,0.074951171875,0.3051757514476776,-2.044677495956421,-1.2512205839157104,80.0,165582.0,1.0
14794.9141394,294071.53125,295214.0625,329595.53125,323695.375,285220.875,256029.234375,222540.328125,246206.265625,0.0498046875,0.988525390625,0.0771484375,0.4577636420726776,-1.9836424589157104,-1.2817381620407104,80.0,165583.0,1.0
14794.9141406,294069.75,294921.8125,329408.9375,323722.03125,285095.1875,255979.609375,222494.453125,246210.375,0.049560546875,0.990478515625,0.077392578125,0.3356933295726776,-2.014159917831421,-1.2207030057907104,80.0,165584.0,1.0
14794.9141418,294112.21875,294966.0625,329496.5625,323777.0,285137.5625,256005.8125,222530.765625,246246.046875,0.04931640625,0.99072265625,0.073486328125,0.2136230319738388,-2.044677495956421,-1.3122557401657104,80.0,165585.0,1.0
14794.914143,294138.78125,295279.15625,329725.25,323777.0,285282.3125,256073.9375,222593.96875,246254.1875,0.049560546875,0.991943359375,0.07080078125,0.2441406100988388,-2.075195074081421,-1.3122557401657104,80.0,165586.0,1.0
14794.9141442,294122.25,295439.46875,329785.15625,323731.25,285333.625,256096.5625,222598.0,246227.984375,0.048583984375,0.99072265625,0.0703125,0.1525878757238388,-2.136230230331421,-1.1901854276657104,80.0,165587.0,1.0
14794.9141456,294089.0625,295234.28125,329612.96875,323708.78125,285234.46875,256046.046875,222546.671875,246217.984375,0.05078125,0.99072265625,0.0712890625,0.2441406100988388,-2.166747808456421,-1.1901854276657104,80.0,165588.0,1.0
14794.9388477,294076.65625,294921.34375,329410.0,323727.75,285097.125,255986.3125,222498.390625,246218.953125,0.05078125,0.990234375,0.073486328125,0.2441406100988388,-2.136230230331421,-1.1291502714157104,80.0,165589.0,1.0
14794.9388531,294116.6875,294960.59375,329484.65625,323777.09375,285130.75,256008.21875,222529.234375,246242.921875,0.050537109375,0.9912109375,0.072021484375,0.2441406100988388,-2.075195074081421,-1.1291502714157104,80.0,165590.0,1.0
14794.9632591,294148.78125,295279.0,329717.65625,323784.53125,285278.0,256072.5,222591.015625,246251.328125,0.049072265625,0.98828125,0.073486328125,0.2746581733226776,-2.075195074081421,-1.1596678495407104,80.0,165591.0,1.0
14794.9881866,294129.75,295444.46875,329786.15625,323736.0625,285334.15625,256089.140625,222596.03125,246232.375,0.048583984375,0.990234375,0.072021484375,0.2441406100988388,-2.014159917831421,-1.2817381620407104,80.0,165592.0,1.0
14795.0235957,294090.78125,295231.34375,329608.59375,323705.84375,285227.75,256037.28125,222540.5,246216.453125,0.0478515625,0.990478515625,0.07177734375,0.3051757514476776,-2.014159917831421,-1.2207030057907104,80.0,165593.0,1.0
14795.0236061,294088.0,294934.21875,329412.15625,323732.5,285097.5,255991.953125,222503.484375,246226.5625,0.047119140625,0.9912109375,0.068115234375,0.3356933295726776,-2.044677495956421,-1.2817381620407104,80.0,165594.0,1.0
14795.0236075,294127.4375,294976.25,329499.40625,323787.5625,285140.15625,256011.171875,222535.140625,246251.859375,0.048095703125,0.990234375,0.072021484375,0.3356933295726776,-2.014159917831421,-1.2817381620407104,80.0,165595.0,1.0
14795.0236087,294150.65625,295282.5625,329730.8125,323787.75,285284.34375,256065.796875,222588.0625,246255.34375,0.050048828125,0.990234375,0.070068359375,0.3967284858226776,-1.9531248807907104,-1.3122557401657104,80.0,165596.0,1.0
14795.0236099,294131.0,295436.0625,329791.0625,323738.5625,285336.21875,256085.109375,222596.296875,246236.9375,0.051025390625,0.98876953125,0.071044921875,0.4272460639476776,-1.9836424589157104,-1.3732908964157104,80.0,165597.0,1.0
14795.0236112,294095.15625,295224.8125,329610.5625,323711.21875,285230.71875,256040.59375,222547.296875,246220.65625,0.04931640625,0.98974609375,0.075439453125,0.3967284858226776,-2.014159917831421,-1.4038084745407104,80.0,165598.0,1.0
14795.0236124,294089.25,294928.96875,329417.15625,323733.21875,285099.375,255992.84375,222505.28125,246224.234375,0.052001953125,0.990234375,0.076171875,0.4577636420726776,-1.8920897245407104,-1.3427733182907104,80.0,165599.0,1.0
14795.0236136,294135.46875,294976.53125,329506.46875,323789.09375,285144.25,256019.84375,222547.65625,246257.9375,0.05029296875,0.9892578125,0.075439453125,0.4577636420726776,-1.8310545682907104,-1.2817381620407104,80.0,165600.0,1.0
14795.0236148,294160.5,295289.1875,329735.53125,323786.84375,285286.40625,256078.5,222605.421875,246263.578125,0.050537109375,0.9892578125,0.07275390625,0.4577636420726776,-1.7395018339157104,-1.3122557401657104,80.0,165601.0,1.0
14795.0236161,294139.40625,295444.21875,329792.6875,323738.21875,285336.5625,256096.5625,222604.515625,246238.71875,0.051025390625,0.990234375,0.07373046875,0.4577636420726776,-1.7089842557907104,-1.1901854276657104,80.0,165602.0,1.0
14795.0236173,294098.90625,295226.40625,329604.375,323709.6875,285225.0,256037.375,222550.15625,246225.21875,0.051025390625,0.98974609375,0.074462890625,0.3967284858226776,-1.6784666776657104,-1.0986326932907104,80.0,165603.0,1.0
14795.0236185,294088.71875,294919.3125,329402.0625,323729.8125,285086.6875,255983.8125,222501.171875,246226.03125,0.0517578125,0.989013671875,0.071044921875,0.4882812201976776,-1.6479490995407104,-1.0375975370407104,80.0,165604.0,1.0
14795.02362,294135.125,294969.625,329492.71875,323785.6875,285133.53125,256016.359375,222542.734375,246258.75,0.052490234375,0.989501953125,0.071533203125,0.4882812201976776,-1.6174315214157104,-1.0070799589157104,80.0,165605.0,1.0
14795.0275041,294161.75,295288.65625,329731.0625,323785.875,285283.5625,256078.859375,222600.40625,246251.6875,0.05224609375,0.989013671875,0.07177734375,0.3662109076976776,-1.5258787870407104,-0.8544921278953552,80.0,165606.0,1.0
14795.0275086,294142.8125,295448.40625,329796.53125,323740.8125,285339.78125,256101.296875,222610.421875,246232.109375,0.051513671875,0.990234375,0.0712890625,0.3051757514476776,-1.4953612089157104,-0.8239745497703552,80.0,165607.0,1.0
14795.0294574,294097.46875,295219.53125,329596.25,323705.9375,285216.125,256037.09375,222543.28125,246212.703125,0.052001953125,0.98779296875,0.06884765625,0.3356933295726776,-1.4343260526657104,-0.8239745497703552,80.0,165608.0,1.0
14795.0545238,294086.21875,294914.84375,329396.875,323729.625,285082.125,255980.5,222500.359375,246225.125,0.05224609375,0.987548828125,0.067138671875,0.3967284858226776,-1.2512205839157104,-0.7629393935203552,80.0,165609.0,1.0
14795.0795027,294120.28125,294957.03125,329480.71875,323775.6875,285122.25,255999.734375,222532.015625,246244.703125,0.05029296875,0.98681640625,0.068359375,0.3662109076976776,-1.2512205839157104,-0.6103515028953552,80.0,165610.0,1.0
14795.1045079,294153.25,295282.28125,329726.6875,323781.03125,285279.53125,256069.46875,222595.484375,246247.21875,0.050537109375,0.987548828125,0.068115234375,0.3967284858226776,-1.1596678495407104,-0.6713866591453552,80.0,165611.0,1.0
14795.1132565,294136.375,295443.84375,329794.28125,323737.84375,285339.53125,256095.921875,222607.109375,246234.25,0.048583984375,0.988525390625,0.06884765625,0.4272460639476776,-1.0986326932907104,-0.6713866591453552,80.0,165612.0,1.0
14795.1157499,294096.03125,295224.625,329605.1875,323710.40625,285228.65625,256044.609375,222551.5,246221.28125,0.046875,0.98779296875,0.0703125,0.4577636420726776,-1.1596678495407104,-0.7324218153953552,80.0,165613.0,1.0
14795.1182533,294080.84375,294917.5,329398.84375,323724.8125,285086.5,255982.375,222499.375,246218.15625,0.046875,0.9873046875,0.072998046875,0.4272460639476776,-1.1901854276657104,-0.7934569716453552,80.0,165614.0,1.0
14795.1207685,294121.625,294963.5625,329485.03125,323776.46875,285129.15625,256005.625,222531.921875,246240.59375,0.04736328125,0.990966796875,0.07080078125,0.4882812201976776,-1.1291502714157104,-0.7934569716453552,80.0,165615.0,1.0
14795.1250312,294146.90625,295276.3125,329721.6875,323778.34375,285279.4375,256063.921875,222594.15625,246251.765625,0.04736328125,0.991943359375,0.067626953125,0.5493163466453552,-1.1291502714157104,-1.0070799589157104,80.0,165616.0,1.0
14795.1250367,294116.96875,295419.71875,329772.65625,323724.625,285324.0625,256078.671875,222592.625,246228.890625,0.04736328125,0.99169921875,0.069091796875,0.4272460639476776,-1.0986326932907104,-1.0681151151657104,80.0,165617.0,1.0
14795.1250381,294089.15625,295207.46875,329593.5625,323706.125,285221.15625,256042.640625,222548.109375,246218.6875,0.047119140625,0.9921875,0.068359375,0.3662109076976776,-1.1596678495407104,-1.2207030057907104,80.0,165618.0,1.0
14795.1250393,294080.3125,294905.4375,329401.59375,323729.1875,285089.625,255988.546875,222503.40625,246219.5,0.046875,0.994140625,0.068359375,0.2746581733226776,-1.1901854276657104,-1.1596678495407104,80.0,165619.0,1.0
14795.1270102,294115.875,294950.6875,329487.25,323778.8125,285127.1875,255997.84375,222529.328125,246241.84375,0.04638671875,0.995849609375,0.069580078125,0.2136230319738388,-1.3122557401657104,-1.3122557401657104,80.0,165620.0,1.0
14795.1295145,294139.59375,295261.46875,329717.03125,323780.21875,285269.78125,256056.328125,222586.640625,246250.078125,0.046630859375,0.99560546875,0.068603515625,0.0610351525247097,-1.3732908964157104,-1.3122557401657104,80.0,165621.0,1.0
14795.132004,294139.59375,295261.46875,329717.03125,323780.21875,285269.78125,256056.328125,222586.640625,246250.078125,0.046630859375,0.99560546875,0.068603515625,0.0610351525247097,-1.3732908964157104,-1.3122557401657104,80.0,165622.0,0.0
14795.1320052,294139.59375,295261.46875,329717.03125,323780.21875,285269.78125,256056.328125,222586.640625,246250.078125,0.046630859375,0.99560546875,0.068603515625,0.0610351525247097,-1.3732908964157104,-1.3122557401657104,80.0,165623.0,0.0
14795.1320054,294139.59375,295261.46875,329717.03125,323780.21875,285269.78125,256056.328125,222586.640625,246250.078125,0.046630859375,0.99560546875,0.068603515625,0.0610351525247097,-1.3732908964157104,-1.3122557401657104,80.0,165624.0,0.0
14795.1320055,294139.59375,295261.46875,329717.03125,323780.21875,285269.78125,256056.328125,222586.640625,246250.078125,0.046630859375,0.99560546875,0.068603515625,0.0610351525247097,-1.3732908964157104,-1.3122557401657104,80.0,165625.0,0.0
14795.1320057,294139.59375,295261.46875,329717.03125,323780.21875,285269.78125,256056.328125,222586.640625,246250.078125,0.046630859375,0.99560546875,0.068603515625,0.0610351525247097,-1.3732908964157104,-1.3122557401657104,80.0,165626.0,0.0
14795.1320059,294139.59375,295261.46875,329717.03125,323780.21875,285269.78125,256056.328125,222586.640625,246250.078125,0.046630859375,0.99560546875,0.068603515625,0.0610351525247097,-1.3732908964157104,-1.3122557401657104,80.0,165627.0,0.0
14795.132006,294139.59375,295261.46875,329717.03125,323780.21875,285269.78125,256056.328125,222586.640625,246250.078125,0.046630859375,0.99560546875,0.068603515625,0.0610351525247097,-1.3732908964157104,-1.3122557401657104,80.0,165628.0,0.0
14795.1320062,294139.59375,295261.46875,329717.03125,323780.21875,285269.78125,256056.328125,222586.640625,246250.078125,0.046630859375,0.99560546875,0.068603515625,0.0610351525247097,-1.3732908964157104,-1.3122557401657104,80.0,165629.0,0.0
14795.1320064,294139.59375,295261.46875,329717.03125,323780.21875,285269.78125,256056.328125,222586.640625,246250.078125,0.046630859375,0.99560546875,0.068603515625,0.0610351525247097,-1.3732908964157104,-1.3122557401657104,80.0,165630.0,0.0
14795.1320066,294139.59375,295261.46875,329717.03125,323780.21875,285269.78125,256056.328125,222586.640625,246250.078125,0.046630859375,0.99560546875,0.068603515625,0.0610351525247097,-1.3732908964157104,-1.3122557401657104,80.0,165631.0,0.0
14795.1320067,294139.59375,295261.46875,329717.03125,323780.21875,285269.78125,256056.328125,222586.640625,246250.078125,0.046630859375,0.99560546875,0.068603515625,0.0610351525247097,-1.3732908964157104,-1.3122557401657104,80.0,165632.0,0.0
14795.1320069,294139.59375,295261.46875,329717.03125,323780.21875,285269.78125,256056.328125,222586.640625,246250.078125,0.046630859375,0.99560546875,0.068603515625,0.0610351525247097,-1.3732908964157104,-1.3122557401657104,80.0,165633.0,0.0
14795.1320071,294139.59375,295261.46875,329717.03125,323780.21875,285269.78125,256056.328125,222586.640625,246250.078125,0.046630859375,0.99560546875,0.068603515625,0.0610351525247097,-1.3732908964157104,-1.3122557401657104,80.0,165634.0,0.0
14795.1320073,294139.59375,295261.46875,329717.03125,323780.21875,285269.78125,256056.328125,222586.640625,246250.078125,0.046630859375,0.99560546875,0.068603515625,0.0610351525247097,-1.3732908964157104,-1.3122557401657104,80.0,165635.0,0.0
14795.1320075,294139.59375,295261.46875,329717.03125,323780.21875,285269.78125,256056.328125,222586.640625,246250.078125,0.046630859375,0.99560546875,0.068603515625,0.0610351525247097,-1.3732908964157104,-1.3122557401657104,80.0,165636.0,0.0
14795.1320077,294139.59375,295261.46875,329717.03125,323780.21875,285269.78125,256056.328125,222586.640625,246250.078125,0.046630859375,0.99560546875,0.068603515625,0.0610351525247097,-1.3732908964157104,-1.3122557401657104,80.0,165637.0,0.0
14795.1320078,294139.59375,295261.46875,329717.03125,323780.21875,285269.78125,256056.328125,222586.640625,246250.078125,0.046630859375,0.99560546875,0.068603515625,0.0610351525247097,-1.3732908964157104,-1.3122557401657104,80.0,165638.0,0.0
14795.132008,294139.59375,295261.46875,329717.03125,323780.21875,285269.78125,256056.328125,222586.640625,246250.078125,0.046630859375,0.99560546875,0.068603515625,0.0610351525247097,-1.3732908964157104,-1.3122557401657104,80.0,165639.0,0.0
14795.1320082,294139.59375,295261.46875,329717.03125,323780.21875,285269.78125,256056.328125,222586.640625,246250.078125,0.046630859375,0.99560546875,0.068603515625,0.0610351525247097,-1.3732908964157104,-1.3122557401657104,80.0,165640.0,0.0
14795.1320086,294139.59375,295261.46875,329717.03125,323780.21875,285269.78125,256056.328125,222586.640625,246250.078125,0.046630859375,0.99560546875,0.068603515625,0.0610351525247097,-1.3732908964157104,-1.3122557401657104,80.0,165641.0,0.0
14795.1320088,294139.59375,295261.46875,329717.03125,323780.21875,285269.78125,256056.328125,222586.640625,246250.078125,0.046630859375,0.99560546875,0.068603515625,0.0610351525247097,-1.3732908964157104,-1.3122557401657104,80.0,165642.0,0.0
14795.1320093,294139.59375,295261.46875,329717.03125,323780.21875,285269.78125,256056.328125,222586.640625,246250.078125,0.046630859375,0.99560546875,0.068603515625,0.0610351525247097,-1.3732908964157104,-1.3122557401657104,80.0,165643.0,0.0
14795.1320095,294139.59375,295261.46875,329717.03125,323780.21875,285269.78125,256056.328125,222586.640625,246250.078125,0.046630859375,0.99560546875,0.068603515625,0.0610351525247097,-1.3732908964157104,-1.3122557401657104,80.0,165644.0,0.0
14795.1320097,294139.59375,295261.46875,329717.03125,323780.21875,285269.78125,256056.328125,222586.640625,246250.078125,0.046630859375,0.99560546875,0.068603515625,0.0610351525247097,-1.3732908964157104,-1.3122557401657104,80.0,165645.0,0.0
14795.1320098,294139.59375,295261.46875,329717.03125,323780.21875,285269.78125,256056.328125,222586.640625,246250.078125,0.046630859375,0.99560546875,0.068603515625,0.0610351525247097,-1.3732908964157104,-1.3122557401657104,80.0,165646.0,0.0
14795.13201,294139.59375,295261.46875,329717.03125,323780.21875,285269.78125,256056.328125,222586.640625,246250.078125,0.046630859375,0.99560546875,0.068603515625,0.0610351525247097,-1.3732908964157104,-1.3122557401657104,80.0,165647.0,0.0
14795.1320102,294139.59375,295261.46875,329717.03125,323780.21875,285269.78125,256056.328125,222586.640625,246250.078125,0.046630859375,0.99560546875,0.068603515625,0.0610351525247097,-1.3732908964157104,-1.3122557401657104,80.0,165648.0,0.0
14795.1320104,294139.59375,295261.46875,329717.03125,323780.21875,285269.78125,256056.328125,222586.640625,246250.078125,0.046630859375,0.99560546875,0.068603515625,0.0610351525247097,-1.3732908964157104,-1.3122557401657104,80.0,165649.0,0.0
