Time,FZ,C3,CZ,C4,PZ,PO7,OZ,PO8,AccX,AccY,AccZ,Gyro1,Gyro2,Gyro3,Battery,Counter,Validation
14759.4893976,293781.5,294931.1875,330390.09375,324903.625,285044.9375,256001.25,222375.546875,246057.046875,0.048828125,0.99755859375,0.09912109375,0.0915527269244194,-1.1596678495407104,-1.1901854276657104,80.0,156779.0,1.0
14759.4893992,293807.25,295255.21875,330629.6875,324906.3125,285200.0625,256060.34375,222438.671875,246058.65625,0.04931640625,0.993896484375,0.097900390625,0.0610351525247097,-1.1901854276657104,-1.1596678495407104,80.0,156780.0,1.0
14759.4894005,293780.96875,295401.90625,330682.28125,324856.875,285251.375,256075.09375,222445.734375,246042.5625,0.05029296875,0.991943359375,0.095703125,0.1220703050494194,-1.2817381620407104,-1.1291502714157104,80.0,156781.0,1.0
14759.4894018,293737.15625,295171.15625,330491.5625,324831.03125,285138.34375,256017.15625,222391.203125,246029.5,0.0498046875,0.994140625,0.096435546875,0.0915527269244194,-1.3427733182907104,-1.1291502714157104,80.0,156782.0,1.0
14759.4894031,293736.34375,294883.625,330308.28125,324857.40625,285012.28125,255977.734375,222353.203125,246027.546875,0.05029296875,0.99169921875,0.09912109375,0.0610351525247097,-1.4343260526657104,-1.1291502714157104,80.0,156783.0,1.0
14759.4894045,293774.625,294942.71875,330403.59375,324905.25,285058.15625,256009.203125,222385.203125,246047.921875,0.050537109375,0.991943359375,0.10107421875,0.03051757626235485,-1.4038084745407104,-1.0681151151657104,80.0,156784.0,1.0
14759.4894058,293799.03125,295260.375,330638.90625,324908.375,285212.5625,256073.125,222448.6875,246062.234375,0.050537109375,0.990478515625,0.099853515625,0.0610351525247097,-1.4343260526657104,-0.9460448622703552,80.0,156785.0,1.0
14759.4894071,293778.5625,295411.5,330690.21875,324861.53125,285263.96875,256090.46875,222455.203125,246043.90625,0.04931640625,0.9912109375,0.099365234375,0.0610351525247097,-1.4038084745407104,-0.8850097060203552,80.0,156786.0,1.0
14759.4894088,293778.5625,295411.5,330690.21875,324861.53125,285263.96875,256090.46875,222455.203125,246043.90625,0.04931640625,0.9912109375,0.099365234375,0.0610351525247097,-1.4038084745407104,-0.8850097060203552,80.0,156787.0,0.0
14759.489409,293778.5625,295411.5,330690.21875,324861.53125,285263.96875,256090.46875,222455.203125,246043.90625,0.04931640625,0.9912109375,0.099365234375,0.0610351525247097,-1.4038084745407104,-0.8850097060203552,80.0,156788.0,0.0
14759.4894092,293781.78125,294955.4375,330411.28125,324908.46875,285066.46875,256019.9375,222392.53125,246060.890625,0.050537109375,0.989013671875,0.09912109375,0.0915527269244194,-1.5258787870407104,-0.7934569716453552,80.0,156789.0,1.0
14759.49095,293805.90625,295276.3125,330646.34375,324905.5,285217.125,256081.359375,222453.875,246067.0625,0.052734375,0.9873046875,0.095947265625,0.03051757626235485,-1.4038084745407104,-0.5493163466453552,80.0,156790.0,1.0
14759.568865,293788.9375,295428.03125,330699.53125,324859.65625,285268.0,256102.8125,222463.890625,246056.59375,0.051513671875,0.990234375,0.099609375,0.2746581733226776,-1.4953612089157104,-0.4882812201976776,80.0,156791.0,1.0
14759.5688777,293757.28125,295205.125,330512.5,324834.15625,285154.71875,256055.609375,222404.96875,246034.96875,0.051025390625,0.987548828125,0.0986328125,0.2441406100988388,-1.4343260526657104,-0.4577636420726776,80.0,156792.0,1.0
14759.568879,293756.125,294906.4375,330324.28125,324860.4375,285022.21875,256003.578125,222358.109375,246035.046875,0.05126953125,0.98779296875,0.099609375,0.2746581733226776,-1.4953612089157104,-0.3662109076976776,80.0,156793.0,1.0
14759.5688881,293791.875,294961.3125,330412.71875,324908.8125,285063.25,256020.46875,222396.375,246060.359375,0.05126953125,0.988037109375,0.1005859375,0.2441406100988388,-1.4343260526657104,-0.3967284858226776,80.0,156794.0,1.0
14759.5922882,293812.1875,295279.875,330643.5625,324905.96875,285210.34375,256074.375,222447.703125,246063.296875,0.0517578125,0.989501953125,0.098388671875,0.2136230319738388,-1.4343260526657104,-0.3662109076976776,80.0,156795.0,1.0
14759.629109,293785.96875,295416.40625,330690.40625,324859.375,285259.40625,256091.453125,222454.9375,246047.296875,0.05126953125,0.989990234375,0.098876953125,0.2441406100988388,-1.4343260526657104,-0.2441406100988388,80.0,156796.0,1.0
14759.6291149,293745.65625,295182.6875,330490.6875,324834.15625,285139.4375,256037.71875,222395.21875,246030.21875,0.0517578125,0.989013671875,0.0986328125,0.3051757514476776,-1.3427733182907104,-0.3356933295726776,80.0,156797.0,1.0
14759.6291163,293736.28125,294888.71875,330301.65625,324853.375,285006.9375,255979.796875,222352.125,246035.40625,0.051025390625,0.990478515625,0.098388671875,0.2441406100988388,-1.3122557401657104,-0.4272460639476776,80.0,156798.0,1.0
14759.6291176,293775.34375,294950.15625,330402.96875,324902.125,285055.21875,256004.109375,222384.9375,246053.109375,0.052734375,0.988037109375,0.10009765625,0.3051757514476776,-1.3427733182907104,-0.4272460639476776,80.0,156799.0,1.0
14759.6291188,293796.09375,295267.1875,330634.0,324898.1875,285200.59375,256064.375,222442.0625,246057.40625,0.05224609375,0.986083984375,0.09814453125,0.4272460639476776,-1.3427733182907104,-0.4272460639476776,80.0,156800.0,1.0
14759.6291201,293769.71875,295404.875,330678.59375,324846.84375,285245.71875,256085.203125,222450.03125,246037.28125,0.0537109375,0.985595703125,0.0947265625,0.5493163466453552,-1.3122557401657104,-0.5187987685203552,80.0,156801.0,1.0
14759.6291214,293734.125,295170.4375,330480.46875,324822.375,285129.9375,256043.984375,222401.75,246024.5,0.05322265625,0.98779296875,0.0947265625,0.6713866591453552,-1.3122557401657104,-0.4272460639476776,80.0,156802.0,1.0
14759.6610053,293732.875,294881.125,330301.84375,324851.59375,285008.53125,256001.34375,222366.078125,246035.59375,0.054443359375,0.99072265625,0.09521484375,0.7934569716453552,-1.3427733182907104,-0.5798339247703552,80.0,156803.0,1.0
14759.6610114,293769.53125,294947.46875,330402.53125,324898.90625,285058.15625,256016.53125,222396.828125,246059.734375,0.05419921875,0.99072265625,0.0947265625,0.8544921278953552,-1.2207030057907104,-0.7324218153953552,80.0,156804.0,1.0
14759.6610127,293796.25,295270.84375,330640.4375,324900.40625,285210.0625,256071.78125,222450.921875,246065.53125,0.054931640625,0.99169921875,0.09521484375,0.8850097060203552,-1.1291502714157104,-0.6408690810203552,80.0,156805.0,1.0
14759.661014,293773.5625,295407.46875,330684.0625,324851.59375,285252.34375,256077.25,222448.59375,246047.484375,0.055419921875,0.990966796875,0.093994140625,0.9765624403953552,-1.0681151151657104,-0.6713866591453552,80.0,156806.0,1.0
14759.6610152,293738.15625,295177.78125,330494.34375,324827.90625,285141.3125,256031.828125,222403.71875,246040.234375,0.05712890625,0.991455078125,0.094482421875,1.0375975370407104,-1.0681151151657104,-0.7629393935203552,80.0,156807.0,1.0
14759.6610165,293730.625,294876.84375,330304.15625,324845.34375,285009.0625,255979.703125,222352.84375,246031.5625,0.055419921875,0.992919921875,0.097412109375,0.9460448622703552,-0.8850097060203552,-0.8239745497703552,80.0,156808.0,1.0
14759.6860571,293765.25,294936.8125,330397.78125,324891.65625,285052.96875,255999.375,222381.359375,246050.078125,0.054443359375,0.9912109375,0.095947265625,0.9460448622703552,-0.9765624403953552,-0.8544921278953552,80.0,156809.0,1.0
14759.7118682,293791.625,295257.34375,330631.5,324892.90625,285202.1875,256065.171875,222444.921875,246059.09375,0.055419921875,0.9912109375,0.09521484375,0.8850097060203552,-1.0070799589157104,-0.8850097060203552,80.0,156810.0,1.0
14759.7118737,293769.0,295393.34375,330673.34375,324843.90625,285244.84375,256078.9375,222447.796875,246040.421875,0.0546875,0.989501953125,0.0908203125,0.9155272841453552,-0.9765624403953552,-0.9460448622703552,80.0,156811.0,1.0
14759.711875,293736.4375,295171.96875,330486.125,324820.9375,285135.84375,256035.671875,222400.21875,246030.84375,0.053955078125,0.989501953125,0.091064453125,0.9765624403953552,-0.8850097060203552,-0.9460448622703552,80.0,156812.0,1.0
14759.7118762,293732.25,294873.53125,330299.6875,324846.0625,285005.21875,255985.0625,222361.515625,246035.765625,0.051513671875,0.991943359375,0.09375,1.0375975370407104,-0.9460448622703552,-0.8850097060203552,80.0,156813.0,1.0
14759.7118774,293773.71875,294940.03125,330402.25,324898.0,285054.65625,256010.453125,222398.53125,246060.171875,0.05029296875,0.993408203125,0.093017578125,1.0070799589157104,-0.9460448622703552,-1.0375975370407104,80.0,156814.0,1.0
14759.7135404,293796.71875,295264.40625,330641.15625,324898.34375,285208.625,256080.015625,222459.6875,246067.140625,0.04931640625,0.995361328125,0.09033203125,1.0070799589157104,-0.9765624403953552,-1.1291502714157104,80.0,156815.0,1.0
14759.7209244,293773.625,295408.96875,330688.34375,324849.375,285256.09375,256096.203125,222464.515625,246051.234375,0.048828125,0.99462890625,0.091064453125,1.0986326932907104,-1.0681151151657104,-1.1596678495407104,80.0,156816.0,1.0
14759.7247216,293730.28125,295167.6875,330485.5625,324817.4375,285131.84375,256028.515625,222398.609375,246030.21875,0.049560546875,0.99365234375,0.089599609375,0.9155272841453552,-1.2512205839157104,-1.1901854276657104,80.0,156817.0,1.0
14759.7247287,293727.25,294868.78125,330288.875,324842.21875,284996.28125,255975.140625,222354.09375,246037.546875,0.0537109375,0.9912109375,0.09033203125,0.8544921278953552,-1.2817381620407104,-1.2207030057907104,80.0,156818.0,1.0
14759.72473,293771.9375,294943.8125,330392.59375,324894.0625,285051.4375,256006.703125,222397.8125,246067.0625,0.0556640625,0.990966796875,0.09228515625,0.7324218153953552,-1.3427733182907104,-1.0986326932907104,80.0,156819.0,1.0
14759.75098,293795.90625,295262.4375,330628.4375,324895.0625,285203.0,256073.21875,222460.75,246077.703125,0.05859375,0.98876953125,0.094970703125,0.7934569716453552,-1.2817381620407104,-0.9155272841453552,80.0,156820.0,1.0
14759.7808932,293771.21875,295400.3125,330677.09375,324847.75,285248.9375,256096.828125,222465.671875,246049.265625,0.0556640625,0.990234375,0.092529296875,0.8850097060203552,-1.1596678495407104,-0.8544921278953552,80.0,156821.0,1.0
14759.7809038,293733.9375,295168.84375,330488.71875,324821.75,285134.4375,256051.140625,222407.203125,246024.859375,0.05224609375,0.992919921875,0.089111328125,0.8239745497703552,-1.0986326932907104,-0.8239745497703552,80.0,156822.0,1.0
14759.7809052,293725.90625,294871.75,330299.78125,324841.6875,285001.125,255990.609375,222357.125,246027.625,0.05029296875,0.99365234375,0.08935546875,0.7629393935203552,-1.1291502714157104,-0.7019042372703552,80.0,156823.0,1.0
14759.8061873,293764.78125,294937.4375,330401.09375,324890.59375,285050.28125,255995.703125,222388.0625,246053.921875,0.0498046875,0.990966796875,0.08740234375,0.7019042372703552,-1.2512205839157104,-0.8239745497703552,80.0,156824.0,1.0
14759.8061974,293785.53125,295251.71875,330632.21875,324884.9375,285198.0,256052.125,222442.609375,246060.359375,0.04931640625,0.99072265625,0.0908203125,0.7019042372703552,-1.3427733182907104,-0.7934569716453552,80.0,156825.0,1.0
14759.8061987,293764.15625,295385.28125,330674.21875,324837.46875,285241.71875,256068.484375,222446.1875,246045.78125,0.052490234375,0.98828125,0.087890625,0.7324218153953552,-1.4343260526657104,-0.8850097060203552,80.0,156826.0,1.0
14759.839472,293725.28125,295141.21875,330464.75,324807.0625,285114.125,256019.125,222387.171875,246025.484375,0.052734375,0.988037109375,0.087646484375,0.7934569716453552,-1.4648436307907104,-0.9155272841453552,80.0,156827.0,1.0
14759.8847882,293725.28125,295141.21875,330464.75,324807.0625,285114.125,256019.125,222387.171875,246025.484375,0.052734375,0.988037109375,0.087646484375,0.7934569716453552,-1.4648436307907104,-0.9155272841453552,80.0,156828.0,0.0
14759.8847901,293725.28125,295141.21875,330464.75,324807.0625,285114.125,256019.125,222387.171875,246025.484375,0.052734375,0.988037109375,0.087646484375,0.7934569716453552,-1.4648436307907104,-0.9155272841453552,80.0,156829.0,0.0
14759.8847903,293725.28125,295141.21875,330464.75,324807.0625,285114.125,256019.125,222387.171875,246025.484375,0.052734375,0.988037109375,0.087646484375,0.7934569716453552,-1.4648436307907104,-0.9155272841453552,80.0,156830.0,0.0
14759.8847905,293725.28125,295141.21875,330464.75,324807.0625,285114.125,256019.125,222387.171875,246025.484375,0.052734375,0.988037109375,0.087646484375,0.7934569716453552,-1.4648436307907104,-0.9155272841453552,80.0,156831.0,0.0
14759.8847907,293725.28125,295141.21875,330464.75,324807.0625,285114.125,256019.125,222387.171875,246025.484375,0.052734375,0.988037109375,0.087646484375,0.7934569716453552,-1.4648436307907104,-0.9155272841453552,80.0,156832.0,0.0
14759.8847909,293725.28125,295141.21875,330464.75,324807.0625,285114.125,256019.125,222387.171875,246025.484375,0.052734375,0.988037109375,0.087646484375,0.7934569716453552,-1.4648436307907104,-0.9155272841453552,80.0,156833.0,0.0
14759.8847911,293725.28125,295141.21875,330464.75,324807.0625,285114.125,256019.125,222387.171875,246025.484375,0.052734375,0.988037109375,0.087646484375,0.7934569716453552,-1.4648436307907104,-0.9155272841453552,80.0,156834.0,0.0
14759.8847913,293725.28125,295141.21875,330464.75,324807.0625,285114.125,256019.125,222387.171875,246025.484375,0.052734375,0.988037109375,0.087646484375,0.7934569716453552,-1.4648436307907104,-0.9155272841453552,80.0,156835.0,0.0
14759.8847914,293725.28125,295141.21875,330464.75,324807.0625,285114.125,256019.125,222387.171875,246025.484375,0.052734375,0.988037109375,0.087646484375,0.7934569716453552,-1.4648436307907104,-0.9155272841453552,80.0,156836.0,0.0
14759.8847916,293725.28125,295141.21875,330464.75,324807.0625,285114.125,256019.125,222387.171875,246025.484375,0.052734375,0.988037109375,0.087646484375,0.7934569716453552,-1.4648436307907104,-0.9155272841453552,80.0,156837.0,0.0
14759.8847918,293725.28125,295141.21875,330464.75,324807.0625,285114.125,256019.125,222387.171875,246025.484375,0.052734375,0.988037109375,0.087646484375,0.7934569716453552,-1.4648436307907104,-0.9155272841453552,80.0,156838.0,0.0
14759.884792,293725.28125,295141.21875,330464.75,324807.0625,285114.125,256019.125,222387.171875,246025.484375,0.052734375,0.988037109375,0.087646484375,0.7934569716453552,-1.4648436307907104,-0.9155272841453552,80.0,156839.0,0.0
14759.8847922,293725.28125,295141.21875,330464.75,324807.0625,285114.125,256019.125,222387.171875,246025.484375,0.052734375,0.988037109375,0.087646484375,0.7934569716453552,-1.4648436307907104,-0.9155272841453552,80.0,156840.0,0.0
14759.8847923,293725.28125,295141.21875,330464.75,324807.0625,285114.125,256019.125,222387.171875,246025.484375,0.052734375,0.988037109375,0.087646484375,0.7934569716453552,-1.4648436307907104,-0.9155272841453552,80.0,156841.0,0.0
14759.8847925,293725.28125,295141.21875,330464.75,324807.0625,285114.125,256019.125,222387.171875,246025.484375,0.052734375,0.988037109375,0.087646484375,0.7934569716453552,-1.4648436307907104,-0.9155272841453552,80.0,156842.0,0.0
14759.8847927,293725.28125,295141.21875,330464.75,324807.0625,285114.125,256019.125,222387.171875,246025.484375,0.052734375,0.988037109375,0.087646484375,0.7934569716453552,-1.4648436307907104,-0.9155272841453552,80.0,156843.0,0.0
14759.8847929,293725.28125,295141.21875,330464.75,324807.0625,285114.125,256019.125,222387.171875,246025.484375,0.052734375,0.988037109375,0.087646484375,0.7934569716453552,-1.4648436307907104,-0.9155272841453552,80.0,156844.0,0.0
14759.884793,293725.28125,295141.21875,330464.75,324807.0625,285114.125,256019.125,222387.171875,246025.484375,0.052734375,0.988037109375,0.087646484375,0.7934569716453552,-1.4648436307907104,-0.9155272841453552,80.0,156845.0,0.0
14759.8847932,293725.28125,295141.21875,330464.75,324807.0625,285114.125,256019.125,222387.171875,246025.484375,0.052734375,0.988037109375,0.087646484375,0.7934569716453552,-1.4648436307907104,-0.9155272841453552,80.0,156846.0,0.0
14759.8847934,293725.28125,295141.21875,330464.75,324807.0625,285114.125,256019.125,222387.171875,246025.484375,0.052734375,0.988037109375,0.087646484375,0.7934569716453552,-1.4648436307907104,-0.9155272841453552,80.0,156847.0,0.0
14759.8847936,293725.28125,295141.21875,330464.75,324807.0625,285114.125,256019.125,222387.171875,246025.484375,0.052734375,0.988037109375,0.087646484375,0.7934569716453552,-1.4648436307907104,-0.9155272841453552,80.0,156848.0,0.0
14759.8847937,293725.28125,295141.21875,330464.75,324807.0625,285114.125,256019.125,222387.171875,246025.484375,0.052734375,0.988037109375,0.087646484375,0.7934569716453552,-1.4648436307907104,-0.9155272841453552,80.0,156849.0,0.0
14759.8847939,293725.28125,295141.21875,330464.75,324807.0625,285114.125,256019.125,222387.171875,246025.484375,0.052734375,0.988037109375,0.087646484375,0.7934569716453552,-1.4648436307907104,-0.9155272841453552,80.0,156850.0,0.0
14759.8847941,293725.28125,295141.21875,330464.75,324807.0625,285114.125,256019.125,222387.171875,246025.484375,0.052734375,0.988037109375,0.087646484375,0.7934569716453552,-1.4648436307907104,-0.9155272841453552,80.0,156851.0,0.0
14759.8847943,293725.28125,295141.21875,330464.75,324807.0625,285114.125,256019.125,222387.171875,246025.484375,0.052734375,0.988037109375,0.087646484375,0.7934569716453552,-1.4648436307907104,-0.9155272841453552,80.0,156852.0,0.0
14759.8847944,293725.28125,295141.21875,330464.75,324807.0625,285114.125,256019.125,222387.171875,246025.484375,0.052734375,0.988037109375,0.087646484375,0.7934569716453552,-1.4648436307907104,-0.9155272841453552,80.0,156853.0,0.0
14759.8847946,293725.28125,295141.21875,330464.75,324807.0625,285114.125,256019.125,222387.171875,246025.484375,0.052734375,0.988037109375,0.087646484375,0.7934569716453552,-1.4648436307907104,-0.9155272841453552,80.0,156854.0,0.0
14759.8847948,293725.28125,295141.21875,330464.75,324807.0625,285114.125,256019.125,222387.171875,246025.484375,0.052734375,0.988037109375,0.087646484375,0.7934569716453552,-1.4648436307907104,-0.9155272841453552,80.0,156855.0,0.0
14759.884795,293725.28125,295141.21875,330464.75,324807.0625,285114.125,256019.125,222387.171875,246025.484375,0.052734375,0.988037109375,0.087646484375,0.7934569716453552,-1.4648436307907104,-0.9155272841453552,80.0,156856.0,0.0
14759.8847952,293725.28125,295141.21875,330464.75,324807.0625,285114.125,256019.125,222387.171875,246025.484375,0.052734375,0.988037109375,0.087646484375,0.7934569716453552,-1.4648436307907104,-0.9155272841453552,80.0,156857.0,0.0
14759.8847953,293725.28125,295141.21875,330464.75,324807.0625,285114.125,256019.125,222387.171875,246025.484375,0.052734375,0.988037109375,0.087646484375,0.7934569716453552,-1.4648436307907104,-0.9155272841453552,80.0,156858.0,0.0
14759.8847955,293725.28125,295141.21875,330464.75,324807.0625,285114.125,256019.125,222387.171875,246025.484375,0.052734375,0.988037109375,0.087646484375,0.7934569716453552,-1.4648436307907104,-0.9155272841453552,80.0,156859.0,0.0
14759.8847957,293725.28125,295141.21875,330464.75,324807.0625,285114.125,256019.125,222387.171875,246025.484375,0.052734375,0.988037109375,0.087646484375,0.7934569716453552,-1.4648436307907104,-0.9155272841453552,80.0,156860.0,0.0
14759.8847959,293725.28125,295141.21875,330464.75,324807.0625,285114.125,256019.125,222387.171875,246025.484375,0.052734375,0.988037109375,0.087646484375,0.7934569716453552,-1.4648436307907104,-0.9155272841453552,80.0,156861.0,0.0
14759.884796,293725.28125,295141.21875,330464.75,324807.0625,285114.125,256019.125,222387.171875,246025.484375,0.052734375,0.988037109375,0.087646484375,0.7934569716453552,-1.4648436307907104,-0.9155272841453552,80.0,156862.0,0.0
14759.8847962,293725.28125,295141.21875,330464.75,324807.0625,285114.125,256019.125,222387.171875,246025.484375,0.052734375,0.988037109375,0.087646484375,0.7934569716453552,-1.4648436307907104,-0.9155272841453552,80.0,156863.0,0.0
14759.8847964,293725.28125,295141.21875,330464.75,324807.0625,285114.125,256019.125,222387.171875,246025.484375,0.052734375,0.988037109375,0.087646484375,0.7934569716453552,-1.4648436307907104,-0.9155272841453552,80.0,156864.0,0.0
14759.8847965,293725.28125,295141.21875,330464.75,324807.0625,285114.125,256019.125,222387.171875,246025.484375,0.052734375,0.988037109375,0.087646484375,0.7934569716453552,-1.4648436307907104,-0.9155272841453552,80.0,156865.0,0.0
14759.8847967,293725.28125,295141.21875,330464.75,324807.0625,285114.125,256019.125,222387.171875,246025.484375,0.052734375,0.988037109375,0.087646484375,0.7934569716453552,-1.4648436307907104,-0.9155272841453552,80.0,156866.0,0.0
14759.8847969,293744.59375,295153.0,330481.65625,324815.03125,285128.625,256028.0625,222409.25,246040.59375,0.0517578125,0.989013671875,0.092041015625,0.2746581733226776,-1.3427733182907104,-1.1291502714157104,80.0,156867.0,1.0
14759.9348239,293736.53125,294854.46875,330294.0625,324837.65625,284996.1875,255977.109375,222361.953125,246039.515625,0.050537109375,0.989013671875,0.091064453125,0.4272460639476776,-1.3732908964157104,-1.0986326932907104,80.0,156868.0,1.0
14759.934833,293789.65625,294957.75,330420.75,324898.28125,285068.1875,256023.0625,222415.328125,246074.84375,0.05126953125,0.98828125,0.090576171875,0.4882812201976776,-1.4038084745407104,-1.1596678495407104,80.0,156869.0,1.0
14759.9348343,293811.28125,295279.6875,330655.09375,324893.875,285218.28125,256090.296875,222479.078125,246083.78125,0.051025390625,0.98974609375,0.089111328125,0.6103515028953552,-1.4038084745407104,-1.1596678495407104,80.0,156870.0,1.0
14759.9348375,293785.4375,295402.0,330684.59375,324840.25,285254.84375,256101.03125,222476.578125,246062.140625,0.04931640625,0.990478515625,0.089599609375,0.4882812201976776,-1.3427733182907104,-1.2207030057907104,80.0,156871.0,1.0
14759.9348387,293747.8125,295155.59375,330479.3125,324810.75,285130.40625,256042.109375,222412.921875,246041.3125,0.04931640625,0.993896484375,0.091552734375,0.3967284858226776,-1.3122557401657104,-1.1291502714157104,80.0,156872.0,1.0
14759.9348402,293749.84375,294869.9375,330303.1875,324840.34375,285007.65625,255992.21875,222374.125,246048.015625,0.049072265625,0.994384765625,0.094970703125,0.3967284858226776,-1.3427733182907104,-1.0375975370407104,80.0,156873.0,1.0
14759.99636,293796.09375,294958.375,330419.875,324893.8125,285070.9375,256027.796875,222418.546875,246076.984375,0.049072265625,0.99267578125,0.091552734375,0.2746581733226776,-1.3427733182907104,-1.0681151151657104,80.0,156874.0,1.0
14759.9963664,293818.6875,295284.53125,330655.0,324889.59375,285222.75,256089.21875,222475.6875,246077.15625,0.047119140625,0.990966796875,0.0927734375,0.2441406100988388,-1.3427733182907104,-1.1291502714157104,80.0,156875.0,1.0
14759.9963677,293794.5625,295414.0,330694.625,324840.25,285264.15625,256109.15625,222480.421875,246056.421875,0.049072265625,0.990966796875,0.093505859375,0.2746581733226776,-1.4038084745407104,-1.0986326932907104,80.0,156876.0,1.0
14759.996369,293755.59375,295167.75,330494.53125,324815.65625,285140.9375,256052.65625,222421.234375,246041.578125,0.048583984375,0.98974609375,0.093505859375,0.2136230319738388,-1.4038084745407104,-1.1596678495407104,80.0,156877.0,1.0
14760.019775,293752.28125,294880.59375,330314.625,324843.0,285017.3125,256005.625,222382.796875,246049.890625,0.04736328125,0.990478515625,0.092529296875,0.2136230319738388,-1.4953612089157104,-1.1596678495407104,80.0,156878.0,1.0
14760.0962173,293794.125,294965.0625,330428.625,324896.125,285078.46875,256033.171875,222420.078125,246074.203125,0.04638671875,0.98828125,0.091064453125,0.2441406100988388,-1.5869139432907104,-1.1596678495407104,80.0,156879.0,1.0
14760.0962271,293818.15625,295285.59375,330660.625,324894.96875,285229.8125,256091.8125,222478.28125,246081.0,0.045166015625,0.990234375,0.091796875,0.2746581733226776,-1.6174315214157104,-1.1291502714157104,80.0,156880.0,1.0
14760.0962284,293791.875,295406.65625,330689.96875,324841.75,285263.09375,256095.390625,222473.1875,246061.78125,0.0458984375,0.99169921875,0.08740234375,0.2746581733226776,-1.6174315214157104,-1.1291502714157104,80.0,156881.0,1.0
14760.0962302,293756.125,295160.15625,330485.5625,324819.5,285140.15625,256046.3125,222421.140625,246048.28125,0.047607421875,0.991455078125,0.090087890625,0.3356933295726776,-1.6784666776657104,-1.0986326932907104,80.0,156882.0,1.0
14760.0962315,293750.75,294870.40625,330302.90625,324845.875,285012.03125,255993.109375,222382.96875,246059.28125,0.0478515625,0.989990234375,0.0908203125,0.3662109076976776,-1.7395018339157104,-1.0986326932907104,80.0,156883.0,1.0
14760.0962327,293790.4375,294953.46875,330411.375,324894.5,285066.65625,256018.765625,222418.28125,246080.375,0.048583984375,0.99072265625,0.091796875,0.2746581733226776,-1.7395018339157104,-1.0986326932907104,80.0,156884.0,1.0
14760.1206542,293820.65625,295288.375,330654.8125,324896.5625,285223.84375,256086.546875,222476.84375,246082.796875,0.0498046875,0.9912109375,0.093994140625,0.3051757514476776,-1.7089842557907104,-1.0986326932907104,80.0,156885.0,1.0
14760.1722632,293820.65625,295288.375,330654.8125,324896.5625,285223.84375,256086.546875,222476.84375,246082.796875,0.0498046875,0.9912109375,0.093994140625,0.3051757514476776,-1.7089842557907104,-1.0986326932907104,80.0,156886.0,0.0
14760.1722646,293820.65625,295288.375,330654.8125,324896.5625,285223.84375,256086.546875,222476.84375,246082.796875,0.0498046875,0.9912109375,0.093994140625,0.3051757514476776,-1.7089842557907104,-1.0986326932907104,80.0,156887.0,0.0
14760.1722649,293820.65625,295288.375,330654.8125,324896.5625,285223.84375,256086.546875,222476.84375,246082.796875,0.0498046875,0.9912109375,0.093994140625,0.3051757514476776,-1.7089842557907104,-1.0986326932907104,80.0,156888.0,0.0
14760.1722651,293820.65625,295288.375,330654.8125,324896.5625,285223.84375,256086.546875,222476.84375,246082.796875,0.0498046875,0.9912109375,0.093994140625,0.3051757514476776,-1.7089842557907104,-1.0986326932907104,80.0,156889.0,0.0
14760.1722653,293820.65625,295288.375,330654.8125,324896.5625,285223.84375,256086.546875,222476.84375,246082.796875,0.0498046875,0.9912109375,0.093994140625,0.3051757514476776,-1.7089842557907104,-1.0986326932907104,80.0,156890.0,0.0
14760.1722655,293820.65625,295288.375,330654.8125,324896.5625,285223.84375,256086.546875,222476.84375,246082.796875,0.0498046875,0.9912109375,0.093994140625,0.3051757514476776,-1.7089842557907104,-1.0986326932907104,80.0,156891.0,0.0
14760.1722657,293820.65625,295288.375,330654.8125,324896.5625,285223.84375,256086.546875,222476.84375,246082.796875,0.0498046875,0.9912109375,0.093994140625,0.3051757514476776,-1.7089842557907104,-1.0986326932907104,80.0,156892.0,0.0
14760.1722659,293820.65625,295288.375,330654.8125,324896.5625,285223.84375,256086.546875,222476.84375,246082.796875,0.0498046875,0.9912109375,0.093994140625,0.3051757514476776,-1.7089842557907104,-1.0986326932907104,80.0,156893.0,0.0
14760.172266,293820.65625,295288.375,330654.8125,324896.5625,285223.84375,256086.546875,222476.84375,246082.796875,0.0498046875,0.9912109375,0.093994140625,0.3051757514476776,-1.7089842557907104,-1.0986326932907104,80.0,156894.0,0.0
14760.1722662,293820.65625,295288.375,330654.8125,324896.5625,285223.84375,256086.546875,222476.84375,246082.796875,0.0498046875,0.9912109375,0.093994140625,0.3051757514476776,-1.7089842557907104,-1.0986326932907104,80.0,156895.0,0.0
14760.1722664,293820.65625,295288.375,330654.8125,324896.5625,285223.84375,256086.546875,222476.84375,246082.796875,0.0498046875,0.9912109375,0.093994140625,0.3051757514476776,-1.7089842557907104,-1.0986326932907104,80.0,156896.0,0.0
14760.1722666,293820.65625,295288.375,330654.8125,324896.5625,285223.84375,256086.546875,222476.84375,246082.796875,0.0498046875,0.9912109375,0.093994140625,0.3051757514476776,-1.7089842557907104,-1.0986326932907104,80.0,156897.0,0.0
14760.1722667,293820.65625,295288.375,330654.8125,324896.5625,285223.84375,256086.546875,222476.84375,246082.796875,0.0498046875,0.9912109375,0.093994140625,0.3051757514476776,-1.7089842557907104,-1.0986326932907104,80.0,156898.0,0.0
14760.1722669,293820.65625,295288.375,330654.8125,324896.5625,285223.84375,256086.546875,222476.84375,246082.796875,0.0498046875,0.9912109375,0.093994140625,0.3051757514476776,-1.7089842557907104,-1.0986326932907104,80.0,156899.0,0.0
14760.1722671,293820.65625,295288.375,330654.8125,324896.5625,285223.84375,256086.546875,222476.84375,246082.796875,0.0498046875,0.9912109375,0.093994140625,0.3051757514476776,-1.7089842557907104,-1.0986326932907104,80.0,156900.0,0.0
14760.1722673,293820.65625,295288.375,330654.8125,324896.5625,285223.84375,256086.546875,222476.84375,246082.796875,0.0498046875,0.9912109375,0.093994140625,0.3051757514476776,-1.7089842557907104,-1.0986326932907104,80.0,156901.0,0.0
14760.1722674,293820.65625,295288.375,330654.8125,324896.5625,285223.84375,256086.546875,222476.84375,246082.796875,0.0498046875,0.9912109375,0.093994140625,0.3051757514476776,-1.7089842557907104,-1.0986326932907104,80.0,156902.0,0.0
14760.1722676,293820.65625,295288.375,330654.8125,324896.5625,285223.84375,256086.546875,222476.84375,246082.796875,0.0498046875,0.9912109375,0.093994140625,0.3051757514476776,-1.7089842557907104,-1.0986326932907104,80.0,156903.0,0.0
14760.1722678,293820.65625,295288.375,330654.8125,324896.5625,285223.84375,256086.546875,222476.84375,246082.796875,0.0498046875,0.9912109375,0.093994140625,0.3051757514476776,-1.7089842557907104,-1.0986326932907104,80.0,156904.0,0.0
14760.172268,293820.65625,295288.375,330654.8125,324896.5625,285223.84375,256086.546875,222476.84375,246082.796875,0.0498046875,0.9912109375,0.093994140625,0.3051757514476776,-1.7089842557907104,-1.0986326932907104,80.0,156905.0,0.0
14760.1722682,293820.65625,295288.375,330654.8125,324896.5625,285223.84375,256086.546875,222476.84375,246082.796875,0.0498046875,0.9912109375,0.093994140625,0.3051757514476776,-1.7089842557907104,-1.0986326932907104,80.0,156906.0,0.0
14760.1722683,293820.65625,295288.375,330654.8125,324896.5625,285223.84375,256086.546875,222476.84375,246082.796875,0.0498046875,0.9912109375,0.093994140625,0.3051757514476776,-1.7089842557907104,-1.0986326932907104,80.0,156907.0,0.0
14760.1722685,293820.65625,295288.375,330654.8125,324896.5625,285223.84375,256086.546875,222476.84375,246082.796875,0.0498046875,0.9912109375,0.093994140625,0.3051757514476776,-1.7089842557907104,-1.0986326932907104,80.0,156908.0,0.0
14760.1722687,293820.65625,295288.375,330654.8125,324896.5625,285223.84375,256086.546875,222476.84375,246082.796875,0.0498046875,0.9912109375,0.093994140625,0.3051757514476776,-1.7089842557907104,-1.0986326932907104,80.0,156909.0,0.0
14760.1722688,293820.65625,295288.375,330654.8125,324896.5625,285223.84375,256086.546875,222476.84375,246082.796875,0.0498046875,0.9912109375,0.093994140625,0.3051757514476776,-1.7089842557907104,-1.0986326932907104,80.0,156910.0,0.0
14760.172269,293820.65625,295288.375,330654.8125,324896.5625,285223.84375,256086.546875,222476.84375,246082.796875,0.0498046875,0.9912109375,0.093994140625,0.3051757514476776,-1.7089842557907104,-1.0986326932907104,80.0,156911.0,0.0
14760.1722692,293738.15625,295139.34375,330462.34375,324809.40625,285125.125,256040.671875,222408.453125,246044.703125,0.049072265625,0.9912109375,0.095703125,-0.1831054538488388,-1.1901854276657104,-1.0375975370407104,80.0,156912.0,1.0
14760.1722732,293749.59375,294871.65625,330297.65625,324838.1875,285008.09375,255997.21875,222372.859375,246049.171875,0.04931640625,0.9912109375,0.095703125,-0.1220703050494194,-1.1901854276657104,-1.0681151151657104,80.0,156913.0,1.0
14760.1722744,293788.3125,294968.375,330418.53125,324884.6875,285072.65625,256025.65625,222418.109375,246076.171875,0.04931640625,0.99267578125,0.093505859375,-0.1220703050494194,-1.2207030057907104,-1.0681151151657104,80.0,156914.0,1.0
14760.1722757,293805.03125,295290.15625,330652.5,324877.71875,285223.75,256088.953125,222475.328125,246077.25,0.051513671875,0.991943359375,0.0947265625,-0.0915527269244194,-1.2512205839157104,-1.0681151151657104,80.0,156915.0,1.0
14760.1722769,293779.53125,295402.375,330678.6875,324827.53125,285258.96875,256103.96875,222475.15625,246058.828125,0.051513671875,0.99267578125,0.09521484375,-0.03051757626235485,-1.2512205839157104,-0.9460448622703552,80.0,156916.0,1.0
14760.1722781,293747.625,295155.6875,330475.65625,324810.28125,285139.53125,256060.34375,222429.375,246052.390625,0.0498046875,0.99462890625,0.09912109375,-0.03051757626235485,-1.1901854276657104,-1.0375975370407104,80.0,156917.0,1.0
14760.1973728,293746.5625,294872.0,330303.375,324839.15625,285015.875,256013.765625,222385.390625,246055.875,0.04833984375,0.992919921875,0.097412109375,-0.1220703050494194,-1.1901854276657104,-1.0070799589157104,80.0,156918.0,1.0
14760.216982,293786.5,294966.96875,330421.03125,324885.125,285074.4375,256031.5625,222416.9375,246076.265625,0.05029296875,0.9921875,0.093505859375,-0.2136230319738388,-1.2512205839157104,-0.9155272841453552,80.0,156919.0,1.0
14760.2169872,293806.1875,295287.9375,330649.0,324879.3125,285217.5625,256076.609375,222463.703125,246073.765625,0.04736328125,0.992431640625,0.095947265625,-0.2441406100988388,-1.3732908964157104,-0.9155272841453552,80.0,156920.0,1.0
14760.2169885,293778.90625,295396.375,330673.59375,324827.1875,285248.0625,256082.15625,222458.703125,246053.640625,0.04638671875,0.99169921875,0.09228515625,-0.2746581733226776,-1.4648436307907104,-0.9765624403953552,80.0,156921.0,1.0
14760.2169897,293744.40625,295144.875,330468.6875,324804.03125,285124.78125,256032.8125,222402.453125,246037.640625,0.047119140625,0.990966796875,0.095703125,-0.1525878757238388,-1.4953612089157104,-1.0681151151657104,80.0,156922.0,1.0
14760.2169911,293744.75,294863.0625,330295.40625,324834.34375,285004.6875,255993.015625,222370.28125,246045.15625,0.046875,0.990234375,0.095947265625,0.0,-1.5563963651657104,-1.0681151151657104,80.0,156923.0,1.0
14760.2192054,293787.21875,294960.53125,330417.53125,324885.9375,285071.75,256030.84375,222419.625,246075.109375,0.048828125,0.987548828125,0.094482421875,0.0610351525247097,-1.5869139432907104,-1.0070799589157104,80.0,156924.0,1.0
14760.2192107,293787.21875,294960.53125,330417.53125,324885.9375,285071.75,256030.84375,222419.625,246075.109375,0.048828125,0.987548828125,0.094482421875,0.0610351525247097,-1.5869139432907104,-1.0070799589157104,80.0,156925.0,0.0
14760.219211,293787.21875,294960.53125,330417.53125,324885.9375,285071.75,256030.84375,222419.625,246075.109375,0.048828125,0.987548828125,0.094482421875,0.0610351525247097,-1.5869139432907104,-1.0070799589157104,80.0,156926.0,0.0
14760.2192112,293787.21875,294960.53125,330417.53125,324885.9375,285071.75,256030.84375,222419.625,246075.109375,0.048828125,0.987548828125,0.094482421875,0.0610351525247097,-1.5869139432907104,-1.0070799589157104,80.0,156927.0,0.0
14760.2192113,293787.21875,294960.53125,330417.53125,324885.9375,285071.75,256030.84375,222419.625,246075.109375,0.048828125,0.987548828125,0.094482421875,0.0610351525247097,-1.5869139432907104,-1.0070799589157104,80.0,156928.0,0.0
14760.2192115,293787.21875,294960.53125,330417.53125,324885.9375,285071.75,256030.84375,222419.625,246075.109375,0.048828125,0.987548828125,0.094482421875,0.0610351525247097,-1.5869139432907104,-1.0070799589157104,80.0,156929.0,0.0
14760.2192117,293787.21875,294960.53125,330417.53125,324885.9375,285071.75,256030.84375,222419.625,246075.109375,0.048828125,0.987548828125,0.094482421875,0.0610351525247097,-1.5869139432907104,-1.0070799589157104,80.0,156930.0,0.0
14760.2192119,293787.21875,294960.53125,330417.53125,324885.9375,285071.75,256030.84375,222419.625,246075.109375,0.048828125,0.987548828125,0.094482421875,0.0610351525247097,-1.5869139432907104,-1.0070799589157104,80.0,156931.0,0.0
14760.2192121,293787.21875,294960.53125,330417.53125,324885.9375,285071.75,256030.84375,222419.625,246075.109375,0.048828125,0.987548828125,0.094482421875,0.0610351525247097,-1.5869139432907104,-1.0070799589157104,80.0,156932.0,0.0
14760.2192122,293787.21875,294960.53125,330417.53125,324885.9375,285071.75,256030.84375,222419.625,246075.109375,0.048828125,0.987548828125,0.094482421875,0.0610351525247097,-1.5869139432907104,-1.0070799589157104,80.0,156933.0,0.0
14760.2192124,293787.21875,294960.53125,330417.53125,324885.9375,285071.75,256030.84375,222419.625,246075.109375,0.048828125,0.987548828125,0.094482421875,0.0610351525247097,-1.5869139432907104,-1.0070799589157104,80.0,156934.0,0.0
14760.2192126,293787.21875,294960.53125,330417.53125,324885.9375,285071.75,256030.84375,222419.625,246075.109375,0.048828125,0.987548828125,0.094482421875,0.0610351525247097,-1.5869139432907104,-1.0070799589157104,80.0,156935.0,0.0
14760.2192127,293787.21875,294960.53125,330417.53125,324885.9375,285071.75,256030.84375,222419.625,246075.109375,0.048828125,0.987548828125,0.094482421875,0.0610351525247097,-1.5869139432907104,-1.0070799589157104,80.0,156936.0,0.0
14760.2192129,293787.21875,294960.53125,330417.53125,324885.9375,285071.75,256030.84375,222419.625,246075.109375,0.048828125,0.987548828125,0.094482421875,0.0610351525247097,-1.5869139432907104,-1.0070799589157104,80.0,156937.0,0.0
14760.2192131,293787.21875,294960.53125,330417.53125,324885.9375,285071.75,256030.84375,222419.625,246075.109375,0.048828125,0.987548828125,0.094482421875,0.0610351525247097,-1.5869139432907104,-1.0070799589157104,80.0,156938.0,0.0
14760.2192133,293787.21875,294960.53125,330417.53125,324885.9375,285071.75,256030.84375,222419.625,246075.109375,0.048828125,0.987548828125,0.094482421875,0.0610351525247097,-1.5869139432907104,-1.0070799589157104,80.0,156939.0,0.0
14760.2192135,293787.21875,294960.53125,330417.53125,324885.9375,285071.75,256030.84375,222419.625,246075.109375,0.048828125,0.987548828125,0.094482421875,0.0610351525247097,-1.5869139432907104,-1.0070799589157104,80.0,156940.0,0.0
14760.2192136,293787.21875,294960.53125,330417.53125,324885.9375,285071.75,256030.84375,222419.625,246075.109375,0.048828125,0.987548828125,0.094482421875,0.0610351525247097,-1.5869139432907104,-1.0070799589157104,80.0,156941.0,0.0
14760.2192138,293787.21875,294960.53125,330417.53125,324885.9375,285071.75,256030.84375,222419.625,246075.109375,0.048828125,0.987548828125,0.094482421875,0.0610351525247097,-1.5869139432907104,-1.0070799589157104,80.0,156942.0,0.0
14760.219214,293787.21875,294960.53125,330417.53125,324885.9375,285071.75,256030.84375,222419.625,246075.109375,0.048828125,0.987548828125,0.094482421875,0.0610351525247097,-1.5869139432907104,-1.0070799589157104,80.0,156943.0,0.0
14760.2192141,293786.5,294967.3125,330420.3125,324881.5625,285077.46875,256029.59375,222423.203125,246076.71875,0.0517578125,0.99072265625,0.09033203125,0.9765624403953552,-0.9460448622703552,-1.1901854276657104,80.0,156944.0,1.0
14760.2222478,293811.5625,295293.1875,330649.625,324880.65625,285227.3125,256095.296875,222486.59375,246089.140625,0.050048828125,0.9931640625,0.094970703125,0.9460448622703552,-0.9460448622703552,-1.3122557401657104,80.0,156945.0,1.0
14760.2222537,293782.21875,295398.25,330666.4375,324829.0625,285253.96875,256106.203125,222481.671875,246067.78125,0.049560546875,0.99462890625,0.095947265625,0.8850097060203552,-1.0070799589157104,-1.4648436307907104,80.0,156946.0,1.0
14760.2222552,293744.6875,295140.75,330461.4375,324805.5625,285126.375,256048.90625,222420.703125,246047.921875,0.0498046875,0.995849609375,0.09619140625,0.8850097060203552,-0.9765624403953552,-1.4648436307907104,80.0,156947.0,1.0
14760.2247248,293745.84375,294862.4375,330292.09375,324833.71875,285005.59375,256001.421875,222379.03125,246052.84375,0.052001953125,0.99609375,0.092529296875,0.8544921278953552,-1.0070799589157104,-1.5869139432907104,80.0,156948.0,1.0
14760.2314667,293790.4375,294971.15625,330421.65625,324883.0625,285078.28125,256034.234375,222427.40625,246079.03125,0.05078125,0.99560546875,0.093017578125,0.7324218153953552,-1.2207030057907104,-1.6174315214157104,80.0,156949.0,1.0
14760.2314695,293811.375,295291.5,330648.84375,324876.625,285226.0625,256096.109375,222483.640625,246081.625,0.05029296875,0.994140625,0.093017578125,0.7324218153953552,-1.1596678495407104,-1.4953612089157104,80.0,156950.0,1.0
14760.2314708,293789.90625,295401.28125,330670.28125,324831.84375,285257.34375,256106.65625,222482.5625,246070.71875,0.051025390625,0.994873046875,0.091552734375,0.7934569716453552,-1.1596678495407104,-1.5869139432907104,80.0,156951.0,1.0
14760.2314721,293755.03125,295153.09375,330467.15625,324809.5625,285132.1875,256050.59375,222423.03125,246054.09375,0.051025390625,0.993896484375,0.094482421875,0.7934569716453552,-1.0681151151657104,-1.4953612089157104,80.0,156952.0,1.0
14760.2314734,293749.6875,294867.96875,330289.59375,324835.0625,285004.6875,256001.421875,222379.65625,246055.96875,0.05029296875,0.9912109375,0.090576171875,0.8239745497703552,-1.1291502714157104,-1.5563963651657104,80.0,156953.0,1.0
14760.2314746,293798.125,294978.59375,330423.0,324889.5,285076.3125,256037.28125,222423.65625,246084.5,0.048583984375,0.990478515625,0.092529296875,0.7934569716453552,-1.1901854276657104,-1.4343260526657104,80.0,156954.0,1.0
14760.2556694,293819.15625,295302.21875,330654.75,324884.5,285227.3125,256101.921875,222481.5,246089.234375,0.0478515625,0.99169921875,0.093505859375,0.8544921278953552,-1.1291502714157104,-1.3427733182907104,80.0,156955.0,1.0
14760.28101,293792.15625,295404.78125,330670.84375,324833.8125,285255.9375,256112.109375,222473.8125,246069.109375,0.047607421875,0.9921875,0.093994140625,0.7629393935203552,-1.1596678495407104,-1.2817381620407104,80.0,156956.0,1.0
14760.3410672,293792.15625,295404.78125,330670.84375,324833.8125,285255.9375,256112.109375,222473.8125,246069.109375,0.047607421875,0.9921875,0.093994140625,0.7629393935203552,-1.1596678495407104,-1.2817381620407104,80.0,156957.0,0.0
14760.3410693,293792.15625,295404.78125,330670.84375,324833.8125,285255.9375,256112.109375,222473.8125,246069.109375,0.047607421875,0.9921875,0.093994140625,0.7629393935203552,-1.1596678495407104,-1.2817381620407104,80.0,156958.0,0.0
14760.3410695,293792.15625,295404.78125,330670.84375,324833.8125,285255.9375,256112.109375,222473.8125,246069.109375,0.047607421875,0.9921875,0.093994140625,0.7629393935203552,-1.1596678495407104,-1.2817381620407104,80.0,156959.0,0.0
14760.3410697,293792.15625,295404.78125,330670.84375,324833.8125,285255.9375,256112.109375,222473.8125,246069.109375,0.047607421875,0.9921875,0.093994140625,0.7629393935203552,-1.1596678495407104,-1.2817381620407104,80.0,156960.0,0.0
14760.3410699,293792.15625,295404.78125,330670.84375,324833.8125,285255.9375,256112.109375,222473.8125,246069.109375,0.047607421875,0.9921875,0.093994140625,0.7629393935203552,-1.1596678495407104,-1.2817381620407104,80.0,156961.0,0.0
14760.34107,293792.15625,295404.78125,330670.84375,324833.8125,285255.9375,256112.109375,222473.8125,246069.109375,0.047607421875,0.9921875,0.093994140625,0.7629393935203552,-1.1596678495407104,-1.2817381620407104,80.0,156962.0,0.0
14760.3410702,293792.15625,295404.78125,330670.84375,324833.8125,285255.9375,256112.109375,222473.8125,246069.109375,0.047607421875,0.9921875,0.093994140625,0.7629393935203552,-1.1596678495407104,-1.2817381620407104,80.0,156963.0,0.0
14760.3410704,293792.15625,295404.78125,330670.84375,324833.8125,285255.9375,256112.109375,222473.8125,246069.109375,0.047607421875,0.9921875,0.093994140625,0.7629393935203552,-1.1596678495407104,-1.2817381620407104,80.0,156964.0,0.0
14760.3410706,293792.15625,295404.78125,330670.84375,324833.8125,285255.9375,256112.109375,222473.8125,246069.109375,0.047607421875,0.9921875,0.093994140625,0.7629393935203552,-1.1596678495407104,-1.2817381620407104,80.0,156965.0,0.0
14760.3410707,293792.15625,295404.78125,330670.84375,324833.8125,285255.9375,256112.109375,222473.8125,246069.109375,0.047607421875,0.9921875,0.093994140625,0.7629393935203552,-1.1596678495407104,-1.2817381620407104,80.0,156966.0,0.0
14760.3410709,293758.25,295154.09375,330462.40625,324810.90625,285126.71875,256045.328125,222416.40625,246054.625,0.0478515625,0.992431640625,0.09423828125,0.2746581733226776,-1.6784666776657104,-0.2746581733226776,80.0,156967.0,1.0
14760.3410766,293759.0625,294880.21875,330296.9375,324838.0,285008.28125,256001.609375,222380.828125,246055.875,0.04833984375,0.99169921875,0.094970703125,0.1831054538488388,-1.7089842557907104,-0.3356933295726776,80.0,156968.0,1.0
14760.3410779,293801.71875,294993.78125,330427.03125,324887.0,285077.375,256035.484375,222423.375,246082.53125,0.0478515625,0.991455078125,0.095703125,0.1525878757238388,-1.6784666776657104,-0.3662109076976776,80.0,156969.0,1.0
14760.3410791,293823.8125,295316.09375,330657.96875,324882.96875,285226.96875,256090.75,222479.703125,246089.765625,0.05029296875,0.994140625,0.095947265625,0.2441406100988388,-1.7089842557907104,-0.6103515028953552,80.0,156970.0,1.0
14760.3410803,293794.75,295416.40625,330677.34375,324830.59375,285254.75,256097.625,222474.171875,246067.421875,0.0517578125,0.9921875,0.095703125,0.1220703050494194,-1.6784666776657104,-0.5493163466453552,80.0,156971.0,1.0
14760.3410819,293752.28125,295149.625,330462.0625,324804.46875,285120.9375,256031.5625,222408.625,246047.921875,0.0537109375,0.989990234375,0.09619140625,0.0,-1.8310545682907104,-0.5798339247703552,80.0,156972.0,1.0
14760.4219161,293752.0,294871.03125,330296.03125,324834.875,285003.1875,255989.796875,222363.921875,246049.171875,0.053466796875,0.992919921875,0.093994140625,0.0915527269244194,-1.7089842557907104,-0.5493163466453552,80.0,156973.0,1.0
14760.4219235,293803.9375,294984.84375,330432.03125,324890.125,285081.40625,256029.5,222412.5625,246078.328125,0.0546875,0.993408203125,0.095458984375,-0.0610351525247097,-1.6174315214157104,-0.6103515028953552,80.0,156974.0,1.0
14760.4219248,293824.15625,295311.53125,330661.71875,324885.21875,285231.15625,256090.03125,222472.375,246087.4375,0.056396484375,0.993408203125,0.097412109375,-0.0915527269244194,-1.5869139432907104,-0.5798339247703552,80.0,156975.0,1.0
14760.421926,293797.34375,295415.34375,330686.46875,324835.15625,285262.0,256090.921875,222462.984375,246068.484375,0.05712890625,0.989990234375,0.09423828125,-0.1220703050494194,-1.4648436307907104,-0.6408690810203552,80.0,156976.0,1.0
14760.4462626,293760.6875,295149.15625,330473.5,324808.5,285130.21875,256028.875,222395.046875,246044.703125,0.05810546875,0.98974609375,0.096923828125,-0.1220703050494194,-1.3122557401657104,-0.6103515028953552,80.0,156977.0,1.0
14760.4962424,293760.6875,295149.15625,330473.5,324808.5,285130.21875,256028.875,222395.046875,246044.703125,0.05810546875,0.98974609375,0.096923828125,-0.1220703050494194,-1.3122557401657104,-0.6103515028953552,80.0,156978.0,0.0
14760.4962435,293760.6875,295149.15625,330473.5,324808.5,285130.21875,256028.875,222395.046875,246044.703125,0.05810546875,0.98974609375,0.096923828125,-0.1220703050494194,-1.3122557401657104,-0.6103515028953552,80.0,156979.0,0.0
14760.4962437,293760.6875,295149.15625,330473.5,324808.5,285130.21875,256028.875,222395.046875,246044.703125,0.05810546875,0.98974609375,0.096923828125,-0.1220703050494194,-1.3122557401657104,-0.6103515028953552,80.0,156980.0,0.0
14760.4962442,293760.6875,295149.15625,330473.5,324808.5,285130.21875,256028.875,222395.046875,246044.703125,0.05810546875,0.98974609375,0.096923828125,-0.1220703050494194,-1.3122557401657104,-0.6103515028953552,80.0,156981.0,0.0
14760.4962443,293760.6875,295149.15625,330473.5,324808.5,285130.21875,256028.875,222395.046875,246044.703125,0.05810546875,0.98974609375,0.096923828125,-0.1220703050494194,-1.3122557401657104,-0.6103515028953552,80.0,156982.0,0.0
14760.4962445,293760.6875,295149.15625,330473.5,324808.5,285130.21875,256028.875,222395.046875,246044.703125,0.05810546875,0.98974609375,0.096923828125,-0.1220703050494194,-1.3122557401657104,-0.6103515028953552,80.0,156983.0,0.0
14760.4962447,293760.6875,295149.15625,330473.5,324808.5,285130.21875,256028.875,222395.046875,246044.703125,0.05810546875,0.98974609375,0.096923828125,-0.1220703050494194,-1.3122557401657104,-0.6103515028953552,80.0,156984.0,0.0
14760.4962448,293760.6875,295149.15625,330473.5,324808.5,285130.21875,256028.875,222395.046875,246044.703125,0.05810546875,0.98974609375,0.096923828125,-0.1220703050494194,-1.3122557401657104,-0.6103515028953552,80.0,156985.0,0.0
14760.496245,293760.6875,295149.15625,330473.5,324808.5,285130.21875,256028.875,222395.046875,246044.703125,0.05810546875,0.98974609375,0.096923828125,-0.1220703050494194,-1.3122557401657104,-0.6103515028953552,80.0,156986.0,0.0
14760.4962452,293760.6875,295149.15625,330473.5,324808.5,285130.21875,256028.875,222395.046875,246044.703125,0.05810546875,0.98974609375,0.096923828125,-0.1220703050494194,-1.3122557401657104,-0.6103515028953552,80.0,156987.0,0.0
14760.4962454,293760.6875,295149.15625,330473.5,324808.5,285130.21875,256028.875,222395.046875,246044.703125,0.05810546875,0.98974609375,0.096923828125,-0.1220703050494194,-1.3122557401657104,-0.6103515028953552,80.0,156988.0,0.0
14760.4962456,293760.6875,295149.15625,330473.5,324808.5,285130.21875,256028.875,222395.046875,246044.703125,0.05810546875,0.98974609375,0.096923828125,-0.1220703050494194,-1.3122557401657104,-0.6103515028953552,80.0,156989.0,0.0
14760.4962457,293760.6875,295149.15625,330473.5,324808.5,285130.21875,256028.875,222395.046875,246044.703125,0.05810546875,0.98974609375,0.096923828125,-0.1220703050494194,-1.3122557401657104,-0.6103515028953552,80.0,156990.0,0.0
14760.4962459,293760.6875,295149.15625,330473.5,324808.5,285130.21875,256028.875,222395.046875,246044.703125,0.05810546875,0.98974609375,0.096923828125,-0.1220703050494194,-1.3122557401657104,-0.6103515028953552,80.0,156991.0,0.0
14760.4962461,293760.6875,295149.15625,330473.5,324808.5,285130.21875,256028.875,222395.046875,246044.703125,0.05810546875,0.98974609375,0.096923828125,-0.1220703050494194,-1.3122557401657104,-0.6103515028953552,80.0,156992.0,0.0
14760.4962463,293760.6875,295149.15625,330473.5,324808.5,285130.21875,256028.875,222395.046875,246044.703125,0.05810546875,0.98974609375,0.096923828125,-0.1220703050494194,-1.3122557401657104,-0.6103515028953552,80.0,156993.0,0.0
14760.4962464,293760.6875,295149.15625,330473.5,324808.5,285130.21875,256028.875,222395.046875,246044.703125,0.05810546875,0.98974609375,0.096923828125,-0.1220703050494194,-1.3122557401657104,-0.6103515028953552,80.0,156994.0,0.0
14760.4962466,293826.46875,295309.125,330670.125,324883.96875,285225.15625,256089.21875,222475.859375,246083.421875,0.0556640625,0.993408203125,0.09228515625,0.4577636420726776,-1.2512205839157104,-0.9460448622703552,80.0,156995.0,1.0
14760.4962513,293797.5,295403.625,330683.25,324833.71875,285250.5625,256100.40625,222468.625,246069.65625,0.05419921875,0.995849609375,0.0947265625,0.5187987685203552,-1.2817381620407104,-0.8239745497703552,80.0,156996.0,1.0
14760.4962526,293759.5,295135.65625,330464.3125,324813.25,285116.28125,256040.9375,222413.640625,246067.5,0.051025390625,0.996337890625,0.095947265625,0.5493163466453552,-1.4038084745407104,-0.8239745497703552,80.0,156997.0,1.0
14760.4962539,293763.09375,294870.03125,330305.25,324843.90625,285000.21875,256005.8125,222381.453125,246061.515625,0.048828125,0.994140625,0.09326171875,0.5187987685203552,-1.5563963651657104,-0.7934569716453552,80.0,156998.0,1.0
14760.4962551,293806.375,294986.96875,330439.8125,324890.21875,285075.59375,256049.96875,222427.40625,246080.46875,0.052734375,0.9921875,0.090087890625,0.3356933295726776,-1.6479490995407104,-0.8239745497703552,80.0,156999.0,1.0
14760.4962563,293832.46875,295318.25,330674.3125,324889.3125,285232.21875,256108.890625,222489.09375,246094.78125,0.0537109375,0.990478515625,0.09130859375,0.3662109076976776,-1.7700194120407104,-0.8239745497703552,80.0,157000.0,1.0
14760.5206394,293793.84375,295400.5,330675.21875,324830.125,285242.59375,256091.375,222470.328125,246072.953125,0.054443359375,0.990478515625,0.0927734375,0.3662109076976776,-1.8615721464157104,-0.8850097060203552,80.0,157001.0,1.0
14760.5906242,293758.625,295138.09375,330463.75,324808.3125,285112.59375,256032.625,222408.546875,246055.078125,0.05322265625,0.9912109375,0.093017578125,0.4272460639476776,-1.8005369901657104,-0.9765624403953552,80.0,157002.0,1.0
14760.5906371,293758.25,294864.5,330300.3125,324836.5,284996.28125,255986.5,222370.625,246053.5625,0.055419921875,0.991943359375,0.09521484375,0.4272460639476776,-1.7700194120407104,-0.9765624403953552,80.0,157003.0,1.0
14760.5906385,293800.65625,294980.0,330431.65625,324882.625,285064.6875,256017.15625,222411.671875,246076.265625,0.054443359375,0.995849609375,0.094970703125,0.4272460639476776,-1.9226073026657104,-1.0070799589157104,80.0,157004.0,1.0
14760.5906397,293826.5625,295316.53125,330667.78125,324880.65625,285221.15625,256088.78125,222477.390625,246086.90625,0.052978515625,0.997802734375,0.092529296875,0.3662109076976776,-1.9836424589157104,-1.0070799589157104,80.0,157005.0,1.0
14760.5906414,293796.8125,295408.90625,330675.375,324831.3125,285243.59375,256102.984375,222474.875,246067.140625,0.053466796875,0.998779296875,0.091064453125,0.4272460639476776,-2.044677495956421,-1.0986326932907104,80.0,157006.0,1.0
14760.6160306,293763.71875,295147.90625,330469.5625,324813.15625,285116.53125,256043.984375,222415.328125,246052.75,0.053955078125,0.997802734375,0.093994140625,0.6408690810203552,-2.227782964706421,-1.0986326932907104,80.0,157007.0,1.0
14760.732159,293763.71875,295147.90625,330469.5625,324813.15625,285116.53125,256043.984375,222415.328125,246052.75,0.053955078125,0.997802734375,0.093994140625,0.6408690810203552,-2.227782964706421,-1.0986326932907104,80.0,157008.0,0.0
14760.732163,293763.71875,295147.90625,330469.5625,324813.15625,285116.53125,256043.984375,222415.328125,246052.75,0.053955078125,0.997802734375,0.093994140625,0.6408690810203552,-2.227782964706421,-1.0986326932907104,80.0,157009.0,0.0
14760.7321632,293763.71875,295147.90625,330469.5625,324813.15625,285116.53125,256043.984375,222415.328125,246052.75,0.053955078125,0.997802734375,0.093994140625,0.6408690810203552,-2.227782964706421,-1.0986326932907104,80.0,157010.0,0.0
14760.7321634,293763.71875,295147.90625,330469.5625,324813.15625,285116.53125,256043.984375,222415.328125,246052.75,0.053955078125,0.997802734375,0.093994140625,0.6408690810203552,-2.227782964706421,-1.0986326932907104,80.0,157011.0,0.0
14760.7321636,293763.71875,295147.90625,330469.5625,324813.15625,285116.53125,256043.984375,222415.328125,246052.75,0.053955078125,0.997802734375,0.093994140625,0.6408690810203552,-2.227782964706421,-1.0986326932907104,80.0,157012.0,0.0
14760.7321638,293763.71875,295147.90625,330469.5625,324813.15625,285116.53125,256043.984375,222415.328125,246052.75,0.053955078125,0.997802734375,0.093994140625,0.6408690810203552,-2.227782964706421,-1.0986326932907104,80.0,157013.0,0.0
14760.7321639,293763.71875,295147.90625,330469.5625,324813.15625,285116.53125,256043.984375,222415.328125,246052.75,0.053955078125,0.997802734375,0.093994140625,0.6408690810203552,-2.227782964706421,-1.0986326932907104,80.0,157014.0,0.0
14760.7321641,293763.71875,295147.90625,330469.5625,324813.15625,285116.53125,256043.984375,222415.328125,246052.75,0.053955078125,0.997802734375,0.093994140625,0.6408690810203552,-2.227782964706421,-1.0986326932907104,80.0,157015.0,0.0
14760.7321643,293763.71875,295147.90625,330469.5625,324813.15625,285116.53125,256043.984375,222415.328125,246052.75,0.053955078125,0.997802734375,0.093994140625,0.6408690810203552,-2.227782964706421,-1.0986326932907104,80.0,157016.0,0.0
14760.7321645,293763.71875,295147.90625,330469.5625,324813.15625,285116.53125,256043.984375,222415.328125,246052.75,0.053955078125,0.997802734375,0.093994140625,0.6408690810203552,-2.227782964706421,-1.0986326932907104,80.0,157017.0,0.0
14760.7321647,293763.71875,295147.90625,330469.5625,324813.15625,285116.53125,256043.984375,222415.328125,246052.75,0.053955078125,0.997802734375,0.093994140625,0.6408690810203552,-2.227782964706421,-1.0986326932907104,80.0,157018.0,0.0
14760.7321649,293763.71875,295147.90625,330469.5625,324813.15625,285116.53125,256043.984375,222415.328125,246052.75,0.053955078125,0.997802734375,0.093994140625,0.6408690810203552,-2.227782964706421,-1.0986326932907104,80.0,157019.0,0.0
14760.7321651,293763.71875,295147.90625,330469.5625,324813.15625,285116.53125,256043.984375,222415.328125,246052.75,0.053955078125,0.997802734375,0.093994140625,0.6408690810203552,-2.227782964706421,-1.0986326932907104,80.0,157020.0,0.0
14760.7321653,293763.71875,295147.90625,330469.5625,324813.15625,285116.53125,256043.984375,222415.328125,246052.75,0.053955078125,0.997802734375,0.093994140625,0.6408690810203552,-2.227782964706421,-1.0986326932907104,80.0,157021.0,0.0
14760.7321654,293763.71875,295147.90625,330469.5625,324813.15625,285116.53125,256043.984375,222415.328125,246052.75,0.053955078125,0.997802734375,0.093994140625,0.6408690810203552,-2.227782964706421,-1.0986326932907104,80.0,157022.0,0.0
14760.7321656,293763.71875,295147.90625,330469.5625,324813.15625,285116.53125,256043.984375,222415.328125,246052.75,0.053955078125,0.997802734375,0.093994140625,0.6408690810203552,-2.227782964706421,-1.0986326932907104,80.0,157023.0,0.0
14760.7321658,293763.71875,295147.90625,330469.5625,324813.15625,285116.53125,256043.984375,222415.328125,246052.75,0.053955078125,0.997802734375,0.093994140625,0.6408690810203552,-2.227782964706421,-1.0986326932907104,80.0,157024.0,0.0
14760.732166,293763.71875,295147.90625,330469.5625,324813.15625,285116.53125,256043.984375,222415.328125,246052.75,0.053955078125,0.997802734375,0.093994140625,0.6408690810203552,-2.227782964706421,-1.0986326932907104,80.0,157025.0,0.0
14760.7321661,293763.71875,295147.90625,330469.5625,324813.15625,285116.53125,256043.984375,222415.328125,246052.75,0.053955078125,0.997802734375,0.093994140625,0.6408690810203552,-2.227782964706421,-1.0986326932907104,80.0,157026.0,0.0
14760.7321663,293763.71875,295147.90625,330469.5625,324813.15625,285116.53125,256043.984375,222415.328125,246052.75,0.053955078125,0.997802734375,0.093994140625,0.6408690810203552,-2.227782964706421,-1.0986326932907104,80.0,157027.0,0.0
14760.7321665,293763.71875,295147.90625,330469.5625,324813.15625,285116.53125,256043.984375,222415.328125,246052.75,0.053955078125,0.997802734375,0.093994140625,0.6408690810203552,-2.227782964706421,-1.0986326932907104,80.0,157028.0,0.0
14760.7321667,293763.71875,295147.90625,330469.5625,324813.15625,285116.53125,256043.984375,222415.328125,246052.75,0.053955078125,0.997802734375,0.093994140625,0.6408690810203552,-2.227782964706421,-1.0986326932907104,80.0,157029.0,0.0
14760.7321668,293763.71875,295147.90625,330469.5625,324813.15625,285116.53125,256043.984375,222415.328125,246052.75,0.053955078125,0.997802734375,0.093994140625,0.6408690810203552,-2.227782964706421,-1.0986326932907104,80.0,157030.0,0.0
14760.732167,293763.71875,295147.90625,330469.5625,324813.15625,285116.53125,256043.984375,222415.328125,246052.75,0.053955078125,0.997802734375,0.093994140625,0.6408690810203552,-2.227782964706421,-1.0986326932907104,80.0,157031.0,0.0
14760.7321672,293763.71875,295147.90625,330469.5625,324813.15625,285116.53125,256043.984375,222415.328125,246052.75,0.053955078125,0.997802734375,0.093994140625,0.6408690810203552,-2.227782964706421,-1.0986326932907104,80.0,157032.0,0.0
14760.7321674,293763.71875,295147.90625,330469.5625,324813.15625,285116.53125,256043.984375,222415.328125,246052.75,0.053955078125,0.997802734375,0.093994140625,0.6408690810203552,-2.227782964706421,-1.0986326932907104,80.0,157033.0,0.0
14760.7321675,293763.71875,295147.90625,330469.5625,324813.15625,285116.53125,256043.984375,222415.328125,246052.75,0.053955078125,0.997802734375,0.093994140625,0.6408690810203552,-2.227782964706421,-1.0986326932907104,80.0,157034.0,0.0
14760.7321677,293763.71875,295147.90625,330469.5625,324813.15625,285116.53125,256043.984375,222415.328125,246052.75,0.053955078125,0.997802734375,0.093994140625,0.6408690810203552,-2.227782964706421,-1.0986326932907104,80.0,157035.0,0.0
14760.7321679,293759.4375,295386.625,330636.75,324799.28125,285231.59375,256100.578125,222481.40625,246060.625,0.046875,0.977294921875,0.066162109375,7.049560070037842,-8.026122093200684,-4.913329601287842,80.0,157036.0,1.0
14760.7321749,293724.75,295122.0,330421.65625,324778.09375,285099.03125,256042.375,222419.359375,246048.015625,0.047607421875,0.983642578125,0.062744140625,7.080077648162842,-8.270262718200684,-5.096435070037842,80.0,157037.0,1.0
14760.7321763,293731.09375,294866.90625,330270.65625,324813.875,284990.84375,256014.203125,222393.34375,246060.171875,0.050537109375,0.990234375,0.063720703125,6.958007335662842,-8.392333030700684,-5.126952648162842,80.0,157038.0,1.0
14760.7321775,293773.09375,294993.875,330416.90625,324860.4375,285069.59375,256048.984375,222441.984375,246084.046875,0.051025390625,0.991455078125,0.06884765625,6.774901866912842,-8.605956077575684,-5.157470226287842,80.0,157039.0,1.0
14760.7321787,293787.6875,295307.25,330636.21875,324849.375,285214.09375,256099.234375,222496.515625,246086.109375,0.05419921875,0.9931640625,0.070068359375,6.469726085662842,-8.605956077575684,-5.096435070037842,80.0,157040.0,1.0
14760.7321799,293758.0,295389.75,330637.9375,324800.46875,285235.8125,256111.671875,222495.4375,246071.796875,0.0537109375,0.99365234375,0.067626953125,5.889892101287842,-8.605956077575684,-4.882812023162842,80.0,157041.0,1.0
14760.7578758,293727.25,295120.03125,330425.125,324783.90625,285104.5625,256053.1875,222435.09375,246060.4375,0.0546875,0.99462890625,0.066162109375,5.493163585662842,-8.483885765075684,-4.699706554412842,80.0,157042.0,1.0
14760.7578852,293729.03125,294860.03125,330273.0625,324816.0,284992.09375,256012.25,222401.5625,246077.34375,0.05419921875,0.9970703125,0.06884765625,5.187987804412842,-8.300780296325684,-4.638671398162842,80.0,157043.0,1.0
14760.7935177,293769.625,294993.25,330422.0,324860.09375,285071.75,256051.21875,222440.8125,246088.34375,0.050048828125,1.00048828125,0.066650390625,4.821776866912842,-8.148192405700684,-4.638671398162842,80.0,157044.0,1.0
14760.7935353,293788.65625,295315.71875,330647.40625,324849.375,285221.15625,256111.21875,222498.125,246084.84375,0.04443359375,1.005126953125,0.06640625,4.333495616912842,-8.056639671325684,-4.577636241912842,80.0,157045.0,1.0
14760.7935367,293750.65625,295386.8125,330637.65625,324794.5625,285231.4375,256108.171875,222486.953125,246069.734375,0.04150390625,1.004150390625,0.068359375,3.753661870956421,-8.087157249450684,-4.608153820037842,80.0,157046.0,1.0
14760.7960272,293720.96875,295125.65625,330429.6875,324782.03125,285103.65625,256058.203125,222433.65625,246066.796875,0.0380859375,1.00341796875,0.069580078125,3.265380620956421,-8.056639671325684,-4.486083507537842,80.0,157047.0,1.0
14760.8463657,293727.3125,294864.9375,330277.78125,324816.46875,284990.125,256015.8125,222398.34375,246066.875,0.0341796875,1.00146484375,0.071044921875,2.838134527206421,-7.934569835662842,-4.547118663787842,80.0,157048.0,1.0
14760.8463767,293727.3125,294864.9375,330277.78125,324816.46875,284990.125,256015.8125,222398.34375,246066.875,0.0341796875,1.00146484375,0.071044921875,2.838134527206421,-7.934569835662842,-4.547118663787842,80.0,157049.0,0.0
14760.8463769,293727.3125,294864.9375,330277.78125,324816.46875,284990.125,256015.8125,222398.34375,246066.875,0.0341796875,1.00146484375,0.071044921875,2.838134527206421,-7.934569835662842,-4.547118663787842,80.0,157050.0,0.0
14760.8463771,293727.3125,294864.9375,330277.78125,324816.46875,284990.125,256015.8125,222398.34375,246066.875,0.0341796875,1.00146484375,0.071044921875,2.838134527206421,-7.934569835662842,-4.547118663787842,80.0,157051.0,0.0
14760.8463773,293727.3125,294864.9375,330277.78125,324816.46875,284990.125,256015.8125,222398.34375,246066.875,0.0341796875,1.00146484375,0.071044921875,2.838134527206421,-7.934569835662842,-4.547118663787842,80.0,157052.0,0.0
14760.8463774,293727.3125,294864.9375,330277.78125,324816.46875,284990.125,256015.8125,222398.34375,246066.875,0.0341796875,1.00146484375,0.071044921875,2.838134527206421,-7.934569835662842,-4.547118663787842,80.0,157053.0,0.0
14760.8463776,293727.3125,294864.9375,330277.78125,324816.46875,284990.125,256015.8125,222398.34375,246066.875,0.0341796875,1.00146484375,0.071044921875,2.838134527206421,-7.934569835662842,-4.547118663787842,80.0,157054.0,0.0
14760.8463778,293727.3125,294864.9375,330277.78125,324816.46875,284990.125,256015.8125,222398.34375,246066.875,0.0341796875,1.00146484375,0.071044921875,2.838134527206421,-7.934569835662842,-4.547118663787842,80.0,157055.0,0.0
14760.846378,293727.3125,294864.9375,330277.78125,324816.46875,284990.125,256015.8125,222398.34375,246066.875,0.0341796875,1.00146484375,0.071044921875,2.838134527206421,-7.934569835662842,-4.547118663787842,80.0,157056.0,0.0
14760.8463781,293727.3125,294864.9375,330277.78125,324816.46875,284990.125,256015.8125,222398.34375,246066.875,0.0341796875,1.00146484375,0.071044921875,2.838134527206421,-7.934569835662842,-4.547118663787842,80.0,157057.0,0.0
14760.8463783,293727.3125,294864.9375,330277.78125,324816.46875,284990.125,256015.8125,222398.34375,246066.875,0.0341796875,1.00146484375,0.071044921875,2.838134527206421,-7.934569835662842,-4.547118663787842,80.0,157058.0,0.0
14760.8463785,293727.3125,294864.9375,330277.78125,324816.46875,284990.125,256015.8125,222398.34375,246066.875,0.0341796875,1.00146484375,0.071044921875,2.838134527206421,-7.934569835662842,-4.547118663787842,80.0,157059.0,0.0
14760.8463787,293727.3125,294864.9375,330277.78125,324816.46875,284990.125,256015.8125,222398.34375,246066.875,0.0341796875,1.00146484375,0.071044921875,2.838134527206421,-7.934569835662842,-4.547118663787842,80.0,157060.0,0.0
14760.8463788,293727.3125,294864.9375,330277.78125,324816.46875,284990.125,256015.8125,222398.34375,246066.875,0.0341796875,1.00146484375,0.071044921875,2.838134527206421,-7.934569835662842,-4.547118663787842,80.0,157061.0,0.0
14760.846379,293727.3125,294864.9375,330277.78125,324816.46875,284990.125,256015.8125,222398.34375,246066.875,0.0341796875,1.00146484375,0.071044921875,2.838134527206421,-7.934569835662842,-4.547118663787842,80.0,157062.0,0.0
14760.8463792,293742.25,294866.28125,330278.59375,324820.84375,284991.71875,256012.515625,222394.140625,246063.921875,0.041259765625,0.99462890625,0.0869140625,0.3662109076976776,-5.584716320037842,-3.875732183456421,80.0,157063.0,1.0
14760.8463805,293787.59375,295006.21875,330430.40625,324869.75,285077.90625,256059.890625,222446.359375,246092.984375,0.0400390625,0.993408203125,0.083740234375,0.3051757514476776,-5.462646007537842,-3.753661870956421,80.0,157064.0,1.0
14760.8463817,293804.3125,295333.6875,330660.8125,324862.78125,285234.90625,256120.609375,222507.328125,246100.859375,0.038330078125,0.990478515625,0.081787109375,0.3662109076976776,-5.218505382537842,-3.601073980331421,80.0,157065.0,1.0
14760.8463829,293763.53125,295387.96875,330639.0,324800.28125,285229.71875,256095.296875,222474.171875,246064.90625,0.03955078125,0.986572265625,0.082763671875,0.3051757514476776,-5.035399913787842,-3.540038824081421,80.0,157066.0,1.0
14760.8463841,293731.09375,295106.59375,330413.875,324777.46875,285085.875,256027.71875,222407.203125,246047.390625,0.039306640625,0.986328125,0.08056640625,0.3662109076976776,-4.791259288787842,-3.448486089706421,80.0,157067.0,1.0
14760.8707239,293742.25,294855.09375,330269.21875,324819.59375,284982.4375,255993.296875,222385.109375,246070.09375,0.037841796875,0.98828125,0.08251953125,0.4577636420726776,-4.577636241912842,-3.509521245956421,80.0,157068.0,1.0
14760.9316391,293784.375,294987.34375,330419.0625,324865.90625,285065.125,256033.25,222432.40625,246086.640625,0.0361328125,0.988525390625,0.08544921875,0.4577636420726776,-4.241942882537842,-3.356933355331421,80.0,157069.0,1.0
14760.9316501,293803.5,295307.3125,330639.8125,324856.96875,285215.78125,256099.140625,222485.78125,246080.203125,0.033935546875,0.989013671875,0.084716796875,0.5798339247703552,-3.967284917831421,-3.326415777206421,80.0,157070.0,1.0
14760.9316515,293768.0,295378.75,330627.1875,324803.59375,285225.09375,256098.4375,222473.09375,246060.0,0.03369140625,0.98681640625,0.089599609375,0.5493163466453552,-3.875732183456421,-3.265380620956421,80.0,157071.0,1.0
14760.9316527,293733.84375,295107.0625,330411.625,324786.15625,285089.8125,256036.828125,222414.890625,246048.109375,0.033203125,0.985595703125,0.087158203125,0.6103515028953552,-3.753661870956421,-3.204345464706421,80.0,157072.0,1.0
14760.9316542,293740.125,294853.40625,330269.125,324820.9375,284985.90625,255995.4375,222387.34375,246061.34375,0.0322265625,0.98583984375,0.0908203125,0.7019042372703552,-3.509521245956421,-3.143310308456421,80.0,157073.0,1.0
14760.9341175,293784.1875,294986.09375,330413.15625,324866.25,285066.75,256032.984375,222430.984375,246085.03125,0.0302734375,0.983642578125,0.09033203125,0.6713866591453552,-3.326415777206421,-3.082275152206421,80.0,157074.0,1.0
14760.9341247,293784.1875,294986.09375,330413.15625,324866.25,285066.75,256032.984375,222430.984375,246085.03125,0.0302734375,0.983642578125,0.09033203125,0.6713866591453552,-3.326415777206421,-3.082275152206421,80.0,157075.0,0.0
14760.9341249,293784.1875,294986.09375,330413.15625,324866.25,285066.75,256032.984375,222430.984375,246085.03125,0.0302734375,0.983642578125,0.09033203125,0.6713866591453552,-3.326415777206421,-3.082275152206421,80.0,157076.0,0.0
14760.9341251,293784.1875,294986.09375,330413.15625,324866.25,285066.75,256032.984375,222430.984375,246085.03125,0.0302734375,0.983642578125,0.09033203125,0.6713866591453552,-3.326415777206421,-3.082275152206421,80.0,157077.0,0.0
14760.9341253,293784.1875,294986.09375,330413.15625,324866.25,285066.75,256032.984375,222430.984375,246085.03125,0.0302734375,0.983642578125,0.09033203125,0.6713866591453552,-3.326415777206421,-3.082275152206421,80.0,157078.0,0.0
14760.9341255,293784.1875,294986.09375,330413.15625,324866.25,285066.75,256032.984375,222430.984375,246085.03125,0.0302734375,0.983642578125,0.09033203125,0.6713866591453552,-3.326415777206421,-3.082275152206421,80.0,157079.0,0.0
14760.9341257,293784.1875,294986.09375,330413.15625,324866.25,285066.75,256032.984375,222430.984375,246085.03125,0.0302734375,0.983642578125,0.09033203125,0.6713866591453552,-3.326415777206421,-3.082275152206421,80.0,157080.0,0.0
14760.9341258,293784.1875,294986.09375,330413.15625,324866.25,285066.75,256032.984375,222430.984375,246085.03125,0.0302734375,0.983642578125,0.09033203125,0.6713866591453552,-3.326415777206421,-3.082275152206421,80.0,157081.0,0.0
14760.9341261,293784.1875,294986.09375,330413.15625,324866.25,285066.75,256032.984375,222430.984375,246085.03125,0.0302734375,0.983642578125,0.09033203125,0.6713866591453552,-3.326415777206421,-3.082275152206421,80.0,157082.0,0.0
14760.9341263,293784.1875,294986.09375,330413.15625,324866.25,285066.75,256032.984375,222430.984375,246085.03125,0.0302734375,0.983642578125,0.09033203125,0.6713866591453552,-3.326415777206421,-3.082275152206421,80.0,157083.0,0.0
14760.9341265,293784.1875,294986.09375,330413.15625,324866.25,285066.75,256032.984375,222430.984375,246085.03125,0.0302734375,0.983642578125,0.09033203125,0.6713866591453552,-3.326415777206421,-3.082275152206421,80.0,157084.0,0.0
14760.9341267,293784.1875,294986.09375,330413.15625,324866.25,285066.75,256032.984375,222430.984375,246085.03125,0.0302734375,0.983642578125,0.09033203125,0.6713866591453552,-3.326415777206421,-3.082275152206421,80.0,157085.0,0.0
14760.9341269,293784.1875,294986.09375,330413.15625,324866.25,285066.75,256032.984375,222430.984375,246085.03125,0.0302734375,0.983642578125,0.09033203125,0.6713866591453552,-3.326415777206421,-3.082275152206421,80.0,157086.0,0.0
14760.9341271,293784.1875,294986.09375,330413.15625,324866.25,285066.75,256032.984375,222430.984375,246085.03125,0.0302734375,0.983642578125,0.09033203125,0.6713866591453552,-3.326415777206421,-3.082275152206421,80.0,157087.0,0.0
14760.9341273,293784.1875,294986.09375,330413.15625,324866.25,285066.75,256032.984375,222430.984375,246085.03125,0.0302734375,0.983642578125,0.09033203125,0.6713866591453552,-3.326415777206421,-3.082275152206421,80.0,157088.0,0.0
14760.9341274,293784.1875,294986.09375,330413.15625,324866.25,285066.75,256032.984375,222430.984375,246085.03125,0.0302734375,0.983642578125,0.09033203125,0.6713866591453552,-3.326415777206421,-3.082275152206421,80.0,157089.0,0.0
14760.9341276,293784.1875,294986.09375,330413.15625,324866.25,285066.75,256032.984375,222430.984375,246085.03125,0.0302734375,0.983642578125,0.09033203125,0.6713866591453552,-3.326415777206421,-3.082275152206421,80.0,157090.0,0.0
14760.9341278,293784.1875,294986.09375,330413.15625,324866.25,285066.75,256032.984375,222430.984375,246085.03125,0.0302734375,0.983642578125,0.09033203125,0.6713866591453552,-3.326415777206421,-3.082275152206421,80.0,157091.0,0.0
14760.934128,293784.1875,294986.09375,330413.15625,324866.25,285066.75,256032.984375,222430.984375,246085.03125,0.0302734375,0.983642578125,0.09033203125,0.6713866591453552,-3.326415777206421,-3.082275152206421,80.0,157092.0,0.0
14760.9341282,293784.1875,294986.09375,330413.15625,324866.25,285066.75,256032.984375,222430.984375,246085.03125,0.0302734375,0.983642578125,0.09033203125,0.6713866591453552,-3.326415777206421,-3.082275152206421,80.0,157093.0,0.0
14760.9341284,293784.1875,294986.09375,330413.15625,324866.25,285066.75,256032.984375,222430.984375,246085.03125,0.0302734375,0.983642578125,0.09033203125,0.6713866591453552,-3.326415777206421,-3.082275152206421,80.0,157094.0,0.0
14760.9341286,293802.96875,295298.5625,330602.78125,324850.875,285205.6875,256096.5625,222493.125,246090.296875,0.0302734375,0.982421875,0.105224609375,-1.2512205839157104,2.532958745956421,-0.5493163466453552,80.0,157095.0,1.0
14761.0366886,293777.125,295375.1875,330599.5625,324805.1875,285222.21875,256094.046875,222476.3125,246072.953125,0.03076171875,0.984619140625,0.103759765625,-1.1291502714157104,2.716064214706421,-0.4577636420726776,80.0,157096.0,1.0
14761.0367024,293742.71875,295105.34375,330385.25,324786.34375,285082.21875,256025.921875,222412.109375,246066.171875,0.03076171875,0.986572265625,0.1025390625,-1.1291502714157104,2.807616949081421,-0.3662109076976776,80.0,157097.0,1.0
14761.036704,293746.09375,294844.1875,330235.78125,324818.96875,284969.1875,255979.515625,222381.265625,246081.453125,0.0302734375,0.98583984375,0.099609375,-1.2207030057907104,2.899169683456421,-0.3662109076976776,80.0,157098.0,1.0
14761.0367054,293796.4375,294995.375,330398.6875,324866.09375,285060.125,256030.578125,222433.9375,246094.15625,0.03271484375,0.9873046875,0.100830078125,-1.0986326932907104,3.051757574081421,-0.2136230319738388,80.0,157099.0,1.0
14761.0367068,293813.15625,295321.625,330629.625,324854.0,285214.4375,256101.734375,222489.359375,246088.15625,0.030517578125,0.98876953125,0.09912109375,-1.0681151151657104,3.234863042831421,-0.3051757514476776,80.0,157100.0,1.0
14761.087676,293782.125,295388.6875,330624.0625,324804.03125,285228.75,256103.703125,222478.28125,246068.671875,0.03076171875,0.989013671875,0.098876953125,-1.0986326932907104,3.356933355331421,-0.2136230319738388,80.0,157101.0,1.0
14761.087694,293755.125,295119.75,330419.6875,324791.0625,285102.78125,256046.671875,222423.65625,246059.90625,0.02880859375,0.990966796875,0.1005859375,-1.0986326932907104,3.509521245956421,-0.1220703050494194,80.0,157102.0,1.0
14761.0876954,293758.34375,294869.40625,330278.34375,324823.6875,284995.125,256008.484375,222394.40625,246072.15625,0.028564453125,0.9921875,0.10107421875,-1.0070799589157104,3.631591558456421,-0.2136230319738388,80.0,157103.0,1.0
14761.0876967,293788.75,294993.6875,330406.53125,324857.0625,285059.0625,256036.390625,222430.984375,246088.0625,0.027587890625,0.99365234375,0.100830078125,-0.7324218153953552,3.692626714706421,-0.3051757514476776,80.0,157104.0,1.0
14761.0876983,293803.9375,295316.90625,330627.09375,324846.6875,285208.1875,256100.671875,222491.78125,246090.65625,0.026611328125,0.9951171875,0.101806640625,-0.7019042372703552,3.692626714706421,-0.2746581733226776,80.0,157105.0,1.0
14761.0876997,293772.9375,295385.5625,330621.46875,324798.65625,285222.75,256101.109375,222480.421875,246072.953125,0.027587890625,0.996826171875,0.10302734375,-0.6408690810203552,3.662109136581421,-0.4272460639476776,80.0,157106.0,1.0
14761.0877016,293737.53125,295107.0625,330409.3125,324779.1875,285088.125,256033.515625,222414.4375,246058.921875,0.026611328125,0.995361328125,0.1025390625,-0.5798339247703552,3.601073980331421,-0.5187987685203552,80.0,157107.0,1.0
14761.1643552,293748.53125,294851.8125,330267.0625,324816.28125,284982.4375,255995.53125,222385.5625,246074.65625,0.02587890625,0.992431640625,0.105712890625,-0.5493163466453552,3.662109136581421,-0.7324218153953552,80.0,157108.0,1.0
14761.1643686,293748.53125,294851.8125,330267.0625,324816.28125,284982.4375,255995.53125,222385.5625,246074.65625,0.02587890625,0.992431640625,0.105712890625,-0.5493163466453552,3.662109136581421,-0.7324218153953552,80.0,157109.0,0.0
14761.1643689,293748.53125,294851.8125,330267.0625,324816.28125,284982.4375,255995.53125,222385.5625,246074.65625,0.02587890625,0.992431640625,0.105712890625,-0.5493163466453552,3.662109136581421,-0.7324218153953552,80.0,157110.0,0.0
14761.1643691,293748.53125,294851.8125,330267.0625,324816.28125,284982.4375,255995.53125,222385.5625,246074.65625,0.02587890625,0.992431640625,0.105712890625,-0.5493163466453552,3.662109136581421,-0.7324218153953552,80.0,157111.0,0.0
14761.1643693,293748.53125,294851.8125,330267.0625,324816.28125,284982.4375,255995.53125,222385.5625,246074.65625,0.02587890625,0.992431640625,0.105712890625,-0.5493163466453552,3.662109136581421,-0.7324218153953552,80.0,157112.0,0.0
14761.1643696,293748.53125,294851.8125,330267.0625,324816.28125,284982.4375,255995.53125,222385.5625,246074.65625,0.02587890625,0.992431640625,0.105712890625,-0.5493163466453552,3.662109136581421,-0.7324218153953552,80.0,157113.0,0.0
14761.1643699,293748.53125,294851.8125,330267.0625,324816.28125,284982.4375,255995.53125,222385.5625,246074.65625,0.02587890625,0.992431640625,0.105712890625,-0.5493163466453552,3.662109136581421,-0.7324218153953552,80.0,157114.0,0.0
14761.1643701,293812.1875,295314.03125,330636.40625,324853.125,285216.6875,256093.609375,222492.046875,246094.59375,0.039306640625,0.998046875,0.111083984375,-0.4882812201976776,4.058837413787842,-0.9460448622703552,80.0,157115.0,1.0
14761.1643716,293775.96875,295373.75,330622.8125,324799.5625,285224.71875,256087.171875,222477.828125,246071.96875,0.039794921875,0.995361328125,0.110107421875,-0.5798339247703552,4.364013195037842,-0.9460448622703552,80.0,157116.0,1.0
14761.1643729,293745.03125,295103.9375,330407.78125,324783.28125,285091.96875,256039.15625,222426.15625,246060.796875,0.03955078125,0.99462890625,0.109375,-0.6103515028953552,4.486083507537842,-0.8239745497703552,80.0,157117.0,1.0
14761.1643742,293753.15625,294854.65625,330271.1875,324822.0,284992.25,256006.515625,222402.375,246070.546875,0.0361328125,0.99072265625,0.10986328125,-0.5493163466453552,4.699706554412842,-0.8850097060203552,80.0,157118.0,1.0
14761.1660763,293791.4375,294994.84375,330422.71875,324862.78125,285078.09375,256045.234375,222450.65625,246090.390625,0.03271484375,0.987548828125,0.111328125,-0.4272460639476776,4.882812023162842,-0.9765624403953552,80.0,157119.0,1.0
14761.2161058,293804.5,295312.875,330641.0625,324844.0,285222.40625,256091.015625,222493.203125,246085.65625,0.02978515625,0.984130859375,0.107666015625,-0.2746581733226776,4.974364757537842,-1.0070799589157104,80.0,157120.0,1.0
14761.2161248,293777.40625,295379.65625,330633.1875,324796.625,285234.75,256086.546875,222482.296875,246067.328125,0.024169921875,0.981689453125,0.108154296875,-0.0610351525247097,5.065917491912842,-1.0681151151657104,80.0,157121.0,1.0
14761.2161263,293741.625,295093.46875,330407.34375,324777.75,285093.21875,256030.125,222425.265625,246058.828125,0.0224609375,0.981689453125,0.10791015625,0.0,4.943847179412842,-1.1596678495407104,80.0,157122.0,1.0
14761.2161276,293748.4375,294843.125,330261.96875,324811.8125,284988.40625,255998.390625,222399.328125,246070.640625,0.017822265625,0.9833984375,0.10791015625,0.1831054538488388,4.974364757537842,-1.2512205839157104,80.0,157123.0,1.0
14761.216129,293792.25,294987.96875,330407.71875,324856.6875,285071.75,256034.859375,222443.5,246093.34375,0.013916015625,0.9853515625,0.10546875,0.4882812201976776,4.852294445037842,-1.1901854276657104,80.0,157124.0,1.0
14761.2161306,293807.78125,295311.96875,330625.3125,324845.59375,285217.5625,256095.03125,222500.8125,246094.953125,0.0146484375,0.987548828125,0.1064453125,0.6713866591453552,4.760741710662842,-1.1291502714157104,80.0,157125.0,1.0
14761.2429781,293773.28125,295380.46875,330623.8125,324793.3125,285231.34375,256095.21875,222489.71875,246069.5625,0.01318359375,0.988525390625,0.10986328125,0.7629393935203552,4.547118663787842,-1.1291502714157104,80.0,157126.0,1.0
14761.2429926,293773.28125,295380.46875,330623.8125,324793.3125,285231.34375,256095.21875,222489.71875,246069.5625,0.01318359375,0.988525390625,0.10986328125,0.7629393935203552,4.547118663787842,-1.1291502714157104,80.0,157127.0,0.0
14761.2429928,293773.28125,295380.46875,330623.8125,324793.3125,285231.34375,256095.21875,222489.71875,246069.5625,0.01318359375,0.988525390625,0.10986328125,0.7629393935203552,4.547118663787842,-1.1291502714157104,80.0,157128.0,0.0
14761.242993,293773.28125,295380.46875,330623.8125,324793.3125,285231.34375,256095.21875,222489.71875,246069.5625,0.01318359375,0.988525390625,0.10986328125,0.7629393935203552,4.547118663787842,-1.1291502714157104,80.0,157129.0,0.0
14761.2429933,293773.28125,295380.46875,330623.8125,324793.3125,285231.34375,256095.21875,222489.71875,246069.5625,0.01318359375,0.988525390625,0.10986328125,0.7629393935203552,4.547118663787842,-1.1291502714157104,80.0,157130.0,0.0
14761.2429935,293773.28125,295380.46875,330623.8125,324793.3125,285231.34375,256095.21875,222489.71875,246069.5625,0.01318359375,0.988525390625,0.10986328125,0.7629393935203552,4.547118663787842,-1.1291502714157104,80.0,157131.0,0.0
14761.2429936,293773.28125,295380.46875,330623.8125,324793.3125,285231.34375,256095.21875,222489.71875,246069.5625,0.01318359375,0.988525390625,0.10986328125,0.7629393935203552,4.547118663787842,-1.1291502714157104,80.0,157132.0,0.0
14761.2429938,293773.28125,295380.46875,330623.8125,324793.3125,285231.34375,256095.21875,222489.71875,246069.5625,0.01318359375,0.988525390625,0.10986328125,0.7629393935203552,4.547118663787842,-1.1291502714157104,80.0,157133.0,0.0
14761.242994,293773.28125,295380.46875,330623.8125,324793.3125,285231.34375,256095.21875,222489.71875,246069.5625,0.01318359375,0.988525390625,0.10986328125,0.7629393935203552,4.547118663787842,-1.1291502714157104,80.0,157134.0,0.0
14761.2429942,293773.28125,295380.46875,330623.8125,324793.3125,285231.34375,256095.21875,222489.71875,246069.5625,0.01318359375,0.988525390625,0.10986328125,0.7629393935203552,4.547118663787842,-1.1291502714157104,80.0,157135.0,0.0
14761.2429943,293773.28125,295380.46875,330623.8125,324793.3125,285231.34375,256095.21875,222489.71875,246069.5625,0.01318359375,0.988525390625,0.10986328125,0.7629393935203552,4.547118663787842,-1.1291502714157104,80.0,157136.0,0.0
14761.2429945,293773.28125,295380.46875,330623.8125,324793.3125,285231.34375,256095.21875,222489.71875,246069.5625,0.01318359375,0.988525390625,0.10986328125,0.7629393935203552,4.547118663787842,-1.1291502714157104,80.0,157137.0,0.0
14761.2429947,293773.28125,295380.46875,330623.8125,324793.3125,285231.34375,256095.21875,222489.71875,246069.5625,0.01318359375,0.988525390625,0.10986328125,0.7629393935203552,4.547118663787842,-1.1291502714157104,80.0,157138.0,0.0
14761.2429949,293773.28125,295380.46875,330623.8125,324793.3125,285231.34375,256095.21875,222489.71875,246069.5625,0.01318359375,0.988525390625,0.10986328125,0.7629393935203552,4.547118663787842,-1.1291502714157104,80.0,157139.0,0.0
14761.242995,293773.28125,295380.46875,330623.8125,324793.3125,285231.34375,256095.21875,222489.71875,246069.5625,0.01318359375,0.988525390625,0.10986328125,0.7629393935203552,4.547118663787842,-1.1291502714157104,80.0,157140.0,0.0
14761.2429952,293773.28125,295380.46875,330623.8125,324793.3125,285231.34375,256095.21875,222489.71875,246069.5625,0.01318359375,0.988525390625,0.10986328125,0.7629393935203552,4.547118663787842,-1.1291502714157104,80.0,157141.0,0.0
14761.2429954,293773.28125,295380.46875,330623.8125,324793.3125,285231.34375,256095.21875,222489.71875,246069.5625,0.01318359375,0.988525390625,0.10986328125,0.7629393935203552,4.547118663787842,-1.1291502714157104,80.0,157142.0,0.0
14761.2429956,293773.28125,295380.46875,330623.8125,324793.3125,285231.34375,256095.21875,222489.71875,246069.5625,0.01318359375,0.988525390625,0.10986328125,0.7629393935203552,4.547118663787842,-1.1291502714157104,80.0,157143.0,0.0
14761.2429958,293773.28125,295380.46875,330623.8125,324793.3125,285231.34375,256095.21875,222489.71875,246069.5625,0.01318359375,0.988525390625,0.10986328125,0.7629393935203552,4.547118663787842,-1.1291502714157104,80.0,157144.0,0.0
14761.2429959,293773.28125,295380.46875,330623.8125,324793.3125,285231.34375,256095.21875,222489.71875,246069.5625,0.01318359375,0.988525390625,0.10986328125,0.7629393935203552,4.547118663787842,-1.1291502714157104,80.0,157145.0,0.0
14761.2429962,293773.28125,295380.46875,330623.8125,324793.3125,285231.34375,256095.21875,222489.71875,246069.5625,0.01318359375,0.988525390625,0.10986328125,0.7629393935203552,4.547118663787842,-1.1291502714157104,80.0,157146.0,0.0
14761.2429964,293773.28125,295380.46875,330623.8125,324793.3125,285231.34375,256095.21875,222489.71875,246069.5625,0.01318359375,0.988525390625,0.10986328125,0.7629393935203552,4.547118663787842,-1.1291502714157104,80.0,157147.0,0.0
14761.2429966,293773.28125,295380.46875,330623.8125,324793.3125,285231.34375,256095.21875,222489.71875,246069.5625,0.01318359375,0.988525390625,0.10986328125,0.7629393935203552,4.547118663787842,-1.1291502714157104,80.0,157148.0,0.0
14761.2429968,293773.28125,295380.46875,330623.8125,324793.3125,285231.34375,256095.21875,222489.71875,246069.5625,0.01318359375,0.988525390625,0.10986328125,0.7629393935203552,4.547118663787842,-1.1291502714157104,80.0,157149.0,0.0
14761.242997,293773.28125,295380.46875,330623.8125,324793.3125,285231.34375,256095.21875,222489.71875,246069.5625,0.01318359375,0.988525390625,0.10986328125,0.7629393935203552,4.547118663787842,-1.1291502714157104,80.0,157150.0,0.0
14761.2429971,293773.28125,295380.46875,330623.8125,324793.3125,285231.34375,256095.21875,222489.71875,246069.5625,0.01318359375,0.988525390625,0.10986328125,0.7629393935203552,4.547118663787842,-1.1291502714157104,80.0,157151.0,0.0
14761.2429973,293773.28125,295380.46875,330623.8125,324793.3125,285231.34375,256095.21875,222489.71875,246069.5625,0.01318359375,0.988525390625,0.10986328125,0.7629393935203552,4.547118663787842,-1.1291502714157104,80.0,157152.0,0.0
14761.2429975,293773.28125,295380.46875,330623.8125,324793.3125,285231.34375,256095.21875,222489.71875,246069.5625,0.01318359375,0.988525390625,0.10986328125,0.7629393935203552,4.547118663787842,-1.1291502714157104,80.0,157153.0,0.0
14761.2429977,293773.28125,295380.46875,330623.8125,324793.3125,285231.34375,256095.21875,222489.71875,246069.5625,0.01318359375,0.988525390625,0.10986328125,0.7629393935203552,4.547118663787842,-1.1291502714157104,80.0,157154.0,0.0
14761.242998,293773.28125,295380.46875,330623.8125,324793.3125,285231.34375,256095.21875,222489.71875,246069.5625,0.01318359375,0.988525390625,0.10986328125,0.7629393935203552,4.547118663787842,-1.1291502714157104,80.0,157155.0,0.0
14761.2429981,293773.28125,295380.46875,330623.8125,324793.3125,285231.34375,256095.21875,222489.71875,246069.5625,0.01318359375,0.988525390625,0.10986328125,0.7629393935203552,4.547118663787842,-1.1291502714157104,80.0,157156.0,0.0
14761.2429983,293743.40625,295113.5,330436.9375,324782.21875,285104.1875,256049.609375,222440.375,246061.609375,0.065673828125,0.98681640625,0.021484375,8.483885765075684,-0.3662109076976776,6.225585460662842,80.0,157157.0,1.0
14761.2685106,293742.78125,294841.53125,330264.03125,324807.78125,284983.9375,256009.65625,222403.4375,246065.8125,0.065185546875,0.984375,0.0224609375,8.514403343200684,-0.4882812201976776,5.554198741912842,80.0,157158.0,1.0
14761.2685199,293784.46875,294986.96875,330403.15625,324849.90625,285065.3125,256049.4375,222454.578125,246090.578125,0.065185546875,0.986328125,0.024169921875,8.605956077575684,-0.7324218153953552,5.126952648162842,80.0,157159.0,1.0
14761.2685212,293807.25,295330.84375,330644.90625,324844.90625,285225.15625,256096.46875,222507.25,246093.4375,0.064697265625,0.99072265625,0.029296875,8.666991233825684,-0.8850097060203552,4.394530773162842,80.0,157160.0,1.0
14761.2923163,293776.3125,295403.96875,330657.96875,324797.9375,285244.46875,256092.0,222492.671875,246071.625,0.070556640625,0.993896484375,0.03271484375,8.544920921325684,-1.1596678495407104,3.723144292831421,80.0,157161.0,1.0
14761.3751613,293738.3125,295106.6875,330433.8125,324777.5625,285103.65625,256038.53125,222429.8125,246059.90625,0.073974609375,0.996337890625,0.03466796875,8.422850608825684,-1.2817381620407104,3.204345464706421,80.0,157162.0,1.0
14761.3751726,293736.625,294823.0,330253.9375,324801.15625,284977.25,256000.171875,222399.953125,246067.234375,0.076904296875,1.00048828125,0.036376953125,7.965087413787842,-1.4038084745407104,2.716064214706421,80.0,157163.0,1.0
14761.3751739,293789.65625,294979.84375,330400.28125,324852.9375,285067.09375,256058.921875,222469.78125,246099.328125,0.080810546875,1.001708984375,0.03662109375,7.537841320037842,-1.4953612089157104,2.258300542831421,80.0,157164.0,1.0
14761.3751751,293812.53125,295334.78125,330646.96875,324847.5625,285225.53125,256103.34375,222517.4375,246103.796875,0.08203125,1.005126953125,0.031494140625,7.080077648162842,-1.5869139432907104,1.8310545682907104,80.0,157165.0,1.0
14761.3751764,293778.125,295403.1875,330658.59375,324794.1875,285239.84375,256084.65625,222490.078125,246074.921875,0.08251953125,1.00341796875,0.034912109375,6.591796398162842,-1.4648436307907104,1.3122557401657104,80.0,157166.0,1.0
14761.3751867,293753.0625,295110.90625,330439.53125,324780.34375,285100.1875,256034.59375,222426.59375,246057.21875,0.083984375,1.005859375,0.035888671875,6.011962413787842,-1.4038084745407104,0.8239745497703552,80.0,157167.0,1.0
14761.4244702,293754.25,294829.90625,330255.34375,324806.34375,284971.0,255991.765625,222393.515625,246066.96875,0.084228515625,1.0078125,0.0400390625,5.432128429412842,-1.3122557401657104,0.3967284858226776,80.0,157168.0,1.0
14761.4244756,293792.3125,294979.84375,330392.15625,324845.59375,285051.375,256045.59375,222451.984375,246086.453125,0.08544921875,1.011962890625,0.047607421875,4.821776866912842,-1.2207030057907104,0.0,80.0,157169.0,1.0
14761.4244769,293818.96875,295338.0,330646.59375,324847.21875,285223.375,256119.625,222524.6875,246097.90625,0.08544921875,1.013916015625,0.050048828125,4.180907726287842,-1.1291502714157104,-0.3356933295726776,80.0,157170.0,1.0
14761.4244791,293818.96875,295338.0,330646.59375,324847.21875,285223.375,256119.625,222524.6875,246097.90625,0.08544921875,1.013916015625,0.050048828125,4.180907726287842,-1.1291502714157104,-0.3356933295726776,80.0,157171.0,0.0
14761.4244793,293818.96875,295338.0,330646.59375,324847.21875,285223.375,256119.625,222524.6875,246097.90625,0.08544921875,1.013916015625,0.050048828125,4.180907726287842,-1.1291502714157104,-0.3356933295726776,80.0,157172.0,0.0
14761.4244795,293818.96875,295338.0,330646.59375,324847.21875,285223.375,256119.625,222524.6875,246097.90625,0.08544921875,1.013916015625,0.050048828125,4.180907726287842,-1.1291502714157104,-0.3356933295726776,80.0,157173.0,0.0
14761.4244797,293818.96875,295338.0,330646.59375,324847.21875,285223.375,256119.625,222524.6875,246097.90625,0.08544921875,1.013916015625,0.050048828125,4.180907726287842,-1.1291502714157104,-0.3356933295726776,80.0,157174.0,0.0
14761.4244798,293818.96875,295338.0,330646.59375,324847.21875,285223.375,256119.625,222524.6875,246097.90625,0.08544921875,1.013916015625,0.050048828125,4.180907726287842,-1.1291502714157104,-0.3356933295726776,80.0,157175.0,0.0
14761.42448,293818.96875,295338.0,330646.59375,324847.21875,285223.375,256119.625,222524.6875,246097.90625,0.08544921875,1.013916015625,0.050048828125,4.180907726287842,-1.1291502714157104,-0.3356933295726776,80.0,157176.0,0.0
14761.4244802,293818.96875,295338.0,330646.59375,324847.21875,285223.375,256119.625,222524.6875,246097.90625,0.08544921875,1.013916015625,0.050048828125,4.180907726287842,-1.1291502714157104,-0.3356933295726776,80.0,157177.0,0.0
14761.4244804,293818.96875,295338.0,330646.59375,324847.21875,285223.375,256119.625,222524.6875,246097.90625,0.08544921875,1.013916015625,0.050048828125,4.180907726287842,-1.1291502714157104,-0.3356933295726776,80.0,157178.0,0.0
14761.4244809,293818.96875,295338.0,330646.59375,324847.21875,285223.375,256119.625,222524.6875,246097.90625,0.08544921875,1.013916015625,0.050048828125,4.180907726287842,-1.1291502714157104,-0.3356933295726776,80.0,157179.0,0.0
14761.4244811,293818.96875,295338.0,330646.59375,324847.21875,285223.375,256119.625,222524.6875,246097.90625,0.08544921875,1.013916015625,0.050048828125,4.180907726287842,-1.1291502714157104,-0.3356933295726776,80.0,157180.0,0.0
14761.4244816,293818.96875,295338.0,330646.59375,324847.21875,285223.375,256119.625,222524.6875,246097.90625,0.08544921875,1.013916015625,0.050048828125,4.180907726287842,-1.1291502714157104,-0.3356933295726776,80.0,157181.0,0.0
14761.4244817,293818.96875,295338.0,330646.59375,324847.21875,285223.375,256119.625,222524.6875,246097.90625,0.08544921875,1.013916015625,0.050048828125,4.180907726287842,-1.1291502714157104,-0.3356933295726776,80.0,157182.0,0.0
14761.4244819,293818.96875,295338.0,330646.59375,324847.21875,285223.375,256119.625,222524.6875,246097.90625,0.08544921875,1.013916015625,0.050048828125,4.180907726287842,-1.1291502714157104,-0.3356933295726776,80.0,157183.0,0.0
14761.4244821,293818.96875,295338.0,330646.59375,324847.21875,285223.375,256119.625,222524.6875,246097.90625,0.08544921875,1.013916015625,0.050048828125,4.180907726287842,-1.1291502714157104,-0.3356933295726776,80.0,157184.0,0.0
14761.4244823,293818.96875,295338.0,330646.59375,324847.21875,285223.375,256119.625,222524.6875,246097.90625,0.08544921875,1.013916015625,0.050048828125,4.180907726287842,-1.1291502714157104,-0.3356933295726776,80.0,157185.0,0.0
14761.4244824,293818.96875,295338.0,330646.59375,324847.21875,285223.375,256119.625,222524.6875,246097.90625,0.08544921875,1.013916015625,0.050048828125,4.180907726287842,-1.1291502714157104,-0.3356933295726776,80.0,157186.0,0.0
14761.4244826,293818.96875,295338.0,330646.59375,324847.21875,285223.375,256119.625,222524.6875,246097.90625,0.08544921875,1.013916015625,0.050048828125,4.180907726287842,-1.1291502714157104,-0.3356933295726776,80.0,157187.0,0.0
14761.4244828,293818.96875,295338.0,330646.59375,324847.21875,285223.375,256119.625,222524.6875,246097.90625,0.08544921875,1.013916015625,0.050048828125,4.180907726287842,-1.1291502714157104,-0.3356933295726776,80.0,157188.0,0.0
14761.424483,293794.5625,294987.15625,330387.78125,324843.8125,285062.375,256037.375,222452.171875,246086.8125,0.047119140625,0.971435546875,0.077880859375,-1.1291502714157104,-0.0610351525247097,-4.455565929412842,80.0,157189.0,1.0
14761.4244843,293815.75,295331.90625,330621.5625,324837.375,285215.5,256094.765625,222510.734375,246093.96875,0.044189453125,0.973876953125,0.07958984375,-1.1901854276657104,-0.4577636420726776,-4.730224132537842,80.0,157190.0,1.0
14761.4244856,293785.8125,295402.28125,330634.875,324791.34375,285233.9375,256090.75,222498.65625,246076.453125,0.04248046875,0.97607421875,0.080810546875,-1.0986326932907104,-0.7934569716453552,-4.821776866912842,80.0,157191.0,1.0
14761.4503984,293748.25,295103.03125,330407.96875,324770.40625,285089.1875,256033.796875,222436.875,246061.515625,0.040771484375,0.979736328125,0.080078125,-1.0986326932907104,-1.3427733182907104,-4.974364757537842,80.0,157192.0,1.0
14761.4504037,293750.5625,294832.21875,330234.4375,324799.84375,284966.59375,255995.078125,222405.953125,246068.578125,0.03857421875,0.979736328125,0.07958984375,-1.0986326932907104,-1.7089842557907104,-5.065917491912842,80.0,157193.0,1.0
14761.5026703,293795.1875,294989.65625,330376.21875,324842.46875,285050.90625,256038.890625,222460.3125,246092.625,0.03662109375,0.9814453125,0.081787109375,-1.0070799589157104,-2.136230230331421,-5.096435070037842,80.0,157194.0,1.0
14761.5026792,293812.96875,295334.59375,330622.8125,324833.53125,285215.25,256101.65625,222522.171875,246097.546875,0.03564453125,0.980224609375,0.081787109375,-1.0681151151657104,-2.746581792831421,-5.157470226287842,80.0,157195.0,1.0
14761.5026805,293780.71875,295400.5,330637.125,324785.0,285235.90625,256092.796875,222499.640625,246071.890625,0.033203125,0.98046875,0.082763671875,-1.0375975370407104,-3.112792730331421,-5.340575695037842,80.0,157196.0,1.0
14761.5026817,293737.78125,295092.84375,330405.375,324762.28125,285086.15625,256025.921875,222430.71875,246055.078125,0.031982421875,0.98046875,0.0849609375,-0.9765624403953552,-3.570556402206421,-5.462646007537842,80.0,157197.0,1.0
14761.5272264,293742.34375,294825.59375,330238.0,324794.09375,284969.1875,255996.59375,222406.84375,246068.21875,0.03076171875,0.9814453125,0.080810546875,-0.9765624403953552,-4.089354991912842,-5.523681163787842,80.0,157198.0,1.0
14761.5529084,293742.34375,294825.59375,330238.0,324794.09375,284969.1875,255996.59375,222406.84375,246068.21875,0.03076171875,0.9814453125,0.080810546875,-0.9765624403953552,-4.089354991912842,-5.523681163787842,80.0,157199.0,0.0
14761.5529095,293742.34375,294825.59375,330238.0,324794.09375,284969.1875,255996.59375,222406.84375,246068.21875,0.03076171875,0.9814453125,0.080810546875,-0.9765624403953552,-4.089354991912842,-5.523681163787842,80.0,157200.0,0.0
14761.5529097,293742.34375,294825.59375,330238.0,324794.09375,284969.1875,255996.59375,222406.84375,246068.21875,0.03076171875,0.9814453125,0.080810546875,-0.9765624403953552,-4.089354991912842,-5.523681163787842,80.0,157201.0,0.0
14761.5529099,293742.34375,294825.59375,330238.0,324794.09375,284969.1875,255996.59375,222406.84375,246068.21875,0.03076171875,0.9814453125,0.080810546875,-0.9765624403953552,-4.089354991912842,-5.523681163787842,80.0,157202.0,0.0
14761.5529101,293742.34375,294825.59375,330238.0,324794.09375,284969.1875,255996.59375,222406.84375,246068.21875,0.03076171875,0.9814453125,0.080810546875,-0.9765624403953552,-4.089354991912842,-5.523681163787842,80.0,157203.0,0.0
14761.5529102,293742.34375,294825.59375,330238.0,324794.09375,284969.1875,255996.59375,222406.84375,246068.21875,0.03076171875,0.9814453125,0.080810546875,-0.9765624403953552,-4.089354991912842,-5.523681163787842,80.0,157204.0,0.0
14761.5529104,293742.34375,294825.59375,330238.0,324794.09375,284969.1875,255996.59375,222406.84375,246068.21875,0.03076171875,0.9814453125,0.080810546875,-0.9765624403953552,-4.089354991912842,-5.523681163787842,80.0,157205.0,0.0
14761.5529106,293742.34375,294825.59375,330238.0,324794.09375,284969.1875,255996.59375,222406.84375,246068.21875,0.03076171875,0.9814453125,0.080810546875,-0.9765624403953552,-4.089354991912842,-5.523681163787842,80.0,157206.0,0.0
14761.5529108,293742.34375,294825.59375,330238.0,324794.09375,284969.1875,255996.59375,222406.84375,246068.21875,0.03076171875,0.9814453125,0.080810546875,-0.9765624403953552,-4.089354991912842,-5.523681163787842,80.0,157207.0,0.0
14761.5529109,293742.34375,294825.59375,330238.0,324794.09375,284969.1875,255996.59375,222406.84375,246068.21875,0.03076171875,0.9814453125,0.080810546875,-0.9765624403953552,-4.089354991912842,-5.523681163787842,80.0,157208.0,0.0
14761.5529111,293742.34375,294825.59375,330238.0,324794.09375,284969.1875,255996.59375,222406.84375,246068.21875,0.03076171875,0.9814453125,0.080810546875,-0.9765624403953552,-4.089354991912842,-5.523681163787842,80.0,157209.0,0.0
14761.5529113,293742.34375,294825.59375,330238.0,324794.09375,284969.1875,255996.59375,222406.84375,246068.21875,0.03076171875,0.9814453125,0.080810546875,-0.9765624403953552,-4.089354991912842,-5.523681163787842,80.0,157210.0,0.0
14761.5529114,293742.34375,294825.59375,330238.0,324794.09375,284969.1875,255996.59375,222406.84375,246068.21875,0.03076171875,0.9814453125,0.080810546875,-0.9765624403953552,-4.089354991912842,-5.523681163787842,80.0,157211.0,0.0
14761.5529116,293742.34375,294825.59375,330238.0,324794.09375,284969.1875,255996.59375,222406.84375,246068.21875,0.03076171875,0.9814453125,0.080810546875,-0.9765624403953552,-4.089354991912842,-5.523681163787842,80.0,157212.0,0.0
14761.5529118,293742.34375,294825.59375,330238.0,324794.09375,284969.1875,255996.59375,222406.84375,246068.21875,0.03076171875,0.9814453125,0.080810546875,-0.9765624403953552,-4.089354991912842,-5.523681163787842,80.0,157213.0,0.0
14761.552912,293742.34375,294825.59375,330238.0,324794.09375,284969.1875,255996.59375,222406.84375,246068.21875,0.03076171875,0.9814453125,0.080810546875,-0.9765624403953552,-4.089354991912842,-5.523681163787842,80.0,157214.0,0.0
14761.5529121,293742.34375,294825.59375,330238.0,324794.09375,284969.1875,255996.59375,222406.84375,246068.21875,0.03076171875,0.9814453125,0.080810546875,-0.9765624403953552,-4.089354991912842,-5.523681163787842,80.0,157215.0,0.0
14761.5529123,293742.34375,294825.59375,330238.0,324794.09375,284969.1875,255996.59375,222406.84375,246068.21875,0.03076171875,0.9814453125,0.080810546875,-0.9765624403953552,-4.089354991912842,-5.523681163787842,80.0,157216.0,0.0
14761.5529125,293742.34375,294825.59375,330238.0,324794.09375,284969.1875,255996.59375,222406.84375,246068.21875,0.03076171875,0.9814453125,0.080810546875,-0.9765624403953552,-4.089354991912842,-5.523681163787842,80.0,157217.0,0.0
14761.5529127,293742.34375,294825.59375,330238.0,324794.09375,284969.1875,255996.59375,222406.84375,246068.21875,0.03076171875,0.9814453125,0.080810546875,-0.9765624403953552,-4.089354991912842,-5.523681163787842,80.0,157218.0,0.0
14761.5529128,293742.34375,294825.59375,330238.0,324794.09375,284969.1875,255996.59375,222406.84375,246068.21875,0.03076171875,0.9814453125,0.080810546875,-0.9765624403953552,-4.089354991912842,-5.523681163787842,80.0,157219.0,0.0
14761.552913,293742.34375,294825.59375,330238.0,324794.09375,284969.1875,255996.59375,222406.84375,246068.21875,0.03076171875,0.9814453125,0.080810546875,-0.9765624403953552,-4.089354991912842,-5.523681163787842,80.0,157220.0,0.0
14761.5529132,293742.34375,294825.59375,330238.0,324794.09375,284969.1875,255996.59375,222406.84375,246068.21875,0.03076171875,0.9814453125,0.080810546875,-0.9765624403953552,-4.089354991912842,-5.523681163787842,80.0,157221.0,0.0
14761.5529134,293742.34375,294825.59375,330238.0,324794.09375,284969.1875,255996.59375,222406.84375,246068.21875,0.03076171875,0.9814453125,0.080810546875,-0.9765624403953552,-4.089354991912842,-5.523681163787842,80.0,157222.0,0.0
14761.5529135,293742.34375,294825.59375,330238.0,324794.09375,284969.1875,255996.59375,222406.84375,246068.21875,0.03076171875,0.9814453125,0.080810546875,-0.9765624403953552,-4.089354991912842,-5.523681163787842,80.0,157223.0,0.0
14761.5529137,293742.34375,294825.59375,330238.0,324794.09375,284969.1875,255996.59375,222406.84375,246068.21875,0.03076171875,0.9814453125,0.080810546875,-0.9765624403953552,-4.089354991912842,-5.523681163787842,80.0,157224.0,0.0
14761.5529139,293742.34375,294825.59375,330238.0,324794.09375,284969.1875,255996.59375,222406.84375,246068.21875,0.03076171875,0.9814453125,0.080810546875,-0.9765624403953552,-4.089354991912842,-5.523681163787842,80.0,157225.0,0.0
14761.5529141,293742.34375,294825.59375,330238.0,324794.09375,284969.1875,255996.59375,222406.84375,246068.21875,0.03076171875,0.9814453125,0.080810546875,-0.9765624403953552,-4.089354991912842,-5.523681163787842,80.0,157226.0,0.0
14761.5529142,293742.34375,294825.59375,330238.0,324794.09375,284969.1875,255996.59375,222406.84375,246068.21875,0.03076171875,0.9814453125,0.080810546875,-0.9765624403953552,-4.089354991912842,-5.523681163787842,80.0,157227.0,0.0
14761.5529144,293742.34375,294825.59375,330238.0,324794.09375,284969.1875,255996.59375,222406.84375,246068.21875,0.03076171875,0.9814453125,0.080810546875,-0.9765624403953552,-4.089354991912842,-5.523681163787842,80.0,157228.0,0.0
14761.5529146,293742.34375,294825.59375,330238.0,324794.09375,284969.1875,255996.59375,222406.84375,246068.21875,0.03076171875,0.9814453125,0.080810546875,-0.9765624403953552,-4.089354991912842,-5.523681163787842,80.0,157229.0,0.0
14761.5529148,293742.34375,294825.59375,330238.0,324794.09375,284969.1875,255996.59375,222406.84375,246068.21875,0.03076171875,0.9814453125,0.080810546875,-0.9765624403953552,-4.089354991912842,-5.523681163787842,80.0,157230.0,0.0
14761.5529149,293742.34375,294825.59375,330238.0,324794.09375,284969.1875,255996.59375,222406.84375,246068.21875,0.03076171875,0.9814453125,0.080810546875,-0.9765624403953552,-4.089354991912842,-5.523681163787842,80.0,157231.0,0.0
14761.5529151,293742.34375,294825.59375,330238.0,324794.09375,284969.1875,255996.59375,222406.84375,246068.21875,0.03076171875,0.9814453125,0.080810546875,-0.9765624403953552,-4.089354991912842,-5.523681163787842,80.0,157232.0,0.0
14761.5529153,293742.34375,294825.59375,330238.0,324794.09375,284969.1875,255996.59375,222406.84375,246068.21875,0.03076171875,0.9814453125,0.080810546875,-0.9765624403953552,-4.089354991912842,-5.523681163787842,80.0,157233.0,0.0
14761.5529154,293742.34375,294825.59375,330238.0,324794.09375,284969.1875,255996.59375,222406.84375,246068.21875,0.03076171875,0.9814453125,0.080810546875,-0.9765624403953552,-4.089354991912842,-5.523681163787842,80.0,157234.0,0.0
14761.5529156,293742.34375,294825.59375,330238.0,324794.09375,284969.1875,255996.59375,222406.84375,246068.21875,0.03076171875,0.9814453125,0.080810546875,-0.9765624403953552,-4.089354991912842,-5.523681163787842,80.0,157235.0,0.0
14761.5529158,293742.34375,294825.59375,330238.0,324794.09375,284969.1875,255996.59375,222406.84375,246068.21875,0.03076171875,0.9814453125,0.080810546875,-0.9765624403953552,-4.089354991912842,-5.523681163787842,80.0,157236.0,0.0
14761.552916,293742.34375,294825.59375,330238.0,324794.09375,284969.1875,255996.59375,222406.84375,246068.21875,0.03076171875,0.9814453125,0.080810546875,-0.9765624403953552,-4.089354991912842,-5.523681163787842,80.0,157237.0,0.0
14761.5529161,293742.34375,294825.59375,330238.0,324794.09375,284969.1875,255996.59375,222406.84375,246068.21875,0.03076171875,0.9814453125,0.080810546875,-0.9765624403953552,-4.089354991912842,-5.523681163787842,80.0,157238.0,0.0
14761.5529163,293742.34375,294825.59375,330238.0,324794.09375,284969.1875,255996.59375,222406.84375,246068.21875,0.03076171875,0.9814453125,0.080810546875,-0.9765624403953552,-4.089354991912842,-5.523681163787842,80.0,157239.0,0.0
14761.5529165,293742.34375,294825.59375,330238.0,324794.09375,284969.1875,255996.59375,222406.84375,246068.21875,0.03076171875,0.9814453125,0.080810546875,-0.9765624403953552,-4.089354991912842,-5.523681163787842,80.0,157240.0,0.0
14761.5529167,293742.34375,294825.59375,330238.0,324794.09375,284969.1875,255996.59375,222406.84375,246068.21875,0.03076171875,0.9814453125,0.080810546875,-0.9765624403953552,-4.089354991912842,-5.523681163787842,80.0,157241.0,0.0
14761.5529168,293742.34375,294825.59375,330238.0,324794.09375,284969.1875,255996.59375,222406.84375,246068.21875,0.03076171875,0.9814453125,0.080810546875,-0.9765624403953552,-4.089354991912842,-5.523681163787842,80.0,157242.0,0.0
14761.552917,293742.34375,294825.59375,330238.0,324794.09375,284969.1875,255996.59375,222406.84375,246068.21875,0.03076171875,0.9814453125,0.080810546875,-0.9765624403953552,-4.089354991912842,-5.523681163787842,80.0,157243.0,0.0
14761.5529172,293742.34375,294825.59375,330238.0,324794.09375,284969.1875,255996.59375,222406.84375,246068.21875,0.03076171875,0.9814453125,0.080810546875,-0.9765624403953552,-4.089354991912842,-5.523681163787842,80.0,157244.0,0.0
14761.5529173,293742.34375,294825.59375,330238.0,324794.09375,284969.1875,255996.59375,222406.84375,246068.21875,0.03076171875,0.9814453125,0.080810546875,-0.9765624403953552,-4.089354991912842,-5.523681163787842,80.0,157245.0,0.0
14761.5529175,293742.34375,294825.59375,330238.0,324794.09375,284969.1875,255996.59375,222406.84375,246068.21875,0.03076171875,0.9814453125,0.080810546875,-0.9765624403953552,-4.089354991912842,-5.523681163787842,80.0,157246.0,0.0
14761.5529177,293742.34375,294825.59375,330238.0,324794.09375,284969.1875,255996.59375,222406.84375,246068.21875,0.03076171875,0.9814453125,0.080810546875,-0.9765624403953552,-4.089354991912842,-5.523681163787842,80.0,157247.0,0.0
14761.5529179,293742.34375,294825.59375,330238.0,324794.09375,284969.1875,255996.59375,222406.84375,246068.21875,0.03076171875,0.9814453125,0.080810546875,-0.9765624403953552,-4.089354991912842,-5.523681163787842,80.0,157248.0,0.0
14761.5529181,293742.34375,294825.59375,330238.0,324794.09375,284969.1875,255996.59375,222406.84375,246068.21875,0.03076171875,0.9814453125,0.080810546875,-0.9765624403953552,-4.089354991912842,-5.523681163787842,80.0,157249.0,0.0
14761.5529182,293742.34375,294825.59375,330238.0,324794.09375,284969.1875,255996.59375,222406.84375,246068.21875,0.03076171875,0.9814453125,0.080810546875,-0.9765624403953552,-4.089354991912842,-5.523681163787842,80.0,157250.0,0.0
14761.5529184,293742.34375,294825.59375,330238.0,324794.09375,284969.1875,255996.59375,222406.84375,246068.21875,0.03076171875,0.9814453125,0.080810546875,-0.9765624403953552,-4.089354991912842,-5.523681163787842,80.0,157251.0,0.0
14761.5529186,293742.34375,294825.59375,330238.0,324794.09375,284969.1875,255996.59375,222406.84375,246068.21875,0.03076171875,0.9814453125,0.080810546875,-0.9765624403953552,-4.089354991912842,-5.523681163787842,80.0,157252.0,0.0
14761.5529187,293742.34375,294825.59375,330238.0,324794.09375,284969.1875,255996.59375,222406.84375,246068.21875,0.03076171875,0.9814453125,0.080810546875,-0.9765624403953552,-4.089354991912842,-5.523681163787842,80.0,157253.0,0.0
14761.5529189,293742.34375,294825.59375,330238.0,324794.09375,284969.1875,255996.59375,222406.84375,246068.21875,0.03076171875,0.9814453125,0.080810546875,-0.9765624403953552,-4.089354991912842,-5.523681163787842,80.0,157254.0,0.0
14761.5529191,293742.34375,294825.59375,330238.0,324794.09375,284969.1875,255996.59375,222406.84375,246068.21875,0.03076171875,0.9814453125,0.080810546875,-0.9765624403953552,-4.089354991912842,-5.523681163787842,80.0,157255.0,0.0
14761.5529193,293781.59375,295390.75,330637.84375,324778.09375,285239.375,256099.328125,222519.765625,246075.1875,0.0322265625,1.007568359375,0.087646484375,0.3356933295726776,3.356933355331421,4.791259288787842,80.0,157256.0,1.0
14761.5529239,293746.46875,295074.6875,330406.625,324763.09375,285091.25,256034.234375,222459.59375,246069.921875,0.037353515625,1.002685546875,0.087158203125,0.4882812201976776,3.326415777206421,5.493163585662842,80.0,157257.0,1.0
14761.5773215,293766.40625,294835.09375,330254.90625,324806.1875,284985.90625,256010.28125,222444.21875,246095.9375,0.040771484375,1.0009765625,0.085693359375,0.5493163466453552,3.479003667831421,6.195067882537842,80.0,157258.0,1.0
14761.6290456,293808.15625,295008.875,330406.28125,324844.4375,285074.0625,256050.15625,222483.375,246109.609375,0.043701171875,1.00048828125,0.079345703125,0.7629393935203552,3.479003667831421,6.927489757537842,80.0,157259.0,1.0
14761.6290513,293821.5625,295351.75,330643.46875,324832.1875,285229.375,256109.78125,222539.4375,246102.734375,0.04833984375,0.998046875,0.0771484375,1.0070799589157104,3.601073980331421,7.537841320037842,80.0,157260.0,1.0
14761.6290525,293799.03125,295421.15625,330662.0625,324794.1875,285257.09375,256113.453125,222539.703125,246091.640625,0.0498046875,0.994384765625,0.0732421875,1.3122557401657104,3.692626714706421,8.117674827575684,80.0,157261.0,1.0
14761.6290539,293756.125,295108.5625,330432.03125,324771.3125,285110.625,256050.6875,222474.25,246079.3125,0.049072265625,0.991455078125,0.0703125,1.7395018339157104,3.570556402206421,8.605956077575684,80.0,157262.0,1.0
14761.7032413,293757.625,294844.375,330265.1875,324801.0,284993.6875,256020.640625,222446.984375,246091.46875,0.051025390625,0.98583984375,0.06884765625,2.166747808456421,3.601073980331421,9.002684593200684,80.0,157263.0,1.0
14761.7032471,293803.21875,295020.5,330425.9375,324842.9375,285091.6875,256076.890625,222505.453125,246109.609375,0.05029296875,0.97900390625,0.063720703125,2.593993902206421,3.631591558456421,9.216307640075684,80.0,157264.0,1.0
14761.7032484,293817.28125,295361.96875,330656.15625,324826.125,285244.84375,256125.96875,222556.6875,246107.734375,0.050048828125,0.97412109375,0.062744140625,3.173827886581421,3.631591558456421,9.307860374450684,80.0,157265.0,1.0
14761.7032497,293777.3125,295394.40625,330635.4375,324770.15625,285239.46875,256100.84375,222526.109375,246078.6875,0.050537109375,0.97021484375,0.05810546875,3.845214605331421,3.479003667831421,9.185790061950684,80.0,157266.0,1.0
14761.7032509,293733.6875,295069.25,330388.65625,324747.09375,285079.625,256027.0,222450.296875,246059.90625,0.05078125,0.965087890625,0.05615234375,4.425048351287842,3.326415777206421,9.124754905700684,80.0,157267.0,1.0
14761.7516094,293741.0,294807.0,330219.875,324780.0625,284961.6875,255991.5,222421.859375,246070.90625,0.051513671875,0.96337890625,0.056396484375,5.035399913787842,3.143310308456421,9.155272483825684,80.0,157268.0,1.0
14761.7516148,293791.875,294989.9375,330378.8125,324828.09375,285063.0,256045.765625,222481.9375,246100.40625,0.05078125,0.962646484375,0.049560546875,5.523681163787842,2.868652105331421,9.002684593200684,80.0,157269.0,1.0
14761.7516161,293812.71875,295340.9375,330628.28125,324824.25,285232.59375,256104.421875,222542.109375,246106.671875,0.051025390625,0.96142578125,0.04931640625,6.256103038787842,2.655029058456421,8.911131858825684,80.0,157270.0,1.0
14761.7516173,293785.625,295401.65625,330638.46875,324781.6875,285251.46875,256100.9375,222527.8125,246079.9375,0.0537109375,0.963623046875,0.0419921875,6.835937023162842,2.380370855331421,8.605956077575684,80.0,157271.0,1.0
14761.7516185,293742.78125,295075.9375,330387.84375,324760.84375,285090.25,256039.875,222462.359375,246068.9375,0.060791015625,0.962646484375,0.0419921875,7.232665538787842,2.105712652206421,8.209227561950684,80.0,157272.0,1.0
14761.7516197,293747.8125,294815.59375,330218.53125,324792.15625,284973.59375,256012.15625,222440.015625,246083.328125,0.06494140625,0.966552734375,0.04248046875,7.659911632537842,1.9836424589157104,7.904052257537842,80.0,157273.0,1.0
14761.7516211,293793.3125,294996.0,330378.375,324834.625,285069.5,256056.328125,222495.796875,246107.296875,0.067138671875,0.97314453125,0.0400390625,8.056639671325684,1.8310545682907104,7.415771007537842,80.0,157274.0,1.0
14761.7779299,293793.3125,294996.0,330378.375,324834.625,285069.5,256056.328125,222495.796875,246107.296875,0.067138671875,0.97314453125,0.0400390625,8.056639671325684,1.8310545682907104,7.415771007537842,80.0,157275.0,0.0
14761.777931,293793.3125,294996.0,330378.375,324834.625,285069.5,256056.328125,222495.796875,246107.296875,0.067138671875,0.97314453125,0.0400390625,8.056639671325684,1.8310545682907104,7.415771007537842,80.0,157276.0,0.0
14761.7779312,293793.3125,294996.0,330378.375,324834.625,285069.5,256056.328125,222495.796875,246107.296875,0.067138671875,0.97314453125,0.0400390625,8.056639671325684,1.8310545682907104,7.415771007537842,80.0,157277.0,0.0
14761.7779314,293793.3125,294996.0,330378.375,324834.625,285069.5,256056.328125,222495.796875,246107.296875,0.067138671875,0.97314453125,0.0400390625,8.056639671325684,1.8310545682907104,7.415771007537842,80.0,157278.0,0.0
14761.7779316,293793.3125,294996.0,330378.375,324834.625,285069.5,256056.328125,222495.796875,246107.296875,0.067138671875,0.97314453125,0.0400390625,8.056639671325684,1.8310545682907104,7.415771007537842,80.0,157279.0,0.0
14761.7779317,293793.3125,294996.0,330378.375,324834.625,285069.5,256056.328125,222495.796875,246107.296875,0.067138671875,0.97314453125,0.0400390625,8.056639671325684,1.8310545682907104,7.415771007537842,80.0,157280.0,0.0
14761.7779319,293793.3125,294996.0,330378.375,324834.625,285069.5,256056.328125,222495.796875,246107.296875,0.067138671875,0.97314453125,0.0400390625,8.056639671325684,1.8310545682907104,7.415771007537842,80.0,157281.0,0.0
14761.7779321,293793.3125,294996.0,330378.375,324834.625,285069.5,256056.328125,222495.796875,246107.296875,0.067138671875,0.97314453125,0.0400390625,8.056639671325684,1.8310545682907104,7.415771007537842,80.0,157282.0,0.0
14761.7779323,293793.3125,294996.0,330378.375,324834.625,285069.5,256056.328125,222495.796875,246107.296875,0.067138671875,0.97314453125,0.0400390625,8.056639671325684,1.8310545682907104,7.415771007537842,80.0,157283.0,0.0
14761.7779325,293793.3125,294996.0,330378.375,324834.625,285069.5,256056.328125,222495.796875,246107.296875,0.067138671875,0.97314453125,0.0400390625,8.056639671325684,1.8310545682907104,7.415771007537842,80.0,157284.0,0.0
14761.7779327,293793.3125,294996.0,330378.375,324834.625,285069.5,256056.328125,222495.796875,246107.296875,0.067138671875,0.97314453125,0.0400390625,8.056639671325684,1.8310545682907104,7.415771007537842,80.0,157285.0,0.0
14761.7779328,293793.3125,294996.0,330378.375,324834.625,285069.5,256056.328125,222495.796875,246107.296875,0.067138671875,0.97314453125,0.0400390625,8.056639671325684,1.8310545682907104,7.415771007537842,80.0,157286.0,0.0
14761.777933,293793.3125,294996.0,330378.375,324834.625,285069.5,256056.328125,222495.796875,246107.296875,0.067138671875,0.97314453125,0.0400390625,8.056639671325684,1.8310545682907104,7.415771007537842,80.0,157287.0,0.0
14761.7779332,293793.3125,294996.0,330378.375,324834.625,285069.5,256056.328125,222495.796875,246107.296875,0.067138671875,0.97314453125,0.0400390625,8.056639671325684,1.8310545682907104,7.415771007537842,80.0,157288.0,0.0
14761.7779334,293793.3125,294996.0,330378.375,324834.625,285069.5,256056.328125,222495.796875,246107.296875,0.067138671875,0.97314453125,0.0400390625,8.056639671325684,1.8310545682907104,7.415771007537842,80.0,157289.0,0.0
14761.7779335,293793.3125,294996.0,330378.375,324834.625,285069.5,256056.328125,222495.796875,246107.296875,0.067138671875,0.97314453125,0.0400390625,8.056639671325684,1.8310545682907104,7.415771007537842,80.0,157290.0,0.0
14761.7779337,293793.3125,294996.0,330378.375,324834.625,285069.5,256056.328125,222495.796875,246107.296875,0.067138671875,0.97314453125,0.0400390625,8.056639671325684,1.8310545682907104,7.415771007537842,80.0,157291.0,0.0
14761.7779339,293793.3125,294996.0,330378.375,324834.625,285069.5,256056.328125,222495.796875,246107.296875,0.067138671875,0.97314453125,0.0400390625,8.056639671325684,1.8310545682907104,7.415771007537842,80.0,157292.0,0.0
14761.777934,293793.3125,294996.0,330378.375,324834.625,285069.5,256056.328125,222495.796875,246107.296875,0.067138671875,0.97314453125,0.0400390625,8.056639671325684,1.8310545682907104,7.415771007537842,80.0,157293.0,0.0
14761.7779342,293793.3125,294996.0,330378.375,324834.625,285069.5,256056.328125,222495.796875,246107.296875,0.067138671875,0.97314453125,0.0400390625,8.056639671325684,1.8310545682907104,7.415771007537842,80.0,157294.0,0.0
14761.7779344,293793.3125,294996.0,330378.375,324834.625,285069.5,256056.328125,222495.796875,246107.296875,0.067138671875,0.97314453125,0.0400390625,8.056639671325684,1.8310545682907104,7.415771007537842,80.0,157295.0,0.0
14761.7779346,293793.3125,294996.0,330378.375,324834.625,285069.5,256056.328125,222495.796875,246107.296875,0.067138671875,0.97314453125,0.0400390625,8.056639671325684,1.8310545682907104,7.415771007537842,80.0,157296.0,0.0
