Time,FZ,C3,CZ,C4,PZ,PO7,OZ,PO8,AccX,AccY,AccZ,Gyro1,Gyro2,Gyro3,Battery,Counter,Validation
15184.658668,296251.1875,294534.5,321972.34375,314653.125,285078.1875,255295.46875,220363.890625,246249.453125,0.050048828125,0.99658203125,0.167724609375,0.3662109076976776,-1.0375975370407104,-0.7934569716453552,73.33333587646484,262979.0,1.0
15184.6586694,296462.5625,295370.1875,323120.15625,314957.65625,285755.8125,255490.546875,220651.328125,246405.546875,0.05078125,0.996826171875,0.168701171875,0.2441406100988388,-1.1596678495407104,-0.7934569716453552,73.33333587646484,262980.0,1.0
15184.6586708,296477.84375,295827.21875,323977.03125,314996.90625,286195.6875,255551.171875,220735.5625,246411.984375,0.051513671875,0.994873046875,0.1650390625,0.3051757514476776,-1.1901854276657104,-0.7629393935203552,73.33333587646484,262981.0,1.0
15184.658672,296278.28125,295287.21875,323369.6875,314722.6875,285800.875,255411.515625,220507.921875,246263.671875,0.05029296875,0.9931640625,0.16064453125,0.3356933295726776,-1.1901854276657104,-0.6408690810203552,73.33333587646484,262982.0,1.0
15184.6586732,296126.28125,294479.96875,322120.125,314505.875,285101.0625,255237.171875,220263.125,246155.921875,0.050537109375,0.9921875,0.161865234375,0.3051757514476776,-1.2817381620407104,-0.6713866591453552,73.33333587646484,262983.0,1.0
15184.6586744,296230.625,294519.65625,321950.96875,314645.4375,285067.90625,255282.234375,220348.609375,246242.5625,0.047607421875,0.992431640625,0.1630859375,0.4882812201976776,-1.2512205839157104,-0.7019042372703552,73.33333587646484,262984.0,1.0
15184.7363672,296454.875,295365.625,323107.90625,314964.0,285757.40625,255489.75,220659.03125,246413.328125,0.050048828125,0.991943359375,0.16650390625,0.5798339247703552,-1.1901854276657104,-0.7019042372703552,73.33333587646484,262985.0,1.0
15184.7363851,296479.625,295831.53125,323973.25,315011.28125,286203.46875,255561.625,220756.921875,246434.96875,0.0498046875,0.995361328125,0.1689453125,0.6713866591453552,-1.1596678495407104,-0.8544921278953552,73.33333587646484,262986.0,1.0
15184.7363886,296479.625,295831.53125,323973.25,315011.28125,286203.46875,255561.625,220756.921875,246434.96875,0.0498046875,0.995361328125,0.1689453125,0.6713866591453552,-1.1596678495407104,-0.8544921278953552,73.33333587646484,262987.0,0.0
15184.7363888,296479.625,295831.53125,323973.25,315011.28125,286203.46875,255561.625,220756.921875,246434.96875,0.0498046875,0.995361328125,0.1689453125,0.6713866591453552,-1.1596678495407104,-0.8544921278953552,73.33333587646484,262988.0,0.0
15184.736389,296479.625,295831.53125,323973.25,315011.28125,286203.46875,255561.625,220756.921875,246434.96875,0.0498046875,0.995361328125,0.1689453125,0.6713866591453552,-1.1596678495407104,-0.8544921278953552,73.33333587646484,262989.0,0.0
15184.7363893,296479.625,295831.53125,323973.25,315011.28125,286203.46875,255561.625,220756.921875,246434.96875,0.0498046875,0.995361328125,0.1689453125,0.6713866591453552,-1.1596678495407104,-0.8544921278953552,73.33333587646484,262990.0,0.0
15184.7363895,296479.625,295831.53125,323973.25,315011.28125,286203.46875,255561.625,220756.921875,246434.96875,0.0498046875,0.995361328125,0.1689453125,0.6713866591453552,-1.1596678495407104,-0.8544921278953552,73.33333587646484,262991.0,0.0
15184.7363897,296479.625,295831.53125,323973.25,315011.28125,286203.46875,255561.625,220756.921875,246434.96875,0.0498046875,0.995361328125,0.1689453125,0.6713866591453552,-1.1596678495407104,-0.8544921278953552,73.33333587646484,262992.0,0.0
15184.7363899,296479.625,295831.53125,323973.25,315011.28125,286203.46875,255561.625,220756.921875,246434.96875,0.0498046875,0.995361328125,0.1689453125,0.6713866591453552,-1.1596678495407104,-0.8544921278953552,73.33333587646484,262993.0,0.0
15184.7363901,296479.625,295831.53125,323973.25,315011.28125,286203.46875,255561.625,220756.921875,246434.96875,0.0498046875,0.995361328125,0.1689453125,0.6713866591453552,-1.1596678495407104,-0.8544921278953552,73.33333587646484,262994.0,0.0
15184.7363903,296479.625,295831.53125,323973.25,315011.28125,286203.46875,255561.625,220756.921875,246434.96875,0.0498046875,0.995361328125,0.1689453125,0.6713866591453552,-1.1596678495407104,-0.8544921278953552,73.33333587646484,262995.0,0.0
15184.7363904,296479.625,295831.53125,323973.25,315011.28125,286203.46875,255561.625,220756.921875,246434.96875,0.0498046875,0.995361328125,0.1689453125,0.6713866591453552,-1.1596678495407104,-0.8544921278953552,73.33333587646484,262996.0,0.0
15184.7363906,296479.625,295831.53125,323973.25,315011.28125,286203.46875,255561.625,220756.921875,246434.96875,0.0498046875,0.995361328125,0.1689453125,0.6713866591453552,-1.1596678495407104,-0.8544921278953552,73.33333587646484,262997.0,0.0
15184.7363908,296479.625,295831.53125,323973.25,315011.28125,286203.46875,255561.625,220756.921875,246434.96875,0.0498046875,0.995361328125,0.1689453125,0.6713866591453552,-1.1596678495407104,-0.8544921278953552,73.33333587646484,262998.0,0.0
15184.7363909,296479.625,295831.53125,323973.25,315011.28125,286203.46875,255561.625,220756.921875,246434.96875,0.0498046875,0.995361328125,0.1689453125,0.6713866591453552,-1.1596678495407104,-0.8544921278953552,73.33333587646484,262999.0,0.0
15184.7363911,296479.625,295831.53125,323973.25,315011.28125,286203.46875,255561.625,220756.921875,246434.96875,0.0498046875,0.995361328125,0.1689453125,0.6713866591453552,-1.1596678495407104,-0.8544921278953552,73.33333587646484,263000.0,0.0
15184.7363913,296479.625,295831.53125,323973.25,315011.28125,286203.46875,255561.625,220756.921875,246434.96875,0.0498046875,0.995361328125,0.1689453125,0.6713866591453552,-1.1596678495407104,-0.8544921278953552,73.33333587646484,263001.0,0.0
15184.7363915,296479.625,295831.53125,323973.25,315011.28125,286203.46875,255561.625,220756.921875,246434.96875,0.0498046875,0.995361328125,0.1689453125,0.6713866591453552,-1.1596678495407104,-0.8544921278953552,73.33333587646484,263002.0,0.0
15184.7363917,296479.625,295831.53125,323973.25,315011.28125,286203.46875,255561.625,220756.921875,246434.96875,0.0498046875,0.995361328125,0.1689453125,0.6713866591453552,-1.1596678495407104,-0.8544921278953552,73.33333587646484,263003.0,0.0
15184.7363919,296479.625,295831.53125,323973.25,315011.28125,286203.46875,255561.625,220756.921875,246434.96875,0.0498046875,0.995361328125,0.1689453125,0.6713866591453552,-1.1596678495407104,-0.8544921278953552,73.33333587646484,263004.0,0.0
15184.736392,296479.625,295831.53125,323973.25,315011.28125,286203.46875,255561.625,220756.921875,246434.96875,0.0498046875,0.995361328125,0.1689453125,0.6713866591453552,-1.1596678495407104,-0.8544921278953552,73.33333587646484,263005.0,0.0
15184.7363922,296479.625,295831.53125,323973.25,315011.28125,286203.46875,255561.625,220756.921875,246434.96875,0.0498046875,0.995361328125,0.1689453125,0.6713866591453552,-1.1596678495407104,-0.8544921278953552,73.33333587646484,263006.0,0.0
15184.7363924,296479.625,295831.53125,323973.25,315011.28125,286203.46875,255561.625,220756.921875,246434.96875,0.0498046875,0.995361328125,0.1689453125,0.6713866591453552,-1.1596678495407104,-0.8544921278953552,73.33333587646484,263007.0,0.0
15184.7363925,296479.625,295831.53125,323973.25,315011.28125,286203.46875,255561.625,220756.921875,246434.96875,0.0498046875,0.995361328125,0.1689453125,0.6713866591453552,-1.1596678495407104,-0.8544921278953552,73.33333587646484,263008.0,0.0
15184.7363927,296479.625,295831.53125,323973.25,315011.28125,286203.46875,255561.625,220756.921875,246434.96875,0.0498046875,0.995361328125,0.1689453125,0.6713866591453552,-1.1596678495407104,-0.8544921278953552,73.33333587646484,263009.0,0.0
15184.7363929,296479.625,295831.53125,323973.25,315011.28125,286203.46875,255561.625,220756.921875,246434.96875,0.0498046875,0.995361328125,0.1689453125,0.6713866591453552,-1.1596678495407104,-0.8544921278953552,73.33333587646484,263010.0,0.0
15184.7363931,296479.625,295831.53125,323973.25,315011.28125,286203.46875,255561.625,220756.921875,246434.96875,0.0498046875,0.995361328125,0.1689453125,0.6713866591453552,-1.1596678495407104,-0.8544921278953552,73.33333587646484,263011.0,0.0
15184.7363933,296479.625,295831.53125,323973.25,315011.28125,286203.46875,255561.625,220756.921875,246434.96875,0.0498046875,0.995361328125,0.1689453125,0.6713866591453552,-1.1596678495407104,-0.8544921278953552,73.33333587646484,263012.0,0.0
15184.7363936,296479.625,295831.53125,323973.25,315011.28125,286203.46875,255561.625,220756.921875,246434.96875,0.0498046875,0.995361328125,0.1689453125,0.6713866591453552,-1.1596678495407104,-0.8544921278953552,73.33333587646484,263013.0,0.0
15184.7363937,296479.625,295831.53125,323973.25,315011.28125,286203.46875,255561.625,220756.921875,246434.96875,0.0498046875,0.995361328125,0.1689453125,0.6713866591453552,-1.1596678495407104,-0.8544921278953552,73.33333587646484,263014.0,0.0
15184.7363939,296479.625,295831.53125,323973.25,315011.28125,286203.46875,255561.625,220756.921875,246434.96875,0.0498046875,0.995361328125,0.1689453125,0.6713866591453552,-1.1596678495407104,-0.8544921278953552,73.33333587646484,263015.0,0.0
15184.7363941,296479.625,295831.53125,323973.25,315011.28125,286203.46875,255561.625,220756.921875,246434.96875,0.0498046875,0.995361328125,0.1689453125,0.6713866591453552,-1.1596678495407104,-0.8544921278953552,73.33333587646484,263016.0,0.0
15184.7363942,296479.625,295831.53125,323973.25,315011.28125,286203.46875,255561.625,220756.921875,246434.96875,0.0498046875,0.995361328125,0.1689453125,0.6713866591453552,-1.1596678495407104,-0.8544921278953552,73.33333587646484,263017.0,0.0
15184.7363944,296479.625,295831.53125,323973.25,315011.28125,286203.46875,255561.625,220756.921875,246434.96875,0.0498046875,0.995361328125,0.1689453125,0.6713866591453552,-1.1596678495407104,-0.8544921278953552,73.33333587646484,263018.0,0.0
15184.7363946,296479.625,295831.53125,323973.25,315011.28125,286203.46875,255561.625,220756.921875,246434.96875,0.0498046875,0.995361328125,0.1689453125,0.6713866591453552,-1.1596678495407104,-0.8544921278953552,73.33333587646484,263019.0,0.0
15184.7363948,296479.625,295831.53125,323973.25,315011.28125,286203.46875,255561.625,220756.921875,246434.96875,0.0498046875,0.995361328125,0.1689453125,0.6713866591453552,-1.1596678495407104,-0.8544921278953552,73.33333587646484,263020.0,0.0
15184.7363949,296479.625,295831.53125,323973.25,315011.28125,286203.46875,255561.625,220756.921875,246434.96875,0.0498046875,0.995361328125,0.1689453125,0.6713866591453552,-1.1596678495407104,-0.8544921278953552,73.33333587646484,263021.0,0.0
15184.7363951,296479.625,295831.53125,323973.25,315011.28125,286203.46875,255561.625,220756.921875,246434.96875,0.0498046875,0.995361328125,0.1689453125,0.6713866591453552,-1.1596678495407104,-0.8544921278953552,73.33333587646484,263022.0,0.0
15184.7363953,296479.625,295831.53125,323973.25,315011.28125,286203.46875,255561.625,220756.921875,246434.96875,0.0498046875,0.995361328125,0.1689453125,0.6713866591453552,-1.1596678495407104,-0.8544921278953552,73.33333587646484,263023.0,0.0
15184.7363955,296479.625,295831.53125,323973.25,315011.28125,286203.46875,255561.625,220756.921875,246434.96875,0.0498046875,0.995361328125,0.1689453125,0.6713866591453552,-1.1596678495407104,-0.8544921278953552,73.33333587646484,263024.0,0.0
15184.7363956,296479.625,295831.53125,323973.25,315011.28125,286203.46875,255561.625,220756.921875,246434.96875,0.0498046875,0.995361328125,0.1689453125,0.6713866591453552,-1.1596678495407104,-0.8544921278953552,73.33333587646484,263025.0,0.0
15184.7363958,296479.625,295831.53125,323973.25,315011.28125,286203.46875,255561.625,220756.921875,246434.96875,0.0498046875,0.995361328125,0.1689453125,0.6713866591453552,-1.1596678495407104,-0.8544921278953552,73.33333587646484,263026.0,0.0
15184.736396,296479.625,295831.53125,323973.25,315011.28125,286203.46875,255561.625,220756.921875,246434.96875,0.0498046875,0.995361328125,0.1689453125,0.6713866591453552,-1.1596678495407104,-0.8544921278953552,73.33333587646484,263027.0,0.0
15184.7363961,296140.4375,294477.1875,322119.3125,314513.75,285094.5625,255234.765625,220256.875,246159.140625,0.049560546875,0.995361328125,0.168212890625,0.1525878757238388,-1.6479490995407104,-0.8544921278953552,73.33333587646484,263028.0,1.0
15184.7363974,296243.78125,294517.875,321955.4375,314650.53125,285062.1875,255292.875,220348.78125,246245.515625,0.051025390625,0.993408203125,0.1650390625,0.1831054538488388,-1.6174315214157104,-0.9155272841453552,73.33333587646484,263029.0,1.0
15184.7363986,296461.125,295367.40625,323114.5,314960.0625,285748.03125,255481.796875,220648.03125,246412.34375,0.0517578125,0.9931640625,0.1689453125,0.2441406100988388,-1.5869139432907104,-0.9460448622703552,73.33333587646484,263030.0,1.0
15184.7363998,296481.59375,295827.6875,323971.65625,315005.65625,286189.78125,255546.4375,220742.625,246434.25,0.05029296875,0.99365234375,0.166748046875,0.2746581733226776,-1.5869139432907104,-0.9460448622703552,73.33333587646484,263031.0,1.0
15184.736401,296281.25,295272.0,323351.53125,314729.90625,285785.3125,255399.09375,220502.5625,246282.53125,0.049072265625,0.995849609375,0.165771484375,0.2441406100988388,-1.5869139432907104,-0.9155272841453552,73.33333587646484,263032.0,1.0
15184.7364025,296139.625,294471.28125,322108.5,314516.59375,285091.59375,255244.328125,220261.4375,246158.796875,0.051025390625,0.996826171875,0.16650390625,0.2441406100988388,-1.5869139432907104,-0.7934569716453552,73.33333587646484,263033.0,1.0
15184.7617789,296245.46875,294523.9375,321953.03125,314657.40625,285063.96875,255292.421875,220352.1875,246252.21875,0.05029296875,0.996826171875,0.1650390625,0.0915527269244194,-1.5563963651657104,-0.8544921278953552,73.33333587646484,263034.0,1.0
15184.7885125,296459.53125,295365.875,323111.5625,314960.875,285747.03125,255488.3125,220644.0,246405.203125,0.05029296875,0.996826171875,0.166748046875,0.1525878757238388,-1.5258787870407104,-0.7934569716453552,73.33333587646484,263035.0,1.0
15184.7885224,296486.53125,295828.125,323969.6875,315009.59375,286188.875,255554.03125,220734.9375,246422.546875,0.0498046875,0.995361328125,0.1689453125,0.0915527269244194,-1.5563963651657104,-0.7629393935203552,73.33333587646484,263036.0,1.0
15184.8151216,296289.90625,295284.0,323360.28125,314735.8125,285789.6875,255399.984375,220493.53125,246273.59375,0.050048828125,0.996337890625,0.169677734375,0.1525878757238388,-1.5563963651657104,-0.7629393935203552,73.33333587646484,263037.0,1.0
15184.8151737,296143.71875,294480.40625,322117.8125,314518.03125,285093.65625,255236.109375,220256.15625,246154.234375,0.050048828125,0.994140625,0.16943359375,0.1525878757238388,-1.5563963651657104,-0.8239745497703552,73.33333587646484,263038.0,1.0
15184.8151871,296251.90625,294523.9375,321959.09375,314659.90625,285065.03125,255295.734375,220346.546875,246237.109375,0.05029296875,0.99609375,0.167236328125,0.2746581733226776,-1.6784666776657104,-0.8544921278953552,73.33333587646484,263039.0,1.0
15184.8151891,296480.15625,295375.28125,323128.53125,314978.28125,285759.5625,255502.625,220663.765625,246422.453125,0.048095703125,0.99658203125,0.166259765625,0.2441406100988388,-1.7089842557907104,-0.8850097060203552,73.33333587646484,263040.0,1.0
15184.8151913,296500.28125,295830.1875,323979.0,315015.5,286192.28125,255554.125,220741.015625,246429.328125,0.0478515625,0.996826171875,0.1689453125,0.1220703050494194,-1.7700194120407104,-0.9460448622703552,73.33333587646484,263041.0,1.0
15184.8151929,296293.21875,295270.9375,323354.03125,314728.65625,285780.5625,255387.109375,220492.640625,246272.0625,0.048828125,0.99609375,0.16796875,0.0915527269244194,-1.7089842557907104,-0.8544921278953552,73.33333587646484,263042.0,1.0
15184.8151946,296149.53125,294470.3125,322113.78125,314515.25,285087.40625,255225.8125,220259.109375,246171.578125,0.050048828125,0.996337890625,0.166748046875,-0.0610351525247097,-1.6174315214157104,-0.9460448622703552,73.33333587646484,263043.0,1.0
15184.8151961,296252.90625,294517.3125,321951.40625,314651.59375,285054.75,255287.421875,220347.53125,246254.015625,0.05078125,0.99462890625,0.16650390625,-0.03051757626235485,-1.6479490995407104,-0.9155272841453552,73.33333587646484,263044.0,1.0
15184.815198,296469.53125,295371.0625,323118.96875,314958.8125,285745.4375,255486.265625,220647.40625,246411.28125,0.05126953125,0.9931640625,0.16650390625,-0.1220703050494194,-1.6479490995407104,-1.0070799589157104,73.33333587646484,263045.0,1.0
15184.8163762,296487.5,295825.4375,323973.25,314995.09375,286180.65625,255527.75,220717.40625,246411.1875,0.049560546875,0.993408203125,0.16845703125,-0.1220703050494194,-1.6479490995407104,-0.9765624403953552,73.33333587646484,263046.0,1.0
15184.8443219,296487.5,295825.4375,323973.25,314995.09375,286180.65625,255527.75,220717.40625,246411.1875,0.049560546875,0.993408203125,0.16845703125,-0.1220703050494194,-1.6479490995407104,-0.9765624403953552,73.33333587646484,263047.0,0.0
15184.8443262,296487.5,295825.4375,323973.25,314995.09375,286180.65625,255527.75,220717.40625,246411.1875,0.049560546875,0.993408203125,0.16845703125,-0.1220703050494194,-1.6479490995407104,-0.9765624403953552,73.33333587646484,263048.0,0.0
15184.8443265,296487.5,295825.4375,323973.25,314995.09375,286180.65625,255527.75,220717.40625,246411.1875,0.049560546875,0.993408203125,0.16845703125,-0.1220703050494194,-1.6479490995407104,-0.9765624403953552,73.33333587646484,263049.0,0.0
15184.8443267,296487.5,295825.4375,323973.25,314995.09375,286180.65625,255527.75,220717.40625,246411.1875,0.049560546875,0.993408203125,0.16845703125,-0.1220703050494194,-1.6479490995407104,-0.9765624403953552,73.33333587646484,263050.0,0.0
15184.8443269,296487.5,295825.4375,323973.25,314995.09375,286180.65625,255527.75,220717.40625,246411.1875,0.049560546875,0.993408203125,0.16845703125,-0.1220703050494194,-1.6479490995407104,-0.9765624403953552,73.33333587646484,263051.0,0.0
15184.8443271,296487.5,295825.4375,323973.25,314995.09375,286180.65625,255527.75,220717.40625,246411.1875,0.049560546875,0.993408203125,0.16845703125,-0.1220703050494194,-1.6479490995407104,-0.9765624403953552,73.33333587646484,263052.0,0.0
15184.8443273,296487.5,295825.4375,323973.25,314995.09375,286180.65625,255527.75,220717.40625,246411.1875,0.049560546875,0.993408203125,0.16845703125,-0.1220703050494194,-1.6479490995407104,-0.9765624403953552,73.33333587646484,263053.0,0.0
15184.8443275,296487.5,295825.4375,323973.25,314995.09375,286180.65625,255527.75,220717.40625,246411.1875,0.049560546875,0.993408203125,0.16845703125,-0.1220703050494194,-1.6479490995407104,-0.9765624403953552,73.33333587646484,263054.0,0.0
15184.8443276,296487.5,295825.4375,323973.25,314995.09375,286180.65625,255527.75,220717.40625,246411.1875,0.049560546875,0.993408203125,0.16845703125,-0.1220703050494194,-1.6479490995407104,-0.9765624403953552,73.33333587646484,263055.0,0.0
15184.8443278,296487.5,295825.4375,323973.25,314995.09375,286180.65625,255527.75,220717.40625,246411.1875,0.049560546875,0.993408203125,0.16845703125,-0.1220703050494194,-1.6479490995407104,-0.9765624403953552,73.33333587646484,263056.0,0.0
15184.844328,296487.5,295825.4375,323973.25,314995.09375,286180.65625,255527.75,220717.40625,246411.1875,0.049560546875,0.993408203125,0.16845703125,-0.1220703050494194,-1.6479490995407104,-0.9765624403953552,73.33333587646484,263057.0,0.0
15184.8443282,296487.5,295825.4375,323973.25,314995.09375,286180.65625,255527.75,220717.40625,246411.1875,0.049560546875,0.993408203125,0.16845703125,-0.1220703050494194,-1.6479490995407104,-0.9765624403953552,73.33333587646484,263058.0,0.0
15184.8443284,296487.5,295825.4375,323973.25,314995.09375,286180.65625,255527.75,220717.40625,246411.1875,0.049560546875,0.993408203125,0.16845703125,-0.1220703050494194,-1.6479490995407104,-0.9765624403953552,73.33333587646484,263059.0,0.0
15184.8443286,296487.5,295825.4375,323973.25,314995.09375,286180.65625,255527.75,220717.40625,246411.1875,0.049560546875,0.993408203125,0.16845703125,-0.1220703050494194,-1.6479490995407104,-0.9765624403953552,73.33333587646484,263060.0,0.0
15184.8443288,296487.5,295825.4375,323973.25,314995.09375,286180.65625,255527.75,220717.40625,246411.1875,0.049560546875,0.993408203125,0.16845703125,-0.1220703050494194,-1.6479490995407104,-0.9765624403953552,73.33333587646484,263061.0,0.0
15184.844329,296487.5,295825.4375,323973.25,314995.09375,286180.65625,255527.75,220717.40625,246411.1875,0.049560546875,0.993408203125,0.16845703125,-0.1220703050494194,-1.6479490995407104,-0.9765624403953552,73.33333587646484,263062.0,0.0
15184.8443291,296487.5,295825.4375,323973.25,314995.09375,286180.65625,255527.75,220717.40625,246411.1875,0.049560546875,0.993408203125,0.16845703125,-0.1220703050494194,-1.6479490995407104,-0.9765624403953552,73.33333587646484,263063.0,0.0
15184.8443293,296487.5,295825.4375,323973.25,314995.09375,286180.65625,255527.75,220717.40625,246411.1875,0.049560546875,0.993408203125,0.16845703125,-0.1220703050494194,-1.6479490995407104,-0.9765624403953552,73.33333587646484,263064.0,0.0
15184.8443295,296487.5,295825.4375,323973.25,314995.09375,286180.65625,255527.75,220717.40625,246411.1875,0.049560546875,0.993408203125,0.16845703125,-0.1220703050494194,-1.6479490995407104,-0.9765624403953552,73.33333587646484,263065.0,0.0
15184.8443297,296487.5,295825.4375,323973.25,314995.09375,286180.65625,255527.75,220717.40625,246411.1875,0.049560546875,0.993408203125,0.16845703125,-0.1220703050494194,-1.6479490995407104,-0.9765624403953552,73.33333587646484,263066.0,0.0
15184.8443299,296487.5,295825.4375,323973.25,314995.09375,286180.65625,255527.75,220717.40625,246411.1875,0.049560546875,0.993408203125,0.16845703125,-0.1220703050494194,-1.6479490995407104,-0.9765624403953552,73.33333587646484,263067.0,0.0
15184.8443301,296487.5,295825.4375,323973.25,314995.09375,286180.65625,255527.75,220717.40625,246411.1875,0.049560546875,0.993408203125,0.16845703125,-0.1220703050494194,-1.6479490995407104,-0.9765624403953552,73.33333587646484,263068.0,0.0
15184.8443303,296487.5,295825.4375,323973.25,314995.09375,286180.65625,255527.75,220717.40625,246411.1875,0.049560546875,0.993408203125,0.16845703125,-0.1220703050494194,-1.6479490995407104,-0.9765624403953552,73.33333587646484,263069.0,0.0
15184.8443305,296487.5,295825.4375,323973.25,314995.09375,286180.65625,255527.75,220717.40625,246411.1875,0.049560546875,0.993408203125,0.16845703125,-0.1220703050494194,-1.6479490995407104,-0.9765624403953552,73.33333587646484,263070.0,0.0
15184.8443306,296487.5,295825.4375,323973.25,314995.09375,286180.65625,255527.75,220717.40625,246411.1875,0.049560546875,0.993408203125,0.16845703125,-0.1220703050494194,-1.6479490995407104,-0.9765624403953552,73.33333587646484,263071.0,0.0
15184.8443308,296487.5,295825.4375,323973.25,314995.09375,286180.65625,255527.75,220717.40625,246411.1875,0.049560546875,0.993408203125,0.16845703125,-0.1220703050494194,-1.6479490995407104,-0.9765624403953552,73.33333587646484,263072.0,0.0
15184.844331,296142.03125,294467.625,322101.875,314510.15625,285080.78125,255223.5,220244.625,246154.859375,0.048583984375,0.994873046875,0.167236328125,0.0610351525247097,-1.3427733182907104,-0.8544921278953552,73.33333587646484,263073.0,1.0
15184.8693586,296245.28125,294516.6875,321950.15625,314655.8125,285057.0,255282.328125,220343.59375,246246.859375,0.04736328125,0.992919921875,0.17041015625,0.0610351525247097,-1.3122557401657104,-0.8544921278953552,73.33333587646484,263074.0,1.0
15184.9488887,296464.53125,295363.28125,323114.875,314963.625,285748.1875,255493.6875,220648.03125,246414.9375,0.05029296875,0.99462890625,0.171630859375,0.0915527269244194,-1.2817381620407104,-0.8239745497703552,73.33333587646484,263075.0,1.0
15184.9489034,296483.03125,295818.125,323967.625,315003.59375,286186.21875,255551.4375,220735.203125,246432.375,0.048828125,0.994873046875,0.16943359375,0.0915527269244194,-1.3732908964157104,-0.7629393935203552,73.33333587646484,263076.0,1.0
15184.9489048,296283.21875,295269.40625,323349.46875,314727.59375,285780.5625,255390.515625,220493.359375,246277.25,0.049560546875,0.993896484375,0.166015625,0.1220703050494194,-1.3732908964157104,-0.7934569716453552,73.33333587646484,263077.0,1.0
15184.9489061,296141.21875,294468.5,322107.0625,314514.71875,285084.4375,255217.5,220245.421875,246155.03125,0.048828125,0.99365234375,0.168212890625,0.0610351525247097,-1.4343260526657104,-0.8239745497703552,73.33333587646484,263078.0,1.0
15184.9489074,296248.78125,294512.3125,321946.40625,314656.15625,285056.8125,255280.71875,220338.59375,246244.171875,0.049560546875,0.994140625,0.166748046875,0.03051757626235485,-1.4953612089157104,-0.8544921278953552,73.33333587646484,263079.0,1.0
15184.9489086,296470.59375,295363.65625,323113.34375,314966.125,285747.3125,255487.25,220642.84375,246416.734375,0.05078125,0.99560546875,0.1728515625,0.03051757626235485,-1.5563963651657104,-0.8239745497703552,73.33333587646484,263080.0,1.0
15184.9489098,296491.78125,295829.09375,323979.15625,315005.21875,286189.4375,255540.0,220722.953125,246427.015625,0.050537109375,0.996337890625,0.172119140625,0.03051757626235485,-1.6479490995407104,-0.8239745497703552,73.33333587646484,263081.0,1.0
15184.9489111,296290.09375,295275.84375,323359.75,314728.125,285783.96875,255383.53125,220484.140625,246276.09375,0.051513671875,0.99365234375,0.173095703125,-0.0610351525247097,-1.5869139432907104,-0.9460448622703552,73.33333587646484,263082.0,1.0
15184.9489124,296145.96875,294463.3125,322103.0625,314513.90625,285084.1875,255229.578125,220258.84375,246179.171875,0.0517578125,0.99462890625,0.170654296875,-0.1525878757238388,-1.6784666776657104,-0.9765624403953552,73.33333587646484,263083.0,1.0
15184.9489136,296257.90625,294522.96875,321957.125,314657.0625,285065.03125,255299.765625,220354.421875,246248.375,0.050537109375,0.996337890625,0.170166015625,-0.1220703050494194,-1.6784666776657104,-0.8850097060203552,73.33333587646484,263084.0,1.0
15184.9717816,296470.78125,295369.5625,323122.46875,314963.625,285752.84375,255492.875,220647.9375,246412.609375,0.0498046875,0.9970703125,0.1689453125,-0.0915527269244194,-1.7700194120407104,-0.8544921278953552,73.33333587646484,263085.0,1.0
15184.9886873,296492.25,295831.25,323979.25,315006.1875,286197.46875,255562.078125,220744.765625,246437.65625,0.05126953125,0.9951171875,0.168212890625,0.0,-1.7395018339157104,-0.8239745497703552,73.33333587646484,263086.0,1.0
15184.9887074,296291.6875,295276.46875,323350.09375,314721.15625,285785.46875,255412.59375,220495.859375,246272.6875,0.05224609375,0.994384765625,0.169921875,-0.03051757626235485,-1.8310545682907104,-0.8544921278953552,73.33333587646484,263087.0,1.0
15184.9906445,296291.6875,295276.46875,323350.09375,314721.15625,285785.46875,255412.59375,220495.859375,246272.6875,0.05224609375,0.994384765625,0.169921875,-0.03051757626235485,-1.8310545682907104,-0.8544921278953552,73.33333587646484,263088.0,0.0
15184.99066,296291.6875,295276.46875,323350.09375,314721.15625,285785.46875,255412.59375,220495.859375,246272.6875,0.05224609375,0.994384765625,0.169921875,-0.03051757626235485,-1.8310545682907104,-0.8544921278953552,73.33333587646484,263089.0,0.0
15184.9906602,296291.6875,295276.46875,323350.09375,314721.15625,285785.46875,255412.59375,220495.859375,246272.6875,0.05224609375,0.994384765625,0.169921875,-0.03051757626235485,-1.8310545682907104,-0.8544921278953552,73.33333587646484,263090.0,0.0
15184.9906605,296291.6875,295276.46875,323350.09375,314721.15625,285785.46875,255412.59375,220495.859375,246272.6875,0.05224609375,0.994384765625,0.169921875,-0.03051757626235485,-1.8310545682907104,-0.8544921278953552,73.33333587646484,263091.0,0.0
15184.9906607,296291.6875,295276.46875,323350.09375,314721.15625,285785.46875,255412.59375,220495.859375,246272.6875,0.05224609375,0.994384765625,0.169921875,-0.03051757626235485,-1.8310545682907104,-0.8544921278953552,73.33333587646484,263092.0,0.0
15184.9906609,296291.6875,295276.46875,323350.09375,314721.15625,285785.46875,255412.59375,220495.859375,246272.6875,0.05224609375,0.994384765625,0.169921875,-0.03051757626235485,-1.8310545682907104,-0.8544921278953552,73.33333587646484,263093.0,0.0
15184.9906611,296291.6875,295276.46875,323350.09375,314721.15625,285785.46875,255412.59375,220495.859375,246272.6875,0.05224609375,0.994384765625,0.169921875,-0.03051757626235485,-1.8310545682907104,-0.8544921278953552,73.33333587646484,263094.0,0.0
15184.9906613,296291.6875,295276.46875,323350.09375,314721.15625,285785.46875,255412.59375,220495.859375,246272.6875,0.05224609375,0.994384765625,0.169921875,-0.03051757626235485,-1.8310545682907104,-0.8544921278953552,73.33333587646484,263095.0,0.0
15184.9906615,296291.6875,295276.46875,323350.09375,314721.15625,285785.46875,255412.59375,220495.859375,246272.6875,0.05224609375,0.994384765625,0.169921875,-0.03051757626235485,-1.8310545682907104,-0.8544921278953552,73.33333587646484,263096.0,0.0
15184.9906617,296291.6875,295276.46875,323350.09375,314721.15625,285785.46875,255412.59375,220495.859375,246272.6875,0.05224609375,0.994384765625,0.169921875,-0.03051757626235485,-1.8310545682907104,-0.8544921278953552,73.33333587646484,263097.0,0.0
15184.9906619,296291.6875,295276.46875,323350.09375,314721.15625,285785.46875,255412.59375,220495.859375,246272.6875,0.05224609375,0.994384765625,0.169921875,-0.03051757626235485,-1.8310545682907104,-0.8544921278953552,73.33333587646484,263098.0,0.0
15184.9906621,296291.6875,295276.46875,323350.09375,314721.15625,285785.46875,255412.59375,220495.859375,246272.6875,0.05224609375,0.994384765625,0.169921875,-0.03051757626235485,-1.8310545682907104,-0.8544921278953552,73.33333587646484,263099.0,0.0
15184.9906623,296291.6875,295276.46875,323350.09375,314721.15625,285785.46875,255412.59375,220495.859375,246272.6875,0.05224609375,0.994384765625,0.169921875,-0.03051757626235485,-1.8310545682907104,-0.8544921278953552,73.33333587646484,263100.0,0.0
15184.9906625,296291.6875,295276.46875,323350.09375,314721.15625,285785.46875,255412.59375,220495.859375,246272.6875,0.05224609375,0.994384765625,0.169921875,-0.03051757626235485,-1.8310545682907104,-0.8544921278953552,73.33333587646484,263101.0,0.0
15184.9906627,296291.6875,295276.46875,323350.09375,314721.15625,285785.46875,255412.59375,220495.859375,246272.6875,0.05224609375,0.994384765625,0.169921875,-0.03051757626235485,-1.8310545682907104,-0.8544921278953552,73.33333587646484,263102.0,0.0
15184.9906629,296291.6875,295276.46875,323350.09375,314721.15625,285785.46875,255412.59375,220495.859375,246272.6875,0.05224609375,0.994384765625,0.169921875,-0.03051757626235485,-1.8310545682907104,-0.8544921278953552,73.33333587646484,263103.0,0.0
15184.9906631,296291.6875,295276.46875,323350.09375,314721.15625,285785.46875,255412.59375,220495.859375,246272.6875,0.05224609375,0.994384765625,0.169921875,-0.03051757626235485,-1.8310545682907104,-0.8544921278953552,73.33333587646484,263104.0,0.0
15184.9906633,296291.6875,295276.46875,323350.09375,314721.15625,285785.46875,255412.59375,220495.859375,246272.6875,0.05224609375,0.994384765625,0.169921875,-0.03051757626235485,-1.8310545682907104,-0.8544921278953552,73.33333587646484,263105.0,0.0
15184.9906635,296487.0625,295823.90625,323979.25,314997.6875,286191.65625,255547.421875,220716.78125,246422.546875,0.04931640625,0.991943359375,0.16552734375,0.7934569716453552,-1.4953612089157104,-1.0681151151657104,73.33333587646484,263106.0,1.0
15184.9975795,296284.375,295267.375,323346.875,314715.15625,285777.625,255395.609375,220475.46875,246266.96875,0.050537109375,0.992431640625,0.166015625,0.9460448622703552,-1.5563963651657104,-1.0986326932907104,73.33333587646484,263107.0,1.0
15184.9975837,296144.71875,294467.625,322104.125,314504.96875,285083.1875,255233.515625,220244.4375,246163.171875,0.052490234375,0.9921875,0.167236328125,0.9155272841453552,-1.4343260526657104,-1.1291502714157104,73.33333587646484,263108.0,1.0
15184.9975851,296255.84375,294530.125,321959.625,314646.25,285062.1875,255289.125,220332.15625,246243.28125,0.052001953125,0.994873046875,0.16796875,0.9460448622703552,-1.5258787870407104,-1.0986326932907104,73.33333587646484,263109.0,1.0
15184.9975864,296475.4375,295376.15625,323126.21875,314958.625,285752.40625,255490.640625,220632.375,246412.609375,0.053466796875,0.995361328125,0.1669921875,0.9155272841453552,-1.5258787870407104,-1.0070799589157104,73.33333587646484,263110.0,1.0
15184.9975878,296496.8125,295828.75,323976.65625,314999.3125,286190.6875,255559.84375,220721.875,246426.75,0.055908203125,0.996826171875,0.167236328125,0.8239745497703552,-1.4343260526657104,-0.8544921278953552,73.33333587646484,263111.0,1.0
15184.9975891,296292.9375,295266.375,323341.875,314719.90625,285778.0625,255407.046875,220484.953125,246277.796875,0.05419921875,0.99560546875,0.16845703125,0.6713866591453552,-1.4343260526657104,-0.7324218153953552,73.33333587646484,263112.0,1.0
15184.9975903,296140.34375,294457.59375,322088.90625,314501.5625,285074.6875,255216.703125,220230.5,246167.375,0.055419921875,0.995361328125,0.16796875,0.7019042372703552,-1.2512205839157104,-0.7324218153953552,73.33333587646484,263113.0,1.0
15185.0064739,296257.09375,294526.96875,321956.5,314651.5,285061.90625,255277.765625,220321.875,246245.875,0.05224609375,0.995361328125,0.168212890625,0.6713866591453552,-1.1291502714157104,-0.7629393935203552,73.33333587646484,263114.0,1.0
15185.0064811,296478.8125,295379.65625,323132.75,314963.8125,285757.0625,255478.125,220620.578125,246409.75,0.052490234375,0.992431640625,0.16796875,0.5187987685203552,-1.0986326932907104,-0.6408690810203552,73.33333587646484,263115.0,1.0
15185.006484,296478.8125,295379.65625,323132.75,314963.8125,285757.0625,255478.125,220620.578125,246409.75,0.052490234375,0.992431640625,0.16796875,0.5187987685203552,-1.0986326932907104,-0.6408690810203552,73.33333587646484,263116.0,0.0
15185.0064843,296478.8125,295379.65625,323132.75,314963.8125,285757.0625,255478.125,220620.578125,246409.75,0.052490234375,0.992431640625,0.16796875,0.5187987685203552,-1.0986326932907104,-0.6408690810203552,73.33333587646484,263117.0,0.0
15185.0064845,296478.8125,295379.65625,323132.75,314963.8125,285757.0625,255478.125,220620.578125,246409.75,0.052490234375,0.992431640625,0.16796875,0.5187987685203552,-1.0986326932907104,-0.6408690810203552,73.33333587646484,263118.0,0.0
15185.0064847,296478.8125,295379.65625,323132.75,314963.8125,285757.0625,255478.125,220620.578125,246409.75,0.052490234375,0.992431640625,0.16796875,0.5187987685203552,-1.0986326932907104,-0.6408690810203552,73.33333587646484,263119.0,0.0
15185.0064849,296478.8125,295379.65625,323132.75,314963.8125,285757.0625,255478.125,220620.578125,246409.75,0.052490234375,0.992431640625,0.16796875,0.5187987685203552,-1.0986326932907104,-0.6408690810203552,73.33333587646484,263120.0,0.0
15185.0064851,296478.8125,295379.65625,323132.75,314963.8125,285757.0625,255478.125,220620.578125,246409.75,0.052490234375,0.992431640625,0.16796875,0.5187987685203552,-1.0986326932907104,-0.6408690810203552,73.33333587646484,263121.0,0.0
15185.0064853,296478.8125,295379.65625,323132.75,314963.8125,285757.0625,255478.125,220620.578125,246409.75,0.052490234375,0.992431640625,0.16796875,0.5187987685203552,-1.0986326932907104,-0.6408690810203552,73.33333587646484,263122.0,0.0
15185.0064855,296478.8125,295379.65625,323132.75,314963.8125,285757.0625,255478.125,220620.578125,246409.75,0.052490234375,0.992431640625,0.16796875,0.5187987685203552,-1.0986326932907104,-0.6408690810203552,73.33333587646484,263123.0,0.0
15185.0064857,296478.8125,295379.65625,323132.75,314963.8125,285757.0625,255478.125,220620.578125,246409.75,0.052490234375,0.992431640625,0.16796875,0.5187987685203552,-1.0986326932907104,-0.6408690810203552,73.33333587646484,263124.0,0.0
15185.0064859,296478.8125,295379.65625,323132.75,314963.8125,285757.0625,255478.125,220620.578125,246409.75,0.052490234375,0.992431640625,0.16796875,0.5187987685203552,-1.0986326932907104,-0.6408690810203552,73.33333587646484,263125.0,0.0
15185.0064861,296478.8125,295379.65625,323132.75,314963.8125,285757.0625,255478.125,220620.578125,246409.75,0.052490234375,0.992431640625,0.16796875,0.5187987685203552,-1.0986326932907104,-0.6408690810203552,73.33333587646484,263126.0,0.0
15185.0064862,296478.8125,295379.65625,323132.75,314963.8125,285757.0625,255478.125,220620.578125,246409.75,0.052490234375,0.992431640625,0.16796875,0.5187987685203552,-1.0986326932907104,-0.6408690810203552,73.33333587646484,263127.0,0.0
15185.0064864,296478.8125,295379.65625,323132.75,314963.8125,285757.0625,255478.125,220620.578125,246409.75,0.052490234375,0.992431640625,0.16796875,0.5187987685203552,-1.0986326932907104,-0.6408690810203552,73.33333587646484,263128.0,0.0
15185.0064866,296478.8125,295379.65625,323132.75,314963.8125,285757.0625,255478.125,220620.578125,246409.75,0.052490234375,0.992431640625,0.16796875,0.5187987685203552,-1.0986326932907104,-0.6408690810203552,73.33333587646484,263129.0,0.0
15185.0064868,296478.8125,295379.65625,323132.75,314963.8125,285757.0625,255478.125,220620.578125,246409.75,0.052490234375,0.992431640625,0.16796875,0.5187987685203552,-1.0986326932907104,-0.6408690810203552,73.33333587646484,263130.0,0.0
15185.006487,296478.8125,295379.65625,323132.75,314963.8125,285757.0625,255478.125,220620.578125,246409.75,0.052490234375,0.992431640625,0.16796875,0.5187987685203552,-1.0986326932907104,-0.6408690810203552,73.33333587646484,263131.0,0.0
15185.0064872,296478.8125,295379.65625,323132.75,314963.8125,285757.0625,255478.125,220620.578125,246409.75,0.052490234375,0.992431640625,0.16796875,0.5187987685203552,-1.0986326932907104,-0.6408690810203552,73.33333587646484,263132.0,0.0
15185.0064874,296478.8125,295379.65625,323132.75,314963.8125,285757.0625,255478.125,220620.578125,246409.75,0.052490234375,0.992431640625,0.16796875,0.5187987685203552,-1.0986326932907104,-0.6408690810203552,73.33333587646484,263133.0,0.0
15185.0064875,296478.8125,295379.65625,323132.75,314963.8125,285757.0625,255478.125,220620.578125,246409.75,0.052490234375,0.992431640625,0.16796875,0.5187987685203552,-1.0986326932907104,-0.6408690810203552,73.33333587646484,263134.0,0.0
15185.0064877,296478.8125,295379.65625,323132.75,314963.8125,285757.0625,255478.125,220620.578125,246409.75,0.052490234375,0.992431640625,0.16796875,0.5187987685203552,-1.0986326932907104,-0.6408690810203552,73.33333587646484,263135.0,0.0
15185.0064879,296478.8125,295379.65625,323132.75,314963.8125,285757.0625,255478.125,220620.578125,246409.75,0.052490234375,0.992431640625,0.16796875,0.5187987685203552,-1.0986326932907104,-0.6408690810203552,73.33333587646484,263136.0,0.0
15185.0064881,296478.8125,295379.65625,323132.75,314963.8125,285757.0625,255478.125,220620.578125,246409.75,0.052490234375,0.992431640625,0.16796875,0.5187987685203552,-1.0986326932907104,-0.6408690810203552,73.33333587646484,263137.0,0.0
15185.0064883,296478.8125,295379.65625,323132.75,314963.8125,285757.0625,255478.125,220620.578125,246409.75,0.052490234375,0.992431640625,0.16796875,0.5187987685203552,-1.0986326932907104,-0.6408690810203552,73.33333587646484,263138.0,0.0
15185.0064885,296478.8125,295379.65625,323132.75,314963.8125,285757.0625,255478.125,220620.578125,246409.75,0.052490234375,0.992431640625,0.16796875,0.5187987685203552,-1.0986326932907104,-0.6408690810203552,73.33333587646484,263139.0,0.0
15185.0064887,296478.8125,295379.65625,323132.75,314963.8125,285757.0625,255478.125,220620.578125,246409.75,0.052490234375,0.992431640625,0.16796875,0.5187987685203552,-1.0986326932907104,-0.6408690810203552,73.33333587646484,263140.0,0.0
15185.0064889,296478.8125,295379.65625,323132.75,314963.8125,285757.0625,255478.125,220620.578125,246409.75,0.052490234375,0.992431640625,0.16796875,0.5187987685203552,-1.0986326932907104,-0.6408690810203552,73.33333587646484,263141.0,0.0
15185.0064891,296478.8125,295379.65625,323132.75,314963.8125,285757.0625,255478.125,220620.578125,246409.75,0.052490234375,0.992431640625,0.16796875,0.5187987685203552,-1.0986326932907104,-0.6408690810203552,73.33333587646484,263142.0,0.0
15185.0064893,296153.75,294472.71875,322099.5625,314525.625,285089.4375,255229.3125,220214.40625,246171.484375,0.05419921875,0.9931640625,0.170654296875,0.03051757626235485,-1.3732908964157104,-0.7324218153953552,73.33333587646484,263143.0,1.0
15185.0064907,296258.625,294527.25,321952.125,314672.6875,285066.90625,255295.015625,220306.5,246263.75,0.053466796875,0.991943359375,0.169921875,0.1220703050494194,-1.2207030057907104,-0.6713866591453552,73.33333587646484,263144.0,1.0
15185.006492,296472.9375,295380.65625,323126.5,314983.3125,285762.5,255485.71875,220608.953125,246433.984375,0.05029296875,0.99169921875,0.17236328125,0.1525878757238388,-1.2512205839157104,-0.6408690810203552,73.33333587646484,263145.0,1.0
15185.0064933,296490.375,295834.65625,323974.15625,315014.0625,286197.75,255541.515625,220691.5625,246430.046875,0.04931640625,0.9912109375,0.17138671875,0.2746581733226776,-1.3732908964157104,-0.6408690810203552,73.33333587646484,263146.0,1.0
15185.0064946,296289.28125,295273.1875,323334.90625,314729.21875,285782.4375,255392.828125,220447.75,246270.453125,0.048095703125,0.993896484375,0.171875,0.2746581733226776,-1.3122557401657104,-0.5798339247703552,73.33333587646484,263147.0,1.0
15185.0064959,296152.3125,294483.1875,322097.78125,314520.71875,285094.375,255243.796875,220221.640625,246168.265625,0.050048828125,0.993896484375,0.1728515625,0.3967284858226776,-1.3122557401657104,-0.6103515028953552,73.33333587646484,263148.0,1.0
15185.0091971,296260.59375,294543.15625,321958.03125,314663.40625,285073.28125,255298.515625,220318.109375,246259.28125,0.050048828125,0.993408203125,0.17236328125,0.3051757514476776,-1.2817381620407104,-0.5798339247703552,73.33333587646484,263149.0,1.0
15185.0349221,296480.53125,295397.28125,323136.6875,314974.625,285769.46875,255503.078125,220628.53125,246430.859375,0.0498046875,0.993896484375,0.172607421875,0.3356933295726776,-1.2512205839157104,-0.6103515028953552,73.33333587646484,263150.0,1.0
15185.0349349,296498.40625,295846.71875,323980.9375,315008.59375,286203.375,255576.65625,220714.640625,246433.984375,0.051513671875,0.992431640625,0.17333984375,0.3356933295726776,-1.3122557401657104,-0.6103515028953552,73.33333587646484,263151.0,1.0
15185.133849,296292.5,295288.09375,323340.0,314722.21875,285784.5,255412.59375,220465.8125,246276.71875,0.05029296875,0.99462890625,0.174072265625,0.4272460639476776,-1.3122557401657104,-0.7324218153953552,73.33333587646484,263152.0,1.0
15185.1338613,296151.15625,294492.03125,322100.625,314510.59375,285094.71875,255266.140625,220238.0,246170.140625,0.05029296875,0.994873046875,0.170166015625,0.3356933295726776,-1.4343260526657104,-0.8544921278953552,73.33333587646484,263153.0,1.0
15185.1338627,296252.8125,294544.0625,321954.90625,314649.53125,285068.875,255315.140625,220327.765625,246260.453125,0.051025390625,0.9931640625,0.169189453125,0.3662109076976776,-1.3427733182907104,-0.9460448622703552,73.33333587646484,263154.0,1.0
15185.1338651,296252.8125,294544.0625,321954.90625,314649.53125,285068.875,255315.140625,220327.765625,246260.453125,0.051025390625,0.9931640625,0.169189453125,0.3662109076976776,-1.3427733182907104,-0.9460448622703552,73.33333587646484,263155.0,0.0
15185.1338653,296252.8125,294544.0625,321954.90625,314649.53125,285068.875,255315.140625,220327.765625,246260.453125,0.051025390625,0.9931640625,0.169189453125,0.3662109076976776,-1.3427733182907104,-0.9460448622703552,73.33333587646484,263156.0,0.0
15185.1338655,296252.8125,294544.0625,321954.90625,314649.53125,285068.875,255315.140625,220327.765625,246260.453125,0.051025390625,0.9931640625,0.169189453125,0.3662109076976776,-1.3427733182907104,-0.9460448622703552,73.33333587646484,263157.0,0.0
15185.1338657,296252.8125,294544.0625,321954.90625,314649.53125,285068.875,255315.140625,220327.765625,246260.453125,0.051025390625,0.9931640625,0.169189453125,0.3662109076976776,-1.3427733182907104,-0.9460448622703552,73.33333587646484,263158.0,0.0
15185.1338659,296252.8125,294544.0625,321954.90625,314649.53125,285068.875,255315.140625,220327.765625,246260.453125,0.051025390625,0.9931640625,0.169189453125,0.3662109076976776,-1.3427733182907104,-0.9460448622703552,73.33333587646484,263159.0,0.0
15185.1338661,296252.8125,294544.0625,321954.90625,314649.53125,285068.875,255315.140625,220327.765625,246260.453125,0.051025390625,0.9931640625,0.169189453125,0.3662109076976776,-1.3427733182907104,-0.9460448622703552,73.33333587646484,263160.0,0.0
15185.1338662,296252.8125,294544.0625,321954.90625,314649.53125,285068.875,255315.140625,220327.765625,246260.453125,0.051025390625,0.9931640625,0.169189453125,0.3662109076976776,-1.3427733182907104,-0.9460448622703552,73.33333587646484,263161.0,0.0
15185.1338664,296252.8125,294544.0625,321954.90625,314649.53125,285068.875,255315.140625,220327.765625,246260.453125,0.051025390625,0.9931640625,0.169189453125,0.3662109076976776,-1.3427733182907104,-0.9460448622703552,73.33333587646484,263162.0,0.0
15185.1338666,296252.8125,294544.0625,321954.90625,314649.53125,285068.875,255315.140625,220327.765625,246260.453125,0.051025390625,0.9931640625,0.169189453125,0.3662109076976776,-1.3427733182907104,-0.9460448622703552,73.33333587646484,263163.0,0.0
15185.1338668,296252.8125,294544.0625,321954.90625,314649.53125,285068.875,255315.140625,220327.765625,246260.453125,0.051025390625,0.9931640625,0.169189453125,0.3662109076976776,-1.3427733182907104,-0.9460448622703552,73.33333587646484,263164.0,0.0
15185.133867,296252.8125,294544.0625,321954.90625,314649.53125,285068.875,255315.140625,220327.765625,246260.453125,0.051025390625,0.9931640625,0.169189453125,0.3662109076976776,-1.3427733182907104,-0.9460448622703552,73.33333587646484,263165.0,0.0
15185.1338671,296252.8125,294544.0625,321954.90625,314649.53125,285068.875,255315.140625,220327.765625,246260.453125,0.051025390625,0.9931640625,0.169189453125,0.3662109076976776,-1.3427733182907104,-0.9460448622703552,73.33333587646484,263166.0,0.0
15185.1338673,296252.8125,294544.0625,321954.90625,314649.53125,285068.875,255315.140625,220327.765625,246260.453125,0.051025390625,0.9931640625,0.169189453125,0.3662109076976776,-1.3427733182907104,-0.9460448622703552,73.33333587646484,263167.0,0.0
15185.1338675,296252.8125,294544.0625,321954.90625,314649.53125,285068.875,255315.140625,220327.765625,246260.453125,0.051025390625,0.9931640625,0.169189453125,0.3662109076976776,-1.3427733182907104,-0.9460448622703552,73.33333587646484,263168.0,0.0
15185.1338676,296252.8125,294544.0625,321954.90625,314649.53125,285068.875,255315.140625,220327.765625,246260.453125,0.051025390625,0.9931640625,0.169189453125,0.3662109076976776,-1.3427733182907104,-0.9460448622703552,73.33333587646484,263169.0,0.0
15185.1338678,296252.8125,294544.0625,321954.90625,314649.53125,285068.875,255315.140625,220327.765625,246260.453125,0.051025390625,0.9931640625,0.169189453125,0.3662109076976776,-1.3427733182907104,-0.9460448622703552,73.33333587646484,263170.0,0.0
15185.133868,296252.8125,294544.0625,321954.90625,314649.53125,285068.875,255315.140625,220327.765625,246260.453125,0.051025390625,0.9931640625,0.169189453125,0.3662109076976776,-1.3427733182907104,-0.9460448622703552,73.33333587646484,263171.0,0.0
15185.1338682,296252.8125,294544.0625,321954.90625,314649.53125,285068.875,255315.140625,220327.765625,246260.453125,0.051025390625,0.9931640625,0.169189453125,0.3662109076976776,-1.3427733182907104,-0.9460448622703552,73.33333587646484,263172.0,0.0
15185.1338684,296252.8125,294544.0625,321954.90625,314649.53125,285068.875,255315.140625,220327.765625,246260.453125,0.051025390625,0.9931640625,0.169189453125,0.3662109076976776,-1.3427733182907104,-0.9460448622703552,73.33333587646484,263173.0,0.0
15185.1338686,296252.8125,294544.0625,321954.90625,314649.53125,285068.875,255315.140625,220327.765625,246260.453125,0.051025390625,0.9931640625,0.169189453125,0.3662109076976776,-1.3427733182907104,-0.9460448622703552,73.33333587646484,263174.0,0.0
15185.1338687,296252.8125,294544.0625,321954.90625,314649.53125,285068.875,255315.140625,220327.765625,246260.453125,0.051025390625,0.9931640625,0.169189453125,0.3662109076976776,-1.3427733182907104,-0.9460448622703552,73.33333587646484,263175.0,0.0
15185.1338689,296500.8125,295847.625,323986.0625,315002.0,286209.09375,255554.484375,220709.0,246429.328125,0.05322265625,0.992431640625,0.16943359375,0.3051757514476776,-1.8615721464157104,-1.0986326932907104,73.33333587646484,263176.0,1.0
15185.1338702,296295.46875,295280.875,323334.53125,314717.75,285786.65625,255406.953125,220465.90625,246272.421875,0.05712890625,0.994384765625,0.162841796875,0.2136230319738388,-1.7089842557907104,-0.9460448622703552,73.33333587646484,263177.0,1.0
15185.1338714,296153.75,294485.0625,322090.71875,314507.5625,285094.0,255244.0625,220231.03125,246167.640625,0.05517578125,0.9951171875,0.16796875,0.3356933295726776,-1.6479490995407104,-0.9155272841453552,73.33333587646484,263178.0,1.0
15185.1338727,296262.8125,294550.78125,321960.4375,314655.28125,285081.9375,255296.8125,220324.46875,246257.046875,0.0537109375,0.9951171875,0.169189453125,0.2746581733226776,-1.5563963651657104,-0.8239745497703552,73.33333587646484,263179.0,1.0
15185.1338739,296481.5,295401.46875,323141.6875,314969.09375,285778.15625,255488.3125,220624.15625,246426.5625,0.052734375,0.994873046875,0.166259765625,0.3967284858226776,-1.4953612089157104,-0.8544921278953552,73.33333587646484,263180.0,1.0
15185.1338751,296496.25,295844.75,323980.3125,315004.03125,286206.3125,255545.546875,220702.125,246427.8125,0.05224609375,0.992431640625,0.1640625,0.3967284858226776,-1.6174315214157104,-0.9155272841453552,73.33333587646484,263181.0,1.0
15185.1338763,296291.96875,295277.375,323329.625,314721.0625,285785.3125,255393.28125,220455.265625,246269.203125,0.052734375,0.9892578125,0.16357421875,0.4272460639476776,-1.5869139432907104,-0.8239745497703552,73.33333587646484,263182.0,1.0
15185.1354988,296154.0,294481.84375,322087.84375,314511.9375,285093.125,255230.640625,220218.515625,246158.796875,0.0546875,0.98974609375,0.16552734375,0.4882812201976776,-1.7395018339157104,-0.9765624403953552,73.33333587646484,263183.0,1.0
15185.1607905,296258.15625,294541.375,321952.21875,314657.5,285074.4375,255285.8125,220317.671875,246254.90625,0.05322265625,0.98779296875,0.166259765625,0.6103515028953552,-1.7089842557907104,-0.9460448622703552,73.33333587646484,263184.0,1.0
15185.2139551,296258.15625,294541.375,321952.21875,314657.5,285074.4375,255285.8125,220317.671875,246254.90625,0.05322265625,0.98779296875,0.166259765625,0.6103515028953552,-1.7089842557907104,-0.9460448622703552,73.33333587646484,263185.0,0.0
15185.2139588,296258.15625,294541.375,321952.21875,314657.5,285074.4375,255285.8125,220317.671875,246254.90625,0.05322265625,0.98779296875,0.166259765625,0.6103515028953552,-1.7089842557907104,-0.9460448622703552,73.33333587646484,263186.0,0.0
15185.213959,296258.15625,294541.375,321952.21875,314657.5,285074.4375,255285.8125,220317.671875,246254.90625,0.05322265625,0.98779296875,0.166259765625,0.6103515028953552,-1.7089842557907104,-0.9460448622703552,73.33333587646484,263187.0,0.0
15185.2139592,296258.15625,294541.375,321952.21875,314657.5,285074.4375,255285.8125,220317.671875,246254.90625,0.05322265625,0.98779296875,0.166259765625,0.6103515028953552,-1.7089842557907104,-0.9460448622703552,73.33333587646484,263188.0,0.0
15185.2139594,296258.15625,294541.375,321952.21875,314657.5,285074.4375,255285.8125,220317.671875,246254.90625,0.05322265625,0.98779296875,0.166259765625,0.6103515028953552,-1.7089842557907104,-0.9460448622703552,73.33333587646484,263189.0,0.0
15185.2139596,296258.15625,294541.375,321952.21875,314657.5,285074.4375,255285.8125,220317.671875,246254.90625,0.05322265625,0.98779296875,0.166259765625,0.6103515028953552,-1.7089842557907104,-0.9460448622703552,73.33333587646484,263190.0,0.0
15185.2139597,296258.15625,294541.375,321952.21875,314657.5,285074.4375,255285.8125,220317.671875,246254.90625,0.05322265625,0.98779296875,0.166259765625,0.6103515028953552,-1.7089842557907104,-0.9460448622703552,73.33333587646484,263191.0,0.0
15185.2139599,296258.15625,294541.375,321952.21875,314657.5,285074.4375,255285.8125,220317.671875,246254.90625,0.05322265625,0.98779296875,0.166259765625,0.6103515028953552,-1.7089842557907104,-0.9460448622703552,73.33333587646484,263192.0,0.0
15185.2139601,296258.15625,294541.375,321952.21875,314657.5,285074.4375,255285.8125,220317.671875,246254.90625,0.05322265625,0.98779296875,0.166259765625,0.6103515028953552,-1.7089842557907104,-0.9460448622703552,73.33333587646484,263193.0,0.0
15185.2139603,296258.15625,294541.375,321952.21875,314657.5,285074.4375,255285.8125,220317.671875,246254.90625,0.05322265625,0.98779296875,0.166259765625,0.6103515028953552,-1.7089842557907104,-0.9460448622703552,73.33333587646484,263194.0,0.0
15185.2139605,296258.15625,294541.375,321952.21875,314657.5,285074.4375,255285.8125,220317.671875,246254.90625,0.05322265625,0.98779296875,0.166259765625,0.6103515028953552,-1.7089842557907104,-0.9460448622703552,73.33333587646484,263195.0,0.0
15185.2139606,296258.15625,294541.375,321952.21875,314657.5,285074.4375,255285.8125,220317.671875,246254.90625,0.05322265625,0.98779296875,0.166259765625,0.6103515028953552,-1.7089842557907104,-0.9460448622703552,73.33333587646484,263196.0,0.0
15185.2139608,296258.15625,294541.375,321952.21875,314657.5,285074.4375,255285.8125,220317.671875,246254.90625,0.05322265625,0.98779296875,0.166259765625,0.6103515028953552,-1.7089842557907104,-0.9460448622703552,73.33333587646484,263197.0,0.0
15185.213961,296258.15625,294541.375,321952.21875,314657.5,285074.4375,255285.8125,220317.671875,246254.90625,0.05322265625,0.98779296875,0.166259765625,0.6103515028953552,-1.7089842557907104,-0.9460448622703552,73.33333587646484,263198.0,0.0
15185.2139611,296258.15625,294541.375,321952.21875,314657.5,285074.4375,255285.8125,220317.671875,246254.90625,0.05322265625,0.98779296875,0.166259765625,0.6103515028953552,-1.7089842557907104,-0.9460448622703552,73.33333587646484,263199.0,0.0
15185.2139613,296258.15625,294541.375,321952.21875,314657.5,285074.4375,255285.8125,220317.671875,246254.90625,0.05322265625,0.98779296875,0.166259765625,0.6103515028953552,-1.7089842557907104,-0.9460448622703552,73.33333587646484,263200.0,0.0
15185.2139615,296258.15625,294541.375,321952.21875,314657.5,285074.4375,255285.8125,220317.671875,246254.90625,0.05322265625,0.98779296875,0.166259765625,0.6103515028953552,-1.7089842557907104,-0.9460448622703552,73.33333587646484,263201.0,0.0
15185.2139617,296258.15625,294541.375,321952.21875,314657.5,285074.4375,255285.8125,220317.671875,246254.90625,0.05322265625,0.98779296875,0.166259765625,0.6103515028953552,-1.7089842557907104,-0.9460448622703552,73.33333587646484,263202.0,0.0
15185.2139618,296258.15625,294541.375,321952.21875,314657.5,285074.4375,255285.8125,220317.671875,246254.90625,0.05322265625,0.98779296875,0.166259765625,0.6103515028953552,-1.7089842557907104,-0.9460448622703552,73.33333587646484,263203.0,0.0
15185.213962,296258.15625,294541.375,321952.21875,314657.5,285074.4375,255285.8125,220317.671875,246254.90625,0.05322265625,0.98779296875,0.166259765625,0.6103515028953552,-1.7089842557907104,-0.9460448622703552,73.33333587646484,263204.0,0.0
15185.2139622,296473.28125,295398.4375,323135.875,314959.6875,285767.4375,255490.734375,220623.53125,246414.84375,0.046875,0.99462890625,0.1640625,-0.0915527269244194,-1.3427733182907104,-0.6408690810203552,73.33333587646484,263205.0,1.0
15185.21397,296486.34375,295839.3125,323977.8125,314993.3125,286197.65625,255552.609375,220704.171875,246423.4375,0.046630859375,0.99365234375,0.16552734375,-0.0915527269244194,-1.2817381620407104,-0.6408690810203552,73.33333587646484,263206.0,1.0
15185.2139716,296279.4375,295266.125,323324.78125,314705.96875,285772.25,255390.515625,220454.1875,246260.453125,0.045166015625,0.995849609375,0.16748046875,-0.1220703050494194,-1.3122557401657104,-0.5798339247703552,73.33333587646484,263207.0,1.0
15185.2139728,296143.5625,294473.34375,322084.09375,314502.8125,285085.15625,255242.453125,220233.171875,246164.515625,0.044921875,0.994384765625,0.1650390625,-0.1525878757238388,-1.3122557401657104,-0.6103515028953552,73.33333587646484,263208.0,1.0
15185.213974,296255.3125,294537.90625,321949.53125,314648.125,285068.0,255289.921875,220322.671875,246246.3125,0.043701171875,0.994140625,0.166748046875,0.0,-1.4038084745407104,-0.6103515028953552,73.33333587646484,263209.0,1.0
15185.2139752,296476.0625,295392.34375,323134.0,314964.875,285766.875,255492.15625,220629.96875,246417.625,0.044677734375,0.995849609375,0.166748046875,0.03051757626235485,-1.4343260526657104,-0.7324218153953552,73.33333587646484,263210.0,1.0
15185.2139764,296490.53125,295824.8125,323972.28125,314997.0625,286190.3125,255540.265625,220701.9375,246417.359375,0.04638671875,0.994140625,0.168212890625,0.0,-1.5869139432907104,-0.7324218153953552,73.33333587646484,263211.0,1.0
15185.2139776,296288.125,295251.0,323319.59375,314715.09375,285760.375,255368.0625,220446.953125,246258.84375,0.046875,0.9931640625,0.16845703125,-0.0610351525247097,-1.6784666776657104,-0.7934569716453552,73.33333587646484,263212.0,1.0
15185.2139788,296149.625,294460.1875,322080.0625,314509.71875,285069.59375,255216.078125,220224.59375,246159.421875,0.050537109375,0.992919921875,0.1669921875,0.0610351525247097,-1.6784666776657104,-0.6713866591453552,73.33333587646484,263213.0,1.0
15185.2139799,296262.0,294524.46875,321947.84375,314655.90625,285056.5625,255282.328125,220329.015625,246250.875,0.051513671875,0.99365234375,0.16943359375,0.0915527269244194,-1.7395018339157104,-0.8239745497703552,73.33333587646484,263214.0,1.0
15185.2378285,296485.09375,295377.6875,323128.625,314964.34375,285751.78125,255490.109375,220632.109375,246413.78125,0.0498046875,0.994384765625,0.170166015625,0.1525878757238388,-1.6784666776657104,-0.9460448622703552,73.33333587646484,263215.0,1.0
15185.2378369,296485.09375,295377.6875,323128.625,314964.34375,285751.78125,255490.109375,220632.109375,246413.78125,0.0498046875,0.994384765625,0.170166015625,0.1525878757238388,-1.6784666776657104,-0.9460448622703552,73.33333587646484,263216.0,0.0
15185.2378371,296485.09375,295377.6875,323128.625,314964.34375,285751.78125,255490.109375,220632.109375,246413.78125,0.0498046875,0.994384765625,0.170166015625,0.1525878757238388,-1.6784666776657104,-0.9460448622703552,73.33333587646484,263217.0,0.0
15185.2378373,296485.09375,295377.6875,323128.625,314964.34375,285751.78125,255490.109375,220632.109375,246413.78125,0.0498046875,0.994384765625,0.170166015625,0.1525878757238388,-1.6784666776657104,-0.9460448622703552,73.33333587646484,263218.0,0.0
15185.2378375,296485.09375,295377.6875,323128.625,314964.34375,285751.78125,255490.109375,220632.109375,246413.78125,0.0498046875,0.994384765625,0.170166015625,0.1525878757238388,-1.6784666776657104,-0.9460448622703552,73.33333587646484,263219.0,0.0
15185.2378377,296485.09375,295377.6875,323128.625,314964.34375,285751.78125,255490.109375,220632.109375,246413.78125,0.0498046875,0.994384765625,0.170166015625,0.1525878757238388,-1.6784666776657104,-0.9460448622703552,73.33333587646484,263220.0,0.0
15185.2378379,296485.09375,295377.6875,323128.625,314964.34375,285751.78125,255490.109375,220632.109375,246413.78125,0.0498046875,0.994384765625,0.170166015625,0.1525878757238388,-1.6784666776657104,-0.9460448622703552,73.33333587646484,263221.0,0.0
15185.2378381,296485.09375,295377.6875,323128.625,314964.34375,285751.78125,255490.109375,220632.109375,246413.78125,0.0498046875,0.994384765625,0.170166015625,0.1525878757238388,-1.6784666776657104,-0.9460448622703552,73.33333587646484,263222.0,0.0
15185.2378383,296485.09375,295377.6875,323128.625,314964.34375,285751.78125,255490.109375,220632.109375,246413.78125,0.0498046875,0.994384765625,0.170166015625,0.1525878757238388,-1.6784666776657104,-0.9460448622703552,73.33333587646484,263223.0,0.0
15185.2378385,296485.09375,295377.6875,323128.625,314964.34375,285751.78125,255490.109375,220632.109375,246413.78125,0.0498046875,0.994384765625,0.170166015625,0.1525878757238388,-1.6784666776657104,-0.9460448622703552,73.33333587646484,263224.0,0.0
15185.2378386,296485.09375,295377.6875,323128.625,314964.34375,285751.78125,255490.109375,220632.109375,246413.78125,0.0498046875,0.994384765625,0.170166015625,0.1525878757238388,-1.6784666776657104,-0.9460448622703552,73.33333587646484,263225.0,0.0
15185.2378388,296485.09375,295377.6875,323128.625,314964.34375,285751.78125,255490.109375,220632.109375,246413.78125,0.0498046875,0.994384765625,0.170166015625,0.1525878757238388,-1.6784666776657104,-0.9460448622703552,73.33333587646484,263226.0,0.0
15185.237839,296485.09375,295377.6875,323128.625,314964.34375,285751.78125,255490.109375,220632.109375,246413.78125,0.0498046875,0.994384765625,0.170166015625,0.1525878757238388,-1.6784666776657104,-0.9460448622703552,73.33333587646484,263227.0,0.0
15185.2378392,296485.09375,295377.6875,323128.625,314964.34375,285751.78125,255490.109375,220632.109375,246413.78125,0.0498046875,0.994384765625,0.170166015625,0.1525878757238388,-1.6784666776657104,-0.9460448622703552,73.33333587646484,263228.0,0.0
15185.2378394,296485.09375,295377.6875,323128.625,314964.34375,285751.78125,255490.109375,220632.109375,246413.78125,0.0498046875,0.994384765625,0.170166015625,0.1525878757238388,-1.6784666776657104,-0.9460448622703552,73.33333587646484,263229.0,0.0
15185.2378395,296485.09375,295377.6875,323128.625,314964.34375,285751.78125,255490.109375,220632.109375,246413.78125,0.0498046875,0.994384765625,0.170166015625,0.1525878757238388,-1.6784666776657104,-0.9460448622703552,73.33333587646484,263230.0,0.0
15185.2378397,296485.09375,295377.6875,323128.625,314964.34375,285751.78125,255490.109375,220632.109375,246413.78125,0.0498046875,0.994384765625,0.170166015625,0.1525878757238388,-1.6784666776657104,-0.9460448622703552,73.33333587646484,263231.0,0.0
15185.2378399,296485.09375,295377.6875,323128.625,314964.34375,285751.78125,255490.109375,220632.109375,246413.78125,0.0498046875,0.994384765625,0.170166015625,0.1525878757238388,-1.6784666776657104,-0.9460448622703552,73.33333587646484,263232.0,0.0
15185.2378401,296485.09375,295377.6875,323128.625,314964.34375,285751.78125,255490.109375,220632.109375,246413.78125,0.0498046875,0.994384765625,0.170166015625,0.1525878757238388,-1.6784666776657104,-0.9460448622703552,73.33333587646484,263233.0,0.0
15185.2378403,296485.09375,295377.6875,323128.625,314964.34375,285751.78125,255490.109375,220632.109375,246413.78125,0.0498046875,0.994384765625,0.170166015625,0.1525878757238388,-1.6784666776657104,-0.9460448622703552,73.33333587646484,263234.0,0.0
15185.2378404,296485.09375,295377.6875,323128.625,314964.34375,285751.78125,255490.109375,220632.109375,246413.78125,0.0498046875,0.994384765625,0.170166015625,0.1525878757238388,-1.6784666776657104,-0.9460448622703552,73.33333587646484,263235.0,0.0
15185.2378406,296511.1875,295830.8125,323984.875,315007.4375,286195.9375,255534.1875,220697.640625,246426.5625,0.04736328125,0.997314453125,0.170166015625,1.0070799589157104,-1.3122557401657104,-1.2207030057907104,73.33333587646484,263236.0,1.0
15185.2378422,296309.40625,295251.0,323331.9375,314722.5,285773.15625,255386.21875,220460.8125,246274.21875,0.048828125,0.9970703125,0.17138671875,0.9460448622703552,-1.3427733182907104,-1.1901854276657104,73.33333587646484,263237.0,1.0
15185.2617515,296173.9375,294460.09375,322087.59375,314512.40625,285082.3125,255237.984375,220234.703125,246168.53125,0.048828125,0.997314453125,0.166748046875,0.9155272841453552,-1.3732908964157104,-1.1596678495407104,73.33333587646484,263238.0,1.0
15185.3376368,296283.65625,294534.21875,321955.71875,314654.5625,285067.09375,255284.828125,220320.265625,246251.140625,0.048828125,0.997314453125,0.1669921875,0.8850097060203552,-1.4343260526657104,-1.0375975370407104,73.33333587646484,263239.0,1.0
15185.3376557,296505.5625,295400.03125,323153.3125,314967.46875,285773.9375,255491.359375,220628.09375,246421.109375,0.047119140625,0.99755859375,0.164794921875,0.8239745497703552,-1.5258787870407104,-1.0681151151657104,73.33333587646484,263240.0,1.0
15185.3376571,296525.6875,295843.78125,323999.5625,315006.0,286208.03125,255564.9375,220720.265625,246435.6875,0.046630859375,0.9970703125,0.16650390625,0.7629393935203552,-1.4953612089157104,-1.0070799589157104,73.33333587646484,263241.0,1.0
15185.3376583,296322.1875,295268.15625,323339.71875,314719.1875,285779.40625,255401.140625,220462.953125,246268.671875,0.047119140625,0.9970703125,0.16943359375,0.6408690810203552,-1.5869139432907104,-0.9460448622703552,73.33333587646484,263242.0,1.0
15185.3376595,296176.625,294468.0625,322087.125,314506.125,285084.1875,255243.34375,220225.3125,246156.640625,0.047119140625,0.99853515625,0.164794921875,0.5493163466453552,-1.5869139432907104,-1.0681151151657104,73.33333587646484,263243.0,1.0
15185.3376607,296282.3125,294536.09375,321958.65625,314653.5625,285073.96875,255298.953125,220316.59375,246253.734375,0.046875,0.99609375,0.167236328125,0.4882812201976776,-1.6479490995407104,-1.0070799589157104,73.33333587646484,263244.0,1.0
15185.3376619,296500.1875,295400.9375,323153.3125,314967.65625,285776.28125,255475.0,220607.609375,246412.53125,0.047607421875,0.99462890625,0.1630859375,0.4577636420726776,-1.5869139432907104,-0.9765624403953552,73.33333587646484,263245.0,1.0
15185.3636821,296515.21875,295847.53125,323993.125,315004.84375,286207.5,255531.234375,220690.5,246433.0,0.0498046875,0.995361328125,0.164794921875,0.2746581733226776,-1.6174315214157104,-1.0070799589157104,73.33333587646484,263246.0,1.0
15185.3636942,296307.15625,295268.15625,323328.375,314716.6875,285776.71875,255382.90625,220441.046875,246266.890625,0.049560546875,0.994140625,0.1630859375,0.2136230319738388,-1.5563963651657104,-1.0986326932907104,73.33333587646484,263247.0,1.0
15185.3636955,296166.53125,294475.84375,322080.78125,314512.5625,285086.84375,255237.796875,220221.734375,246170.0625,0.051513671875,0.99462890625,0.165771484375,0.2136230319738388,-1.6174315214157104,-1.0375975370407104,73.33333587646484,263248.0,1.0
15185.3636967,296276.6875,294549.25,321953.28125,314662.78125,285075.9375,255300.296875,220325.265625,246263.84375,0.052734375,0.992431640625,0.16552734375,0.2441406100988388,-1.6174315214157104,-0.9155272841453552,73.33333587646484,263249.0,1.0
15185.3636981,296497.5,295412.03125,323146.96875,314973.75,285777.09375,255498.25,220618.078125,246416.640625,0.050537109375,0.9931640625,0.1640625,0.1525878757238388,-1.5563963651657104,-0.8544921278953552,73.33333587646484,263250.0,1.0
15185.3868058,296513.875,295852.4375,323987.46875,315006.625,286205.875,255559.125,220700.0625,246419.859375,0.05078125,0.994384765625,0.166748046875,0.0915527269244194,-1.4953612089157104,-0.7934569716453552,73.33333587646484,263251.0,1.0
15185.4242988,296513.875,295852.4375,323987.46875,315006.625,286205.875,255559.125,220700.0625,246419.859375,0.05078125,0.994384765625,0.166748046875,0.0915527269244194,-1.4953612089157104,-0.7934569716453552,73.33333587646484,263252.0,0.0
15185.4243017,296513.875,295852.4375,323987.46875,315006.625,286205.875,255559.125,220700.0625,246419.859375,0.05078125,0.994384765625,0.166748046875,0.0915527269244194,-1.4953612089157104,-0.7934569716453552,73.33333587646484,263253.0,0.0
15185.4243019,296513.875,295852.4375,323987.46875,315006.625,286205.875,255559.125,220700.0625,246419.859375,0.05078125,0.994384765625,0.166748046875,0.0915527269244194,-1.4953612089157104,-0.7934569716453552,73.33333587646484,263254.0,0.0
15185.4243021,296513.875,295852.4375,323987.46875,315006.625,286205.875,255559.125,220700.0625,246419.859375,0.05078125,0.994384765625,0.166748046875,0.0915527269244194,-1.4953612089157104,-0.7934569716453552,73.33333587646484,263255.0,0.0
15185.4243022,296513.875,295852.4375,323987.46875,315006.625,286205.875,255559.125,220700.0625,246419.859375,0.05078125,0.994384765625,0.166748046875,0.0915527269244194,-1.4953612089157104,-0.7934569716453552,73.33333587646484,263256.0,0.0
15185.4243024,296513.875,295852.4375,323987.46875,315006.625,286205.875,255559.125,220700.0625,246419.859375,0.05078125,0.994384765625,0.166748046875,0.0915527269244194,-1.4953612089157104,-0.7934569716453552,73.33333587646484,263257.0,0.0
15185.4243026,296513.875,295852.4375,323987.46875,315006.625,286205.875,255559.125,220700.0625,246419.859375,0.05078125,0.994384765625,0.166748046875,0.0915527269244194,-1.4953612089157104,-0.7934569716453552,73.33333587646484,263258.0,0.0
15185.4243028,296513.875,295852.4375,323987.46875,315006.625,286205.875,255559.125,220700.0625,246419.859375,0.05078125,0.994384765625,0.166748046875,0.0915527269244194,-1.4953612089157104,-0.7934569716453552,73.33333587646484,263259.0,0.0
15185.424303,296513.875,295852.4375,323987.46875,315006.625,286205.875,255559.125,220700.0625,246419.859375,0.05078125,0.994384765625,0.166748046875,0.0915527269244194,-1.4953612089157104,-0.7934569716453552,73.33333587646484,263260.0,0.0
15185.4243032,296513.875,295852.4375,323987.46875,315006.625,286205.875,255559.125,220700.0625,246419.859375,0.05078125,0.994384765625,0.166748046875,0.0915527269244194,-1.4953612089157104,-0.7934569716453552,73.33333587646484,263261.0,0.0
15185.4243034,296513.875,295852.4375,323987.46875,315006.625,286205.875,255559.125,220700.0625,246419.859375,0.05078125,0.994384765625,0.166748046875,0.0915527269244194,-1.4953612089157104,-0.7934569716453552,73.33333587646484,263262.0,0.0
15185.4243035,296513.875,295852.4375,323987.46875,315006.625,286205.875,255559.125,220700.0625,246419.859375,0.05078125,0.994384765625,0.166748046875,0.0915527269244194,-1.4953612089157104,-0.7934569716453552,73.33333587646484,263263.0,0.0
15185.4243037,296264.15625,294518.125,321945.0625,314645.4375,285061.65625,255275.359375,220313.640625,246252.125,0.052001953125,0.994384765625,0.168212890625,0.0915527269244194,-1.0375975370407104,-0.8239745497703552,73.33333587646484,263264.0,1.0
15185.4492834,296483.3125,295372.40625,323127.84375,314953.0,285754.46875,255475.359375,220614.59375,246418.34375,0.05029296875,0.99462890625,0.16845703125,0.0610351525247097,-0.9765624403953552,-0.8239745497703552,73.33333587646484,263265.0,1.0
15185.4755615,296501.4375,295827.0625,323972.1875,314986.25,286183.53125,255542.328125,220693.796875,246420.578125,0.052490234375,0.99609375,0.171630859375,0.1525878757238388,-0.8850097060203552,-0.8544921278953552,73.33333587646484,263266.0,1.0
15185.5011416,296290.28125,295253.59375,323314.25,314698.1875,285755.8125,255367.34375,220436.84375,246251.6875,0.053466796875,0.99560546875,0.167724609375,0.1220703050494194,-0.8850097060203552,-0.7934569716453552,73.33333587646484,263267.0,1.0
15185.5011639,296144.8125,294454.65625,322065.6875,314488.15625,285063.34375,255211.78125,220204.5625,246148.953125,0.052490234375,0.99560546875,0.166748046875,0.03051757626235485,-0.8850097060203552,-0.8850097060203552,73.33333587646484,263268.0,1.0
15185.5776629,296258.15625,294534.03125,321949.34375,314640.4375,285064.40625,255280.453125,220314.09375,246250.96875,0.050048828125,0.994140625,0.167236328125,0.03051757626235485,-0.8239745497703552,-0.8239745497703552,73.33333587646484,263269.0,1.0
15185.5776784,296478.90625,295396.1875,323141.59375,314953.53125,285769.65625,255484.390625,220623.4375,246419.765625,0.048583984375,0.99169921875,0.16796875,0.03051757626235485,-0.8239745497703552,-0.8850097060203552,73.33333587646484,263270.0,1.0
15185.5776797,296491.6875,295828.3125,323974.0625,314985.0,286193.4375,255542.5,220700.59375,246425.21875,0.0478515625,0.992431640625,0.166015625,0.1831054538488388,-0.8544921278953552,-0.9155272841453552,73.33333587646484,263271.0,1.0
15185.5776809,296287.125,295256.46875,323311.125,314699.0625,285763.75,255386.390625,220452.21875,246266.078125,0.0478515625,0.9951171875,0.167724609375,0.1525878757238388,-0.8239745497703552,-1.0070799589157104,73.33333587646484,263272.0,1.0
15185.5776822,296157.40625,294472.4375,322077.46875,314497.09375,285081.125,255238.25,220229.609375,246155.84375,0.051025390625,0.995361328125,0.167236328125,0.0610351525247097,-0.8850097060203552,-1.0070799589157104,73.33333587646484,263273.0,1.0
15185.5776834,296273.625,294551.125,321960.71875,314651.875,285079.875,255304.859375,220339.125,246251.0625,0.05126953125,0.9970703125,0.16845703125,0.1220703050494194,-0.8850097060203552,-0.9460448622703552,73.33333587646484,263274.0,1.0
15185.5776846,296493.21875,295415.34375,323157.15625,314964.53125,285785.03125,255503.15625,220640.25,246419.953125,0.05126953125,0.998291015625,0.17333984375,0.0610351525247097,-0.9155272841453552,-0.8850097060203552,73.33333587646484,263275.0,1.0
15185.5776857,296510.75,295856.375,324000.0,315001.625,286217.0625,255568.25,220724.203125,246432.46875,0.051513671875,0.99853515625,0.171630859375,-0.0915527269244194,-0.9155272841453552,-0.8239745497703552,73.33333587646484,263276.0,1.0
15185.5776869,296302.875,295269.15625,323331.6875,314716.6875,285784.5,255405.703125,220479.5,246288.4375,0.050048828125,0.996337890625,0.171142578125,-0.1220703050494194,-0.9155272841453552,-0.8544921278953552,73.33333587646484,263277.0,1.0
15185.6000099,296170.1875,294484.59375,322093.46875,314513.28125,285097.6875,255255.59375,220253.109375,246179.796875,0.051025390625,0.99658203125,0.17041015625,-0.1831054538488388,-0.9460448622703552,-1.0070799589157104,73.33333587646484,263278.0,1.0
15185.6023326,296170.1875,294484.59375,322093.46875,314513.28125,285097.6875,255255.59375,220253.109375,246179.796875,0.051025390625,0.99658203125,0.17041015625,-0.1831054538488388,-0.9460448622703552,-1.0070799589157104,73.33333587646484,263279.0,0.0
15185.6023332,296170.1875,294484.59375,322093.46875,314513.28125,285097.6875,255255.59375,220253.109375,246179.796875,0.051025390625,0.99658203125,0.17041015625,-0.1831054538488388,-0.9460448622703552,-1.0070799589157104,73.33333587646484,263280.0,0.0
15185.6023334,296170.1875,294484.59375,322093.46875,314513.28125,285097.6875,255255.59375,220253.109375,246179.796875,0.051025390625,0.99658203125,0.17041015625,-0.1831054538488388,-0.9460448622703552,-1.0070799589157104,73.33333587646484,263281.0,0.0
15185.6023336,296301.53125,295268.625,323340.875,314707.3125,285787.625,255409.1875,220482.265625,246267.59375,0.049072265625,0.99658203125,0.17333984375,-0.7324218153953552,-1.1596678495407104,-0.9460448622703552,73.33333587646484,263282.0,1.0
15185.6023362,296151.15625,294457.78125,322078.71875,314490.59375,285078.375,255231.546875,220234.96875,246166.03125,0.050537109375,0.992431640625,0.170166015625,-0.8239745497703552,-1.1291502714157104,-0.8850097060203552,73.33333587646484,263283.0,1.0
15185.6098733,296256.84375,294528.78125,321944.25,314629.4375,285060.5625,255294.84375,220323.21875,246243.453125,0.048095703125,0.989013671875,0.169921875,-0.6408690810203552,-1.2207030057907104,-0.8850097060203552,73.33333587646484,263284.0,1.0
15185.6098947,296468.8125,295377.875,323127.21875,314932.78125,285752.5,255474.1875,220614.5,246402.953125,0.04931640625,0.98779296875,0.167236328125,-0.4882812201976776,-1.2207030057907104,-0.8239745497703552,73.33333587646484,263285.0,1.0
15185.6118028,296479.71875,295814.4375,323959.75,314963.28125,286172.71875,255525.0625,220691.84375,246409.9375,0.04931640625,0.989990234375,0.168212890625,-0.3662109076976776,-1.2512205839157104,-0.8239745497703552,73.33333587646484,263286.0,1.0
15185.6143547,296282.40625,295252.0625,323307.53125,314685.21875,285753.03125,255386.84375,220456.703125,246257.234375,0.0498046875,0.98974609375,0.1728515625,-0.3662109076976776,-1.3122557401657104,-0.9155272841453552,73.33333587646484,263287.0,1.0
15185.6168008,296151.0625,294465.75,322073.1875,314483.78125,285071.40625,255239.859375,220230.859375,246153.15625,0.050537109375,0.9931640625,0.175537109375,-0.2746581733226776,-1.3122557401657104,-0.8544921278953552,73.33333587646484,263288.0,1.0
15185.6193196,296265.40625,294542.4375,321954.375,314637.46875,285066.90625,255295.734375,220331.34375,246245.875,0.05078125,0.994873046875,0.176513671875,-0.0610351525247097,-1.3122557401657104,-0.9155272841453552,73.33333587646484,263289.0,1.0
15185.6218105,296483.03125,295401.90625,323144.8125,314949.15625,285768.125,255496.1875,220633.453125,246410.5625,0.051025390625,0.9951171875,0.17529296875,-0.1525878757238388,-1.4038084745407104,-0.8850097060203552,73.33333587646484,263290.0,1.0
15185.624296,296502.4375,295845.375,323985.4375,314989.28125,286199.71875,255561.71875,220718.921875,246424.6875,0.050537109375,0.99365234375,0.17236328125,-0.1831054538488388,-1.4648436307907104,-0.7019042372703552,73.33333587646484,263291.0,1.0
15185.6293099,296300.375,295269.0625,323323.4375,314709.1875,285776.0,255408.203125,220479.578125,246270.453125,0.051025390625,0.993408203125,0.1748046875,-0.1525878757238388,-1.4953612089157104,-0.7019042372703552,73.33333587646484,263292.0,1.0
15185.6317674,296160.09375,294474.40625,322077.65625,314500.9375,285085.34375,255261.5,220249.890625,246159.5,0.05126953125,0.99462890625,0.17236328125,0.0,-1.6784666776657104,-0.7934569716453552,73.33333587646484,263293.0,1.0
15185.6568026,296276.5,294558.53125,321965.625,314659.8125,285089.1875,255336.5,220363.4375,246262.234375,0.04931640625,0.990966796875,0.174072265625,0.0,-1.7089842557907104,-0.7934569716453552,73.33333587646484,263294.0,1.0
15185.6817921,296486.53125,295412.1875,323155.1875,314961.65625,285785.40625,255505.125,220642.65625,246425.3125,0.0478515625,0.993408203125,0.1748046875,0.03051757626235485,-1.7700194120407104,-0.8544921278953552,73.33333587646484,263295.0,1.0
15185.8085503,296502.78125,295850.65625,323991.15625,314994.375,286213.03125,255562.796875,220720.890625,246433.453125,0.047607421875,0.994140625,0.1748046875,0.1831054538488388,-1.8310545682907104,-0.8239745497703552,73.33333587646484,263296.0,1.0
15185.8085698,296307.0625,295280.25,323332.9375,314715.875,285791.84375,255422.78125,220476.546875,246272.875,0.047119140625,0.99267578125,0.170654296875,0.1831054538488388,-1.8615721464157104,-0.8544921278953552,73.33333587646484,263297.0,1.0
15185.8085713,296161.15625,294477.1875,322077.65625,314505.40625,285095.09375,255259.265625,220239.265625,246170.234375,0.0498046875,0.994873046875,0.171875,0.2136230319738388,-1.9226073026657104,-0.9460448622703552,73.33333587646484,263298.0,1.0
15185.8085725,296270.0625,294547.5625,321959.90625,314655.4375,285092.125,255306.015625,220336.4375,246263.390625,0.050048828125,0.992919921875,0.171630859375,0.3051757514476776,-1.8920897245407104,-0.9460448622703552,73.33333587646484,263299.0,1.0
15185.8085738,296491.0625,295413.0,323155.09375,314969.96875,285794.96875,255505.125,220639.09375,246431.921875,0.048583984375,0.99072265625,0.175537109375,0.4577636420726776,-1.9836424589157104,-1.0986326932907104,73.33333587646484,263300.0,1.0
15185.808575,296503.9375,295851.375,323994.625,315001.90625,286221.53125,255558.5,220716.421875,246440.875,0.0498046875,0.992919921875,0.17529296875,0.4882812201976776,-1.9531248807907104,-1.1291502714157104,73.33333587646484,263301.0,1.0
15185.8085762,296298.125,295265.3125,323329.1875,314709.625,285784.3125,255403.46875,220462.6875,246267.328125,0.052734375,0.9921875,0.170166015625,0.5187987685203552,-2.014159917831421,-1.1291502714157104,73.33333587646484,263302.0,1.0
15185.8085774,296161.4375,294469.84375,322083.65625,314503.1875,285093.46875,255254.34375,220237.65625,246165.3125,0.05322265625,0.9921875,0.173583984375,0.5493163466453552,-2.014159917831421,-1.1901854276657104,73.33333587646484,263303.0,1.0
15185.8085787,296277.03125,294548.53125,321968.21875,314654.71875,285091.5,255306.46875,220333.5,246262.234375,0.053466796875,0.99267578125,0.17529296875,0.7324218153953552,-2.014159917831421,-1.1596678495407104,73.33333587646484,263304.0,1.0
15185.8085799,296497.59375,295406.3125,323159.65625,314963.1875,285789.6875,255491.625,220624.25,246421.921875,0.055908203125,0.992919921875,0.17529296875,0.7934569716453552,-1.9531248807907104,-1.1596678495407104,73.33333587646484,263305.0,1.0
15185.8085811,296516.125,295845.75,323998.9375,314994.5625,286215.09375,255543.75,220700.15625,246421.109375,0.057373046875,0.993408203125,0.172607421875,0.8544921278953552,-1.8920897245407104,-0.9765624403953552,73.33333587646484,263306.0,1.0
15185.8085823,296310.75,295269.6875,323332.125,314709.28125,285786.28125,255392.921875,220459.375,246273.859375,0.056640625,0.994873046875,0.174560546875,0.9155272841453552,-1.8310545682907104,-0.9460448622703552,73.33333587646484,263307.0,1.0
15185.8085836,296169.375,294471.375,322082.03125,314497.46875,285091.5,255232.796875,220226.65625,246167.46875,0.056884765625,0.994140625,0.1748046875,1.0681151151657104,-1.7700194120407104,-0.9155272841453552,73.33333587646484,263308.0,1.0
15185.8085852,296285.4375,294550.5,321962.21875,314648.28125,285083.1875,255297.703125,220322.9375,246252.125,0.05908203125,0.995361328125,0.171875,1.0986326932907104,-1.6174315214157104,-0.7629393935203552,73.33333587646484,263309.0,1.0
15185.8673811,296285.4375,294550.5,321962.21875,314648.28125,285083.1875,255297.703125,220322.9375,246252.125,0.05908203125,0.995361328125,0.171875,1.0986326932907104,-1.6174315214157104,-0.7629393935203552,73.33333587646484,263310.0,0.0
15185.8673849,296285.4375,294550.5,321962.21875,314648.28125,285083.1875,255297.703125,220322.9375,246252.125,0.05908203125,0.995361328125,0.171875,1.0986326932907104,-1.6174315214157104,-0.7629393935203552,73.33333587646484,263311.0,0.0
15185.8673851,296285.4375,294550.5,321962.21875,314648.28125,285083.1875,255297.703125,220322.9375,246252.125,0.05908203125,0.995361328125,0.171875,1.0986326932907104,-1.6174315214157104,-0.7629393935203552,73.33333587646484,263312.0,0.0
15185.8673853,296285.4375,294550.5,321962.21875,314648.28125,285083.1875,255297.703125,220322.9375,246252.125,0.05908203125,0.995361328125,0.171875,1.0986326932907104,-1.6174315214157104,-0.7629393935203552,73.33333587646484,263313.0,0.0
15185.8673855,296285.4375,294550.5,321962.21875,314648.28125,285083.1875,255297.703125,220322.9375,246252.125,0.05908203125,0.995361328125,0.171875,1.0986326932907104,-1.6174315214157104,-0.7629393935203552,73.33333587646484,263314.0,0.0
15185.8673856,296285.4375,294550.5,321962.21875,314648.28125,285083.1875,255297.703125,220322.9375,246252.125,0.05908203125,0.995361328125,0.171875,1.0986326932907104,-1.6174315214157104,-0.7629393935203552,73.33333587646484,263315.0,0.0
15185.8673858,296285.4375,294550.5,321962.21875,314648.28125,285083.1875,255297.703125,220322.9375,246252.125,0.05908203125,0.995361328125,0.171875,1.0986326932907104,-1.6174315214157104,-0.7629393935203552,73.33333587646484,263316.0,0.0
15185.867386,296285.4375,294550.5,321962.21875,314648.28125,285083.1875,255297.703125,220322.9375,246252.125,0.05908203125,0.995361328125,0.171875,1.0986326932907104,-1.6174315214157104,-0.7629393935203552,73.33333587646484,263317.0,0.0
15185.8673862,296285.4375,294550.5,321962.21875,314648.28125,285083.1875,255297.703125,220322.9375,246252.125,0.05908203125,0.995361328125,0.171875,1.0986326932907104,-1.6174315214157104,-0.7629393935203552,73.33333587646484,263318.0,0.0
15185.8673864,296285.4375,294550.5,321962.21875,314648.28125,285083.1875,255297.703125,220322.9375,246252.125,0.05908203125,0.995361328125,0.171875,1.0986326932907104,-1.6174315214157104,-0.7629393935203552,73.33333587646484,263319.0,0.0
15185.8673865,296285.4375,294550.5,321962.21875,314648.28125,285083.1875,255297.703125,220322.9375,246252.125,0.05908203125,0.995361328125,0.171875,1.0986326932907104,-1.6174315214157104,-0.7629393935203552,73.33333587646484,263320.0,0.0
15185.8673867,296285.4375,294550.5,321962.21875,314648.28125,285083.1875,255297.703125,220322.9375,246252.125,0.05908203125,0.995361328125,0.171875,1.0986326932907104,-1.6174315214157104,-0.7629393935203552,73.33333587646484,263321.0,0.0
15185.8673869,296285.4375,294550.5,321962.21875,314648.28125,285083.1875,255297.703125,220322.9375,246252.125,0.05908203125,0.995361328125,0.171875,1.0986326932907104,-1.6174315214157104,-0.7629393935203552,73.33333587646484,263322.0,0.0
15185.8673871,296285.4375,294550.5,321962.21875,314648.28125,285083.1875,255297.703125,220322.9375,246252.125,0.05908203125,0.995361328125,0.171875,1.0986326932907104,-1.6174315214157104,-0.7629393935203552,73.33333587646484,263323.0,0.0
15185.8673873,296271.3125,294543.96875,321958.5625,314644.71875,285076.84375,255294.578125,220326.515625,246250.703125,0.04736328125,0.997314453125,0.168212890625,1.0681151151657104,-1.1596678495407104,-1.4953612089157104,73.33333587646484,263324.0,1.0
15185.867395,296488.03125,295409.25,323153.9375,314954.59375,285779.84375,255485.90625,220629.078125,246408.859375,0.0478515625,0.99658203125,0.168701171875,0.9460448622703552,-1.1291502714157104,-1.5258787870407104,73.33333587646484,263325.0,1.0
15185.8918843,296507.34375,295849.84375,323993.75,314991.15625,286211.0625,255540.625,220710.25,246422.0,0.05029296875,0.997802734375,0.172607421875,0.9155272841453552,-1.1596678495407104,-1.5869139432907104,73.33333587646484,263326.0,1.0
15185.9167457,296298.84375,295269.6875,323330.96875,314700.96875,285781.1875,255385.328125,220456.34375,246260.09375,0.04931640625,0.99951171875,0.171875,0.9155272841453552,-1.2207030057907104,-1.5869139432907104,73.33333587646484,263327.0,1.0
15185.9423915,296152.3125,294467.34375,322077.125,314487.8125,285082.46875,255230.375,220220.21875,246152.625,0.051025390625,1.000244140625,0.17138671875,0.8544921278953552,-1.2817381620407104,-1.6784666776657104,73.33333587646484,263328.0,1.0
15185.9423972,296269.34375,294551.46875,321961.78125,314643.5625,285082.03125,255297.53125,220330.09375,246252.21875,0.050048828125,1.001220703125,0.17333984375,0.7019042372703552,-1.2512205839157104,-1.6174315214157104,73.33333587646484,263329.0,1.0
15185.9927658,296487.15625,295417.03125,323156.0,314959.15625,285787.53125,255498.328125,220641.046875,246424.328125,0.04931640625,0.998779296875,0.17138671875,0.5798339247703552,-1.1901854276657104,-1.4648436307907104,73.33333587646484,263330.0,1.0
15185.9927836,296503.3125,295858.0625,323993.28125,314993.59375,286215.96875,255561.28125,220720.171875,246426.828125,0.04736328125,0.99853515625,0.170654296875,0.5187987685203552,-1.2207030057907104,-1.3427733182907104,73.33333587646484,263331.0,1.0
15185.9927849,296299.46875,295286.21875,323327.75,314707.46875,285785.03125,255407.40625,220463.40625,246258.65625,0.047607421875,0.9990234375,0.17138671875,0.4882812201976776,-1.2817381620407104,-1.1596678495407104,73.33333587646484,263332.0,1.0
15185.9927862,296155.96875,294489.0625,322078.5625,314495.125,285091.6875,255242.984375,220226.203125,246152.0,0.048095703125,0.998779296875,0.17138671875,0.3356933295726776,-1.2512205839157104,-0.9765624403953552,73.33333587646484,263333.0,1.0
15185.9927874,296268.4375,294568.125,321961.53125,314646.5,285088.75,255304.140625,220331.34375,246246.859375,0.049072265625,0.997314453125,0.16845703125,0.3051757514476776,-1.3122557401657104,-1.0070799589157104,73.33333587646484,263334.0,1.0
15185.9927886,296492.96875,295439.90625,323164.75,314965.875,285800.25,255516.296875,220643.375,246427.015625,0.046630859375,0.994384765625,0.1669921875,0.3662109076976776,-1.4038084745407104,-0.9765624403953552,73.33333587646484,263335.0,1.0
15185.9927898,296504.125,295870.875,323993.375,314993.40625,286223.59375,255570.84375,220718.921875,246428.703125,0.047119140625,0.99462890625,0.1669921875,0.2746581733226776,-1.3732908964157104,-0.8239745497703552,73.33333587646484,263336.0,1.0
15185.9950256,296293.9375,295275.9375,323318.96875,314701.9375,285786.375,255396.5,220466.078125,246266.53125,0.045654296875,0.99609375,0.16748046875,0.2136230319738388,-1.4343260526657104,-0.7934569716453552,73.33333587646484,263337.0,1.0
15185.9986111,296293.9375,295275.9375,323318.96875,314701.9375,285786.375,255396.5,220466.078125,246266.53125,0.045654296875,0.99609375,0.16748046875,0.2136230319738388,-1.4343260526657104,-0.7934569716453552,73.33333587646484,263338.0,0.0
15185.9986144,296293.9375,295275.9375,323318.96875,314701.9375,285786.375,255396.5,220466.078125,246266.53125,0.045654296875,0.99609375,0.16748046875,0.2136230319738388,-1.4343260526657104,-0.7934569716453552,73.33333587646484,263339.0,0.0
15185.9986156,296293.9375,295275.9375,323318.96875,314701.9375,285786.375,255396.5,220466.078125,246266.53125,0.045654296875,0.99609375,0.16748046875,0.2136230319738388,-1.4343260526657104,-0.7934569716453552,73.33333587646484,263340.0,0.0
15185.9986167,296293.9375,295275.9375,323318.96875,314701.9375,285786.375,255396.5,220466.078125,246266.53125,0.045654296875,0.99609375,0.16748046875,0.2136230319738388,-1.4343260526657104,-0.7934569716453552,73.33333587646484,263341.0,0.0
15185.9986179,296293.9375,295275.9375,323318.96875,314701.9375,285786.375,255396.5,220466.078125,246266.53125,0.045654296875,0.99609375,0.16748046875,0.2136230319738388,-1.4343260526657104,-0.7934569716453552,73.33333587646484,263342.0,0.0
15185.9986191,296293.9375,295275.9375,323318.96875,314701.9375,285786.375,255396.5,220466.078125,246266.53125,0.045654296875,0.99609375,0.16748046875,0.2136230319738388,-1.4343260526657104,-0.7934569716453552,73.33333587646484,263343.0,0.0
15185.9986202,296293.9375,295275.9375,323318.96875,314701.9375,285786.375,255396.5,220466.078125,246266.53125,0.045654296875,0.99609375,0.16748046875,0.2136230319738388,-1.4343260526657104,-0.7934569716453552,73.33333587646484,263344.0,0.0
15185.9986204,296293.9375,295275.9375,323318.96875,314701.9375,285786.375,255396.5,220466.078125,246266.53125,0.045654296875,0.99609375,0.16748046875,0.2136230319738388,-1.4343260526657104,-0.7934569716453552,73.33333587646484,263345.0,0.0
15185.9986206,296293.9375,295275.9375,323318.96875,314701.9375,285786.375,255396.5,220466.078125,246266.53125,0.045654296875,0.99609375,0.16748046875,0.2136230319738388,-1.4343260526657104,-0.7934569716453552,73.33333587646484,263346.0,0.0
15185.9986208,296293.9375,295275.9375,323318.96875,314701.9375,285786.375,255396.5,220466.078125,246266.53125,0.045654296875,0.99609375,0.16748046875,0.2136230319738388,-1.4343260526657104,-0.7934569716453552,73.33333587646484,263347.0,0.0
15185.9986209,296293.9375,295275.9375,323318.96875,314701.9375,285786.375,255396.5,220466.078125,246266.53125,0.045654296875,0.99609375,0.16748046875,0.2136230319738388,-1.4343260526657104,-0.7934569716453552,73.33333587646484,263348.0,0.0
15185.9986211,296293.9375,295275.9375,323318.96875,314701.9375,285786.375,255396.5,220466.078125,246266.53125,0.045654296875,0.99609375,0.16748046875,0.2136230319738388,-1.4343260526657104,-0.7934569716453552,73.33333587646484,263349.0,0.0
15185.9986213,296293.9375,295275.9375,323318.96875,314701.9375,285786.375,255396.5,220466.078125,246266.53125,0.045654296875,0.99609375,0.16748046875,0.2136230319738388,-1.4343260526657104,-0.7934569716453552,73.33333587646484,263350.0,0.0
15185.9986214,296293.9375,295275.9375,323318.96875,314701.9375,285786.375,255396.5,220466.078125,246266.53125,0.045654296875,0.99609375,0.16748046875,0.2136230319738388,-1.4343260526657104,-0.7934569716453552,73.33333587646484,263351.0,0.0
15185.9986216,296293.9375,295275.9375,323318.96875,314701.9375,285786.375,255396.5,220466.078125,246266.53125,0.045654296875,0.99609375,0.16748046875,0.2136230319738388,-1.4343260526657104,-0.7934569716453552,73.33333587646484,263352.0,0.0
15185.9986218,296293.9375,295275.9375,323318.96875,314701.9375,285786.375,255396.5,220466.078125,246266.53125,0.045654296875,0.99609375,0.16748046875,0.2136230319738388,-1.4343260526657104,-0.7934569716453552,73.33333587646484,263353.0,0.0
15185.998622,296293.9375,295275.9375,323318.96875,314701.9375,285786.375,255396.5,220466.078125,246266.53125,0.045654296875,0.99609375,0.16748046875,0.2136230319738388,-1.4343260526657104,-0.7934569716453552,73.33333587646484,263354.0,0.0
15185.9986222,296293.9375,295275.9375,323318.96875,314701.9375,285786.375,255396.5,220466.078125,246266.53125,0.045654296875,0.99609375,0.16748046875,0.2136230319738388,-1.4343260526657104,-0.7934569716453552,73.33333587646484,263355.0,0.0
15185.9986223,296293.9375,295275.9375,323318.96875,314701.9375,285786.375,255396.5,220466.078125,246266.53125,0.045654296875,0.99609375,0.16748046875,0.2136230319738388,-1.4343260526657104,-0.7934569716453552,73.33333587646484,263356.0,0.0
15185.9986225,296293.9375,295275.9375,323318.96875,314701.9375,285786.375,255396.5,220466.078125,246266.53125,0.045654296875,0.99609375,0.16748046875,0.2136230319738388,-1.4343260526657104,-0.7934569716453552,73.33333587646484,263357.0,0.0
15185.9986227,296293.9375,295275.9375,323318.96875,314701.9375,285786.375,255396.5,220466.078125,246266.53125,0.045654296875,0.99609375,0.16748046875,0.2136230319738388,-1.4343260526657104,-0.7934569716453552,73.33333587646484,263358.0,0.0
15185.9986228,296293.9375,295275.9375,323318.96875,314701.9375,285786.375,255396.5,220466.078125,246266.53125,0.045654296875,0.99609375,0.16748046875,0.2136230319738388,-1.4343260526657104,-0.7934569716453552,73.33333587646484,263359.0,0.0
15185.998623,296293.9375,295275.9375,323318.96875,314701.9375,285786.375,255396.5,220466.078125,246266.53125,0.045654296875,0.99609375,0.16748046875,0.2136230319738388,-1.4343260526657104,-0.7934569716453552,73.33333587646484,263360.0,0.0
15185.9986232,296293.9375,295275.9375,323318.96875,314701.9375,285786.375,255396.5,220466.078125,246266.53125,0.045654296875,0.99609375,0.16748046875,0.2136230319738388,-1.4343260526657104,-0.7934569716453552,73.33333587646484,263361.0,0.0
15185.9986233,296293.9375,295275.9375,323318.96875,314701.9375,285786.375,255396.5,220466.078125,246266.53125,0.045654296875,0.99609375,0.16748046875,0.2136230319738388,-1.4343260526657104,-0.7934569716453552,73.33333587646484,263362.0,0.0
15185.9986235,296293.9375,295275.9375,323318.96875,314701.9375,285786.375,255396.5,220466.078125,246266.53125,0.045654296875,0.99609375,0.16748046875,0.2136230319738388,-1.4343260526657104,-0.7934569716453552,73.33333587646484,263363.0,0.0
15185.9986237,296293.9375,295275.9375,323318.96875,314701.9375,285786.375,255396.5,220466.078125,246266.53125,0.045654296875,0.99609375,0.16748046875,0.2136230319738388,-1.4343260526657104,-0.7934569716453552,73.33333587646484,263364.0,0.0
15185.9986239,296293.9375,295275.9375,323318.96875,314701.9375,285786.375,255396.5,220466.078125,246266.53125,0.045654296875,0.99609375,0.16748046875,0.2136230319738388,-1.4343260526657104,-0.7934569716453552,73.33333587646484,263365.0,0.0
15185.998624,296293.9375,295275.9375,323318.96875,314701.9375,285786.375,255396.5,220466.078125,246266.53125,0.045654296875,0.99609375,0.16748046875,0.2136230319738388,-1.4343260526657104,-0.7934569716453552,73.33333587646484,263366.0,0.0
15185.9986242,296293.9375,295275.9375,323318.96875,314701.9375,285786.375,255396.5,220466.078125,246266.53125,0.045654296875,0.99609375,0.16748046875,0.2136230319738388,-1.4343260526657104,-0.7934569716453552,73.33333587646484,263367.0,0.0
15185.9986244,296293.9375,295275.9375,323318.96875,314701.9375,285786.375,255396.5,220466.078125,246266.53125,0.045654296875,0.99609375,0.16748046875,0.2136230319738388,-1.4343260526657104,-0.7934569716453552,73.33333587646484,263368.0,0.0
15185.9986246,296293.9375,295275.9375,323318.96875,314701.9375,285786.375,255396.5,220466.078125,246266.53125,0.045654296875,0.99609375,0.16748046875,0.2136230319738388,-1.4343260526657104,-0.7934569716453552,73.33333587646484,263369.0,0.0
15185.9986248,296293.9375,295275.9375,323318.96875,314701.9375,285786.375,255396.5,220466.078125,246266.53125,0.045654296875,0.99609375,0.16748046875,0.2136230319738388,-1.4343260526657104,-0.7934569716453552,73.33333587646484,263370.0,0.0
15185.9986249,296293.9375,295275.9375,323318.96875,314701.9375,285786.375,255396.5,220466.078125,246266.53125,0.045654296875,0.99609375,0.16748046875,0.2136230319738388,-1.4343260526657104,-0.7934569716453552,73.33333587646484,263371.0,0.0
15185.9986251,296293.9375,295275.9375,323318.96875,314701.9375,285786.375,255396.5,220466.078125,246266.53125,0.045654296875,0.99609375,0.16748046875,0.2136230319738388,-1.4343260526657104,-0.7934569716453552,73.33333587646484,263372.0,0.0
15185.9986253,296293.9375,295275.9375,323318.96875,314701.9375,285786.375,255396.5,220466.078125,246266.53125,0.045654296875,0.99609375,0.16748046875,0.2136230319738388,-1.4343260526657104,-0.7934569716453552,73.33333587646484,263373.0,0.0
15185.9986255,296266.75,294552.71875,321953.75,314636.40625,285074.34375,255291.890625,220341.625,246252.3125,0.053955078125,0.99267578125,0.166748046875,1.0375975370407104,-1.0986326932907104,-0.7324218153953552,73.33333587646484,263374.0,1.0
15185.9986279,296486.34375,295420.78125,323156.71875,314947.1875,285782.1875,255490.828125,220641.953125,246410.65625,0.053466796875,0.994140625,0.1630859375,0.9765624403953552,-1.0681151151657104,-0.6713866591453552,73.33333587646484,263375.0,1.0
15185.9986292,296502.96875,295861.65625,323993.375,314982.5,286207.65625,255541.421875,220711.328125,246421.921875,0.050537109375,0.9951171875,0.163818359375,1.0375975370407104,-1.1596678495407104,-0.6713866591453552,73.33333587646484,263376.0,1.0
15185.9986304,296294.65625,295270.21875,323315.59375,314693.34375,285769.84375,255387.828125,220462.0625,246261.34375,0.04931640625,0.993896484375,0.16015625,0.9155272841453552,-1.1596678495407104,-0.7629393935203552,73.33333587646484,263377.0,1.0
15186.0011272,296151.34375,294471.375,322066.3125,314483.96875,285076.03125,255230.375,220225.21875,246153.78125,0.050048828125,0.992919921875,0.163330078125,0.8850097060203552,-1.2207030057907104,-0.7934569716453552,73.33333587646484,263378.0,1.0
15186.0011354,296261.84375,294554.4375,321953.28125,314634.0625,285074.6875,255285.359375,220327.859375,246249.8125,0.05078125,0.993408203125,0.1650390625,0.8544921278953552,-1.2512205839157104,-0.6408690810203552,73.33333587646484,263379.0,1.0
15186.0030559,296490.1875,295430.71875,323161.625,314957.65625,285789.96875,255494.75,220644.265625,246435.421875,0.050537109375,0.992919921875,0.169189453125,0.9460448622703552,-1.2817381620407104,-0.6103515028953552,73.33333587646484,263380.0,1.0
15186.0286516,296499.84375,295858.53125,323988.46875,314984.1875,286207.40625,255542.40625,220713.03125,246435.421875,0.050537109375,0.991455078125,0.167724609375,0.9460448622703552,-1.2512205839157104,-0.7019042372703552,73.33333587646484,263381.0,1.0
15186.0286693,296290.1875,295269.96875,323307.53125,314688.15625,285763.75,255389.796875,220461.609375,246258.921875,0.049560546875,0.994384765625,0.166015625,1.0070799589157104,-1.1596678495407104,-0.6408690810203552,73.33333587646484,263382.0,1.0
15186.0530621,296152.03125,294471.0,322055.65625,314479.5,285068.1875,255241.203125,220237.921875,246153.421875,0.046875,0.996337890625,0.16455078125,0.9155272841453552,-1.2817381620407104,-0.7019042372703552,73.33333587646484,263383.0,1.0
15186.0843408,296266.9375,294556.125,321948.5625,314634.25,285068.0,255300.296875,220339.484375,246246.859375,0.047119140625,0.99609375,0.168212890625,0.8544921278953552,-1.3122557401657104,-0.7934569716453552,73.33333587646484,263384.0,1.0
15186.110462,296489.03125,295424.1875,323153.75,314948.53125,285779.59375,255490.375,220639.796875,246417.796875,0.04638671875,0.9951171875,0.164306640625,0.7934569716453552,-1.4343260526657104,-0.9460448622703552,73.33333587646484,263385.0,1.0
15186.1104676,296504.75,295854.0625,323988.90625,314978.75,286202.84375,255542.671875,220709.8125,246419.140625,0.047119140625,0.99609375,0.16455078125,0.7629393935203552,-1.5563963651657104,-0.9765624403953552,73.33333587646484,263386.0,1.0
15186.1104689,296303.5,295264.875,323315.6875,314692.5625,285764.03125,255386.21875,220456.078125,246256.59375,0.0478515625,0.9970703125,0.167724609375,0.6713866591453552,-1.7700194120407104,-1.0375975370407104,73.33333587646484,263387.0,1.0
15186.1348845,296161.34375,294459.21875,322059.6875,314483.6875,285063.34375,255219.46875,220214.5,246150.03125,0.04931640625,0.99560546875,0.166015625,0.5493163466453552,-1.8615721464157104,-1.1291502714157104,73.33333587646484,263388.0,1.0
15186.1348936,296276.78125,294541.75,321949.0,314638.28125,285062.53125,255270.53125,220314.265625,246241.9375,0.048583984375,0.9921875,0.1669921875,0.5798339247703552,-1.9226073026657104,-1.1901854276657104,73.33333587646484,263389.0,1.0
15186.1609849,296276.78125,294541.75,321949.0,314638.28125,285062.53125,255270.53125,220314.265625,246241.9375,0.048583984375,0.9921875,0.1669921875,0.5798339247703552,-1.9226073026657104,-1.1901854276657104,73.33333587646484,263390.0,0.0
15186.1609883,296276.78125,294541.75,321949.0,314638.28125,285062.53125,255270.53125,220314.265625,246241.9375,0.048583984375,0.9921875,0.1669921875,0.5798339247703552,-1.9226073026657104,-1.1901854276657104,73.33333587646484,263391.0,0.0
15186.1609885,296276.78125,294541.75,321949.0,314638.28125,285062.53125,255270.53125,220314.265625,246241.9375,0.048583984375,0.9921875,0.1669921875,0.5798339247703552,-1.9226073026657104,-1.1901854276657104,73.33333587646484,263392.0,0.0
15186.1609889,296276.78125,294541.75,321949.0,314638.28125,285062.53125,255270.53125,220314.265625,246241.9375,0.048583984375,0.9921875,0.1669921875,0.5798339247703552,-1.9226073026657104,-1.1901854276657104,73.33333587646484,263393.0,0.0
15186.1609893,296276.78125,294541.75,321949.0,314638.28125,285062.53125,255270.53125,220314.265625,246241.9375,0.048583984375,0.9921875,0.1669921875,0.5798339247703552,-1.9226073026657104,-1.1901854276657104,73.33333587646484,263394.0,0.0
15186.1609896,296276.78125,294541.75,321949.0,314638.28125,285062.53125,255270.53125,220314.265625,246241.9375,0.048583984375,0.9921875,0.1669921875,0.5798339247703552,-1.9226073026657104,-1.1901854276657104,73.33333587646484,263395.0,0.0
15186.1609899,296276.78125,294541.75,321949.0,314638.28125,285062.53125,255270.53125,220314.265625,246241.9375,0.048583984375,0.9921875,0.1669921875,0.5798339247703552,-1.9226073026657104,-1.1901854276657104,73.33333587646484,263396.0,0.0
15186.1609902,296276.78125,294541.75,321949.0,314638.28125,285062.53125,255270.53125,220314.265625,246241.9375,0.048583984375,0.9921875,0.1669921875,0.5798339247703552,-1.9226073026657104,-1.1901854276657104,73.33333587646484,263397.0,0.0
15186.1609905,296276.78125,294541.75,321949.0,314638.28125,285062.53125,255270.53125,220314.265625,246241.9375,0.048583984375,0.9921875,0.1669921875,0.5798339247703552,-1.9226073026657104,-1.1901854276657104,73.33333587646484,263398.0,0.0
15186.1609908,296276.78125,294541.75,321949.0,314638.28125,285062.53125,255270.53125,220314.265625,246241.9375,0.048583984375,0.9921875,0.1669921875,0.5798339247703552,-1.9226073026657104,-1.1901854276657104,73.33333587646484,263399.0,0.0
15186.1609911,296276.78125,294541.75,321949.0,314638.28125,285062.53125,255270.53125,220314.265625,246241.9375,0.048583984375,0.9921875,0.1669921875,0.5798339247703552,-1.9226073026657104,-1.1901854276657104,73.33333587646484,263400.0,0.0
15186.1609915,296276.78125,294541.75,321949.0,314638.28125,285062.53125,255270.53125,220314.265625,246241.9375,0.048583984375,0.9921875,0.1669921875,0.5798339247703552,-1.9226073026657104,-1.1901854276657104,73.33333587646484,263401.0,0.0
15186.1609917,296276.78125,294541.75,321949.0,314638.28125,285062.53125,255270.53125,220314.265625,246241.9375,0.048583984375,0.9921875,0.1669921875,0.5798339247703552,-1.9226073026657104,-1.1901854276657104,73.33333587646484,263402.0,0.0
15186.160992,296276.78125,294541.75,321949.0,314638.28125,285062.53125,255270.53125,220314.265625,246241.9375,0.048583984375,0.9921875,0.1669921875,0.5798339247703552,-1.9226073026657104,-1.1901854276657104,73.33333587646484,263403.0,0.0
15186.1609923,296276.78125,294541.75,321949.0,314638.28125,285062.53125,255270.53125,220314.265625,246241.9375,0.048583984375,0.9921875,0.1669921875,0.5798339247703552,-1.9226073026657104,-1.1901854276657104,73.33333587646484,263404.0,0.0
15186.1609926,296276.78125,294541.75,321949.0,314638.28125,285062.53125,255270.53125,220314.265625,246241.9375,0.048583984375,0.9921875,0.1669921875,0.5798339247703552,-1.9226073026657104,-1.1901854276657104,73.33333587646484,263405.0,0.0
15186.1609929,296276.78125,294541.75,321949.0,314638.28125,285062.53125,255270.53125,220314.265625,246241.9375,0.048583984375,0.9921875,0.1669921875,0.5798339247703552,-1.9226073026657104,-1.1901854276657104,73.33333587646484,263406.0,0.0
15186.1609932,296276.78125,294541.75,321949.0,314638.28125,285062.53125,255270.53125,220314.265625,246241.9375,0.048583984375,0.9921875,0.1669921875,0.5798339247703552,-1.9226073026657104,-1.1901854276657104,73.33333587646484,263407.0,0.0
15186.1609935,296276.78125,294541.75,321949.0,314638.28125,285062.53125,255270.53125,220314.265625,246241.9375,0.048583984375,0.9921875,0.1669921875,0.5798339247703552,-1.9226073026657104,-1.1901854276657104,73.33333587646484,263408.0,0.0
15186.1609938,296276.78125,294541.75,321949.0,314638.28125,285062.53125,255270.53125,220314.265625,246241.9375,0.048583984375,0.9921875,0.1669921875,0.5798339247703552,-1.9226073026657104,-1.1901854276657104,73.33333587646484,263409.0,0.0
15186.1609941,296276.78125,294541.75,321949.0,314638.28125,285062.53125,255270.53125,220314.265625,246241.9375,0.048583984375,0.9921875,0.1669921875,0.5798339247703552,-1.9226073026657104,-1.1901854276657104,73.33333587646484,263410.0,0.0
15186.1609944,296276.78125,294541.75,321949.0,314638.28125,285062.53125,255270.53125,220314.265625,246241.9375,0.048583984375,0.9921875,0.1669921875,0.5798339247703552,-1.9226073026657104,-1.1901854276657104,73.33333587646484,263411.0,0.0
15186.1609947,296276.78125,294541.75,321949.0,314638.28125,285062.53125,255270.53125,220314.265625,246241.9375,0.048583984375,0.9921875,0.1669921875,0.5798339247703552,-1.9226073026657104,-1.1901854276657104,73.33333587646484,263412.0,0.0
15186.160995,296276.78125,294541.75,321949.0,314638.28125,285062.53125,255270.53125,220314.265625,246241.9375,0.048583984375,0.9921875,0.1669921875,0.5798339247703552,-1.9226073026657104,-1.1901854276657104,73.33333587646484,263413.0,0.0
15186.1609953,296276.78125,294541.75,321949.0,314638.28125,285062.53125,255270.53125,220314.265625,246241.9375,0.048583984375,0.9921875,0.1669921875,0.5798339247703552,-1.9226073026657104,-1.1901854276657104,73.33333587646484,263414.0,0.0
15186.1609956,296276.78125,294541.75,321949.0,314638.28125,285062.53125,255270.53125,220314.265625,246241.9375,0.048583984375,0.9921875,0.1669921875,0.5798339247703552,-1.9226073026657104,-1.1901854276657104,73.33333587646484,263415.0,0.0
15186.1609959,296276.78125,294541.75,321949.0,314638.28125,285062.53125,255270.53125,220314.265625,246241.9375,0.048583984375,0.9921875,0.1669921875,0.5798339247703552,-1.9226073026657104,-1.1901854276657104,73.33333587646484,263416.0,0.0
15186.1609962,296276.78125,294541.75,321949.0,314638.28125,285062.53125,255270.53125,220314.265625,246241.9375,0.048583984375,0.9921875,0.1669921875,0.5798339247703552,-1.9226073026657104,-1.1901854276657104,73.33333587646484,263417.0,0.0
15186.1609965,296276.78125,294541.75,321949.0,314638.28125,285062.53125,255270.53125,220314.265625,246241.9375,0.048583984375,0.9921875,0.1669921875,0.5798339247703552,-1.9226073026657104,-1.1901854276657104,73.33333587646484,263418.0,0.0
15186.1609968,296276.78125,294541.75,321949.0,314638.28125,285062.53125,255270.53125,220314.265625,246241.9375,0.048583984375,0.9921875,0.1669921875,0.5798339247703552,-1.9226073026657104,-1.1901854276657104,73.33333587646484,263419.0,0.0
15186.1609971,296276.78125,294541.75,321949.0,314638.28125,285062.53125,255270.53125,220314.265625,246241.9375,0.048583984375,0.9921875,0.1669921875,0.5798339247703552,-1.9226073026657104,-1.1901854276657104,73.33333587646484,263420.0,0.0
15186.1609974,296276.78125,294541.75,321949.0,314638.28125,285062.53125,255270.53125,220314.265625,246241.9375,0.048583984375,0.9921875,0.1669921875,0.5798339247703552,-1.9226073026657104,-1.1901854276657104,73.33333587646484,263421.0,0.0
15186.1609977,296276.78125,294541.75,321949.0,314638.28125,285062.53125,255270.53125,220314.265625,246241.9375,0.048583984375,0.9921875,0.1669921875,0.5798339247703552,-1.9226073026657104,-1.1901854276657104,73.33333587646484,263422.0,0.0
15186.160998,296276.78125,294541.75,321949.0,314638.28125,285062.53125,255270.53125,220314.265625,246241.9375,0.048583984375,0.9921875,0.1669921875,0.5798339247703552,-1.9226073026657104,-1.1901854276657104,73.33333587646484,263423.0,0.0
15186.1609983,296276.78125,294541.75,321949.0,314638.28125,285062.53125,255270.53125,220314.265625,246241.9375,0.048583984375,0.9921875,0.1669921875,0.5798339247703552,-1.9226073026657104,-1.1901854276657104,73.33333587646484,263424.0,0.0
15186.1609987,296276.78125,294541.75,321949.0,314638.28125,285062.53125,255270.53125,220314.265625,246241.9375,0.048583984375,0.9921875,0.1669921875,0.5798339247703552,-1.9226073026657104,-1.1901854276657104,73.33333587646484,263425.0,0.0
15186.160999,296276.78125,294541.75,321949.0,314638.28125,285062.53125,255270.53125,220314.265625,246241.9375,0.048583984375,0.9921875,0.1669921875,0.5798339247703552,-1.9226073026657104,-1.1901854276657104,73.33333587646484,263426.0,0.0
15186.1609993,296276.78125,294541.75,321949.0,314638.28125,285062.53125,255270.53125,220314.265625,246241.9375,0.048583984375,0.9921875,0.1669921875,0.5798339247703552,-1.9226073026657104,-1.1901854276657104,73.33333587646484,263427.0,0.0
15186.1609996,296276.78125,294541.75,321949.0,314638.28125,285062.53125,255270.53125,220314.265625,246241.9375,0.048583984375,0.9921875,0.1669921875,0.5798339247703552,-1.9226073026657104,-1.1901854276657104,73.33333587646484,263428.0,0.0
15186.1609999,296276.78125,294541.75,321949.0,314638.28125,285062.53125,255270.53125,220314.265625,246241.9375,0.048583984375,0.9921875,0.1669921875,0.5798339247703552,-1.9226073026657104,-1.1901854276657104,73.33333587646484,263429.0,0.0
15186.1610002,296276.78125,294541.75,321949.0,314638.28125,285062.53125,255270.53125,220314.265625,246241.9375,0.048583984375,0.9921875,0.1669921875,0.5798339247703552,-1.9226073026657104,-1.1901854276657104,73.33333587646484,263430.0,0.0
15186.1610005,296276.78125,294541.75,321949.0,314638.28125,285062.53125,255270.53125,220314.265625,246241.9375,0.048583984375,0.9921875,0.1669921875,0.5798339247703552,-1.9226073026657104,-1.1901854276657104,73.33333587646484,263431.0,0.0
15186.1610008,296276.78125,294541.75,321949.0,314638.28125,285062.53125,255270.53125,220314.265625,246241.9375,0.048583984375,0.9921875,0.1669921875,0.5798339247703552,-1.9226073026657104,-1.1901854276657104,73.33333587646484,263432.0,0.0
15186.1610011,296276.78125,294541.75,321949.0,314638.28125,285062.53125,255270.53125,220314.265625,246241.9375,0.048583984375,0.9921875,0.1669921875,0.5798339247703552,-1.9226073026657104,-1.1901854276657104,73.33333587646484,263433.0,0.0
15186.1610014,296276.78125,294541.75,321949.0,314638.28125,285062.53125,255270.53125,220314.265625,246241.9375,0.048583984375,0.9921875,0.1669921875,0.5798339247703552,-1.9226073026657104,-1.1901854276657104,73.33333587646484,263434.0,0.0
15186.1610017,296495.28125,295413.46875,323156.71875,314950.21875,285783.875,255498.78125,220633.90625,246416.734375,0.052001953125,0.99609375,0.168212890625,0.1831054538488388,-1.6784666776657104,-0.7324218153953552,73.33333587646484,263435.0,1.0
15186.1610085,296509.84375,295840.28125,323986.75,314977.125,286201.125,255550.28125,220698.984375,246410.65625,0.05224609375,0.995361328125,0.16796875,0.0915527269244194,-1.7089842557907104,-0.6408690810203552,73.33333587646484,263436.0,1.0
15186.1610106,296304.46875,295249.40625,323312.09375,314690.75,285763.5,255396.40625,220448.03125,246253.828125,0.05126953125,0.994384765625,0.167236328125,0.1525878757238388,-1.7700194120407104,-0.7019042372703552,73.33333587646484,263437.0,1.0
15186.1610127,296165.375,294454.03125,322063.875,314485.125,285071.65625,255248.078125,220223.4375,246157.09375,0.05224609375,0.9931640625,0.169189453125,0.1831054538488388,-1.6479490995407104,-0.7324218153953552,73.33333587646484,263438.0,1.0
15186.1924064,296274.09375,294538.875,321952.65625,314634.0625,285069.875,255299.140625,220320.625,246245.421875,0.052001953125,0.991455078125,0.163818359375,0.2136230319738388,-1.6174315214157104,-0.9155272841453552,73.33333587646484,263439.0,1.0
15186.1924135,296481.40625,295393.78125,323147.3125,314935.75,285766.4375,255468.734375,220609.40625,246402.78125,0.052978515625,0.992431640625,0.16357421875,0.3662109076976776,-1.7089842557907104,-1.0070799589157104,73.33333587646484,263440.0,1.0
15186.2168124,296497.59375,295828.5625,323978.34375,314970.53125,286190.9375,255531.859375,220695.5,246418.515625,0.052734375,0.994384765625,0.162109375,0.4272460639476776,-1.6174315214157104,-0.8544921278953552,73.33333587646484,263441.0,1.0
15186.241817,296293.75,295248.3125,323312.8125,314685.125,285762.6875,255389.53125,220454.90625,246257.765625,0.054931640625,0.994140625,0.16455078125,0.3356933295726776,-1.5258787870407104,-0.8850097060203552,73.33333587646484,263442.0,1.0
15186.2793151,296148.8125,294450.375,322056.75,314470.8125,285063.0625,255231.546875,220219.5,246145.109375,0.0556640625,0.993408203125,0.166748046875,0.3967284858226776,-1.4648436307907104,-0.9765624403953552,73.33333587646484,263443.0,1.0
15186.2842964,296261.84375,294532.0,321938.53125,314622.625,285061.5625,255301.453125,220327.328125,246242.921875,0.0546875,0.9951171875,0.167236328125,0.3967284858226776,-1.3732908964157104,-0.9155272841453552,73.33333587646484,263444.0,1.0
15186.3093061,296490.4375,295416.6875,323154.75,314941.09375,285782.4375,255505.65625,220630.859375,246409.75,0.0546875,0.993896484375,0.16748046875,0.3051757514476776,-1.4343260526657104,-0.8850097060203552,73.33333587646484,263445.0,1.0
15186.3343069,296503.59375,295855.125,323995.53125,314974.71875,286210.25,255544.109375,220700.59375,246414.5,0.053466796875,0.99609375,0.16552734375,0.2746581733226776,-1.3732908964157104,-0.9460448622703552,73.33333587646484,263446.0,1.0
15186.3568219,296291.875,295261.09375,323314.5,314682.96875,285770.28125,255391.140625,220453.828125,246261.515625,0.053466796875,0.995849609375,0.168212890625,0.2136230319738388,-1.2512205839157104,-0.9155272841453552,73.33333587646484,263447.0,1.0
15186.3592983,296149.28125,294456.09375,322054.5,314474.03125,285066.28125,255232.53125,220223.515625,246156.375,0.05224609375,0.9951171875,0.1689453125,0.2136230319738388,-1.2207030057907104,-0.8544921278953552,73.33333587646484,263448.0,1.0
15186.3618095,296269.09375,294552.90625,321952.125,314632.65625,285069.5,255296.90625,220333.84375,246249.71875,0.050537109375,0.99609375,0.166748046875,0.2136230319738388,-1.1901854276657104,-0.8850097060203552,73.33333587646484,263449.0,1.0
15186.3642917,296490.0,295421.6875,323152.15625,314948.25,285778.0625,255504.6875,220635.0625,246421.28125,0.05224609375,0.994873046875,0.17041015625,0.2136230319738388,-1.1901854276657104,-0.9460448622703552,73.33333587646484,263450.0,1.0
15186.3772221,296505.5625,295856.03125,323986.21875,314976.15625,286201.9375,255548.765625,220698.546875,246415.296875,0.052734375,0.996337890625,0.16748046875,0.1831054538488388,-1.2817381620407104,-0.8850097060203552,73.33333587646484,263451.0,1.0
15186.3772269,296301.96875,295270.03125,323313.625,314692.28125,285768.5,255389.609375,220450.34375,246262.6875,0.052978515625,0.99560546875,0.16845703125,0.0915527269244194,-1.2817381620407104,-0.8850097060203552,73.33333587646484,263452.0,1.0
15186.3772282,296164.46875,294472.53125,322061.75,314486.28125,285072.03125,255229.484375,220217.984375,246158.796875,0.053955078125,0.993408203125,0.16552734375,0.0,-1.1901854276657104,-0.9155272841453552,73.33333587646484,263453.0,1.0
15186.3772294,296282.84375,294560.96875,321958.375,314639.25,285074.6875,255293.859375,220308.375,246235.5,0.0517578125,0.992431640625,0.166259765625,0.0915527269244194,-1.0986326932907104,-0.7934569716453552,73.33333587646484,263454.0,1.0
15186.3772307,296504.65625,295429.1875,323162.6875,314956.75,285785.21875,255499.3125,220615.578125,246408.59375,0.05078125,0.9921875,0.164794921875,0.0610351525247097,-1.0986326932907104,-0.8850097060203552,73.33333587646484,263455.0,1.0
15186.3772319,296517.4375,295856.65625,323987.46875,314988.9375,286204.53125,255551.265625,220698.546875,246424.859375,0.052490234375,0.9931640625,0.16796875,0.1220703050494194,-1.1596678495407104,-0.8850097060203552,73.33333587646484,263456.0,1.0
15186.3772331,296314.3125,295269.6875,323312.8125,314703.8125,285767.4375,255403.5625,220454.109375,246269.03125,0.0556640625,0.992919921875,0.168212890625,0.0915527269244194,-1.1596678495407104,-0.7934569716453552,73.33333587646484,263457.0,1.0
15186.3772343,296177.15625,294470.125,322065.6875,314494.15625,285073.53125,255251.21875,220222.453125,246155.296875,0.0537109375,0.9951171875,0.166748046875,0.2136230319738388,-1.0070799589157104,-0.7629393935203552,73.33333587646484,263458.0,1.0
15186.3772355,296290.09375,294546.125,321953.65625,314643.46875,285068.71875,255293.234375,220320.4375,246240.953125,0.052490234375,0.996337890625,0.16357421875,0.1831054538488388,-1.1291502714157104,-0.8239745497703552,73.33333587646484,263459.0,1.0
15186.3772367,296508.96875,295406.84375,323150.09375,314955.84375,285774.5,255501.109375,220628.53125,246414.140625,0.051025390625,0.99609375,0.1669921875,0.0915527269244194,-1.0070799589157104,-0.8544921278953552,73.33333587646484,263460.0,1.0
15186.377238,296521.65625,295837.0625,323982.21875,314986.4375,286196.9375,255546.609375,220697.828125,246419.859375,0.050048828125,0.996826171875,0.16748046875,0.0915527269244194,-1.1291502714157104,-0.8850097060203552,73.33333587646484,263461.0,1.0
15186.3772393,296317.8125,295260.5625,323312.09375,314698.4375,285763.40625,255388.546875,220447.484375,246255.796875,0.048583984375,0.995361328125,0.1708984375,0.1220703050494194,-1.1291502714157104,-0.8850097060203552,73.33333587646484,263462.0,1.0
15186.4628813,296175.125,294464.84375,322066.125,314488.25,285072.09375,255225.90625,220211.8125,246152.078125,0.049560546875,0.9931640625,0.17041015625,0.1220703050494194,-1.1901854276657104,-0.8850097060203552,73.33333587646484,263463.0,1.0
15186.4628931,296284.375,294544.0625,321955.53125,314637.375,285068.71875,255287.78125,220313.90625,246249.890625,0.052978515625,0.993408203125,0.168212890625,0.0,-1.2512205839157104,-0.8850097060203552,73.33333587646484,263464.0,1.0
15186.4628944,296500.46875,295412.125,323151.78125,314948.6875,285772.78125,255486.703125,220620.21875,246416.28125,0.052734375,0.991943359375,0.16845703125,0.0610351525247097,-1.3122557401657104,-0.9460448622703552,73.33333587646484,263465.0,1.0
15186.4628957,296518.875,295849.3125,323984.0,314985.0,286201.0625,255550.1875,220698.453125,246414.5,0.05224609375,0.993896484375,0.1669921875,0.03051757626235485,-1.3427733182907104,-0.8239745497703552,73.33333587646484,263466.0,1.0
15186.4628969,296308.59375,295255.125,323304.9375,314693.90625,285760.625,255399.359375,220449.0,246257.40625,0.05126953125,0.9931640625,0.16552734375,0.0610351525247097,-1.3122557401657104,-0.8850097060203552,73.33333587646484,263467.0,1.0
15186.4628981,296169.5625,294464.5625,322059.40625,314489.78125,285070.125,255256.75,220224.6875,246162.359375,0.051025390625,0.9931640625,0.166259765625,0.1525878757238388,-1.2817381620407104,-0.9460448622703552,73.33333587646484,263468.0,1.0
15186.4880744,296279.1875,294544.875,321945.5,314638.90625,285067.375,255298.515625,220328.390625,246255.265625,0.05126953125,0.993896484375,0.16845703125,0.1220703050494194,-1.3122557401657104,-0.9460448622703552,73.33333587646484,263469.0,1.0
15186.5376334,296491.34375,295408.34375,323141.0625,314942.96875,285768.125,255481.796875,220623.265625,246409.484375,0.0498046875,0.993896484375,0.170166015625,0.1831054538488388,-1.3122557401657104,-0.8850097060203552,73.33333587646484,263470.0,1.0
