Time,FZ,C3,CZ,C4,PZ,PO7,OZ,PO8,AccX,AccY,AccZ,Gyro1,Gyro2,Gyro3,Battery,Counter,Validation
15240.2733315,296297.34375,294292.375,321115.375,313549.3125,284802.28125,254968.5,220119.984375,245244.0625,0.051025390625,0.987548828125,0.15625,0.2746581733226776,-1.4343260526657104,-0.8239745497703552,73.33333587646484,276927.0,1.0
15240.3183237,296504.9375,295116.4375,322273.625,313844.96875,285482.125,255160.640625,220407.703125,245398.921875,0.05224609375,0.989501953125,0.157470703125,0.3662109076976776,-1.4038084745407104,-0.6713866591453552,73.33333587646484,276928.0,1.0
15240.3208274,296519.5,295528.625,323072.5,313874.125,285890.53125,255220.546875,220481.015625,245408.484375,0.054443359375,0.991455078125,0.159423828125,0.4577636420726776,-1.4648436307907104,-0.6103515028953552,73.33333587646484,276929.0,1.0
15240.3232653,296324.0625,294970.71875,322424.03125,313598.46875,285478.1875,255082.046875,220251.953125,245268.296875,0.05224609375,0.9921875,0.161865234375,0.6103515028953552,-1.4953612089157104,-0.6103515028953552,73.33333587646484,276930.0,1.0
15240.3257897,296183.875,294207.1875,321216.125,313392.3125,284805.21875,254926.75,220027.984375,245163.25,0.051513671875,0.992431640625,0.15673828125,0.6408690810203552,-1.4038084745407104,-0.4577636420726776,73.33333587646484,276931.0,1.0
15240.3349832,296288.40625,294286.5625,321111.96875,313536.96875,284802.71875,254979.6875,220122.9375,245249.15625,0.052490234375,0.995361328125,0.157958984375,0.5187987685203552,-1.4648436307907104,-0.5798339247703552,73.33333587646484,276932.0,1.0
15240.3349908,296504.21875,295119.75,322275.0625,313839.875,285488.46875,255181.65625,220416.1875,245401.953125,0.051513671875,0.99658203125,0.159912109375,0.5493163466453552,-1.3732908964157104,-0.5187987685203552,73.33333587646484,276933.0,1.0
15240.3349928,296521.46875,295535.21875,323080.0,313871.0,285895.8125,255238.96875,220484.40625,245397.671875,0.05078125,0.994140625,0.154541015625,0.6103515028953552,-1.4343260526657104,-0.4272460639476776,73.33333587646484,276934.0,1.0
15240.3349946,296321.03125,294971.15625,322425.09375,313588.71875,285469.78125,255081.34375,220237.828125,245244.875,0.05322265625,0.99560546875,0.1552734375,0.5187987685203552,-1.4038084745407104,-0.4882812201976776,73.33333587646484,276935.0,1.0
15240.3349964,296185.125,294214.25,321219.15625,313388.1875,284802.28125,254935.34375,220025.84375,245155.640625,0.051513671875,0.99560546875,0.15576171875,0.5798339247703552,-1.4648436307907104,-0.5187987685203552,73.33333587646484,276936.0,1.0
15240.3349983,296297.25,294300.4375,321117.4375,313543.9375,284808.90625,254995.78125,220136.34375,245257.03125,0.052734375,0.995361328125,0.156982421875,0.5493163466453552,-1.3732908964157104,-0.5798339247703552,73.33333587646484,276937.0,1.0
15240.3350001,296494.5625,295111.53125,322261.3125,313835.21875,285474.875,255169.140625,220414.3125,245405.53125,0.0537109375,0.9951171875,0.15869140625,0.5493163466453552,-1.4648436307907104,-0.7019042372703552,73.33333587646484,276938.0,1.0
15240.335002,296509.3125,295515.125,323052.375,313863.46875,285874.0,255225.1875,220475.921875,245396.6875,0.05322265625,0.99560546875,0.160400390625,0.4577636420726776,-1.4038084745407104,-0.7324218153953552,73.33333587646484,276939.0,1.0
15240.3350041,296314.125,294959.53125,322405.25,313584.875,285459.3125,255077.3125,220237.375,245242.453125,0.055908203125,0.99560546875,0.161865234375,0.4272460639476776,-1.3427733182907104,-0.7019042372703552,73.33333587646484,276940.0,1.0
15240.3370665,296171.0,294188.3125,321197.8125,313379.875,284788.34375,254910.75,220012.875,245149.75,0.0576171875,0.9951171875,0.15966796875,0.3967284858226776,-1.3732908964157104,-0.8544921278953552,73.33333587646484,276941.0,1.0
15240.3395057,296278.03125,294272.53125,321100.15625,313531.78125,284793.25,254959.484375,220118.65625,245253.71875,0.055908203125,0.99462890625,0.15771484375,0.3967284858226776,-1.3732908964157104,-0.9155272841453552,73.33333587646484,276942.0,1.0
15240.3896167,296496.53125,295107.0625,322271.5,313843.71875,285486.0625,255161.984375,220413.6875,245408.21875,0.056884765625,0.994384765625,0.156982421875,0.4272460639476776,-1.2512205839157104,-0.8850097060203552,73.33333587646484,276943.0,1.0
15240.4352471,296504.5,295513.59375,323063.53125,313864.375,285886.25,255224.5625,220482.0,245399.015625,0.055908203125,0.994384765625,0.157470703125,0.3662109076976776,-1.2512205839157104,-0.9765624403953552,73.33333587646484,276944.0,1.0
15240.4352613,296306.28125,294952.65625,322408.46875,313579.15625,285462.71875,255080.0,220243.375,245246.578125,0.05517578125,0.9951171875,0.15966796875,0.1831054538488388,-1.2512205839157104,-0.8544921278953552,73.33333587646484,276945.0,1.0
15240.459605,296179.21875,294203.25,321209.25,313384.53125,284799.9375,254937.296875,220027.359375,245147.953125,0.05615234375,0.993408203125,0.1630859375,0.1831054538488388,-1.2512205839157104,-0.9155272841453552,73.33333587646484,276946.0,1.0
15240.4847051,296287.75,294292.28125,321117.34375,313535.8125,284805.21875,254981.296875,220122.046875,245232.4375,0.054443359375,0.992919921875,0.15771484375,-0.03051757626235485,-1.1291502714157104,-0.7934569716453552,73.33333587646484,276947.0,1.0
15240.5192967,296489.375,295111.0,322275.15625,313830.03125,285479.09375,255155.09375,220397.859375,245390.15625,0.055908203125,0.991455078125,0.15771484375,0.1220703050494194,-1.1596678495407104,-0.9460448622703552,73.33333587646484,276948.0,1.0
15240.5193148,296503.15625,295517.0,323070.875,313859.0,285881.875,255215.0,220469.75,245400.53125,0.052978515625,0.991943359375,0.1552734375,0.2136230319738388,-1.0681151151657104,-1.0986326932907104,73.33333587646484,276949.0,1.0
15240.5193162,296307.0625,294950.40625,322409.625,313579.25,285455.9375,255062.828125,220227.1875,245248.265625,0.05322265625,0.990966796875,0.160400390625,0.1831054538488388,-1.1291502714157104,-1.0681151151657104,73.33333587646484,276950.0,1.0
15240.5193174,296172.53125,294194.84375,321203.875,313377.71875,284788.34375,254917.90625,220011.546875,245150.640625,0.05712890625,0.990966796875,0.157958984375,0.2136230319738388,-1.0681151151657104,-1.1291502714157104,73.33333587646484,276951.0,1.0
15240.5193186,296290.90625,294294.71875,321123.15625,313539.1875,284809.34375,254993.90625,220132.15625,245253.1875,0.05712890625,0.99072265625,0.1572265625,0.2746581733226776,-1.0375975370407104,-1.0986326932907104,73.33333587646484,276952.0,1.0
15240.5193198,296498.40625,295120.03125,322286.59375,313839.6875,285489.0,255175.84375,220413.0625,245403.921875,0.0556640625,0.99267578125,0.154296875,0.2441406100988388,-0.9460448622703552,-1.0681151151657104,73.33333587646484,276953.0,1.0
15240.519321,296511.46875,295522.625,323074.625,313866.6875,285886.96875,255223.5,220483.703125,245410.359375,0.0546875,0.991943359375,0.15576171875,0.3356933295726776,-1.0070799589157104,-1.0681151151657104,73.33333587646484,276954.0,1.0
15240.5193222,296315.3125,294949.4375,322406.40625,313584.8125,285455.75,255060.5,220230.859375,245245.40625,0.05078125,0.992919921875,0.15673828125,0.3967284858226776,-1.0070799589157104,-1.0375975370407104,73.33333587646484,276955.0,1.0
15240.5193234,296179.21875,294191.09375,321197.96875,313383.625,284785.75,254907.265625,220007.96875,245143.484375,0.050048828125,0.994140625,0.160400390625,0.3967284858226776,-1.1291502714157104,-1.0070799589157104,73.33333587646484,276956.0,1.0
15240.5193249,296297.5,294294.875,321123.40625,313543.5,284807.09375,254981.734375,220126.515625,245240.578125,0.048095703125,0.995849609375,0.1591796875,0.3356933295726776,-1.2512205839157104,-1.0070799589157104,73.33333587646484,276957.0,1.0
15240.5208177,296508.40625,295126.09375,322293.9375,313847.5625,285497.875,255185.9375,220426.390625,245410.1875,0.048583984375,0.996337890625,0.15625,0.2746581733226776,-1.2817381620407104,-1.1596678495407104,73.33333587646484,276958.0,1.0
15240.5271698,296519.25,295526.28125,323082.0625,313874.46875,285899.3125,255242.546875,220489.0625,245412.0625,0.04833984375,0.99560546875,0.15478515625,0.2136230319738388,-1.3122557401657104,-1.1596678495407104,73.33333587646484,276959.0,1.0
15240.553359,296315.40625,294956.125,322412.40625,313586.125,285465.75,255077.046875,220238.90625,245256.140625,0.0478515625,0.99658203125,0.15869140625,0.1525878757238388,-1.3427733182907104,-1.1596678495407104,73.33333587646484,276960.0,1.0
15240.6045197,296181.0,294198.9375,321208.875,313384.09375,284796.03125,254927.109375,220026.46875,245151.0,0.04931640625,0.993896484375,0.158935546875,0.2136230319738388,-1.5563963651657104,-1.1596678495407104,73.33333587646484,276961.0,1.0
15240.604529,296289.90625,294289.59375,321122.0625,313535.96875,284806.9375,254971.90625,220130.546875,245252.375,0.05078125,0.993408203125,0.15673828125,0.3051757514476776,-1.6174315214157104,-1.0681151151657104,73.33333587646484,276962.0,1.0
15240.6045306,296500.8125,295126.46875,322297.40625,313840.6875,285499.5625,255162.703125,220415.390625,245409.46875,0.05322265625,0.991943359375,0.15869140625,0.3967284858226776,-1.7395018339157104,-0.9765624403953552,73.33333587646484,276963.0,1.0
15240.6045336,296504.5625,295526.8125,323079.0,313859.71875,285893.03125,255214.828125,220476.015625,245407.953125,0.056396484375,0.992919921875,0.162353515625,0.3662109076976776,-1.6784666776657104,-0.8850097060203552,73.33333587646484,276964.0,1.0
15240.6045356,296306.28125,294947.65625,322398.53125,313577.375,285451.90625,255057.90625,220227.09375,245248.625,0.05712890625,0.99462890625,0.15869140625,0.4272460639476776,-1.7700194120407104,-0.7934569716453552,73.33333587646484,276965.0,1.0
15240.6045373,296180.5625,294196.1875,321201.8125,313384.34375,284791.53125,254921.5625,220021.109375,245145.1875,0.056396484375,0.99560546875,0.157958984375,0.3356933295726776,-1.6784666776657104,-0.7019042372703552,73.33333587646484,276966.0,1.0
15240.604539,296287.9375,294293.375,321115.09375,313533.21875,284802.1875,254981.5625,220127.59375,245239.15625,0.0537109375,0.994384765625,0.15869140625,0.3051757514476776,-1.6784666776657104,-0.6713866591453552,73.33333587646484,276967.0,1.0
15240.6045405,296498.40625,295131.65625,322285.25,313836.46875,285490.25,255172.359375,220424.15625,245407.140625,0.052734375,0.995849609375,0.1552734375,0.2746581733226776,-1.6174315214157104,-0.7019042372703552,73.33333587646484,276968.0,1.0
15240.607157,296510.5625,295531.5625,323075.34375,313861.96875,285891.34375,255222.15625,220487.984375,245404.1875,0.05517578125,0.99267578125,0.153076171875,0.3051757514476776,-1.6174315214157104,-0.7934569716453552,73.33333587646484,276969.0,1.0
15240.6321581,296310.75,294955.6875,322404.15625,313580.59375,285459.40625,255066.140625,220243.015625,245249.078125,0.054931640625,0.990234375,0.155517578125,0.4272460639476776,-1.8005369901657104,-0.7934569716453552,73.33333587646484,276970.0,1.0
15240.657173,296178.15625,294196.53125,321198.875,313387.03125,284793.96875,254923.09375,220030.5,245165.03125,0.054443359375,0.988525390625,0.1572265625,0.4882812201976776,-1.8005369901657104,-0.7629393935203552,73.33333587646484,276971.0,1.0
15240.6826289,296291.875,294296.3125,321124.21875,313543.9375,284811.65625,254994.34375,220139.75,245258.734375,0.054931640625,0.988037109375,0.1611328125,0.5493163466453552,-1.7395018339157104,-0.7629393935203552,73.33333587646484,276972.0,1.0
15240.6826359,296500.8125,295130.5625,322299.125,313842.375,285498.03125,255181.46875,220423.703125,245400.078125,0.05322265625,0.9892578125,0.158935546875,0.6103515028953552,-1.5563963651657104,-0.8850097060203552,73.33333587646484,276973.0,1.0
15240.7071609,296504.3125,295520.75,323075.15625,313859.625,285887.40625,255216.609375,220475.734375,245392.921875,0.0517578125,0.99072265625,0.15966796875,0.7019042372703552,-1.5869139432907104,-0.9460448622703552,73.33333587646484,276974.0,1.0
15240.760833,296299.3125,294930.75,322391.03125,313570.59375,285444.9375,255039.140625,220220.21875,245232.265625,0.052490234375,0.994140625,0.157958984375,0.7019042372703552,-1.7089842557907104,-1.0986326932907104,73.33333587646484,276975.0,1.0
15240.8113158,296299.3125,294930.75,322391.03125,313570.59375,285444.9375,255039.140625,220220.21875,245232.265625,0.052490234375,0.994140625,0.157958984375,0.7019042372703552,-1.7089842557907104,-1.0986326932907104,73.33333587646484,276976.0,0.0
15240.8113186,296299.3125,294930.75,322391.03125,313570.59375,285444.9375,255039.140625,220220.21875,245232.265625,0.052490234375,0.994140625,0.157958984375,0.7019042372703552,-1.7089842557907104,-1.0986326932907104,73.33333587646484,276977.0,0.0
15240.8113188,296299.3125,294930.75,322391.03125,313570.59375,285444.9375,255039.140625,220220.21875,245232.265625,0.052490234375,0.994140625,0.157958984375,0.7019042372703552,-1.7089842557907104,-1.0986326932907104,73.33333587646484,276978.0,0.0
15240.811319,296299.3125,294930.75,322391.03125,313570.59375,285444.9375,255039.140625,220220.21875,245232.265625,0.052490234375,0.994140625,0.157958984375,0.7019042372703552,-1.7089842557907104,-1.0986326932907104,73.33333587646484,276979.0,0.0
15240.8113192,296299.3125,294930.75,322391.03125,313570.59375,285444.9375,255039.140625,220220.21875,245232.265625,0.052490234375,0.994140625,0.157958984375,0.7019042372703552,-1.7089842557907104,-1.0986326932907104,73.33333587646484,276980.0,0.0
15240.8113193,296299.3125,294930.75,322391.03125,313570.59375,285444.9375,255039.140625,220220.21875,245232.265625,0.052490234375,0.994140625,0.157958984375,0.7019042372703552,-1.7089842557907104,-1.0986326932907104,73.33333587646484,276981.0,0.0
15240.8113195,296299.3125,294930.75,322391.03125,313570.59375,285444.9375,255039.140625,220220.21875,245232.265625,0.052490234375,0.994140625,0.157958984375,0.7019042372703552,-1.7089842557907104,-1.0986326932907104,73.33333587646484,276982.0,0.0
15240.8113197,296299.3125,294930.75,322391.03125,313570.59375,285444.9375,255039.140625,220220.21875,245232.265625,0.052490234375,0.994140625,0.157958984375,0.7019042372703552,-1.7089842557907104,-1.0986326932907104,73.33333587646484,276983.0,0.0
15240.8113198,296299.3125,294930.75,322391.03125,313570.59375,285444.9375,255039.140625,220220.21875,245232.265625,0.052490234375,0.994140625,0.157958984375,0.7019042372703552,-1.7089842557907104,-1.0986326932907104,73.33333587646484,276984.0,0.0
15240.81132,296299.3125,294930.75,322391.03125,313570.59375,285444.9375,255039.140625,220220.21875,245232.265625,0.052490234375,0.994140625,0.157958984375,0.7019042372703552,-1.7089842557907104,-1.0986326932907104,73.33333587646484,276985.0,0.0
15240.8113203,296299.3125,294930.75,322391.03125,313570.59375,285444.9375,255039.140625,220220.21875,245232.265625,0.052490234375,0.994140625,0.157958984375,0.7019042372703552,-1.7089842557907104,-1.0986326932907104,73.33333587646484,276986.0,0.0
15240.8113205,296299.3125,294930.75,322391.03125,313570.59375,285444.9375,255039.140625,220220.21875,245232.265625,0.052490234375,0.994140625,0.157958984375,0.7019042372703552,-1.7089842557907104,-1.0986326932907104,73.33333587646484,276987.0,0.0
15240.8113206,296299.3125,294930.75,322391.03125,313570.59375,285444.9375,255039.140625,220220.21875,245232.265625,0.052490234375,0.994140625,0.157958984375,0.7019042372703552,-1.7089842557907104,-1.0986326932907104,73.33333587646484,276988.0,0.0
15240.8113208,296299.3125,294930.75,322391.03125,313570.59375,285444.9375,255039.140625,220220.21875,245232.265625,0.052490234375,0.994140625,0.157958984375,0.7019042372703552,-1.7089842557907104,-1.0986326932907104,73.33333587646484,276989.0,0.0
15240.811321,296299.3125,294930.75,322391.03125,313570.59375,285444.9375,255039.140625,220220.21875,245232.265625,0.052490234375,0.994140625,0.157958984375,0.7019042372703552,-1.7089842557907104,-1.0986326932907104,73.33333587646484,276990.0,0.0
15240.8113211,296299.3125,294930.75,322391.03125,313570.59375,285444.9375,255039.140625,220220.21875,245232.265625,0.052490234375,0.994140625,0.157958984375,0.7019042372703552,-1.7089842557907104,-1.0986326932907104,73.33333587646484,276991.0,0.0
15240.8113213,296299.3125,294930.75,322391.03125,313570.59375,285444.9375,255039.140625,220220.21875,245232.265625,0.052490234375,0.994140625,0.157958984375,0.7019042372703552,-1.7089842557907104,-1.0986326932907104,73.33333587646484,276992.0,0.0
15240.8113215,296299.3125,294930.75,322391.03125,313570.59375,285444.9375,255039.140625,220220.21875,245232.265625,0.052490234375,0.994140625,0.157958984375,0.7019042372703552,-1.7089842557907104,-1.0986326932907104,73.33333587646484,276993.0,0.0
15240.8113217,296299.3125,294930.75,322391.03125,313570.59375,285444.9375,255039.140625,220220.21875,245232.265625,0.052490234375,0.994140625,0.157958984375,0.7019042372703552,-1.7089842557907104,-1.0986326932907104,73.33333587646484,276994.0,0.0
15240.8113218,296299.3125,294930.75,322391.03125,313570.59375,285444.9375,255039.140625,220220.21875,245232.265625,0.052490234375,0.994140625,0.157958984375,0.7019042372703552,-1.7089842557907104,-1.0986326932907104,73.33333587646484,276995.0,0.0
15240.811322,296299.3125,294930.75,322391.03125,313570.59375,285444.9375,255039.140625,220220.21875,245232.265625,0.052490234375,0.994140625,0.157958984375,0.7019042372703552,-1.7089842557907104,-1.0986326932907104,73.33333587646484,276996.0,0.0
15240.8113222,296299.3125,294930.75,322391.03125,313570.59375,285444.9375,255039.140625,220220.21875,245232.265625,0.052490234375,0.994140625,0.157958984375,0.7019042372703552,-1.7089842557907104,-1.0986326932907104,73.33333587646484,276997.0,0.0
15240.8113223,296299.3125,294930.75,322391.03125,313570.59375,285444.9375,255039.140625,220220.21875,245232.265625,0.052490234375,0.994140625,0.157958984375,0.7019042372703552,-1.7089842557907104,-1.0986326932907104,73.33333587646484,276998.0,0.0
15240.8113225,296299.3125,294930.75,322391.03125,313570.59375,285444.9375,255039.140625,220220.21875,245232.265625,0.052490234375,0.994140625,0.157958984375,0.7019042372703552,-1.7089842557907104,-1.0986326932907104,73.33333587646484,276999.0,0.0
15240.8113227,296299.3125,294930.75,322391.03125,313570.59375,285444.9375,255039.140625,220220.21875,245232.265625,0.052490234375,0.994140625,0.157958984375,0.7019042372703552,-1.7089842557907104,-1.0986326932907104,73.33333587646484,277000.0,0.0
15240.8113229,296299.3125,294930.75,322391.03125,313570.59375,285444.9375,255039.140625,220220.21875,245232.265625,0.052490234375,0.994140625,0.157958984375,0.7019042372703552,-1.7089842557907104,-1.0986326932907104,73.33333587646484,277001.0,0.0
15240.811323,296299.3125,294930.75,322391.03125,313570.59375,285444.9375,255039.140625,220220.21875,245232.265625,0.052490234375,0.994140625,0.157958984375,0.7019042372703552,-1.7089842557907104,-1.0986326932907104,73.33333587646484,277002.0,0.0
15240.8113232,296299.3125,294930.75,322391.03125,313570.59375,285444.9375,255039.140625,220220.21875,245232.265625,0.052490234375,0.994140625,0.157958984375,0.7019042372703552,-1.7089842557907104,-1.0986326932907104,73.33333587646484,277003.0,0.0
15240.8113234,296299.3125,294930.75,322391.03125,313570.59375,285444.9375,255039.140625,220220.21875,245232.265625,0.052490234375,0.994140625,0.157958984375,0.7019042372703552,-1.7089842557907104,-1.0986326932907104,73.33333587646484,277004.0,0.0
15240.8113235,296299.3125,294930.75,322391.03125,313570.59375,285444.9375,255039.140625,220220.21875,245232.265625,0.052490234375,0.994140625,0.157958984375,0.7019042372703552,-1.7089842557907104,-1.0986326932907104,73.33333587646484,277005.0,0.0
15240.8113237,296299.3125,294930.75,322391.03125,313570.59375,285444.9375,255039.140625,220220.21875,245232.265625,0.052490234375,0.994140625,0.157958984375,0.7019042372703552,-1.7089842557907104,-1.0986326932907104,73.33333587646484,277006.0,0.0
15240.8113239,296299.3125,294930.75,322391.03125,313570.59375,285444.9375,255039.140625,220220.21875,245232.265625,0.052490234375,0.994140625,0.157958984375,0.7019042372703552,-1.7089842557907104,-1.0986326932907104,73.33333587646484,277007.0,0.0
15240.8113241,296299.3125,294930.75,322391.03125,313570.59375,285444.9375,255039.140625,220220.21875,245232.265625,0.052490234375,0.994140625,0.157958984375,0.7019042372703552,-1.7089842557907104,-1.0986326932907104,73.33333587646484,277008.0,0.0
15240.8113242,296299.3125,294930.75,322391.03125,313570.59375,285444.9375,255039.140625,220220.21875,245232.265625,0.052490234375,0.994140625,0.157958984375,0.7019042372703552,-1.7089842557907104,-1.0986326932907104,73.33333587646484,277009.0,0.0
15240.8113244,296299.3125,294930.75,322391.03125,313570.59375,285444.9375,255039.140625,220220.21875,245232.265625,0.052490234375,0.994140625,0.157958984375,0.7019042372703552,-1.7089842557907104,-1.0986326932907104,73.33333587646484,277010.0,0.0
15240.8113246,296299.3125,294930.75,322391.03125,313570.59375,285444.9375,255039.140625,220220.21875,245232.265625,0.052490234375,0.994140625,0.157958984375,0.7019042372703552,-1.7089842557907104,-1.0986326932907104,73.33333587646484,277011.0,0.0
15240.8113247,296299.3125,294930.75,322391.03125,313570.59375,285444.9375,255039.140625,220220.21875,245232.265625,0.052490234375,0.994140625,0.157958984375,0.7019042372703552,-1.7089842557907104,-1.0986326932907104,73.33333587646484,277012.0,0.0
15240.8113249,296299.3125,294930.75,322391.03125,313570.59375,285444.9375,255039.140625,220220.21875,245232.265625,0.052490234375,0.994140625,0.157958984375,0.7019042372703552,-1.7089842557907104,-1.0986326932907104,73.33333587646484,277013.0,0.0
15240.8113251,296299.3125,294930.75,322391.03125,313570.59375,285444.9375,255039.140625,220220.21875,245232.265625,0.052490234375,0.994140625,0.157958984375,0.7019042372703552,-1.7089842557907104,-1.0986326932907104,73.33333587646484,277014.0,0.0
15240.8113253,296299.3125,294930.75,322391.03125,313570.59375,285444.9375,255039.140625,220220.21875,245232.265625,0.052490234375,0.994140625,0.157958984375,0.7019042372703552,-1.7089842557907104,-1.0986326932907104,73.33333587646484,277015.0,0.0
15240.8113254,296299.3125,294930.75,322391.03125,313570.59375,285444.9375,255039.140625,220220.21875,245232.265625,0.052490234375,0.994140625,0.157958984375,0.7019042372703552,-1.7089842557907104,-1.0986326932907104,73.33333587646484,277016.0,0.0
15240.8113256,296299.3125,294930.75,322391.03125,313570.59375,285444.9375,255039.140625,220220.21875,245232.265625,0.052490234375,0.994140625,0.157958984375,0.7019042372703552,-1.7089842557907104,-1.0986326932907104,73.33333587646484,277017.0,0.0
15240.8113259,296299.3125,294930.75,322391.03125,313570.59375,285444.9375,255039.140625,220220.21875,245232.265625,0.052490234375,0.994140625,0.157958984375,0.7019042372703552,-1.7089842557907104,-1.0986326932907104,73.33333587646484,277018.0,0.0
15240.8113261,296299.3125,294930.75,322391.03125,313570.59375,285444.9375,255039.140625,220220.21875,245232.265625,0.052490234375,0.994140625,0.157958984375,0.7019042372703552,-1.7089842557907104,-1.0986326932907104,73.33333587646484,277019.0,0.0
15240.8113262,296299.3125,294930.75,322391.03125,313570.59375,285444.9375,255039.140625,220220.21875,245232.265625,0.052490234375,0.994140625,0.157958984375,0.7019042372703552,-1.7089842557907104,-1.0986326932907104,73.33333587646484,277020.0,0.0
15240.8113264,296299.3125,294930.75,322391.03125,313570.59375,285444.9375,255039.140625,220220.21875,245232.265625,0.052490234375,0.994140625,0.157958984375,0.7019042372703552,-1.7089842557907104,-1.0986326932907104,73.33333587646484,277021.0,0.0
15240.8113266,296299.3125,294930.75,322391.03125,313570.59375,285444.9375,255039.140625,220220.21875,245232.265625,0.052490234375,0.994140625,0.157958984375,0.7019042372703552,-1.7089842557907104,-1.0986326932907104,73.33333587646484,277022.0,0.0
15240.8113268,296299.3125,294930.75,322391.03125,313570.59375,285444.9375,255039.140625,220220.21875,245232.265625,0.052490234375,0.994140625,0.157958984375,0.7019042372703552,-1.7089842557907104,-1.0986326932907104,73.33333587646484,277023.0,0.0
15240.8113269,296299.3125,294930.75,322391.03125,313570.59375,285444.9375,255039.140625,220220.21875,245232.265625,0.052490234375,0.994140625,0.157958984375,0.7019042372703552,-1.7089842557907104,-1.0986326932907104,73.33333587646484,277024.0,0.0
15240.8113271,296299.3125,294930.75,322391.03125,313570.59375,285444.9375,255039.140625,220220.21875,245232.265625,0.052490234375,0.994140625,0.157958984375,0.7019042372703552,-1.7089842557907104,-1.0986326932907104,73.33333587646484,277025.0,0.0
15240.8113273,296299.3125,294930.75,322391.03125,313570.59375,285444.9375,255039.140625,220220.21875,245232.265625,0.052490234375,0.994140625,0.157958984375,0.7019042372703552,-1.7089842557907104,-1.0986326932907104,73.33333587646484,277026.0,0.0
15240.8113274,296299.3125,294930.75,322391.03125,313570.59375,285444.9375,255039.140625,220220.21875,245232.265625,0.052490234375,0.994140625,0.157958984375,0.7019042372703552,-1.7089842557907104,-1.0986326932907104,73.33333587646484,277027.0,0.0
15240.8113276,296299.3125,294930.75,322391.03125,313570.59375,285444.9375,255039.140625,220220.21875,245232.265625,0.052490234375,0.994140625,0.157958984375,0.7019042372703552,-1.7089842557907104,-1.0986326932907104,73.33333587646484,277028.0,0.0
15240.8113278,296299.3125,294930.75,322391.03125,313570.59375,285444.9375,255039.140625,220220.21875,245232.265625,0.052490234375,0.994140625,0.157958984375,0.7019042372703552,-1.7089842557907104,-1.0986326932907104,73.33333587646484,277029.0,0.0
15240.811328,296299.3125,294930.75,322391.03125,313570.59375,285444.9375,255039.140625,220220.21875,245232.265625,0.052490234375,0.994140625,0.157958984375,0.7019042372703552,-1.7089842557907104,-1.0986326932907104,73.33333587646484,277030.0,0.0
15240.8113281,296299.3125,294930.75,322391.03125,313570.59375,285444.9375,255039.140625,220220.21875,245232.265625,0.052490234375,0.994140625,0.157958984375,0.7019042372703552,-1.7089842557907104,-1.0986326932907104,73.33333587646484,277031.0,0.0
15240.8113283,296299.3125,294930.75,322391.03125,313570.59375,285444.9375,255039.140625,220220.21875,245232.265625,0.052490234375,0.994140625,0.157958984375,0.7019042372703552,-1.7089842557907104,-1.0986326932907104,73.33333587646484,277032.0,0.0
15240.8113285,296299.3125,294930.75,322391.03125,313570.59375,285444.9375,255039.140625,220220.21875,245232.265625,0.052490234375,0.994140625,0.157958984375,0.7019042372703552,-1.7089842557907104,-1.0986326932907104,73.33333587646484,277033.0,0.0
15240.8113286,296299.3125,294930.75,322391.03125,313570.59375,285444.9375,255039.140625,220220.21875,245232.265625,0.052490234375,0.994140625,0.157958984375,0.7019042372703552,-1.7089842557907104,-1.0986326932907104,73.33333587646484,277034.0,0.0
15240.8113288,296299.3125,294930.75,322391.03125,313570.59375,285444.9375,255039.140625,220220.21875,245232.265625,0.052490234375,0.994140625,0.157958984375,0.7019042372703552,-1.7089842557907104,-1.0986326932907104,73.33333587646484,277035.0,0.0
15240.811329,296299.3125,294930.75,322391.03125,313570.59375,285444.9375,255039.140625,220220.21875,245232.265625,0.052490234375,0.994140625,0.157958984375,0.7019042372703552,-1.7089842557907104,-1.0986326932907104,73.33333587646484,277036.0,0.0
15240.8113292,296299.3125,294930.75,322391.03125,313570.59375,285444.9375,255039.140625,220220.21875,245232.265625,0.052490234375,0.994140625,0.157958984375,0.7019042372703552,-1.7089842557907104,-1.0986326932907104,73.33333587646484,277037.0,0.0
15240.8113294,296299.3125,294930.75,322391.03125,313570.59375,285444.9375,255039.140625,220220.21875,245232.265625,0.052490234375,0.994140625,0.157958984375,0.7019042372703552,-1.7089842557907104,-1.0986326932907104,73.33333587646484,277038.0,0.0
15240.8113295,296299.3125,294930.75,322391.03125,313570.59375,285444.9375,255039.140625,220220.21875,245232.265625,0.052490234375,0.994140625,0.157958984375,0.7019042372703552,-1.7089842557907104,-1.0986326932907104,73.33333587646484,277039.0,0.0
15240.8113297,296299.3125,294930.75,322391.03125,313570.59375,285444.9375,255039.140625,220220.21875,245232.265625,0.052490234375,0.994140625,0.157958984375,0.7019042372703552,-1.7089842557907104,-1.0986326932907104,73.33333587646484,277040.0,0.0
15240.8113299,296299.3125,294930.75,322391.03125,313570.59375,285444.9375,255039.140625,220220.21875,245232.265625,0.052490234375,0.994140625,0.157958984375,0.7019042372703552,-1.7089842557907104,-1.0986326932907104,73.33333587646484,277041.0,0.0
15240.81133,296299.3125,294930.75,322391.03125,313570.59375,285444.9375,255039.140625,220220.21875,245232.265625,0.052490234375,0.994140625,0.157958984375,0.7019042372703552,-1.7089842557907104,-1.0986326932907104,73.33333587646484,277042.0,0.0
15240.8113302,296299.3125,294930.75,322391.03125,313570.59375,285444.9375,255039.140625,220220.21875,245232.265625,0.052490234375,0.994140625,0.157958984375,0.7019042372703552,-1.7089842557907104,-1.0986326932907104,73.33333587646484,277043.0,0.0
15240.8113304,296299.3125,294930.75,322391.03125,313570.59375,285444.9375,255039.140625,220220.21875,245232.265625,0.052490234375,0.994140625,0.157958984375,0.7019042372703552,-1.7089842557907104,-1.0986326932907104,73.33333587646484,277044.0,0.0
15240.8113305,296299.3125,294930.75,322391.03125,313570.59375,285444.9375,255039.140625,220220.21875,245232.265625,0.052490234375,0.994140625,0.157958984375,0.7019042372703552,-1.7089842557907104,-1.0986326932907104,73.33333587646484,277045.0,0.0
15240.8113307,296299.3125,294930.75,322391.03125,313570.59375,285444.9375,255039.140625,220220.21875,245232.265625,0.052490234375,0.994140625,0.157958984375,0.7019042372703552,-1.7089842557907104,-1.0986326932907104,73.33333587646484,277046.0,0.0
15240.8113309,296299.3125,294930.75,322391.03125,313570.59375,285444.9375,255039.140625,220220.21875,245232.265625,0.052490234375,0.994140625,0.157958984375,0.7019042372703552,-1.7089842557907104,-1.0986326932907104,73.33333587646484,277047.0,0.0
15240.811331,296299.3125,294930.75,322391.03125,313570.59375,285444.9375,255039.140625,220220.21875,245232.265625,0.052490234375,0.994140625,0.157958984375,0.7019042372703552,-1.7089842557907104,-1.0986326932907104,73.33333587646484,277048.0,0.0
15240.8113312,296299.3125,294930.75,322391.03125,313570.59375,285444.9375,255039.140625,220220.21875,245232.265625,0.052490234375,0.994140625,0.157958984375,0.7019042372703552,-1.7089842557907104,-1.0986326932907104,73.33333587646484,277049.0,0.0
15240.8113314,296299.3125,294930.75,322391.03125,313570.59375,285444.9375,255039.140625,220220.21875,245232.265625,0.052490234375,0.994140625,0.157958984375,0.7019042372703552,-1.7089842557907104,-1.0986326932907104,73.33333587646484,277050.0,0.0
15240.8113316,296299.3125,294930.75,322391.03125,313570.59375,285444.9375,255039.140625,220220.21875,245232.265625,0.052490234375,0.994140625,0.157958984375,0.7019042372703552,-1.7089842557907104,-1.0986326932907104,73.33333587646484,277051.0,0.0
15240.8113318,296299.3125,294930.75,322391.03125,313570.59375,285444.9375,255039.140625,220220.21875,245232.265625,0.052490234375,0.994140625,0.157958984375,0.7019042372703552,-1.7089842557907104,-1.0986326932907104,73.33333587646484,277052.0,0.0
15240.8113319,296299.3125,294930.75,322391.03125,313570.59375,285444.9375,255039.140625,220220.21875,245232.265625,0.052490234375,0.994140625,0.157958984375,0.7019042372703552,-1.7089842557907104,-1.0986326932907104,73.33333587646484,277053.0,0.0
15240.8113321,296299.3125,294930.75,322391.03125,313570.59375,285444.9375,255039.140625,220220.21875,245232.265625,0.052490234375,0.994140625,0.157958984375,0.7019042372703552,-1.7089842557907104,-1.0986326932907104,73.33333587646484,277054.0,0.0
15240.8113323,296299.3125,294930.75,322391.03125,313570.59375,285444.9375,255039.140625,220220.21875,245232.265625,0.052490234375,0.994140625,0.157958984375,0.7019042372703552,-1.7089842557907104,-1.0986326932907104,73.33333587646484,277055.0,0.0
15240.8113324,296185.21875,294180.8125,321171.15625,313380.5,284776.875,254927.375,220047.84375,245160.109375,0.0498046875,0.996337890625,0.16748046875,1.2207030057907104,-1.0375975370407104,-0.8850097060203552,73.33333587646484,277056.0,1.0
15240.811338,296294.1875,294294.34375,321124.03125,313530.875,284804.5,254954.375,220136.4375,245240.046875,0.049072265625,0.995361328125,0.169189453125,1.2207030057907104,-0.9155272841453552,-0.9765624403953552,73.33333587646484,277057.0,1.0
15240.8113393,296508.96875,295140.5,322316.71875,313836.5625,285503.9375,255160.203125,220430.5,245393.375,0.0478515625,0.99609375,0.169189453125,1.1596678495407104,-0.8239745497703552,-0.9765624403953552,73.33333587646484,277058.0,1.0
15240.8113404,296505.65625,295511.8125,323068.65625,313846.59375,285879.28125,255199.625,220480.125,245389.359375,0.04833984375,0.99267578125,0.17041015625,1.1901854276657104,-0.8544921278953552,-1.0681151151657104,73.33333587646484,277059.0,1.0
15240.8113416,296297.78125,294904.09375,322345.59375,313554.40625,285415.59375,255026.0,220222.546875,245231.109375,0.050537109375,0.991455078125,0.161865234375,1.2817381620407104,-0.8544921278953552,-1.0375975370407104,73.33333587646484,277060.0,1.0
15240.8113428,296179.3125,294175.625,321165.875,313375.40625,284768.9375,254896.53125,220028.703125,245153.765625,0.0517578125,0.9921875,0.163818359375,1.3122557401657104,-0.7934569716453552,-0.9460448622703552,73.33333587646484,277061.0,1.0
15240.811344,296302.59375,294308.375,321136.28125,313541.0,284816.21875,254981.46875,220154.234375,245255.15625,0.04931640625,0.992431640625,0.166015625,1.3732908964157104,-0.7934569716453552,-0.9460448622703552,73.33333587646484,277062.0,1.0
15240.8113452,296504.9375,295135.84375,322317.53125,313834.6875,285504.125,255171.8125,220436.765625,245408.21875,0.050048828125,0.99365234375,0.166259765625,1.4953612089157104,-0.7934569716453552,-0.8850097060203552,73.33333587646484,277063.0,1.0
15240.8113463,296509.125,295508.03125,323065.5,313849.09375,285875.96875,255209.1875,220478.875,245386.140625,0.04931640625,0.9931640625,0.165283203125,1.4038084745407104,-0.7934569716453552,-0.8239745497703552,73.33333587646484,277064.0,1.0
15240.8133079,296309.03125,294911.0625,322353.46875,313564.0625,285422.84375,255051.125,220232.109375,245229.84375,0.050537109375,0.99365234375,0.164794921875,1.3732908964157104,-0.7019042372703552,-0.8239745497703552,73.33333587646484,277065.0,1.0
15240.817179,296309.03125,294911.0625,322353.46875,313564.0625,285422.84375,255051.125,220232.109375,245229.84375,0.050537109375,0.99365234375,0.164794921875,1.3732908964157104,-0.7019042372703552,-0.8239745497703552,73.33333587646484,277066.0,0.0
15240.8171824,296309.03125,294911.0625,322353.46875,313564.0625,285422.84375,255051.125,220232.109375,245229.84375,0.050537109375,0.99365234375,0.164794921875,1.3732908964157104,-0.7019042372703552,-0.8239745497703552,73.33333587646484,277067.0,0.0
15240.8171835,296309.03125,294911.0625,322353.46875,313564.0625,285422.84375,255051.125,220232.109375,245229.84375,0.050537109375,0.99365234375,0.164794921875,1.3732908964157104,-0.7019042372703552,-0.8239745497703552,73.33333587646484,277068.0,0.0
15240.8171847,296309.03125,294911.0625,322353.46875,313564.0625,285422.84375,255051.125,220232.109375,245229.84375,0.050537109375,0.99365234375,0.164794921875,1.3732908964157104,-0.7019042372703552,-0.8239745497703552,73.33333587646484,277069.0,0.0
15240.8171858,296309.03125,294911.0625,322353.46875,313564.0625,285422.84375,255051.125,220232.109375,245229.84375,0.050537109375,0.99365234375,0.164794921875,1.3732908964157104,-0.7019042372703552,-0.8239745497703552,73.33333587646484,277070.0,0.0
15240.8171869,296309.03125,294911.0625,322353.46875,313564.0625,285422.84375,255051.125,220232.109375,245229.84375,0.050537109375,0.99365234375,0.164794921875,1.3732908964157104,-0.7019042372703552,-0.8239745497703552,73.33333587646484,277071.0,0.0
15240.8171881,296309.03125,294911.0625,322353.46875,313564.0625,285422.84375,255051.125,220232.109375,245229.84375,0.050537109375,0.99365234375,0.164794921875,1.3732908964157104,-0.7019042372703552,-0.8239745497703552,73.33333587646484,277072.0,0.0
15240.8171893,296309.03125,294911.0625,322353.46875,313564.0625,285422.84375,255051.125,220232.109375,245229.84375,0.050537109375,0.99365234375,0.164794921875,1.3732908964157104,-0.7019042372703552,-0.8239745497703552,73.33333587646484,277073.0,0.0
15240.8171904,296309.03125,294911.0625,322353.46875,313564.0625,285422.84375,255051.125,220232.109375,245229.84375,0.050537109375,0.99365234375,0.164794921875,1.3732908964157104,-0.7019042372703552,-0.8239745497703552,73.33333587646484,277074.0,0.0
15240.8171915,296309.03125,294911.0625,322353.46875,313564.0625,285422.84375,255051.125,220232.109375,245229.84375,0.050537109375,0.99365234375,0.164794921875,1.3732908964157104,-0.7019042372703552,-0.8239745497703552,73.33333587646484,277075.0,0.0
15240.8171927,296309.03125,294911.0625,322353.46875,313564.0625,285422.84375,255051.125,220232.109375,245229.84375,0.050537109375,0.99365234375,0.164794921875,1.3732908964157104,-0.7019042372703552,-0.8239745497703552,73.33333587646484,277076.0,0.0
15240.8171938,296309.03125,294911.0625,322353.46875,313564.0625,285422.84375,255051.125,220232.109375,245229.84375,0.050537109375,0.99365234375,0.164794921875,1.3732908964157104,-0.7019042372703552,-0.8239745497703552,73.33333587646484,277077.0,0.0
15240.8171949,296309.03125,294911.0625,322353.46875,313564.0625,285422.84375,255051.125,220232.109375,245229.84375,0.050537109375,0.99365234375,0.164794921875,1.3732908964157104,-0.7019042372703552,-0.8239745497703552,73.33333587646484,277078.0,0.0
15240.8171964,296309.03125,294911.0625,322353.46875,313564.0625,285422.84375,255051.125,220232.109375,245229.84375,0.050537109375,0.99365234375,0.164794921875,1.3732908964157104,-0.7019042372703552,-0.8239745497703552,73.33333587646484,277079.0,0.0
15240.8171966,296309.03125,294911.0625,322353.46875,313564.0625,285422.84375,255051.125,220232.109375,245229.84375,0.050537109375,0.99365234375,0.164794921875,1.3732908964157104,-0.7019042372703552,-0.8239745497703552,73.33333587646484,277080.0,0.0
15240.8171968,296309.03125,294911.0625,322353.46875,313564.0625,285422.84375,255051.125,220232.109375,245229.84375,0.050537109375,0.99365234375,0.164794921875,1.3732908964157104,-0.7019042372703552,-0.8239745497703552,73.33333587646484,277081.0,0.0
15240.8171969,296309.03125,294911.0625,322353.46875,313564.0625,285422.84375,255051.125,220232.109375,245229.84375,0.050537109375,0.99365234375,0.164794921875,1.3732908964157104,-0.7019042372703552,-0.8239745497703552,73.33333587646484,277082.0,0.0
15240.8171974,296309.03125,294911.0625,322353.46875,313564.0625,285422.84375,255051.125,220232.109375,245229.84375,0.050537109375,0.99365234375,0.164794921875,1.3732908964157104,-0.7019042372703552,-0.8239745497703552,73.33333587646484,277083.0,0.0
15240.8171976,296309.03125,294911.0625,322353.46875,313564.0625,285422.84375,255051.125,220232.109375,245229.84375,0.050537109375,0.99365234375,0.164794921875,1.3732908964157104,-0.7019042372703552,-0.8239745497703552,73.33333587646484,277084.0,0.0
15240.8171977,296309.03125,294911.0625,322353.46875,313564.0625,285422.84375,255051.125,220232.109375,245229.84375,0.050537109375,0.99365234375,0.164794921875,1.3732908964157104,-0.7019042372703552,-0.8239745497703552,73.33333587646484,277085.0,0.0
15240.8171979,296309.03125,294911.0625,322353.46875,313564.0625,285422.84375,255051.125,220232.109375,245229.84375,0.050537109375,0.99365234375,0.164794921875,1.3732908964157104,-0.7019042372703552,-0.8239745497703552,73.33333587646484,277086.0,0.0
15240.8171981,296309.03125,294911.0625,322353.46875,313564.0625,285422.84375,255051.125,220232.109375,245229.84375,0.050537109375,0.99365234375,0.164794921875,1.3732908964157104,-0.7019042372703552,-0.8239745497703552,73.33333587646484,277087.0,0.0
15240.8171983,296309.03125,294911.0625,322353.46875,313564.0625,285422.84375,255051.125,220232.109375,245229.84375,0.050537109375,0.99365234375,0.164794921875,1.3732908964157104,-0.7019042372703552,-0.8239745497703552,73.33333587646484,277088.0,0.0
15240.8171984,296309.03125,294911.0625,322353.46875,313564.0625,285422.84375,255051.125,220232.109375,245229.84375,0.050537109375,0.99365234375,0.164794921875,1.3732908964157104,-0.7019042372703552,-0.8239745497703552,73.33333587646484,277089.0,0.0
15240.8171986,296309.03125,294911.0625,322353.46875,313564.0625,285422.84375,255051.125,220232.109375,245229.84375,0.050537109375,0.99365234375,0.164794921875,1.3732908964157104,-0.7019042372703552,-0.8239745497703552,73.33333587646484,277090.0,0.0
15240.8171988,296309.03125,294911.0625,322353.46875,313564.0625,285422.84375,255051.125,220232.109375,245229.84375,0.050537109375,0.99365234375,0.164794921875,1.3732908964157104,-0.7019042372703552,-0.8239745497703552,73.33333587646484,277091.0,0.0
15240.817199,296314.5,294309.0,321139.15625,313546.96875,284812.28125,255000.609375,220166.484375,245251.75,0.0556640625,0.9931640625,0.156982421875,0.5493163466453552,-0.6103515028953552,-0.9765624403953552,73.33333587646484,277092.0,1.0
15240.8196058,296517.1875,295152.375,322341.5,313844.0625,285513.0625,255176.015625,220450.890625,245407.953125,0.05615234375,0.99267578125,0.1572265625,0.5798339247703552,-0.5493163466453552,-1.1901854276657104,73.33333587646484,277093.0,1.0
15240.8232141,296521.28125,295507.78125,323068.375,313855.53125,285872.84375,255206.859375,220488.078125,245398.296875,0.055419921875,0.992431640625,0.1572265625,0.6408690810203552,-0.5187987685203552,-1.2817381620407104,73.33333587646484,277094.0,1.0
15240.8232186,296315.84375,294887.28125,322318.34375,313564.9375,285391.90625,255014.734375,220217.171875,245232.984375,0.056884765625,0.9931640625,0.158447265625,0.8239745497703552,-0.5187987685203552,-1.5563963651657104,73.33333587646484,277095.0,1.0
15240.8232201,296194.25,294162.21875,321141.46875,313381.5,284750.34375,254900.5625,220031.125,245145.625,0.056396484375,0.9912109375,0.159912109375,0.8850097060203552,-0.3662109076976776,-1.5869139432907104,73.33333587646484,277096.0,1.0
15240.8306849,296320.5625,294309.8125,321133.6875,313556.53125,284811.125,254988.53125,220161.109375,245255.328125,0.055419921875,0.99072265625,0.15869140625,0.8850097060203552,-0.2746581733226776,-1.5869139432907104,73.33333587646484,277097.0,1.0
15240.8306873,296521.75,295148.90625,322337.21875,313852.125,285512.15625,255153.125,220433.890625,245413.671875,0.05712890625,0.9912109375,0.15966796875,0.9155272841453552,-0.1220703050494194,-1.6479490995407104,73.33333587646484,277098.0,1.0
15240.8306886,296521.84375,295507.5,323074.0,313860.96875,285881.96875,255200.34375,220488.34375,245401.515625,0.055908203125,0.99169921875,0.158935546875,1.1291502714157104,0.03051757626235485,-1.6784666776657104,73.33333587646484,277099.0,1.0
15240.8306899,296319.15625,294902.84375,322338.1875,313571.84375,285415.78125,255051.5625,220240.953125,245235.9375,0.057861328125,0.989501953125,0.15625,1.2207030057907104,0.0915527269244194,-1.7089842557907104,73.33333587646484,277100.0,1.0
15240.8306911,296196.21875,294172.03125,321156.21875,313386.9375,284764.28125,254914.5,220038.984375,245154.75,0.056884765625,0.989990234375,0.16064453125,1.3732908964157104,0.1525878757238388,-1.7089842557907104,73.33333587646484,277101.0,1.0
15240.8306923,296307.625,294307.125,321138.625,313544.03125,284811.21875,254967.34375,220145.03125,245243.171875,0.057373046875,0.992919921875,0.160400390625,1.4038084745407104,0.1525878757238388,-1.5869139432907104,73.33333587646484,277102.0,1.0
15240.8306935,296519.6875,295151.03125,322339.53125,313852.5625,285517.25,255162.875,220445.96875,245412.875,0.056640625,0.991943359375,0.16162109375,1.4343260526657104,0.3051757514476776,-1.5869139432907104,73.33333587646484,277103.0,1.0
15240.8328145,296518.34375,295510.09375,323071.875,313865.09375,285884.5625,255208.03125,220507.65625,245421.09375,0.05615234375,0.992919921875,0.161376953125,1.5258787870407104,0.4272460639476776,-1.4953612089157104,73.33333587646484,277104.0,1.0
15240.8614515,296518.34375,295510.09375,323071.875,313865.09375,285884.5625,255208.03125,220507.65625,245421.09375,0.05615234375,0.992919921875,0.161376953125,1.5258787870407104,0.4272460639476776,-1.4953612089157104,73.33333587646484,277105.0,0.0
15240.8614556,296518.34375,295510.09375,323071.875,313865.09375,285884.5625,255208.03125,220507.65625,245421.09375,0.05615234375,0.992919921875,0.161376953125,1.5258787870407104,0.4272460639476776,-1.4953612089157104,73.33333587646484,277106.0,0.0
15240.8614568,296518.34375,295510.09375,323071.875,313865.09375,285884.5625,255208.03125,220507.65625,245421.09375,0.05615234375,0.992919921875,0.161376953125,1.5258787870407104,0.4272460639476776,-1.4953612089157104,73.33333587646484,277107.0,0.0
15240.8614578,296518.34375,295510.09375,323071.875,313865.09375,285884.5625,255208.03125,220507.65625,245421.09375,0.05615234375,0.992919921875,0.161376953125,1.5258787870407104,0.4272460639476776,-1.4953612089157104,73.33333587646484,277108.0,0.0
15240.861459,296518.34375,295510.09375,323071.875,313865.09375,285884.5625,255208.03125,220507.65625,245421.09375,0.05615234375,0.992919921875,0.161376953125,1.5258787870407104,0.4272460639476776,-1.4953612089157104,73.33333587646484,277109.0,0.0
15240.8614601,296518.34375,295510.09375,323071.875,313865.09375,285884.5625,255208.03125,220507.65625,245421.09375,0.05615234375,0.992919921875,0.161376953125,1.5258787870407104,0.4272460639476776,-1.4953612089157104,73.33333587646484,277110.0,0.0
15240.8614613,296518.34375,295510.09375,323071.875,313865.09375,285884.5625,255208.03125,220507.65625,245421.09375,0.05615234375,0.992919921875,0.161376953125,1.5258787870407104,0.4272460639476776,-1.4953612089157104,73.33333587646484,277111.0,0.0
15240.8614623,296518.34375,295510.09375,323071.875,313865.09375,285884.5625,255208.03125,220507.65625,245421.09375,0.05615234375,0.992919921875,0.161376953125,1.5258787870407104,0.4272460639476776,-1.4953612089157104,73.33333587646484,277112.0,0.0
15240.8614635,296524.875,295156.0625,322354.1875,313856.59375,285527.46875,255191.671875,220458.75,245416.359375,0.049072265625,0.995361328125,0.159423828125,0.6408690810203552,-0.0915527269244194,-0.9765624403953552,73.33333587646484,277113.0,1.0
15240.8614729,296526.21875,295510.46875,323076.5,313867.15625,285885.1875,255223.765625,220501.671875,245410.453125,0.04638671875,0.99462890625,0.163330078125,0.6103515028953552,-0.1831054538488388,-1.0681151151657104,73.33333587646484,277114.0,1.0
15240.8858422,296323.4375,294907.84375,322338.8125,313580.3125,285421.59375,255062.734375,220257.3125,245254.34375,0.04638671875,0.996826171875,0.164794921875,0.6713866591453552,-0.3662109076976776,-1.0986326932907104,73.33333587646484,277115.0,1.0
15240.9108692,296201.40625,294180.53125,321157.84375,313395.25,284772.25,254918.4375,220058.484375,245164.765625,0.04541015625,0.99658203125,0.16552734375,0.5798339247703552,-0.5187987685203552,-1.1596678495407104,73.33333587646484,277116.0,1.0
15240.9833528,296318.0625,294319.8125,321144.4375,313557.96875,284822.9375,254985.5,220173.640625,245253.90625,0.04541015625,0.997314453125,0.163818359375,0.4272460639476776,-0.7934569716453552,-1.1291502714157104,73.33333587646484,277117.0,1.0
15241.0083806,296522.09375,295152.65625,322339.8125,313853.5625,285518.15625,255180.140625,220460.09375,245410.625,0.0458984375,0.997802734375,0.162109375,0.3967284858226776,-0.8544921278953552,-1.2817381620407104,73.33333587646484,277118.0,1.0
15241.0595711,296522.1875,295512.96875,323075.625,313864.8125,285887.40625,255221.703125,220511.6875,245412.59375,0.043701171875,0.9990234375,0.1640625,0.4577636420726776,-1.0375975370407104,-1.3427733182907104,73.33333587646484,277119.0,1.0
15241.0595896,296317.625,294902.03125,322340.4375,313570.5,285419.90625,255048.53125,220250.609375,245246.84375,0.042724609375,0.997314453125,0.163818359375,0.3356933295726776,-1.0986326932907104,-1.3732908964157104,73.33333587646484,277120.0,1.0
15241.0595908,296197.375,294171.5,321159.96875,313383.0,284767.9375,254907.359375,220044.53125,245154.484375,0.042724609375,1.000244140625,0.16259765625,0.2746581733226776,-1.4343260526657104,-1.3732908964157104,73.33333587646484,277121.0,1.0
15241.0595921,296324.875,294323.5,321159.53125,313559.21875,284830.875,254984.15625,220171.75,245274.734375,0.044677734375,1.00048828125,0.16162109375,0.1525878757238388,-1.5869139432907104,-1.4648436307907104,73.33333587646484,277122.0,1.0
15241.0595932,296527.65625,295161.78125,322356.15625,313850.5,285525.75,255166.8125,220449.71875,245417.34375,0.045654296875,0.999267578125,0.161376953125,0.2441406100988388,-1.7089842557907104,-1.5258787870407104,73.33333587646484,277123.0,1.0
15241.0595944,296529.6875,295520.46875,323084.28125,313858.03125,285891.25,255226.359375,220507.921875,245403.390625,0.046630859375,0.998046875,0.162353515625,0.2136230319738388,-1.8310545682907104,-1.5563963651657104,73.33333587646484,277124.0,1.0
15241.0595956,296323.09375,294911.34375,322347.5,313564.5,285422.3125,255068.46875,220249.09375,245239.59375,0.0478515625,0.999267578125,0.1650390625,0.1831054538488388,-1.9531248807907104,-1.4953612089157104,73.33333587646484,277125.0,1.0
15241.0595968,296205.875,294183.21875,321175.625,313387.21875,284776.53125,254921.75,220042.921875,245154.125,0.04931640625,0.997314453125,0.166748046875,0.03051757626235485,-2.136230230331421,-1.4038084745407104,73.33333587646484,277126.0,1.0
15241.083349,296326.9375,294329.3125,321164.71875,313554.40625,284833.46875,255003.828125,220172.375,245254.34375,0.050537109375,0.9970703125,0.163330078125,0.0,-2.136230230331421,-1.2817381620407104,73.33333587646484,277127.0,1.0
15241.1083891,296523.0,295164.90625,322356.0625,313848.71875,285528.53125,255188.625,220464.75,245419.3125,0.049072265625,0.996337890625,0.162353515625,0.1525878757238388,-2.166747808456421,-1.2817381620407104,73.33333587646484,277128.0,1.0
15241.1358437,296519.40625,295518.25,323083.84375,313854.625,285892.6875,255219.921875,220507.21875,245415.28125,0.04833984375,0.993896484375,0.161865234375,0.2441406100988388,-2.319335699081421,-1.1596678495407104,73.33333587646484,277129.0,1.0
15241.1388865,296308.0625,294899.90625,322335.5,313559.40625,285415.6875,255049.78125,220238.71875,245244.15625,0.04736328125,0.994384765625,0.1591796875,0.3051757514476776,-2.380370855331421,-1.0986326932907104,73.33333587646484,277130.0,1.0
15241.1388922,296191.375,294179.71875,321158.90625,313382.03125,284772.25,254929.34375,220050.4375,245162.265625,0.046630859375,0.993408203125,0.15869140625,0.4577636420726776,-2.380370855331421,-0.9765624403953552,73.33333587646484,277131.0,1.0
15241.1439376,296191.375,294179.71875,321158.90625,313382.03125,284772.25,254929.34375,220050.4375,245162.265625,0.046630859375,0.993408203125,0.15869140625,0.4577636420726776,-2.380370855331421,-0.9765624403953552,73.33333587646484,277132.0,0.0
15241.1439418,296191.375,294179.71875,321158.90625,313382.03125,284772.25,254929.34375,220050.4375,245162.265625,0.046630859375,0.993408203125,0.15869140625,0.4577636420726776,-2.380370855331421,-0.9765624403953552,73.33333587646484,277133.0,0.0
15241.1439433,296191.375,294179.71875,321158.90625,313382.03125,284772.25,254929.34375,220050.4375,245162.265625,0.046630859375,0.993408203125,0.15869140625,0.4577636420726776,-2.380370855331421,-0.9765624403953552,73.33333587646484,277134.0,0.0
15241.1439446,296191.375,294179.71875,321158.90625,313382.03125,284772.25,254929.34375,220050.4375,245162.265625,0.046630859375,0.993408203125,0.15869140625,0.4577636420726776,-2.380370855331421,-0.9765624403953552,73.33333587646484,277135.0,0.0
15241.1439457,296191.375,294179.71875,321158.90625,313382.03125,284772.25,254929.34375,220050.4375,245162.265625,0.046630859375,0.993408203125,0.15869140625,0.4577636420726776,-2.380370855331421,-0.9765624403953552,73.33333587646484,277136.0,0.0
15241.1439467,296191.375,294179.71875,321158.90625,313382.03125,284772.25,254929.34375,220050.4375,245162.265625,0.046630859375,0.993408203125,0.15869140625,0.4577636420726776,-2.380370855331421,-0.9765624403953552,73.33333587646484,277137.0,0.0
15241.1439484,296191.375,294179.71875,321158.90625,313382.03125,284772.25,254929.34375,220050.4375,245162.265625,0.046630859375,0.993408203125,0.15869140625,0.4577636420726776,-2.380370855331421,-0.9765624403953552,73.33333587646484,277138.0,0.0
15241.1439485,296191.375,294179.71875,321158.90625,313382.03125,284772.25,254929.34375,220050.4375,245162.265625,0.046630859375,0.993408203125,0.15869140625,0.4577636420726776,-2.380370855331421,-0.9765624403953552,73.33333587646484,277139.0,0.0
15241.1439487,296191.375,294179.71875,321158.90625,313382.03125,284772.25,254929.34375,220050.4375,245162.265625,0.046630859375,0.993408203125,0.15869140625,0.4577636420726776,-2.380370855331421,-0.9765624403953552,73.33333587646484,277140.0,0.0
15241.1439489,296191.375,294179.71875,321158.90625,313382.03125,284772.25,254929.34375,220050.4375,245162.265625,0.046630859375,0.993408203125,0.15869140625,0.4577636420726776,-2.380370855331421,-0.9765624403953552,73.33333587646484,277141.0,0.0
15241.143949,296191.375,294179.71875,321158.90625,313382.03125,284772.25,254929.34375,220050.4375,245162.265625,0.046630859375,0.993408203125,0.15869140625,0.4577636420726776,-2.380370855331421,-0.9765624403953552,73.33333587646484,277142.0,0.0
15241.1439492,296191.375,294179.71875,321158.90625,313382.03125,284772.25,254929.34375,220050.4375,245162.265625,0.046630859375,0.993408203125,0.15869140625,0.4577636420726776,-2.380370855331421,-0.9765624403953552,73.33333587646484,277143.0,0.0
15241.1439494,296191.375,294179.71875,321158.90625,313382.03125,284772.25,254929.34375,220050.4375,245162.265625,0.046630859375,0.993408203125,0.15869140625,0.4577636420726776,-2.380370855331421,-0.9765624403953552,73.33333587646484,277144.0,0.0
15241.1439495,296191.375,294179.71875,321158.90625,313382.03125,284772.25,254929.34375,220050.4375,245162.265625,0.046630859375,0.993408203125,0.15869140625,0.4577636420726776,-2.380370855331421,-0.9765624403953552,73.33333587646484,277145.0,0.0
15241.1439497,296191.375,294179.71875,321158.90625,313382.03125,284772.25,254929.34375,220050.4375,245162.265625,0.046630859375,0.993408203125,0.15869140625,0.4577636420726776,-2.380370855331421,-0.9765624403953552,73.33333587646484,277146.0,0.0
15241.1439499,296191.375,294179.71875,321158.90625,313382.03125,284772.25,254929.34375,220050.4375,245162.265625,0.046630859375,0.993408203125,0.15869140625,0.4577636420726776,-2.380370855331421,-0.9765624403953552,73.33333587646484,277147.0,0.0
15241.1439501,296191.375,294179.71875,321158.90625,313382.03125,284772.25,254929.34375,220050.4375,245162.265625,0.046630859375,0.993408203125,0.15869140625,0.4577636420726776,-2.380370855331421,-0.9765624403953552,73.33333587646484,277148.0,0.0
15241.1439502,296191.375,294179.71875,321158.90625,313382.03125,284772.25,254929.34375,220050.4375,245162.265625,0.046630859375,0.993408203125,0.15869140625,0.4577636420726776,-2.380370855331421,-0.9765624403953552,73.33333587646484,277149.0,0.0
15241.1439504,296191.375,294179.71875,321158.90625,313382.03125,284772.25,254929.34375,220050.4375,245162.265625,0.046630859375,0.993408203125,0.15869140625,0.4577636420726776,-2.380370855331421,-0.9765624403953552,73.33333587646484,277150.0,0.0
15241.1439506,296189.96875,294187.5,321155.25,313384.0,284776.875,254942.125,220065.546875,245170.125,0.0546875,0.99462890625,0.157470703125,1.8310545682907104,-1.6479490995407104,-0.9460448622703552,73.33333587646484,277151.0,1.0
15241.1439532,296315.3125,294344.3125,321161.5,313557.09375,284839.5625,255015.796875,220188.921875,245271.34375,0.0546875,0.996337890625,0.156005859375,1.7700194120407104,-1.5258787870407104,-0.9155272841453552,73.33333587646484,277152.0,1.0
15241.1754461,296520.59375,295187.875,322371.96875,313848.5625,285538.4375,255182.453125,220456.515625,245411.265625,0.05615234375,0.998046875,0.15625,1.6784666776657104,-1.3122557401657104,-0.9765624403953552,73.33333587646484,277153.0,1.0
15241.1754656,296513.875,295523.4375,323079.625,313847.9375,285886.25,255212.5,220495.046875,245400.078125,0.05322265625,0.996826171875,0.156005859375,1.6784666776657104,-1.2817381620407104,-0.8544921278953552,73.33333587646484,277154.0,1.0
15241.1754668,296305.375,294895.34375,322316.28125,313550.46875,285402.375,255043.078125,220226.03125,245224.3125,0.0537109375,0.9951171875,0.155029296875,1.5258787870407104,-1.1901854276657104,-0.8850097060203552,73.33333587646484,277155.0,1.0
15241.1754681,296192.0,294174.90625,321145.15625,313378.71875,284759.71875,254904.9375,220029.421875,245145.265625,0.05419921875,0.993408203125,0.155029296875,1.4953612089157104,-1.1596678495407104,-0.8544921278953552,73.33333587646484,277156.0,1.0
15241.1754693,296315.40625,294332.875,321158.0,313551.09375,284828.21875,254979.6875,220163.625,245250.421875,0.05419921875,0.99365234375,0.155029296875,1.4343260526657104,-1.1291502714157104,-0.7019042372703552,73.33333587646484,277157.0,1.0
15241.1754705,296515.40625,295169.0,322359.65625,313846.21875,285528.15625,255171.90625,220450.609375,245407.6875,0.051513671875,0.991455078125,0.156982421875,1.4038084745407104,-0.9460448622703552,-0.7324218153953552,73.33333587646484,277158.0,1.0
15241.1754717,296508.59375,295508.75,323062.84375,313847.46875,285878.28125,255208.203125,220489.234375,245403.03125,0.05224609375,0.9921875,0.156982421875,1.4648436307907104,-0.8850097060203552,-0.6103515028953552,73.33333587646484,277159.0,1.0
15241.1754733,296303.9375,294887.375,322306.28125,313555.5625,285404.875,255059.078125,220240.78125,245242.375,0.05224609375,0.994140625,0.154296875,1.4343260526657104,-0.8239745497703552,-0.5798339247703552,73.33333587646484,277160.0,1.0
15241.1754744,296196.5625,294183.46875,321147.5625,313385.40625,284775.28125,254944.09375,220052.75,245162.703125,0.052490234375,0.99462890625,0.15380859375,1.2817381620407104,-0.8239745497703552,-0.5493163466453552,73.33333587646484,277161.0,1.0
15241.1754756,296318.25,294341.5625,321161.15625,313554.03125,284839.65625,254998.90625,220166.578125,245251.75,0.054443359375,0.996337890625,0.151123046875,1.1901854276657104,-0.8544921278953552,-0.3662109076976776,73.33333587646484,277162.0,1.0
15241.2021731,296520.5,295185.1875,322370.8125,313848.375,285539.78125,255166.28125,220450.53125,245405.359375,0.0517578125,0.994140625,0.15234375,1.1291502714157104,-0.8544921278953552,-0.5187987685203552,73.33333587646484,277163.0,1.0
15241.2621656,296515.03125,295517.78125,323073.5625,313848.8125,285883.46875,255198.734375,220487.0,245397.578125,0.04931640625,0.993896484375,0.154052734375,1.0681151151657104,-0.7629393935203552,-0.4882812201976776,73.33333587646484,277164.0,1.0
15241.2882304,296515.03125,295517.78125,323073.5625,313848.8125,285883.46875,255198.734375,220487.0,245397.578125,0.04931640625,0.993896484375,0.154052734375,1.0681151151657104,-0.7629393935203552,-0.4882812201976776,73.33333587646484,277165.0,0.0
15241.2882313,296515.03125,295517.78125,323073.5625,313848.8125,285883.46875,255198.734375,220487.0,245397.578125,0.04931640625,0.993896484375,0.154052734375,1.0681151151657104,-0.7629393935203552,-0.4882812201976776,73.33333587646484,277166.0,0.0
15241.2882316,296515.03125,295517.78125,323073.5625,313848.8125,285883.46875,255198.734375,220487.0,245397.578125,0.04931640625,0.993896484375,0.154052734375,1.0681151151657104,-0.7629393935203552,-0.4882812201976776,73.33333587646484,277167.0,0.0
15241.2882318,296515.03125,295517.78125,323073.5625,313848.8125,285883.46875,255198.734375,220487.0,245397.578125,0.04931640625,0.993896484375,0.154052734375,1.0681151151657104,-0.7629393935203552,-0.4882812201976776,73.33333587646484,277168.0,0.0
15241.2882319,296515.03125,295517.78125,323073.5625,313848.8125,285883.46875,255198.734375,220487.0,245397.578125,0.04931640625,0.993896484375,0.154052734375,1.0681151151657104,-0.7629393935203552,-0.4882812201976776,73.33333587646484,277169.0,0.0
15241.2882321,296515.03125,295517.78125,323073.5625,313848.8125,285883.46875,255198.734375,220487.0,245397.578125,0.04931640625,0.993896484375,0.154052734375,1.0681151151657104,-0.7629393935203552,-0.4882812201976776,73.33333587646484,277170.0,0.0
15241.2882323,296515.03125,295517.78125,323073.5625,313848.8125,285883.46875,255198.734375,220487.0,245397.578125,0.04931640625,0.993896484375,0.154052734375,1.0681151151657104,-0.7629393935203552,-0.4882812201976776,73.33333587646484,277171.0,0.0
15241.2882325,296515.03125,295517.78125,323073.5625,313848.8125,285883.46875,255198.734375,220487.0,245397.578125,0.04931640625,0.993896484375,0.154052734375,1.0681151151657104,-0.7629393935203552,-0.4882812201976776,73.33333587646484,277172.0,0.0
15241.2882327,296515.03125,295517.78125,323073.5625,313848.8125,285883.46875,255198.734375,220487.0,245397.578125,0.04931640625,0.993896484375,0.154052734375,1.0681151151657104,-0.7629393935203552,-0.4882812201976776,73.33333587646484,277173.0,0.0
15241.2882329,296515.03125,295517.78125,323073.5625,313848.8125,285883.46875,255198.734375,220487.0,245397.578125,0.04931640625,0.993896484375,0.154052734375,1.0681151151657104,-0.7629393935203552,-0.4882812201976776,73.33333587646484,277174.0,0.0
15241.288233,296515.03125,295517.78125,323073.5625,313848.8125,285883.46875,255198.734375,220487.0,245397.578125,0.04931640625,0.993896484375,0.154052734375,1.0681151151657104,-0.7629393935203552,-0.4882812201976776,73.33333587646484,277175.0,0.0
15241.2882332,296515.03125,295517.78125,323073.5625,313848.8125,285883.46875,255198.734375,220487.0,245397.578125,0.04931640625,0.993896484375,0.154052734375,1.0681151151657104,-0.7629393935203552,-0.4882812201976776,73.33333587646484,277176.0,0.0
15241.2882334,296515.03125,295517.78125,323073.5625,313848.8125,285883.46875,255198.734375,220487.0,245397.578125,0.04931640625,0.993896484375,0.154052734375,1.0681151151657104,-0.7629393935203552,-0.4882812201976776,73.33333587646484,277177.0,0.0
15241.2882335,296515.03125,295517.78125,323073.5625,313848.8125,285883.46875,255198.734375,220487.0,245397.578125,0.04931640625,0.993896484375,0.154052734375,1.0681151151657104,-0.7629393935203552,-0.4882812201976776,73.33333587646484,277178.0,0.0
15241.2882337,296515.03125,295517.78125,323073.5625,313848.8125,285883.46875,255198.734375,220487.0,245397.578125,0.04931640625,0.993896484375,0.154052734375,1.0681151151657104,-0.7629393935203552,-0.4882812201976776,73.33333587646484,277179.0,0.0
15241.2882339,296515.03125,295517.78125,323073.5625,313848.8125,285883.46875,255198.734375,220487.0,245397.578125,0.04931640625,0.993896484375,0.154052734375,1.0681151151657104,-0.7629393935203552,-0.4882812201976776,73.33333587646484,277180.0,0.0
15241.288234,296515.03125,295517.78125,323073.5625,313848.8125,285883.46875,255198.734375,220487.0,245397.578125,0.04931640625,0.993896484375,0.154052734375,1.0681151151657104,-0.7629393935203552,-0.4882812201976776,73.33333587646484,277181.0,0.0
15241.2882342,296515.03125,295517.78125,323073.5625,313848.8125,285883.46875,255198.734375,220487.0,245397.578125,0.04931640625,0.993896484375,0.154052734375,1.0681151151657104,-0.7629393935203552,-0.4882812201976776,73.33333587646484,277182.0,0.0
15241.2882344,296527.28125,295197.625,322387.625,313845.5,285551.96875,255178.4375,220452.40625,245407.5,0.05029296875,0.992431640625,0.15283203125,-0.3356933295726776,-1.1901854276657104,-0.8239745497703552,73.33333587646484,277183.0,1.0
15241.2882388,296523.875,295532.8125,323087.78125,313852.3125,285898.40625,255217.421875,220502.65625,245404.28125,0.050048828125,0.99365234375,0.154296875,-0.3662109076976776,-1.2207030057907104,-0.9155272841453552,73.33333587646484,277184.0,1.0
15241.28824,296317.8125,294913.9375,322326.28125,313561.8125,285423.375,255068.109375,220264.203125,245259.890625,0.051513671875,0.9931640625,0.1533203125,-0.4882812201976776,-1.1596678495407104,-1.0375975370407104,73.33333587646484,277185.0,1.0
15241.366224,296197.8125,294194.21875,321157.46875,313383.375,284781.90625,254939.8125,220067.59375,245173.703125,0.052490234375,0.994140625,0.154296875,-0.4577636420726776,-1.2207030057907104,-0.9765624403953552,73.33333587646484,277186.0,1.0
15241.3662392,296321.03125,294361.59375,321186.0,313557.875,284855.65625,255002.578125,220184.1875,245268.203125,0.0517578125,0.992919921875,0.152587890625,-0.4272460639476776,-1.3122557401657104,-1.0070799589157104,73.33333587646484,277187.0,1.0
15241.3662413,296519.78125,295191.71875,322380.9375,313848.375,285549.71875,255189.796875,220467.421875,245418.40625,0.052978515625,0.994140625,0.155517578125,-0.4272460639476776,-1.3732908964157104,-1.0375975370407104,73.33333587646484,277188.0,1.0
15241.3662431,296525.0625,295529.3125,323084.46875,313853.46875,285899.46875,255230.828125,220512.125,245404.546875,0.052734375,0.993896484375,0.1552734375,-0.4882812201976776,-1.3427733182907104,-1.1901854276657104,73.33333587646484,277189.0,1.0
15241.3662449,296316.03125,294897.3125,322315.75,313556.375,285411.40625,255047.28125,220245.25,245240.765625,0.053466796875,0.994384765625,0.156494140625,-0.3967284858226776,-1.3427733182907104,-1.1291502714157104,73.33333587646484,277190.0,1.0
15241.3662466,296203.8125,294193.5,321165.15625,313388.375,284786.09375,254925.140625,220065.90625,245173.53125,0.054931640625,0.99365234375,0.15576171875,-0.3662109076976776,-1.3732908964157104,-1.1901854276657104,73.33333587646484,277191.0,1.0
15241.3679663,296331.9375,294366.59375,321200.46875,313563.53125,284871.125,255013.65625,220206.625,245282.953125,0.0556640625,0.994140625,0.154541015625,-0.3051757514476776,-1.2207030057907104,-1.1596678495407104,73.33333587646484,277192.0,1.0
15241.3708348,296331.9375,294366.59375,321200.46875,313563.53125,284871.125,255013.65625,220206.625,245282.953125,0.0556640625,0.994140625,0.154541015625,-0.3051757514476776,-1.2207030057907104,-1.1596678495407104,73.33333587646484,277193.0,0.0
15241.370836,296331.9375,294366.59375,321200.46875,313563.53125,284871.125,255013.65625,220206.625,245282.953125,0.0556640625,0.994140625,0.154541015625,-0.3051757514476776,-1.2207030057907104,-1.1596678495407104,73.33333587646484,277194.0,0.0
15241.3708362,296331.9375,294366.59375,321200.46875,313563.53125,284871.125,255013.65625,220206.625,245282.953125,0.0556640625,0.994140625,0.154541015625,-0.3051757514476776,-1.2207030057907104,-1.1596678495407104,73.33333587646484,277195.0,0.0
15241.3708365,296331.9375,294366.59375,321200.46875,313563.53125,284871.125,255013.65625,220206.625,245282.953125,0.0556640625,0.994140625,0.154541015625,-0.3051757514476776,-1.2207030057907104,-1.1596678495407104,73.33333587646484,277196.0,0.0
15241.3708367,296331.9375,294366.59375,321200.46875,313563.53125,284871.125,255013.65625,220206.625,245282.953125,0.0556640625,0.994140625,0.154541015625,-0.3051757514476776,-1.2207030057907104,-1.1596678495407104,73.33333587646484,277197.0,0.0
15241.3708369,296331.9375,294366.59375,321200.46875,313563.53125,284871.125,255013.65625,220206.625,245282.953125,0.0556640625,0.994140625,0.154541015625,-0.3051757514476776,-1.2207030057907104,-1.1596678495407104,73.33333587646484,277198.0,0.0
15241.3708372,296331.9375,294366.59375,321200.46875,313563.53125,284871.125,255013.65625,220206.625,245282.953125,0.0556640625,0.994140625,0.154541015625,-0.3051757514476776,-1.2207030057907104,-1.1596678495407104,73.33333587646484,277199.0,0.0
15241.3708374,296331.9375,294366.59375,321200.46875,313563.53125,284871.125,255013.65625,220206.625,245282.953125,0.0556640625,0.994140625,0.154541015625,-0.3051757514476776,-1.2207030057907104,-1.1596678495407104,73.33333587646484,277200.0,0.0
15241.3708377,296331.9375,294366.59375,321200.46875,313563.53125,284871.125,255013.65625,220206.625,245282.953125,0.0556640625,0.994140625,0.154541015625,-0.3051757514476776,-1.2207030057907104,-1.1596678495407104,73.33333587646484,277201.0,0.0
15241.3708379,296331.9375,294366.59375,321200.46875,313563.53125,284871.125,255013.65625,220206.625,245282.953125,0.0556640625,0.994140625,0.154541015625,-0.3051757514476776,-1.2207030057907104,-1.1596678495407104,73.33333587646484,277202.0,0.0
15241.3708382,296331.9375,294366.59375,321200.46875,313563.53125,284871.125,255013.65625,220206.625,245282.953125,0.0556640625,0.994140625,0.154541015625,-0.3051757514476776,-1.2207030057907104,-1.1596678495407104,73.33333587646484,277203.0,0.0
15241.3708384,296331.9375,294366.59375,321200.46875,313563.53125,284871.125,255013.65625,220206.625,245282.953125,0.0556640625,0.994140625,0.154541015625,-0.3051757514476776,-1.2207030057907104,-1.1596678495407104,73.33333587646484,277204.0,0.0
15241.3708387,296331.9375,294366.59375,321200.46875,313563.53125,284871.125,255013.65625,220206.625,245282.953125,0.0556640625,0.994140625,0.154541015625,-0.3051757514476776,-1.2207030057907104,-1.1596678495407104,73.33333587646484,277205.0,0.0
15241.370839,296331.9375,294366.59375,321200.46875,313563.53125,284871.125,255013.65625,220206.625,245282.953125,0.0556640625,0.994140625,0.154541015625,-0.3051757514476776,-1.2207030057907104,-1.1596678495407104,73.33333587646484,277206.0,0.0
15241.3708394,296331.9375,294366.59375,321200.46875,313563.53125,284871.125,255013.65625,220206.625,245282.953125,0.0556640625,0.994140625,0.154541015625,-0.3051757514476776,-1.2207030057907104,-1.1596678495407104,73.33333587646484,277207.0,0.0
15241.3708397,296331.9375,294366.59375,321200.46875,313563.53125,284871.125,255013.65625,220206.625,245282.953125,0.0556640625,0.994140625,0.154541015625,-0.3051757514476776,-1.2207030057907104,-1.1596678495407104,73.33333587646484,277208.0,0.0
15241.3708399,296331.9375,294366.59375,321200.46875,313563.53125,284871.125,255013.65625,220206.625,245282.953125,0.0556640625,0.994140625,0.154541015625,-0.3051757514476776,-1.2207030057907104,-1.1596678495407104,73.33333587646484,277209.0,0.0
15241.3708402,296331.9375,294366.59375,321200.46875,313563.53125,284871.125,255013.65625,220206.625,245282.953125,0.0556640625,0.994140625,0.154541015625,-0.3051757514476776,-1.2207030057907104,-1.1596678495407104,73.33333587646484,277210.0,0.0
15241.3708405,296331.9375,294366.59375,321200.46875,313563.53125,284871.125,255013.65625,220206.625,245282.953125,0.0556640625,0.994140625,0.154541015625,-0.3051757514476776,-1.2207030057907104,-1.1596678495407104,73.33333587646484,277211.0,0.0
15241.3708409,296331.9375,294366.59375,321200.46875,313563.53125,284871.125,255013.65625,220206.625,245282.953125,0.0556640625,0.994140625,0.154541015625,-0.3051757514476776,-1.2207030057907104,-1.1596678495407104,73.33333587646484,277212.0,0.0
15241.3708412,296331.9375,294366.59375,321200.46875,313563.53125,284871.125,255013.65625,220206.625,245282.953125,0.0556640625,0.994140625,0.154541015625,-0.3051757514476776,-1.2207030057907104,-1.1596678495407104,73.33333587646484,277213.0,0.0
15241.3708415,296331.9375,294366.59375,321200.46875,313563.53125,284871.125,255013.65625,220206.625,245282.953125,0.0556640625,0.994140625,0.154541015625,-0.3051757514476776,-1.2207030057907104,-1.1596678495407104,73.33333587646484,277214.0,0.0
15241.3708417,296331.9375,294366.59375,321200.46875,313563.53125,284871.125,255013.65625,220206.625,245282.953125,0.0556640625,0.994140625,0.154541015625,-0.3051757514476776,-1.2207030057907104,-1.1596678495407104,73.33333587646484,277215.0,0.0
15241.3708421,296331.9375,294366.59375,321200.46875,313563.53125,284871.125,255013.65625,220206.625,245282.953125,0.0556640625,0.994140625,0.154541015625,-0.3051757514476776,-1.2207030057907104,-1.1596678495407104,73.33333587646484,277216.0,0.0
15241.3708424,296331.9375,294366.59375,321200.46875,313563.53125,284871.125,255013.65625,220206.625,245282.953125,0.0556640625,0.994140625,0.154541015625,-0.3051757514476776,-1.2207030057907104,-1.1596678495407104,73.33333587646484,277217.0,0.0
15241.3708427,296331.9375,294366.59375,321200.46875,313563.53125,284871.125,255013.65625,220206.625,245282.953125,0.0556640625,0.994140625,0.154541015625,-0.3051757514476776,-1.2207030057907104,-1.1596678495407104,73.33333587646484,277218.0,0.0
15241.370843,296331.9375,294366.59375,321200.46875,313563.53125,284871.125,255013.65625,220206.625,245282.953125,0.0556640625,0.994140625,0.154541015625,-0.3051757514476776,-1.2207030057907104,-1.1596678495407104,73.33333587646484,277219.0,0.0
15241.3708433,296331.9375,294366.59375,321200.46875,313563.53125,284871.125,255013.65625,220206.625,245282.953125,0.0556640625,0.994140625,0.154541015625,-0.3051757514476776,-1.2207030057907104,-1.1596678495407104,73.33333587646484,277220.0,0.0
15241.3708436,296331.9375,294366.59375,321200.46875,313563.53125,284871.125,255013.65625,220206.625,245282.953125,0.0556640625,0.994140625,0.154541015625,-0.3051757514476776,-1.2207030057907104,-1.1596678495407104,73.33333587646484,277221.0,0.0
15241.3708439,296331.9375,294366.59375,321200.46875,313563.53125,284871.125,255013.65625,220206.625,245282.953125,0.0556640625,0.994140625,0.154541015625,-0.3051757514476776,-1.2207030057907104,-1.1596678495407104,73.33333587646484,277222.0,0.0
15241.3708442,296331.9375,294366.59375,321200.46875,313563.53125,284871.125,255013.65625,220206.625,245282.953125,0.0556640625,0.994140625,0.154541015625,-0.3051757514476776,-1.2207030057907104,-1.1596678495407104,73.33333587646484,277223.0,0.0
15241.3708445,296331.9375,294366.59375,321200.46875,313563.53125,284871.125,255013.65625,220206.625,245282.953125,0.0556640625,0.994140625,0.154541015625,-0.3051757514476776,-1.2207030057907104,-1.1596678495407104,73.33333587646484,277224.0,0.0
15241.3708448,296331.9375,294366.59375,321200.46875,313563.53125,284871.125,255013.65625,220206.625,245282.953125,0.0556640625,0.994140625,0.154541015625,-0.3051757514476776,-1.2207030057907104,-1.1596678495407104,73.33333587646484,277225.0,0.0
15241.3708451,296331.9375,294366.59375,321200.46875,313563.53125,284871.125,255013.65625,220206.625,245282.953125,0.0556640625,0.994140625,0.154541015625,-0.3051757514476776,-1.2207030057907104,-1.1596678495407104,73.33333587646484,277226.0,0.0
15241.3708454,296323.0,294364.53125,321188.40625,313547.4375,284859.21875,254990.765625,220175.15625,245261.859375,0.05224609375,0.993896484375,0.15576171875,0.8544921278953552,-1.4038084745407104,-0.8850097060203552,73.33333587646484,277227.0,1.0
15241.4246477,296526.21875,295206.125,322401.5,313836.9375,285561.6875,255186.21875,220461.609375,245412.234375,0.052734375,0.99462890625,0.158203125,0.9155272841453552,-1.3427733182907104,-0.7019042372703552,73.33333587646484,277228.0,1.0
15241.4246711,296516.125,295527.0,323077.3125,313829.25,285892.3125,255225.46875,220500.328125,245398.734375,0.05078125,0.9970703125,0.157958984375,0.9155272841453552,-1.2817381620407104,-0.7934569716453552,73.33333587646484,277229.0,1.0
15241.4246738,296308.0625,294893.28125,322294.75,313532.21875,285402.09375,255062.5625,220244.265625,245238.25,0.052001953125,0.997314453125,0.158935546875,0.9765624403953552,-1.2817381620407104,-0.7934569716453552,73.33333587646484,277230.0,1.0
15241.4246758,296199.78125,294196.625,321149.34375,313366.46875,284779.375,254940.703125,220062.59375,245162.796875,0.053955078125,0.996826171875,0.158203125,0.9155272841453552,-1.2817381620407104,-0.7324218153953552,73.33333587646484,277231.0,1.0
15241.4246779,296334.78125,294385.71875,321203.53125,313554.21875,284873.34375,255028.765625,220206.796875,245282.6875,0.052978515625,0.999267578125,0.158935546875,0.8544921278953552,-1.4038084745407104,-0.7629393935203552,73.33333587646484,277232.0,1.0
15241.4246798,296527.8125,295210.84375,322407.21875,313838.09375,285565.1875,255189.96875,220471.0,245418.953125,0.0517578125,0.99853515625,0.156494140625,0.7629393935203552,-1.4953612089157104,-0.7934569716453552,73.33333587646484,277233.0,1.0
15241.450243,296517.90625,295521.28125,323076.875,313829.15625,285889.90625,255221.890625,220498.890625,245401.25,0.052978515625,0.997802734375,0.15771484375,0.6408690810203552,-1.4953612089157104,-0.8239745497703552,73.33333587646484,277234.0,1.0
15241.4502569,296310.46875,294884.4375,322288.3125,313534.5625,285395.84375,255063.1875,220240.953125,245237.359375,0.05224609375,0.995361328125,0.157958984375,0.6103515028953552,-1.5563963651657104,-0.7629393935203552,73.33333587646484,277235.0,1.0
15241.4633842,296198.34375,294178.84375,321136.1875,313368.25,284765.25,254932.03125,220049.890625,245154.390625,0.052001953125,0.9951171875,0.156982421875,0.5187987685203552,-1.5869139432907104,-0.7629393935203552,73.33333587646484,277236.0,1.0
15241.4664372,296328.0,294366.40625,321193.78125,313550.03125,284858.5,255017.40625,220185.796875,245262.21875,0.051513671875,0.994873046875,0.154541015625,0.4577636420726776,-1.4953612089157104,-0.8544921278953552,73.33333587646484,277237.0,1.0
15241.4664437,296529.34375,295205.84375,322407.65625,313837.09375,285558.65625,255188.625,220459.015625,245404.640625,0.05126953125,0.995849609375,0.1552734375,0.4577636420726776,-1.5258787870407104,-0.8239745497703552,73.33333587646484,277238.0,1.0
15241.4683803,296519.6875,295521.90625,323078.5625,313830.3125,285887.84375,255213.21875,220491.5625,245399.1875,0.05029296875,0.993408203125,0.153564453125,0.3967284858226776,-1.5258787870407104,-0.8239745497703552,73.33333587646484,277239.0,1.0
15241.4708661,296312.0,294882.28125,322287.6875,313538.75,285398.53125,255047.1875,220240.515625,245259.265625,0.05126953125,0.994140625,0.15673828125,0.2441406100988388,-1.5563963651657104,-0.8544921278953552,73.33333587646484,277240.0,1.0
15241.4771646,296199.34375,294176.34375,321127.78125,313366.65625,284765.09375,254917.546875,220055.4375,245167.625,0.05322265625,0.9951171875,0.156982421875,0.1831054538488388,-1.5869139432907104,-0.8544921278953552,73.33333587646484,277241.0,1.0
15241.4826822,296333.0,294373.03125,321193.96875,313547.96875,284864.40625,255012.765625,220197.234375,245267.671875,0.054443359375,0.99609375,0.15673828125,0.0,-1.5869139432907104,-0.8850097060203552,73.33333587646484,277242.0,1.0
15241.4826875,296538.28125,295222.46875,322419.8125,313843.0,285576.375,255201.40625,220474.484375,245414.484375,0.0556640625,0.996826171875,0.157470703125,-0.03051757626235485,-1.5563963651657104,-0.9460448622703552,73.33333587646484,277243.0,1.0
15241.4847301,296520.65625,295525.9375,323080.90625,313826.375,285896.34375,255224.84375,220494.15625,245384.96875,0.053466796875,0.9970703125,0.156494140625,-0.1831054538488388,-1.5563963651657104,-0.8239745497703552,73.33333587646484,277244.0,1.0
15241.5102118,296314.3125,294883.53125,322287.84375,313535.53125,285400.9375,255054.78125,220241.671875,245236.28125,0.0537109375,0.9951171875,0.156982421875,-0.3662109076976776,-1.4648436307907104,-0.7324218153953552,73.33333587646484,277245.0,1.0
15241.5102266,296201.5625,294177.125,321136.03125,313368.96875,284770.09375,254920.671875,220054.546875,245159.40625,0.055419921875,0.993408203125,0.153076171875,-0.4882812201976776,-1.5258787870407104,-0.7629393935203552,73.33333587646484,277246.0,1.0
15241.5352065,296346.6875,294384.8125,321215.6875,313558.59375,284876.46875,255011.953125,220193.03125,245261.140625,0.053466796875,0.990234375,0.151123046875,-0.5798339247703552,-1.4038084745407104,-0.7934569716453552,73.33333587646484,277247.0,1.0
15241.5352218,296546.6875,295224.28125,322431.8125,313847.03125,285583.15625,255195.953125,220475.65625,245417.421875,0.052490234375,0.992919921875,0.152587890625,-0.4882812201976776,-1.4953612089157104,-0.7324218153953552,73.33333587646484,277248.0,1.0
15241.6367855,296529.53125,295531.46875,323091.71875,313833.53125,285906.0,255227.609375,220509.625,245402.046875,0.05322265625,0.992919921875,0.156982421875,-0.4882812201976776,-1.4953612089157104,-0.6408690810203552,73.33333587646484,277249.0,1.0
15241.6368016,296318.875,294887.84375,322294.46875,313535.90625,285404.78125,255064.984375,220246.5,245237.71875,0.054443359375,0.993408203125,0.1591796875,-0.4272460639476776,-1.4343260526657104,-0.7324218153953552,73.33333587646484,277250.0,1.0
15241.636803,296207.9375,294189.21875,321145.21875,313366.90625,284776.25,254932.921875,220052.390625,245157.25,0.0556640625,0.9921875,0.163818359375,-0.3967284858226776,-1.4343260526657104,-0.6103515028953552,73.33333587646484,277251.0,1.0
15241.6368043,296338.5625,294379.65625,321208.09375,313550.375,284872.90625,255013.65625,220192.5,245272.953125,0.0556640625,0.9912109375,0.159423828125,-0.3662109076976776,-1.2207030057907104,-0.6408690810203552,73.33333587646484,277252.0,1.0
15241.6368055,296547.59375,295231.34375,322429.46875,313849.1875,285585.03125,255211.421875,220484.6875,245428.15625,0.053955078125,0.9912109375,0.16064453125,-0.3051757514476776,-1.2512205839157104,-0.7019042372703552,73.33333587646484,277253.0,1.0
15241.6368067,296526.21875,295529.9375,323084.5625,313830.65625,285898.75,255220.1875,220506.5,245398.03125,0.0546875,0.9912109375,0.158447265625,-0.3662109076976776,-1.3427733182907104,-0.7324218153953552,73.33333587646484,277254.0,1.0
15241.636808,296320.5,294889.15625,322287.75,313537.21875,285403.1875,255062.734375,220249.71875,245238.609375,0.053466796875,0.9921875,0.15869140625,-0.2746581733226776,-1.3427733182907104,-0.7324218153953552,73.33333587646484,277255.0,1.0
15241.6368092,296214.53125,294201.0,321155.0625,313376.03125,284792.4375,254953.046875,220072.6875,245167.171875,0.055419921875,0.992431640625,0.157958984375,-0.2441406100988388,-1.3427733182907104,-0.8239745497703552,73.33333587646484,277256.0,1.0
15241.6368104,296340.6875,294386.25,321213.4375,313552.96875,284884.0,255020.71875,220201.625,245282.15625,0.05419921875,0.99169921875,0.156005859375,-0.0915527269244194,-1.3732908964157104,-0.7629393935203552,73.33333587646484,277257.0,1.0
15241.6368116,296542.125,295227.3125,322424.28125,313842.65625,285587.09375,255216.875,220494.421875,245440.3125,0.054931640625,0.991455078125,0.15869140625,0.0,-1.3122557401657104,-0.8239745497703552,73.33333587646484,277258.0,1.0
15241.6383748,296522.28125,295530.5625,323078.75,313822.4375,285901.09375,255237.078125,220514.546875,245397.578125,0.05419921875,0.9921875,0.159912109375,0.0915527269244194,-1.1596678495407104,-0.7629393935203552,73.33333587646484,277259.0,1.0
15241.6633918,296314.0625,294886.3125,322277.21875,313526.5,285399.4375,255062.5625,220245.421875,245228.59375,0.05322265625,0.992431640625,0.1591796875,0.0915527269244194,-1.0681151151657104,-0.9155272841453552,73.33333587646484,277260.0,1.0
15241.7229024,296207.21875,294191.53125,321135.40625,313369.3125,284779.46875,254930.234375,220065.0,245167.09375,0.052734375,0.99560546875,0.159912109375,0.0610351525247097,-1.0986326932907104,-0.8544921278953552,73.33333587646484,277261.0,1.0
15241.7229094,296207.21875,294191.53125,321135.40625,313369.3125,284779.46875,254930.234375,220065.0,245167.09375,0.052734375,0.99560546875,0.159912109375,0.0610351525247097,-1.0986326932907104,-0.8544921278953552,73.33333587646484,277262.0,0.0
15241.7229096,296207.21875,294191.53125,321135.40625,313369.3125,284779.46875,254930.234375,220065.0,245167.09375,0.052734375,0.99560546875,0.159912109375,0.0610351525247097,-1.0986326932907104,-0.8544921278953552,73.33333587646484,277263.0,0.0
15241.7229097,296207.21875,294191.53125,321135.40625,313369.3125,284779.46875,254930.234375,220065.0,245167.09375,0.052734375,0.99560546875,0.159912109375,0.0610351525247097,-1.0986326932907104,-0.8544921278953552,73.33333587646484,277264.0,0.0
15241.72291,296207.21875,294191.53125,321135.40625,313369.3125,284779.46875,254930.234375,220065.0,245167.09375,0.052734375,0.99560546875,0.159912109375,0.0610351525247097,-1.0986326932907104,-0.8544921278953552,73.33333587646484,277265.0,0.0
15241.7229102,296207.21875,294191.53125,321135.40625,313369.3125,284779.46875,254930.234375,220065.0,245167.09375,0.052734375,0.99560546875,0.159912109375,0.0610351525247097,-1.0986326932907104,-0.8544921278953552,73.33333587646484,277266.0,0.0
15241.7229104,296207.21875,294191.53125,321135.40625,313369.3125,284779.46875,254930.234375,220065.0,245167.09375,0.052734375,0.99560546875,0.159912109375,0.0610351525247097,-1.0986326932907104,-0.8544921278953552,73.33333587646484,277267.0,0.0
15241.7229105,296207.21875,294191.53125,321135.40625,313369.3125,284779.46875,254930.234375,220065.0,245167.09375,0.052734375,0.99560546875,0.159912109375,0.0610351525247097,-1.0986326932907104,-0.8544921278953552,73.33333587646484,277268.0,0.0
15241.7229107,296207.21875,294191.53125,321135.40625,313369.3125,284779.46875,254930.234375,220065.0,245167.09375,0.052734375,0.99560546875,0.159912109375,0.0610351525247097,-1.0986326932907104,-0.8544921278953552,73.33333587646484,277269.0,0.0
15241.7229109,296207.21875,294191.53125,321135.40625,313369.3125,284779.46875,254930.234375,220065.0,245167.09375,0.052734375,0.99560546875,0.159912109375,0.0610351525247097,-1.0986326932907104,-0.8544921278953552,73.33333587646484,277270.0,0.0
15241.722911,296207.21875,294191.53125,321135.40625,313369.3125,284779.46875,254930.234375,220065.0,245167.09375,0.052734375,0.99560546875,0.159912109375,0.0610351525247097,-1.0986326932907104,-0.8544921278953552,73.33333587646484,277271.0,0.0
15241.7229112,296207.21875,294191.53125,321135.40625,313369.3125,284779.46875,254930.234375,220065.0,245167.09375,0.052734375,0.99560546875,0.159912109375,0.0610351525247097,-1.0986326932907104,-0.8544921278953552,73.33333587646484,277272.0,0.0
15241.7229114,296207.21875,294191.53125,321135.40625,313369.3125,284779.46875,254930.234375,220065.0,245167.09375,0.052734375,0.99560546875,0.159912109375,0.0610351525247097,-1.0986326932907104,-0.8544921278953552,73.33333587646484,277273.0,0.0
15241.7229116,296207.21875,294191.53125,321135.40625,313369.3125,284779.46875,254930.234375,220065.0,245167.09375,0.052734375,0.99560546875,0.159912109375,0.0610351525247097,-1.0986326932907104,-0.8544921278953552,73.33333587646484,277274.0,0.0
15241.7229119,296207.21875,294191.53125,321135.40625,313369.3125,284779.46875,254930.234375,220065.0,245167.09375,0.052734375,0.99560546875,0.159912109375,0.0610351525247097,-1.0986326932907104,-0.8544921278953552,73.33333587646484,277275.0,0.0
15241.7229121,296207.21875,294191.53125,321135.40625,313369.3125,284779.46875,254930.234375,220065.0,245167.09375,0.052734375,0.99560546875,0.159912109375,0.0610351525247097,-1.0986326932907104,-0.8544921278953552,73.33333587646484,277276.0,0.0
15241.7229123,296207.21875,294191.53125,321135.40625,313369.3125,284779.46875,254930.234375,220065.0,245167.09375,0.052734375,0.99560546875,0.159912109375,0.0610351525247097,-1.0986326932907104,-0.8544921278953552,73.33333587646484,277277.0,0.0
15241.7229124,296207.21875,294191.53125,321135.40625,313369.3125,284779.46875,254930.234375,220065.0,245167.09375,0.052734375,0.99560546875,0.159912109375,0.0610351525247097,-1.0986326932907104,-0.8544921278953552,73.33333587646484,277278.0,0.0
15241.7229126,296207.21875,294191.53125,321135.40625,313369.3125,284779.46875,254930.234375,220065.0,245167.09375,0.052734375,0.99560546875,0.159912109375,0.0610351525247097,-1.0986326932907104,-0.8544921278953552,73.33333587646484,277279.0,0.0
15241.7229128,296207.21875,294191.53125,321135.40625,313369.3125,284779.46875,254930.234375,220065.0,245167.09375,0.052734375,0.99560546875,0.159912109375,0.0610351525247097,-1.0986326932907104,-0.8544921278953552,73.33333587646484,277280.0,0.0
15241.722913,296207.21875,294191.53125,321135.40625,313369.3125,284779.46875,254930.234375,220065.0,245167.09375,0.052734375,0.99560546875,0.159912109375,0.0610351525247097,-1.0986326932907104,-0.8544921278953552,73.33333587646484,277281.0,0.0
15241.7229131,296207.21875,294191.53125,321135.40625,313369.3125,284779.46875,254930.234375,220065.0,245167.09375,0.052734375,0.99560546875,0.159912109375,0.0610351525247097,-1.0986326932907104,-0.8544921278953552,73.33333587646484,277282.0,0.0
15241.7229133,296207.21875,294191.53125,321135.40625,313369.3125,284779.46875,254930.234375,220065.0,245167.09375,0.052734375,0.99560546875,0.159912109375,0.0610351525247097,-1.0986326932907104,-0.8544921278953552,73.33333587646484,277283.0,0.0
15241.7229135,296207.21875,294191.53125,321135.40625,313369.3125,284779.46875,254930.234375,220065.0,245167.09375,0.052734375,0.99560546875,0.159912109375,0.0610351525247097,-1.0986326932907104,-0.8544921278953552,73.33333587646484,277284.0,0.0
15241.7229136,296207.21875,294191.53125,321135.40625,313369.3125,284779.46875,254930.234375,220065.0,245167.09375,0.052734375,0.99560546875,0.159912109375,0.0610351525247097,-1.0986326932907104,-0.8544921278953552,73.33333587646484,277285.0,0.0
15241.7229138,296207.21875,294191.53125,321135.40625,313369.3125,284779.46875,254930.234375,220065.0,245167.09375,0.052734375,0.99560546875,0.159912109375,0.0610351525247097,-1.0986326932907104,-0.8544921278953552,73.33333587646484,277286.0,0.0
15241.722914,296207.21875,294191.53125,321135.40625,313369.3125,284779.46875,254930.234375,220065.0,245167.09375,0.052734375,0.99560546875,0.159912109375,0.0610351525247097,-1.0986326932907104,-0.8544921278953552,73.33333587646484,277287.0,0.0
15241.7229141,296539.625,295229.71875,322436.96875,313837.8125,285585.21875,255207.21875,220490.3125,245424.671875,0.05224609375,0.99462890625,0.167724609375,0.1831054538488388,-1.6784666776657104,-0.8544921278953552,73.33333587646484,277288.0,1.0
15241.7229155,296513.34375,295499.8125,323060.78125,313812.6875,285881.875,255215.625,220500.234375,245399.71875,0.0517578125,0.993408203125,0.16357421875,0.1831054538488388,-1.6784666776657104,-0.8239745497703552,73.33333587646484,277289.0,1.0
15241.7229167,296307.625,294852.96875,322243.0625,313514.6875,285371.09375,255045.390625,220230.5,245226.90625,0.052734375,0.994140625,0.162353515625,0.1831054538488388,-1.7395018339157104,-0.8850097060203552,73.33333587646484,277290.0,1.0
15241.7229179,296204.96875,294174.90625,321116.1875,313359.59375,284761.5,254931.671875,220053.296875,245155.375,0.052001953125,0.994140625,0.1640625,0.1525878757238388,-1.7089842557907104,-0.8544921278953552,73.33333587646484,277291.0,1.0
15241.7229191,296345.0625,294394.46875,321219.0,313552.6875,284883.375,255029.296875,220203.046875,245264.984375,0.0517578125,0.9931640625,0.162353515625,0.1220703050494194,-1.6479490995407104,-0.7019042372703552,73.33333587646484,277292.0,1.0
15241.7229206,296537.375,295225.6875,322432.96875,313838.28125,285579.40625,255188.71875,220473.765625,245412.234375,0.053955078125,0.994140625,0.16455078125,0.0915527269244194,-1.7395018339157104,-0.7019042372703552,73.33333587646484,277293.0,1.0
15241.7229218,296519.40625,295515.75,323070.25,313823.96875,285888.5625,255219.828125,220501.578125,245395.171875,0.0546875,0.9921875,0.16162109375,0.2136230319738388,-1.6784666776657104,-0.7934569716453552,73.33333587646484,277294.0,1.0
15241.722923,296312.09375,294862.34375,322252.8125,313528.03125,285380.65625,255055.234375,220243.015625,245236.828125,0.052978515625,0.9921875,0.157958984375,0.2746581733226776,-1.6174315214157104,-0.8239745497703552,73.33333587646484,277295.0,1.0
15241.7461408,296205.96875,294179.1875,321122.25,313365.03125,284764.53125,254917.90625,220054.359375,245161.546875,0.052978515625,0.991455078125,0.158447265625,0.3356933295726776,-1.5869139432907104,-0.9155272841453552,73.33333587646484,277296.0,1.0
15241.7461577,296205.96875,294179.1875,321122.25,313365.03125,284764.53125,254917.90625,220054.359375,245161.546875,0.052978515625,0.991455078125,0.158447265625,0.3356933295726776,-1.5869139432907104,-0.9155272841453552,73.33333587646484,277297.0,0.0
15241.7461579,296205.96875,294179.1875,321122.25,313365.03125,284764.53125,254917.90625,220054.359375,245161.546875,0.052978515625,0.991455078125,0.158447265625,0.3356933295726776,-1.5869139432907104,-0.9155272841453552,73.33333587646484,277298.0,0.0
15241.7461581,296205.96875,294179.1875,321122.25,313365.03125,284764.53125,254917.90625,220054.359375,245161.546875,0.052978515625,0.991455078125,0.158447265625,0.3356933295726776,-1.5869139432907104,-0.9155272841453552,73.33333587646484,277299.0,0.0
15241.7461583,296205.96875,294179.1875,321122.25,313365.03125,284764.53125,254917.90625,220054.359375,245161.546875,0.052978515625,0.991455078125,0.158447265625,0.3356933295726776,-1.5869139432907104,-0.9155272841453552,73.33333587646484,277300.0,0.0
15241.7461585,296205.96875,294179.1875,321122.25,313365.03125,284764.53125,254917.90625,220054.359375,245161.546875,0.052978515625,0.991455078125,0.158447265625,0.3356933295726776,-1.5869139432907104,-0.9155272841453552,73.33333587646484,277301.0,0.0
15241.7461587,296205.96875,294179.1875,321122.25,313365.03125,284764.53125,254917.90625,220054.359375,245161.546875,0.052978515625,0.991455078125,0.158447265625,0.3356933295726776,-1.5869139432907104,-0.9155272841453552,73.33333587646484,277302.0,0.0
15241.7461589,296205.96875,294179.1875,321122.25,313365.03125,284764.53125,254917.90625,220054.359375,245161.546875,0.052978515625,0.991455078125,0.158447265625,0.3356933295726776,-1.5869139432907104,-0.9155272841453552,73.33333587646484,277303.0,0.0
15241.746159,296205.96875,294179.1875,321122.25,313365.03125,284764.53125,254917.90625,220054.359375,245161.546875,0.052978515625,0.991455078125,0.158447265625,0.3356933295726776,-1.5869139432907104,-0.9155272841453552,73.33333587646484,277304.0,0.0
15241.7461592,296205.96875,294179.1875,321122.25,313365.03125,284764.53125,254917.90625,220054.359375,245161.546875,0.052978515625,0.991455078125,0.158447265625,0.3356933295726776,-1.5869139432907104,-0.9155272841453552,73.33333587646484,277305.0,0.0
15241.7461595,296205.96875,294179.1875,321122.25,313365.03125,284764.53125,254917.90625,220054.359375,245161.546875,0.052978515625,0.991455078125,0.158447265625,0.3356933295726776,-1.5869139432907104,-0.9155272841453552,73.33333587646484,277306.0,0.0
15241.7461597,296205.96875,294179.1875,321122.25,313365.03125,284764.53125,254917.90625,220054.359375,245161.546875,0.052978515625,0.991455078125,0.158447265625,0.3356933295726776,-1.5869139432907104,-0.9155272841453552,73.33333587646484,277307.0,0.0
15241.7461601,296205.96875,294179.1875,321122.25,313365.03125,284764.53125,254917.90625,220054.359375,245161.546875,0.052978515625,0.991455078125,0.158447265625,0.3356933295726776,-1.5869139432907104,-0.9155272841453552,73.33333587646484,277308.0,0.0
15241.7461603,296205.96875,294179.1875,321122.25,313365.03125,284764.53125,254917.90625,220054.359375,245161.546875,0.052978515625,0.991455078125,0.158447265625,0.3356933295726776,-1.5869139432907104,-0.9155272841453552,73.33333587646484,277309.0,0.0
15241.7461605,296205.96875,294179.1875,321122.25,313365.03125,284764.53125,254917.90625,220054.359375,245161.546875,0.052978515625,0.991455078125,0.158447265625,0.3356933295726776,-1.5869139432907104,-0.9155272841453552,73.33333587646484,277310.0,0.0
15241.7461606,296205.96875,294179.1875,321122.25,313365.03125,284764.53125,254917.90625,220054.359375,245161.546875,0.052978515625,0.991455078125,0.158447265625,0.3356933295726776,-1.5869139432907104,-0.9155272841453552,73.33333587646484,277311.0,0.0
15241.7461608,296205.96875,294179.1875,321122.25,313365.03125,284764.53125,254917.90625,220054.359375,245161.546875,0.052978515625,0.991455078125,0.158447265625,0.3356933295726776,-1.5869139432907104,-0.9155272841453552,73.33333587646484,277312.0,0.0
15241.746161,296205.96875,294179.1875,321122.25,313365.03125,284764.53125,254917.90625,220054.359375,245161.546875,0.052978515625,0.991455078125,0.158447265625,0.3356933295726776,-1.5869139432907104,-0.9155272841453552,73.33333587646484,277313.0,0.0
15241.7461612,296205.96875,294179.1875,321122.25,313365.03125,284764.53125,254917.90625,220054.359375,245161.546875,0.052978515625,0.991455078125,0.158447265625,0.3356933295726776,-1.5869139432907104,-0.9155272841453552,73.33333587646484,277314.0,0.0
15241.7461614,296328.96875,294859.125,322254.9375,313533.21875,285378.875,255065.6875,220225.21875,245227.171875,0.054931640625,0.992431640625,0.15771484375,0.7019042372703552,-1.4648436307907104,-0.5798339247703552,73.33333587646484,277315.0,1.0
15241.7971755,296224.1875,294173.90625,321118.59375,313374.15625,284757.46875,254922.640625,220038.0,245153.765625,0.0546875,0.99365234375,0.15625,0.5798339247703552,-1.4038084745407104,-0.5187987685203552,73.33333587646484,277316.0,1.0
15241.7971864,296357.78125,294395.375,321224.53125,313559.5,284876.40625,255000.875,220182.671875,245256.40625,0.05419921875,0.991943359375,0.1552734375,0.7629393935203552,-1.4648436307907104,-0.5187987685203552,73.33333587646484,277317.0,1.0
15241.7971877,296558.65625,295237.15625,322449.15625,313849.0,285587.0,255182.546875,220456.078125,245404.46875,0.054931640625,0.99267578125,0.15771484375,0.6713866591453552,-1.3732908964157104,-0.4882812201976776,73.33333587646484,277318.0,1.0
15241.797189,296532.65625,295520.28125,323072.40625,313825.125,285888.5625,255207.3125,220482.171875,245394.09375,0.053955078125,0.99267578125,0.157958984375,0.6713866591453552,-1.3427733182907104,-0.5187987685203552,73.33333587646484,277319.0,1.0
15241.7971901,296319.3125,294861.625,322245.84375,313528.75,285374.40625,255045.125,220220.84375,245226.453125,0.055908203125,0.992431640625,0.1552734375,0.7019042372703552,-1.3122557401657104,-0.4882812201976776,73.33333587646484,277320.0,1.0
15241.7971913,296217.03125,294182.59375,321121.625,313376.03125,284765.625,254934.171875,220054.8125,245160.296875,0.054443359375,0.990478515625,0.15478515625,0.8544921278953552,-1.3122557401657104,-0.5798339247703552,73.33333587646484,277321.0,1.0
15241.8489133,296363.84375,294414.78125,321240.625,313568.34375,284895.09375,255023.21875,220203.140625,245265.171875,0.0556640625,0.99072265625,0.153564453125,0.8850097060203552,-1.1596678495407104,-0.6408690810203552,73.33333587646484,277322.0,1.0
15241.8489297,296557.9375,295251.4375,322461.84375,313851.9375,285598.71875,255197.828125,220477.53125,245413.84375,0.055908203125,0.990966796875,0.155029296875,0.9460448622703552,-1.1901854276657104,-0.6713866591453552,73.33333587646484,277323.0,1.0
15241.8733642,296533.1875,295525.40625,323082.5,313829.5,285898.84375,255225.8125,220504.078125,245396.78125,0.0546875,0.9951171875,0.15771484375,1.0375975370407104,-1.1901854276657104,-0.8544921278953552,73.33333587646484,277324.0,1.0
15241.8939936,296325.84375,294864.75,322253.15625,313534.0,285384.59375,255060.0625,220233.625,245234.765625,0.052978515625,0.998291015625,0.1591796875,1.0681151151657104,-1.0986326932907104,-1.0681151151657104,73.33333587646484,277325.0,1.0
15241.8940164,296228.21875,294195.1875,321132.71875,313380.9375,284776.71875,254939.265625,220051.859375,245161.1875,0.051513671875,0.999267578125,0.157958984375,1.0986326932907104,-1.2817381620407104,-1.2512205839157104,73.33333587646484,277326.0,1.0
15241.9183956,296360.28125,294413.53125,321237.59375,313563.875,284892.125,255021.171875,220189.1875,245258.375,0.053466796875,0.999267578125,0.154541015625,0.8850097060203552,-1.3122557401657104,-1.2817381620407104,73.33333587646484,277327.0,1.0
15241.9433846,296559.03125,295255.5625,322463.8125,313852.5625,285602.03125,255212.59375,220477.625,245417.15625,0.056640625,0.999755859375,0.15625,0.7934569716453552,-1.2817381620407104,-1.2817381620407104,73.33333587646484,277328.0,1.0
15241.9896302,296534.4375,295530.40625,323082.40625,313826.90625,285898.59375,255239.953125,220502.5625,245394.625,0.0546875,0.997802734375,0.155517578125,0.8239745497703552,-1.2512205839157104,-1.3427733182907104,73.33333587646484,277329.0,1.0
15241.9956219,296326.5625,294875.21875,322255.65625,313530.625,285385.125,255077.765625,220240.328125,245230.921875,0.054443359375,1.001220703125,0.158203125,0.7019042372703552,-1.2207030057907104,-1.3732908964157104,73.33333587646484,277330.0,1.0
15241.9956258,296224.5625,294195.375,321131.28125,313376.125,284771.53125,254938.5625,220058.484375,245159.046875,0.054443359375,1.000244140625,0.155029296875,0.7019042372703552,-1.2512205839157104,-1.3427733182907104,73.33333587646484,277331.0,1.0
15241.9956271,296359.8125,294419.15625,321243.5,313568.0,284892.21875,255014.8125,220200.453125,245276.4375,0.053466796875,0.9970703125,0.1533203125,0.6713866591453552,-1.3122557401657104,-1.3732908964157104,73.33333587646484,277332.0,1.0
15241.9956283,296555.71875,295258.4375,322463.625,313853.71875,285599.4375,255208.75,220482.0,245421.09375,0.05517578125,0.996826171875,0.15380859375,0.5798339247703552,-1.3427733182907104,-1.4038084745407104,73.33333587646484,277333.0,1.0
15241.9956295,296524.96875,295525.75,323074.375,313821.0,285890.4375,255226.453125,220493.53125,245383.8125,0.0556640625,0.9970703125,0.157958984375,0.4882812201976776,-1.3732908964157104,-1.3732908964157104,73.33333587646484,277334.0,1.0
15241.9989708,296325.9375,294874.40625,322253.25,313534.0,285384.0625,255055.59375,220238.09375,245238.25,0.0546875,0.995361328125,0.15380859375,0.4577636420726776,-1.3427733182907104,-1.3427733182907104,73.33333587646484,277335.0,1.0
15241.9989847,296227.15625,294205.375,321138.78125,313384.25,284782.875,254946.0625,220077.078125,245179.34375,0.05322265625,0.99267578125,0.15576171875,0.4272460639476776,-1.2817381620407104,-1.2512205839157104,73.33333587646484,277336.0,1.0
15242.0105393,296227.15625,294205.375,321138.78125,313384.25,284782.875,254946.0625,220077.078125,245179.34375,0.05322265625,0.99267578125,0.15576171875,0.4272460639476776,-1.2817381620407104,-1.2512205839157104,73.33333587646484,277337.0,0.0
15242.0105435,296227.15625,294205.375,321138.78125,313384.25,284782.875,254946.0625,220077.078125,245179.34375,0.05322265625,0.99267578125,0.15576171875,0.4272460639476776,-1.2817381620407104,-1.2512205839157104,73.33333587646484,277338.0,0.0
15242.0105452,296227.15625,294205.375,321138.78125,313384.25,284782.875,254946.0625,220077.078125,245179.34375,0.05322265625,0.99267578125,0.15576171875,0.4272460639476776,-1.2817381620407104,-1.2512205839157104,73.33333587646484,277339.0,0.0
15242.0105454,296227.15625,294205.375,321138.78125,313384.25,284782.875,254946.0625,220077.078125,245179.34375,0.05322265625,0.99267578125,0.15576171875,0.4272460639476776,-1.2817381620407104,-1.2512205839157104,73.33333587646484,277340.0,0.0
15242.0105456,296227.15625,294205.375,321138.78125,313384.25,284782.875,254946.0625,220077.078125,245179.34375,0.05322265625,0.99267578125,0.15576171875,0.4272460639476776,-1.2817381620407104,-1.2512205839157104,73.33333587646484,277341.0,0.0
15242.0105457,296227.15625,294205.375,321138.78125,313384.25,284782.875,254946.0625,220077.078125,245179.34375,0.05322265625,0.99267578125,0.15576171875,0.4272460639476776,-1.2817381620407104,-1.2512205839157104,73.33333587646484,277342.0,0.0
15242.0105459,296227.15625,294205.375,321138.78125,313384.25,284782.875,254946.0625,220077.078125,245179.34375,0.05322265625,0.99267578125,0.15576171875,0.4272460639476776,-1.2817381620407104,-1.2512205839157104,73.33333587646484,277343.0,0.0
15242.0105461,296227.15625,294205.375,321138.78125,313384.25,284782.875,254946.0625,220077.078125,245179.34375,0.05322265625,0.99267578125,0.15576171875,0.4272460639476776,-1.2817381620407104,-1.2512205839157104,73.33333587646484,277344.0,0.0
15242.0105462,296227.15625,294205.375,321138.78125,313384.25,284782.875,254946.0625,220077.078125,245179.34375,0.05322265625,0.99267578125,0.15576171875,0.4272460639476776,-1.2817381620407104,-1.2512205839157104,73.33333587646484,277345.0,0.0
15242.0105464,296227.15625,294205.375,321138.78125,313384.25,284782.875,254946.0625,220077.078125,245179.34375,0.05322265625,0.99267578125,0.15576171875,0.4272460639476776,-1.2817381620407104,-1.2512205839157104,73.33333587646484,277346.0,0.0
15242.0105466,296227.15625,294205.375,321138.78125,313384.25,284782.875,254946.0625,220077.078125,245179.34375,0.05322265625,0.99267578125,0.15576171875,0.4272460639476776,-1.2817381620407104,-1.2512205839157104,73.33333587646484,277347.0,0.0
15242.0105467,296227.15625,294205.375,321138.78125,313384.25,284782.875,254946.0625,220077.078125,245179.34375,0.05322265625,0.99267578125,0.15576171875,0.4272460639476776,-1.2817381620407104,-1.2512205839157104,73.33333587646484,277348.0,0.0
15242.0105469,296227.15625,294205.375,321138.78125,313384.25,284782.875,254946.0625,220077.078125,245179.34375,0.05322265625,0.99267578125,0.15576171875,0.4272460639476776,-1.2817381620407104,-1.2512205839157104,73.33333587646484,277349.0,0.0
15242.0105471,296227.15625,294205.375,321138.78125,313384.25,284782.875,254946.0625,220077.078125,245179.34375,0.05322265625,0.99267578125,0.15576171875,0.4272460639476776,-1.2817381620407104,-1.2512205839157104,73.33333587646484,277350.0,0.0
15242.0105472,296227.15625,294205.375,321138.78125,313384.25,284782.875,254946.0625,220077.078125,245179.34375,0.05322265625,0.99267578125,0.15576171875,0.4272460639476776,-1.2817381620407104,-1.2512205839157104,73.33333587646484,277351.0,0.0
15242.0105474,296227.15625,294205.375,321138.78125,313384.25,284782.875,254946.0625,220077.078125,245179.34375,0.05322265625,0.99267578125,0.15576171875,0.4272460639476776,-1.2817381620407104,-1.2512205839157104,73.33333587646484,277352.0,0.0
15242.0105476,296227.15625,294205.375,321138.78125,313384.25,284782.875,254946.0625,220077.078125,245179.34375,0.05322265625,0.99267578125,0.15576171875,0.4272460639476776,-1.2817381620407104,-1.2512205839157104,73.33333587646484,277353.0,0.0
15242.0105477,296227.15625,294205.375,321138.78125,313384.25,284782.875,254946.0625,220077.078125,245179.34375,0.05322265625,0.99267578125,0.15576171875,0.4272460639476776,-1.2817381620407104,-1.2512205839157104,73.33333587646484,277354.0,0.0
15242.0105479,296227.15625,294205.375,321138.78125,313384.25,284782.875,254946.0625,220077.078125,245179.34375,0.05322265625,0.99267578125,0.15576171875,0.4272460639476776,-1.2817381620407104,-1.2512205839157104,73.33333587646484,277355.0,0.0
15242.0105481,296227.15625,294205.375,321138.78125,313384.25,284782.875,254946.0625,220077.078125,245179.34375,0.05322265625,0.99267578125,0.15576171875,0.4272460639476776,-1.2817381620407104,-1.2512205839157104,73.33333587646484,277356.0,0.0
15242.0105485,296227.15625,294205.375,321138.78125,313384.25,284782.875,254946.0625,220077.078125,245179.34375,0.05322265625,0.99267578125,0.15576171875,0.4272460639476776,-1.2817381620407104,-1.2512205839157104,73.33333587646484,277357.0,0.0
15242.0105487,296227.15625,294205.375,321138.78125,313384.25,284782.875,254946.0625,220077.078125,245179.34375,0.05322265625,0.99267578125,0.15576171875,0.4272460639476776,-1.2817381620407104,-1.2512205839157104,73.33333587646484,277358.0,0.0
15242.010549,296227.15625,294205.375,321138.78125,313384.25,284782.875,254946.0625,220077.078125,245179.34375,0.05322265625,0.99267578125,0.15576171875,0.4272460639476776,-1.2817381620407104,-1.2512205839157104,73.33333587646484,277359.0,0.0
15242.0105493,296227.15625,294205.375,321138.78125,313384.25,284782.875,254946.0625,220077.078125,245179.34375,0.05322265625,0.99267578125,0.15576171875,0.4272460639476776,-1.2817381620407104,-1.2512205839157104,73.33333587646484,277360.0,0.0
15242.0105496,296227.15625,294205.375,321138.78125,313384.25,284782.875,254946.0625,220077.078125,245179.34375,0.05322265625,0.99267578125,0.15576171875,0.4272460639476776,-1.2817381620407104,-1.2512205839157104,73.33333587646484,277361.0,0.0
15242.0105498,296227.15625,294205.375,321138.78125,313384.25,284782.875,254946.0625,220077.078125,245179.34375,0.05322265625,0.99267578125,0.15576171875,0.4272460639476776,-1.2817381620407104,-1.2512205839157104,73.33333587646484,277362.0,0.0
15242.0105501,296227.15625,294205.375,321138.78125,313384.25,284782.875,254946.0625,220077.078125,245179.34375,0.05322265625,0.99267578125,0.15576171875,0.4272460639476776,-1.2817381620407104,-1.2512205839157104,73.33333587646484,277363.0,0.0
15242.0105504,296227.15625,294205.375,321138.78125,313384.25,284782.875,254946.0625,220077.078125,245179.34375,0.05322265625,0.99267578125,0.15576171875,0.4272460639476776,-1.2817381620407104,-1.2512205839157104,73.33333587646484,277364.0,0.0
15242.0105508,296227.15625,294205.375,321138.78125,313384.25,284782.875,254946.0625,220077.078125,245179.34375,0.05322265625,0.99267578125,0.15576171875,0.4272460639476776,-1.2817381620407104,-1.2512205839157104,73.33333587646484,277365.0,0.0
15242.0105511,296227.15625,294205.375,321138.78125,313384.25,284782.875,254946.0625,220077.078125,245179.34375,0.05322265625,0.99267578125,0.15576171875,0.4272460639476776,-1.2817381620407104,-1.2512205839157104,73.33333587646484,277366.0,0.0
15242.0105542,296227.15625,294205.375,321138.78125,313384.25,284782.875,254946.0625,220077.078125,245179.34375,0.05322265625,0.99267578125,0.15576171875,0.4272460639476776,-1.2817381620407104,-1.2512205839157104,73.33333587646484,277367.0,0.0
15242.0105546,296227.15625,294205.375,321138.78125,313384.25,284782.875,254946.0625,220077.078125,245179.34375,0.05322265625,0.99267578125,0.15576171875,0.4272460639476776,-1.2817381620407104,-1.2512205839157104,73.33333587646484,277368.0,0.0
15242.0105548,296227.15625,294205.375,321138.78125,313384.25,284782.875,254946.0625,220077.078125,245179.34375,0.05322265625,0.99267578125,0.15576171875,0.4272460639476776,-1.2817381620407104,-1.2512205839157104,73.33333587646484,277369.0,0.0
15242.0105551,296227.15625,294205.375,321138.78125,313384.25,284782.875,254946.0625,220077.078125,245179.34375,0.05322265625,0.99267578125,0.15576171875,0.4272460639476776,-1.2817381620407104,-1.2512205839157104,73.33333587646484,277370.0,0.0
15242.0105553,296227.15625,294205.375,321138.78125,313384.25,284782.875,254946.0625,220077.078125,245179.34375,0.05322265625,0.99267578125,0.15576171875,0.4272460639476776,-1.2817381620407104,-1.2512205839157104,73.33333587646484,277371.0,0.0
15242.0105555,296227.15625,294205.375,321138.78125,313384.25,284782.875,254946.0625,220077.078125,245179.34375,0.05322265625,0.99267578125,0.15576171875,0.4272460639476776,-1.2817381620407104,-1.2512205839157104,73.33333587646484,277372.0,0.0
15242.0105557,296227.15625,294205.375,321138.78125,313384.25,284782.875,254946.0625,220077.078125,245179.34375,0.05322265625,0.99267578125,0.15576171875,0.4272460639476776,-1.2817381620407104,-1.2512205839157104,73.33333587646484,277373.0,0.0
15242.0105559,296524.78125,295516.28125,323070.25,313816.53125,285885.1875,255235.5625,220506.140625,245381.75,0.049072265625,0.998291015625,0.157958984375,0.4882812201976776,-1.0681151151657104,-1.0070799589157104,73.33333587646484,277374.0,1.0
15242.0105597,296314.84375,294851.875,322218.46875,313517.46875,285358.5625,255052.015625,220237.921875,245228.59375,0.048583984375,0.996337890625,0.15966796875,0.4577636420726776,-1.0375975370407104,-0.9765624403953552,73.33333587646484,277375.0,1.0
15242.0105609,296217.59375,294190.375,321115.71875,313369.9375,284759.375,254928.453125,220064.734375,245156.0,0.046875,0.994140625,0.154541015625,0.6103515028953552,-1.2207030057907104,-1.0375975370407104,73.33333587646484,277376.0,1.0
15242.0105621,296357.78125,294426.40625,321246.71875,313560.375,284889.09375,255015.265625,220199.296875,245262.75,0.046875,0.996337890625,0.16064453125,0.5798339247703552,-1.3732908964157104,-1.0986326932907104,73.33333587646484,277377.0,1.0
15242.0105635,296554.5625,295264.15625,322474.25,313849.0,285600.6875,255211.421875,220481.640625,245418.046875,0.048583984375,0.99560546875,0.158935546875,0.5187987685203552,-1.4648436307907104,-1.1291502714157104,73.33333587646484,277378.0,1.0
15242.0105647,296526.46875,295513.40625,323061.59375,313819.03125,285878.65625,255217.953125,220485.9375,245381.21875,0.050048828125,0.995849609375,0.15771484375,0.3662109076976776,-1.3732908964157104,-1.0375975370407104,73.33333587646484,277379.0,1.0
15242.0105659,296318.96875,294844.90625,322218.21875,313527.40625,285358.125,255040.921875,220226.921875,245235.3125,0.052734375,0.99365234375,0.158447265625,0.2746581733226776,-1.4953612089157104,-1.0375975370407104,73.33333587646484,277380.0,1.0
15242.0105671,296218.75,294179.0,321116.625,313371.375,284755.34375,254896.625,220035.140625,245158.765625,0.053955078125,0.994384765625,0.15673828125,0.2136230319738388,-1.5258787870407104,-0.9155272841453552,73.33333587646484,277381.0,1.0
15242.0105682,296366.53125,294427.75,321263.0625,313568.25,284897.9375,255003.828125,220191.15625,245260.609375,0.0546875,0.9970703125,0.156494140625,0.2441406100988388,-1.5563963651657104,-0.6713866591453552,73.33333587646484,277382.0,1.0
15242.0105697,296564.375,295263.53125,322482.21875,313853.1875,285603.28125,255196.140625,220478.25,245413.578125,0.053955078125,0.99462890625,0.154541015625,0.2746581733226776,-1.5563963651657104,-0.6408690810203552,73.33333587646484,277383.0,1.0
15242.0126748,296531.75,295516.375,323065.0625,313816.0,285880.625,255213.578125,220489.421875,245376.484375,0.0556640625,0.993896484375,0.157958984375,0.3051757514476776,-1.6784666776657104,-0.7324218153953552,73.33333587646484,277384.0,1.0
15242.012678,296531.75,295516.375,323065.0625,313816.0,285880.625,255213.578125,220489.421875,245376.484375,0.0556640625,0.993896484375,0.157958984375,0.3051757514476776,-1.6784666776657104,-0.7324218153953552,73.33333587646484,277385.0,0.0
15242.0126782,296531.75,295516.375,323065.0625,313816.0,285880.625,255213.578125,220489.421875,245376.484375,0.0556640625,0.993896484375,0.157958984375,0.3051757514476776,-1.6784666776657104,-0.7324218153953552,73.33333587646484,277386.0,0.0
15242.0126784,296531.75,295516.375,323065.0625,313816.0,285880.625,255213.578125,220489.421875,245376.484375,0.0556640625,0.993896484375,0.157958984375,0.3051757514476776,-1.6784666776657104,-0.7324218153953552,73.33333587646484,277387.0,0.0
15242.0126786,296531.75,295516.375,323065.0625,313816.0,285880.625,255213.578125,220489.421875,245376.484375,0.0556640625,0.993896484375,0.157958984375,0.3051757514476776,-1.6784666776657104,-0.7324218153953552,73.33333587646484,277388.0,0.0
15242.0126788,296531.75,295516.375,323065.0625,313816.0,285880.625,255213.578125,220489.421875,245376.484375,0.0556640625,0.993896484375,0.157958984375,0.3051757514476776,-1.6784666776657104,-0.7324218153953552,73.33333587646484,277389.0,0.0
15242.0126789,296531.75,295516.375,323065.0625,313816.0,285880.625,255213.578125,220489.421875,245376.484375,0.0556640625,0.993896484375,0.157958984375,0.3051757514476776,-1.6784666776657104,-0.7324218153953552,73.33333587646484,277390.0,0.0
15242.0126791,296531.75,295516.375,323065.0625,313816.0,285880.625,255213.578125,220489.421875,245376.484375,0.0556640625,0.993896484375,0.157958984375,0.3051757514476776,-1.6784666776657104,-0.7324218153953552,73.33333587646484,277391.0,0.0
15242.0126793,296531.75,295516.375,323065.0625,313816.0,285880.625,255213.578125,220489.421875,245376.484375,0.0556640625,0.993896484375,0.157958984375,0.3051757514476776,-1.6784666776657104,-0.7324218153953552,73.33333587646484,277392.0,0.0
15242.0126794,296531.75,295516.375,323065.0625,313816.0,285880.625,255213.578125,220489.421875,245376.484375,0.0556640625,0.993896484375,0.157958984375,0.3051757514476776,-1.6784666776657104,-0.7324218153953552,73.33333587646484,277393.0,0.0
15242.0126796,296531.75,295516.375,323065.0625,313816.0,285880.625,255213.578125,220489.421875,245376.484375,0.0556640625,0.993896484375,0.157958984375,0.3051757514476776,-1.6784666776657104,-0.7324218153953552,73.33333587646484,277394.0,0.0
15242.0126798,296531.75,295516.375,323065.0625,313816.0,285880.625,255213.578125,220489.421875,245376.484375,0.0556640625,0.993896484375,0.157958984375,0.3051757514476776,-1.6784666776657104,-0.7324218153953552,73.33333587646484,277395.0,0.0
15242.0126799,296531.75,295516.375,323065.0625,313816.0,285880.625,255213.578125,220489.421875,245376.484375,0.0556640625,0.993896484375,0.157958984375,0.3051757514476776,-1.6784666776657104,-0.7324218153953552,73.33333587646484,277396.0,0.0
15242.0126801,296531.75,295516.375,323065.0625,313816.0,285880.625,255213.578125,220489.421875,245376.484375,0.0556640625,0.993896484375,0.157958984375,0.3051757514476776,-1.6784666776657104,-0.7324218153953552,73.33333587646484,277397.0,0.0
15242.0126803,296564.03125,295268.625,322489.03125,313853.28125,285620.25,255220.359375,220486.015625,245416.4375,0.0556640625,0.993896484375,0.160400390625,0.2746581733226776,-1.8920897245407104,-1.2512205839157104,73.33333587646484,277398.0,1.0
15242.0390159,296526.21875,295512.78125,323067.3125,313813.40625,285888.75,255210.171875,220484.859375,245382.015625,0.054931640625,0.99267578125,0.15673828125,0.2136230319738388,-1.7700194120407104,-1.1596678495407104,73.33333587646484,277399.0,1.0
15242.0390216,296317.09375,294844.75,322220.09375,313514.6875,285363.3125,255038.25,220217.984375,245223.0625,0.055419921875,0.990478515625,0.15625,0.2136230319738388,-1.6479490995407104,-1.2207030057907104,73.33333587646484,277400.0,1.0
15242.039023,296220.875,294186.34375,321120.46875,313371.84375,284769.1875,254919.421875,220044.34375,245163.25,0.054931640625,0.99072265625,0.15673828125,0.2441406100988388,-1.6174315214157104,-1.2207030057907104,73.33333587646484,277401.0,1.0
15242.0390243,296362.0625,294434.71875,321274.875,313568.71875,284915.71875,255019.921875,220204.5625,245269.1875,0.05419921875,0.990966796875,0.15625,0.3967284858226776,-1.5563963651657104,-1.2207030057907104,73.33333587646484,277402.0,1.0
15242.0627011,296553.84375,295265.5,322492.15625,313844.0625,285616.3125,255205.4375,220478.328125,245407.765625,0.0537109375,0.99072265625,0.1572265625,0.5187987685203552,-1.5869139432907104,-1.1901854276657104,73.33333587646484,277403.0,1.0
15242.0627058,296517.375,295503.75,323057.75,313801.78125,285880.25,255213.484375,220482.0,245375.5,0.0556640625,0.9912109375,0.158935546875,0.6103515028953552,-1.4648436307907104,-1.1901854276657104,73.33333587646484,277404.0,1.0
15242.0876882,296308.5,294836.5,322210.15625,313505.3125,285356.59375,255046.015625,220217.796875,245216.0,0.055908203125,0.9921875,0.158203125,0.7019042372703552,-1.4648436307907104,-1.2512205839157104,73.33333587646484,277405.0,1.0
15242.0876927,296208.09375,294179.625,321117.96875,313359.5,284763.375,254919.953125,220045.25,245148.3125,0.054443359375,0.993896484375,0.1591796875,0.7629393935203552,-1.4343260526657104,-1.1596678495407104,73.33333587646484,277406.0,1.0
15242.1121695,296346.9375,294419.78125,321259.03125,313554.65625,284904.1875,255006.953125,220197.234375,245267.140625,0.052490234375,0.994384765625,0.15966796875,0.7324218153953552,-1.4038084745407104,-1.1596678495407104,73.33333587646484,277407.0,1.0
15242.1371698,296541.59375,295250.5625,322472.65625,313837.5625,285605.15625,255191.84375,220475.296875,245413.9375,0.052734375,0.994384765625,0.15673828125,0.7629393935203552,-1.3122557401657104,-1.0681151151657104,73.33333587646484,277408.0,1.0
15242.1621932,296510.75,295502.0625,323050.84375,313803.03125,285878.8125,255207.40625,220482.890625,245380.859375,0.053466796875,0.996337890625,0.156005859375,0.9155272841453552,-1.3122557401657104,-0.9460448622703552,73.33333587646484,277409.0,1.0
15242.2070179,296299.03125,294835.78125,322202.75,313502.28125,285356.25,255041.375,220219.140625,245219.84375,0.051025390625,0.99658203125,0.157958984375,0.9155272841453552,-1.3122557401657104,-0.9155272841453552,73.33333587646484,277410.0,1.0
15242.2070247,296213.65625,294192.4375,321123.875,313368.4375,284774.125,254928.453125,220056.421875,245169.59375,0.050537109375,0.99755859375,0.15771484375,0.8850097060203552,-1.3122557401657104,-0.7934569716453552,73.33333587646484,277411.0,1.0
15242.2070261,296365.28125,294445.90625,321284.96875,313574.96875,284927.4375,255031.890625,220222.359375,245295.5625,0.052001953125,0.9970703125,0.157470703125,0.7629393935203552,-1.3732908964157104,-0.8544921278953552,73.33333587646484,277412.0,1.0
15242.2070273,296554.1875,295271.5625,322496.15625,313845.5,285620.25,255210.078125,220479.5,245408.578125,0.051025390625,0.9990234375,0.158447265625,0.7629393935203552,-1.4648436307907104,-0.8544921278953552,73.33333587646484,277413.0,1.0
15242.2070286,296511.71875,295493.46875,323043.78125,313801.53125,285871.3125,255198.109375,220468.59375,245372.546875,0.050537109375,0.9990234375,0.157958984375,0.7629393935203552,-1.4343260526657104,-0.7934569716453552,73.33333587646484,277414.0,1.0
