Time,FZ,C3,CZ,C4,PZ,PO7,OZ,PO8,AccX,AccY,AccZ,Gyro1,Gyro2,Gyro3,Battery,Counter,Validation
15162.4060958,296344.1875,295791.46875,324246.84375,315344.5,286156.25,255562.171875,221387.515625,246391.6875,0.04736328125,0.994384765625,0.16357421875,0.1525878757238388,-1.0986326932907104,-1.0070799589157104,73.33333587646484,257451.0,1.0
15162.4219565,296132.90625,295198.34375,323545.4375,315053.5,285707.4375,255405.890625,221138.15625,246232.28125,0.046630859375,0.99658203125,0.1630859375,0.0915527269244194,-1.0681151151657104,-1.0070799589157104,73.33333587646484,257452.0,1.0
15162.4219755,296001.5625,294439.8125,322346.6875,314856.875,285046.1875,255274.640625,220929.84375,246129.203125,0.04736328125,0.9951171875,0.164794921875,0.1525878757238388,-1.0681151151657104,-1.1291502714157104,73.33333587646484,257453.0,1.0
15162.4219777,296112.25,294533.78125,322272.65625,315008.4375,285059.5,255326.5,221027.46875,246221.28125,0.047119140625,0.994384765625,0.1630859375,0.2136230319738388,-1.0375975370407104,-1.0375975370407104,73.33333587646484,257454.0,1.0
15162.4356027,296311.1875,295359.28125,323435.65625,315294.96875,285733.375,255505.578125,221307.5,246368.09375,0.045654296875,0.99267578125,0.163818359375,0.3967284858226776,-1.0986326932907104,-0.9765624403953552,73.33333587646484,257455.0,1.0
15162.4372859,296311.1875,295359.28125,323435.65625,315294.96875,285733.375,255505.578125,221307.5,246368.09375,0.045654296875,0.99267578125,0.163818359375,0.3967284858226776,-1.0986326932907104,-0.9765624403953552,73.33333587646484,257456.0,0.0
15162.4372877,296311.1875,295359.28125,323435.65625,315294.96875,285733.375,255505.578125,221307.5,246368.09375,0.045654296875,0.99267578125,0.163818359375,0.3967284858226776,-1.0986326932907104,-0.9765624403953552,73.33333587646484,257457.0,0.0
15162.437288,296311.1875,295359.28125,323435.65625,315294.96875,285733.375,255505.578125,221307.5,246368.09375,0.045654296875,0.99267578125,0.163818359375,0.3967284858226776,-1.0986326932907104,-0.9765624403953552,73.33333587646484,257458.0,0.0
15162.4372884,296311.1875,295359.28125,323435.65625,315294.96875,285733.375,255505.578125,221307.5,246368.09375,0.045654296875,0.99267578125,0.163818359375,0.3967284858226776,-1.0986326932907104,-0.9765624403953552,73.33333587646484,257459.0,0.0
15162.4372887,296311.1875,295359.28125,323435.65625,315294.96875,285733.375,255505.578125,221307.5,246368.09375,0.045654296875,0.99267578125,0.163818359375,0.3967284858226776,-1.0986326932907104,-0.9765624403953552,73.33333587646484,257460.0,0.0
15162.437289,296311.1875,295359.28125,323435.65625,315294.96875,285733.375,255505.578125,221307.5,246368.09375,0.045654296875,0.99267578125,0.163818359375,0.3967284858226776,-1.0986326932907104,-0.9765624403953552,73.33333587646484,257461.0,0.0
15162.4372893,296311.1875,295359.28125,323435.65625,315294.96875,285733.375,255505.578125,221307.5,246368.09375,0.045654296875,0.99267578125,0.163818359375,0.3967284858226776,-1.0986326932907104,-0.9765624403953552,73.33333587646484,257462.0,0.0
15162.4372896,296311.1875,295359.28125,323435.65625,315294.96875,285733.375,255505.578125,221307.5,246368.09375,0.045654296875,0.99267578125,0.163818359375,0.3967284858226776,-1.0986326932907104,-0.9765624403953552,73.33333587646484,257463.0,0.0
15162.4372899,296311.1875,295359.28125,323435.65625,315294.96875,285733.375,255505.578125,221307.5,246368.09375,0.045654296875,0.99267578125,0.163818359375,0.3967284858226776,-1.0986326932907104,-0.9765624403953552,73.33333587646484,257464.0,0.0
15162.4372902,296311.1875,295359.28125,323435.65625,315294.96875,285733.375,255505.578125,221307.5,246368.09375,0.045654296875,0.99267578125,0.163818359375,0.3967284858226776,-1.0986326932907104,-0.9765624403953552,73.33333587646484,257465.0,0.0
15162.4372905,296311.1875,295359.28125,323435.65625,315294.96875,285733.375,255505.578125,221307.5,246368.09375,0.045654296875,0.99267578125,0.163818359375,0.3967284858226776,-1.0986326932907104,-0.9765624403953552,73.33333587646484,257466.0,0.0
15162.437291,296311.1875,295359.28125,323435.65625,315294.96875,285733.375,255505.578125,221307.5,246368.09375,0.045654296875,0.99267578125,0.163818359375,0.3967284858226776,-1.0986326932907104,-0.9765624403953552,73.33333587646484,257467.0,0.0
15162.4372913,296311.1875,295359.28125,323435.65625,315294.96875,285733.375,255505.578125,221307.5,246368.09375,0.045654296875,0.99267578125,0.163818359375,0.3967284858226776,-1.0986326932907104,-0.9765624403953552,73.33333587646484,257468.0,0.0
15162.4372916,296311.1875,295359.28125,323435.65625,315294.96875,285733.375,255505.578125,221307.5,246368.09375,0.045654296875,0.99267578125,0.163818359375,0.3967284858226776,-1.0986326932907104,-0.9765624403953552,73.33333587646484,257469.0,0.0
15162.437292,296311.1875,295359.28125,323435.65625,315294.96875,285733.375,255505.578125,221307.5,246368.09375,0.045654296875,0.99267578125,0.163818359375,0.3967284858226776,-1.0986326932907104,-0.9765624403953552,73.33333587646484,257470.0,0.0
15162.4372923,296311.1875,295359.28125,323435.65625,315294.96875,285733.375,255505.578125,221307.5,246368.09375,0.045654296875,0.99267578125,0.163818359375,0.3967284858226776,-1.0986326932907104,-0.9765624403953552,73.33333587646484,257471.0,0.0
15162.4372926,296311.1875,295359.28125,323435.65625,315294.96875,285733.375,255505.578125,221307.5,246368.09375,0.045654296875,0.99267578125,0.163818359375,0.3967284858226776,-1.0986326932907104,-0.9765624403953552,73.33333587646484,257472.0,0.0
15162.4372929,296311.1875,295359.28125,323435.65625,315294.96875,285733.375,255505.578125,221307.5,246368.09375,0.045654296875,0.99267578125,0.163818359375,0.3967284858226776,-1.0986326932907104,-0.9765624403953552,73.33333587646484,257473.0,0.0
15162.4372932,296311.1875,295359.28125,323435.65625,315294.96875,285733.375,255505.578125,221307.5,246368.09375,0.045654296875,0.99267578125,0.163818359375,0.3967284858226776,-1.0986326932907104,-0.9765624403953552,73.33333587646484,257474.0,0.0
15162.4372936,296311.1875,295359.28125,323435.65625,315294.96875,285733.375,255505.578125,221307.5,246368.09375,0.045654296875,0.99267578125,0.163818359375,0.3967284858226776,-1.0986326932907104,-0.9765624403953552,73.33333587646484,257475.0,0.0
15162.4372939,296311.1875,295359.28125,323435.65625,315294.96875,285733.375,255505.578125,221307.5,246368.09375,0.045654296875,0.99267578125,0.163818359375,0.3967284858226776,-1.0986326932907104,-0.9765624403953552,73.33333587646484,257476.0,0.0
15162.4372942,296311.1875,295359.28125,323435.65625,315294.96875,285733.375,255505.578125,221307.5,246368.09375,0.045654296875,0.99267578125,0.163818359375,0.3967284858226776,-1.0986326932907104,-0.9765624403953552,73.33333587646484,257477.0,0.0
15162.4372945,296311.1875,295359.28125,323435.65625,315294.96875,285733.375,255505.578125,221307.5,246368.09375,0.045654296875,0.99267578125,0.163818359375,0.3967284858226776,-1.0986326932907104,-0.9765624403953552,73.33333587646484,257478.0,0.0
15162.4372949,296311.1875,295359.28125,323435.65625,315294.96875,285733.375,255505.578125,221307.5,246368.09375,0.045654296875,0.99267578125,0.163818359375,0.3967284858226776,-1.0986326932907104,-0.9765624403953552,73.33333587646484,257479.0,0.0
15162.4372952,296311.1875,295359.28125,323435.65625,315294.96875,285733.375,255505.578125,221307.5,246368.09375,0.045654296875,0.99267578125,0.163818359375,0.3967284858226776,-1.0986326932907104,-0.9765624403953552,73.33333587646484,257480.0,0.0
15162.4372956,296311.1875,295359.28125,323435.65625,315294.96875,285733.375,255505.578125,221307.5,246368.09375,0.045654296875,0.99267578125,0.163818359375,0.3967284858226776,-1.0986326932907104,-0.9765624403953552,73.33333587646484,257481.0,0.0
15162.4372959,296311.1875,295359.28125,323435.65625,315294.96875,285733.375,255505.578125,221307.5,246368.09375,0.045654296875,0.99267578125,0.163818359375,0.3967284858226776,-1.0986326932907104,-0.9765624403953552,73.33333587646484,257482.0,0.0
15162.4372962,296311.1875,295359.28125,323435.65625,315294.96875,285733.375,255505.578125,221307.5,246368.09375,0.045654296875,0.99267578125,0.163818359375,0.3967284858226776,-1.0986326932907104,-0.9765624403953552,73.33333587646484,257483.0,0.0
15162.4372965,296311.1875,295359.28125,323435.65625,315294.96875,285733.375,255505.578125,221307.5,246368.09375,0.045654296875,0.99267578125,0.163818359375,0.3967284858226776,-1.0986326932907104,-0.9765624403953552,73.33333587646484,257484.0,0.0
15162.4372968,296311.1875,295359.28125,323435.65625,315294.96875,285733.375,255505.578125,221307.5,246368.09375,0.045654296875,0.99267578125,0.163818359375,0.3967284858226776,-1.0986326932907104,-0.9765624403953552,73.33333587646484,257485.0,0.0
15162.4372972,296311.1875,295359.28125,323435.65625,315294.96875,285733.375,255505.578125,221307.5,246368.09375,0.045654296875,0.99267578125,0.163818359375,0.3967284858226776,-1.0986326932907104,-0.9765624403953552,73.33333587646484,257486.0,0.0
15162.4372975,296311.1875,295359.28125,323435.65625,315294.96875,285733.375,255505.578125,221307.5,246368.09375,0.045654296875,0.99267578125,0.163818359375,0.3967284858226776,-1.0986326932907104,-0.9765624403953552,73.33333587646484,257487.0,0.0
15162.4372978,296311.1875,295359.28125,323435.65625,315294.96875,285733.375,255505.578125,221307.5,246368.09375,0.045654296875,0.99267578125,0.163818359375,0.3967284858226776,-1.0986326932907104,-0.9765624403953552,73.33333587646484,257488.0,0.0
15162.4372981,296311.1875,295359.28125,323435.65625,315294.96875,285733.375,255505.578125,221307.5,246368.09375,0.045654296875,0.99267578125,0.163818359375,0.3967284858226776,-1.0986326932907104,-0.9765624403953552,73.33333587646484,257489.0,0.0
15162.4372984,296311.1875,295359.28125,323435.65625,315294.96875,285733.375,255505.578125,221307.5,246368.09375,0.045654296875,0.99267578125,0.163818359375,0.3967284858226776,-1.0986326932907104,-0.9765624403953552,73.33333587646484,257490.0,0.0
15162.4372987,296311.1875,295359.28125,323435.65625,315294.96875,285733.375,255505.578125,221307.5,246368.09375,0.045654296875,0.99267578125,0.163818359375,0.3967284858226776,-1.0986326932907104,-0.9765624403953552,73.33333587646484,257491.0,0.0
15162.437299,296311.1875,295359.28125,323435.65625,315294.96875,285733.375,255505.578125,221307.5,246368.09375,0.045654296875,0.99267578125,0.163818359375,0.3967284858226776,-1.0986326932907104,-0.9765624403953552,73.33333587646484,257492.0,0.0
15162.4372994,296311.1875,295359.28125,323435.65625,315294.96875,285733.375,255505.578125,221307.5,246368.09375,0.045654296875,0.99267578125,0.163818359375,0.3967284858226776,-1.0986326932907104,-0.9765624403953552,73.33333587646484,257493.0,0.0
15162.4372997,296311.1875,295359.28125,323435.65625,315294.96875,285733.375,255505.578125,221307.5,246368.09375,0.045654296875,0.99267578125,0.163818359375,0.3967284858226776,-1.0986326932907104,-0.9765624403953552,73.33333587646484,257494.0,0.0
15162.4373001,296311.1875,295359.28125,323435.65625,315294.96875,285733.375,255505.578125,221307.5,246368.09375,0.045654296875,0.99267578125,0.163818359375,0.3967284858226776,-1.0986326932907104,-0.9765624403953552,73.33333587646484,257495.0,0.0
15162.4373004,296311.1875,295359.28125,323435.65625,315294.96875,285733.375,255505.578125,221307.5,246368.09375,0.045654296875,0.99267578125,0.163818359375,0.3967284858226776,-1.0986326932907104,-0.9765624403953552,73.33333587646484,257496.0,0.0
15162.4373007,296311.1875,295359.28125,323435.65625,315294.96875,285733.375,255505.578125,221307.5,246368.09375,0.045654296875,0.99267578125,0.163818359375,0.3967284858226776,-1.0986326932907104,-0.9765624403953552,73.33333587646484,257497.0,0.0
15162.4373011,296311.1875,295359.28125,323435.65625,315294.96875,285733.375,255505.578125,221307.5,246368.09375,0.045654296875,0.99267578125,0.163818359375,0.3967284858226776,-1.0986326932907104,-0.9765624403953552,73.33333587646484,257498.0,0.0
15162.4373014,296311.1875,295359.28125,323435.65625,315294.96875,285733.375,255505.578125,221307.5,246368.09375,0.045654296875,0.99267578125,0.163818359375,0.3967284858226776,-1.0986326932907104,-0.9765624403953552,73.33333587646484,257499.0,0.0
15162.4373017,296311.1875,295359.28125,323435.65625,315294.96875,285733.375,255505.578125,221307.5,246368.09375,0.045654296875,0.99267578125,0.163818359375,0.3967284858226776,-1.0986326932907104,-0.9765624403953552,73.33333587646484,257500.0,0.0
15162.437302,296311.1875,295359.28125,323435.65625,315294.96875,285733.375,255505.578125,221307.5,246368.09375,0.045654296875,0.99267578125,0.163818359375,0.3967284858226776,-1.0986326932907104,-0.9765624403953552,73.33333587646484,257501.0,0.0
15162.4373025,296311.1875,295359.28125,323435.65625,315294.96875,285733.375,255505.578125,221307.5,246368.09375,0.045654296875,0.99267578125,0.163818359375,0.3967284858226776,-1.0986326932907104,-0.9765624403953552,73.33333587646484,257502.0,0.0
15162.4373029,296311.1875,295359.28125,323435.65625,315294.96875,285733.375,255505.578125,221307.5,246368.09375,0.045654296875,0.99267578125,0.163818359375,0.3967284858226776,-1.0986326932907104,-0.9765624403953552,73.33333587646484,257503.0,0.0
15162.4373032,296311.1875,295359.28125,323435.65625,315294.96875,285733.375,255505.578125,221307.5,246368.09375,0.045654296875,0.99267578125,0.163818359375,0.3967284858226776,-1.0986326932907104,-0.9765624403953552,73.33333587646484,257504.0,0.0
15162.4373035,296311.1875,295359.28125,323435.65625,315294.96875,285733.375,255505.578125,221307.5,246368.09375,0.045654296875,0.99267578125,0.163818359375,0.3967284858226776,-1.0986326932907104,-0.9765624403953552,73.33333587646484,257505.0,0.0
15162.4373038,296311.1875,295359.28125,323435.65625,315294.96875,285733.375,255505.578125,221307.5,246368.09375,0.045654296875,0.99267578125,0.163818359375,0.3967284858226776,-1.0986326932907104,-0.9765624403953552,73.33333587646484,257506.0,0.0
15162.4373041,296311.1875,295359.28125,323435.65625,315294.96875,285733.375,255505.578125,221307.5,246368.09375,0.045654296875,0.99267578125,0.163818359375,0.3967284858226776,-1.0986326932907104,-0.9765624403953552,73.33333587646484,257507.0,0.0
15162.4373044,296311.1875,295359.28125,323435.65625,315294.96875,285733.375,255505.578125,221307.5,246368.09375,0.045654296875,0.99267578125,0.163818359375,0.3967284858226776,-1.0986326932907104,-0.9765624403953552,73.33333587646484,257508.0,0.0
15162.4373047,296311.1875,295359.28125,323435.65625,315294.96875,285733.375,255505.578125,221307.5,246368.09375,0.045654296875,0.99267578125,0.163818359375,0.3967284858226776,-1.0986326932907104,-0.9765624403953552,73.33333587646484,257509.0,0.0
15162.4373051,296311.1875,295359.28125,323435.65625,315294.96875,285733.375,255505.578125,221307.5,246368.09375,0.045654296875,0.99267578125,0.163818359375,0.3967284858226776,-1.0986326932907104,-0.9765624403953552,73.33333587646484,257510.0,0.0
15162.4373054,296311.1875,295359.28125,323435.65625,315294.96875,285733.375,255505.578125,221307.5,246368.09375,0.045654296875,0.99267578125,0.163818359375,0.3967284858226776,-1.0986326932907104,-0.9765624403953552,73.33333587646484,257511.0,0.0
15162.4373058,296311.1875,295359.28125,323435.65625,315294.96875,285733.375,255505.578125,221307.5,246368.09375,0.045654296875,0.99267578125,0.163818359375,0.3967284858226776,-1.0986326932907104,-0.9765624403953552,73.33333587646484,257512.0,0.0
15162.4373061,296311.1875,295359.28125,323435.65625,315294.96875,285733.375,255505.578125,221307.5,246368.09375,0.045654296875,0.99267578125,0.163818359375,0.3967284858226776,-1.0986326932907104,-0.9765624403953552,73.33333587646484,257513.0,0.0
15162.4373064,296311.1875,295359.28125,323435.65625,315294.96875,285733.375,255505.578125,221307.5,246368.09375,0.045654296875,0.99267578125,0.163818359375,0.3967284858226776,-1.0986326932907104,-0.9765624403953552,73.33333587646484,257514.0,0.0
15162.4373067,296311.1875,295359.28125,323435.65625,315294.96875,285733.375,255505.578125,221307.5,246368.09375,0.045654296875,0.99267578125,0.163818359375,0.3967284858226776,-1.0986326932907104,-0.9765624403953552,73.33333587646484,257515.0,0.0
15162.437307,296311.1875,295359.28125,323435.65625,315294.96875,285733.375,255505.578125,221307.5,246368.09375,0.045654296875,0.99267578125,0.163818359375,0.3967284858226776,-1.0986326932907104,-0.9765624403953552,73.33333587646484,257516.0,0.0
15162.4373073,296311.1875,295359.28125,323435.65625,315294.96875,285733.375,255505.578125,221307.5,246368.09375,0.045654296875,0.99267578125,0.163818359375,0.3967284858226776,-1.0986326932907104,-0.9765624403953552,73.33333587646484,257517.0,0.0
15162.4373077,296311.1875,295359.28125,323435.65625,315294.96875,285733.375,255505.578125,221307.5,246368.09375,0.045654296875,0.99267578125,0.163818359375,0.3967284858226776,-1.0986326932907104,-0.9765624403953552,73.33333587646484,257518.0,0.0
15162.437308,296311.1875,295359.28125,323435.65625,315294.96875,285733.375,255505.578125,221307.5,246368.09375,0.045654296875,0.99267578125,0.163818359375,0.3967284858226776,-1.0986326932907104,-0.9765624403953552,73.33333587646484,257519.0,0.0
15162.4373083,296311.1875,295359.28125,323435.65625,315294.96875,285733.375,255505.578125,221307.5,246368.09375,0.045654296875,0.99267578125,0.163818359375,0.3967284858226776,-1.0986326932907104,-0.9765624403953552,73.33333587646484,257520.0,0.0
15162.4373086,296341.0625,295789.21875,324243.28125,315325.1875,286145.625,255565.65625,221385.09375,246371.75,0.04736328125,0.992431640625,0.159912109375,0.3967284858226776,-1.4038084745407104,-0.6103515028953552,73.33333587646484,257521.0,1.0
15162.452452,296135.6875,295187.6875,323522.5625,315038.71875,285690.53125,255405.078125,221134.671875,246215.5625,0.05078125,0.992431640625,0.161865234375,0.5187987685203552,-1.4038084745407104,-0.6713866591453552,73.33333587646484,257522.0,1.0
15162.4674127,296016.59375,294446.25,322332.65625,314859.03125,285041.875,255283.578125,220933.328125,246139.65625,0.051513671875,0.991943359375,0.16455078125,0.6103515028953552,-1.4038084745407104,-0.7629393935203552,73.33333587646484,257523.0,1.0
15162.4902447,296138.09375,294573.75,322291.875,315025.15625,285080.96875,255359.84375,221052.328125,246242.46875,0.0517578125,0.9921875,0.163818359375,0.6713866591453552,-1.3122557401657104,-0.8239745497703552,73.33333587646484,257524.0,1.0
15162.4902511,296347.84375,295417.9375,323485.90625,315325.28125,285775.375,255540.71875,221339.765625,246400.09375,0.052734375,0.992919921875,0.16455078125,0.8239745497703552,-1.1901854276657104,-0.6408690810203552,73.33333587646484,257525.0,1.0
15162.4902524,296348.03125,295796.21875,324239.53125,315336.90625,286150.96875,255581.390625,221396.359375,246390.796875,0.052001953125,0.99169921875,0.162109375,0.8544921278953552,-1.0986326932907104,-0.6408690810203552,73.33333587646484,257526.0,1.0
15162.4902536,296143.1875,295196.5625,323524.25,315051.6875,285698.03125,255420.453125,221147.359375,246228.609375,0.05322265625,0.992431640625,0.158935546875,1.0375975370407104,-1.0375975370407104,-0.7019042372703552,73.33333587646484,257527.0,1.0
15162.4902549,296023.21875,294456.4375,322337.90625,314868.9375,285048.5,255291.984375,220940.296875,246142.875,0.05078125,0.992919921875,0.160888671875,0.9155272841453552,-1.0070799589157104,-0.7934569716453552,73.33333587646484,257528.0,1.0
15162.4902561,296141.9375,294578.21875,322302.4375,315027.03125,285084.96875,255350.625,221049.015625,246241.21875,0.050537109375,0.99462890625,0.16259765625,1.0375975370407104,-0.9460448622703552,-0.7324218153953552,73.33333587646484,257529.0,1.0
15162.4902573,296353.5625,295425.96875,323500.3125,315330.03125,285782.53125,255537.671875,221342.1875,246403.3125,0.051513671875,0.99560546875,0.162109375,0.9765624403953552,-0.8850097060203552,-0.8239745497703552,73.33333587646484,257530.0,1.0
15162.4902585,296354.71875,295805.6875,324256.78125,315340.75,286156.34375,255580.5,221391.265625,246387.671875,0.052001953125,0.995361328125,0.161865234375,0.8850097060203552,-0.8544921278953552,-0.7934569716453552,73.33333587646484,257531.0,1.0
15162.4902597,296147.03125,295202.09375,323539.09375,315055.1875,285702.59375,255422.6875,221151.203125,246239.796875,0.0517578125,0.9951171875,0.161865234375,0.8544921278953552,-0.7934569716453552,-0.7934569716453552,73.33333587646484,257532.0,1.0
15162.4902609,296020.96875,294448.03125,322333.53125,314861.71875,285040.0,255281.609375,220935.734375,246139.203125,0.052978515625,0.99462890625,0.162841796875,0.7934569716453552,-0.7324218153953552,-0.9155272841453552,73.33333587646484,257533.0,1.0
15162.4902621,296144.625,294576.96875,322292.15625,315019.0625,285074.53125,255350.28125,221039.625,246216.1875,0.051025390625,0.993896484375,0.15966796875,0.7934569716453552,-0.7324218153953552,-0.8544921278953552,73.33333587646484,257534.0,1.0
15162.4902633,296356.59375,295431.78125,323499.75,315324.125,285777.4375,255532.125,221334.046875,246380.25,0.048095703125,0.995849609375,0.1611328125,0.7629393935203552,-0.6713866591453552,-0.8239745497703552,73.33333587646484,257535.0,1.0
15162.4902648,296354.0,295804.625,324254.34375,315339.15625,286155.53125,255576.46875,221394.3125,246382.046875,0.046875,0.994140625,0.159423828125,0.8239745497703552,-0.7019042372703552,-0.7934569716453552,73.33333587646484,257536.0,1.0
15162.5136418,296149.8125,295198.0625,323528.8125,315052.40625,285698.75,255428.0625,221141.546875,246228.078125,0.044189453125,0.9951171875,0.16015625,0.9155272841453552,-0.8239745497703552,-0.8239745497703552,73.33333587646484,257537.0,1.0
15162.5723174,296023.375,294450.28125,322331.03125,314861.34375,285039.75,255275.0,220925.453125,246136.703125,0.043212890625,0.99560546875,0.157470703125,0.8239745497703552,-0.9155272841453552,-0.9765624403953552,73.33333587646484,257538.0,1.0
15162.5992765,296145.6875,294578.46875,322298.125,315025.84375,285081.03125,255345.0,221042.3125,246230.5,0.041748046875,0.99462890625,0.16064453125,0.8544921278953552,-0.9765624403953552,-1.0375975370407104,73.33333587646484,257539.0,1.0
15162.5992956,296360.28125,295433.9375,323501.28125,315331.53125,285782.0,255532.484375,221336.1875,246389.109375,0.043212890625,0.994140625,0.160888671875,0.7019042372703552,-1.1596678495407104,-1.2207030057907104,73.33333587646484,257540.0,1.0
15162.5992971,296364.5625,295818.75,324264.71875,315349.4375,286164.75,255576.46875,221396.625,246391.15625,0.04736328125,0.992431640625,0.16015625,0.7629393935203552,-1.1901854276657104,-1.0681151151657104,73.33333587646484,257541.0,1.0
15162.6137111,296154.46875,295207.375,323534.625,315056.71875,285700.5625,255424.84375,221142.359375,246229.59375,0.051025390625,0.991943359375,0.16015625,0.8239745497703552,-1.2512205839157104,-1.0681151151657104,73.33333587646484,257542.0,1.0
15162.622886,296025.4375,294450.8125,322332.1875,314862.25,285037.15625,255279.109375,220922.953125,246132.59375,0.052978515625,0.99267578125,0.162109375,0.7629393935203552,-1.1901854276657104,-0.7629393935203552,73.33333587646484,257543.0,1.0
15162.6229033,296154.28125,294582.40625,322303.59375,315035.4375,285081.9375,255331.5,221042.484375,246241.046875,0.051025390625,0.993896484375,0.16015625,0.7324218153953552,-1.0986326932907104,-0.7019042372703552,73.33333587646484,257544.0,1.0
15162.6229046,296359.90625,295433.21875,323500.125,315331.8125,285774.9375,255529.09375,221333.78125,246389.640625,0.046630859375,0.99365234375,0.157958984375,0.7324218153953552,-1.1901854276657104,-0.6408690810203552,73.33333587646484,257545.0,1.0
15162.6229059,296350.25,295801.9375,324250.96875,315336.0,286147.125,255560.375,221381.96875,246380.875,0.0458984375,0.994384765625,0.15625,0.6408690810203552,-1.1901854276657104,-0.6103515028953552,73.33333587646484,257546.0,1.0
15162.6336826,296142.21875,295195.375,323526.21875,315049.46875,285691.59375,255409.546875,221136.09375,246228.703125,0.046630859375,0.994384765625,0.15625,0.7019042372703552,-1.2512205839157104,-0.7934569716453552,73.33333587646484,257547.0,1.0
15162.6498705,296019.1875,294443.46875,322322.71875,314865.28125,285034.8125,255279.734375,220932.96875,246146.625,0.048828125,0.994384765625,0.156005859375,0.6713866591453552,-1.4038084745407104,-0.7324218153953552,73.33333587646484,257548.0,1.0
15162.6592649,296143.65625,294575.875,322293.21875,315029.78125,285079.15625,255347.59375,221049.109375,246251.140625,0.05029296875,0.992919921875,0.1572265625,0.8239745497703552,-1.4343260526657104,-0.8239745497703552,73.33333587646484,257549.0,1.0
15162.6592701,296355.4375,295429.625,323501.375,315326.625,285781.28125,255532.046875,221332.703125,246395.625,0.048583984375,0.994384765625,0.16015625,0.7629393935203552,-1.4953612089157104,-0.8239745497703552,73.33333587646484,257550.0,1.0
15162.6592714,296354.71875,295807.65625,324258.03125,315341.375,286161.4375,255584.875,221393.59375,246383.828125,0.050048828125,0.997314453125,0.159912109375,0.7019042372703552,-1.3732908964157104,-0.7934569716453552,73.33333587646484,257551.0,1.0
15162.6592727,296141.75,295184.125,323517.1875,315049.5625,285690.71875,255419.46875,221136.375,246225.390625,0.048828125,0.99658203125,0.15673828125,0.6408690810203552,-1.4953612089157104,-0.7629393935203552,73.33333587646484,257552.0,1.0
15162.6592739,296014.0,294431.125,322309.125,314859.28125,285026.15625,255262.390625,220921.34375,246136.171875,0.048095703125,0.996337890625,0.154541015625,0.6103515028953552,-1.4953612089157104,-0.9155272841453552,73.33333587646484,257553.0,1.0
15162.6592751,296145.34375,294575.8125,322291.15625,315032.84375,285081.75,255343.921875,221045.625,246238.546875,0.046142578125,0.99755859375,0.154296875,0.5798339247703552,-1.4953612089157104,-1.0375975370407104,73.33333587646484,257554.0,1.0
15162.6686291,296353.46875,295429.8125,323499.125,315331.09375,285784.15625,255531.953125,221341.734375,246402.515625,0.046630859375,0.998291015625,0.15380859375,0.5798339247703552,-1.5869139432907104,-1.0986326932907104,73.33333587646484,257555.0,1.0
15162.6849201,296352.40625,295794.15625,324247.90625,315343.34375,286156.0625,255573.078125,221405.578125,246410.65625,0.04736328125,0.998779296875,0.155029296875,0.4577636420726776,-1.6479490995407104,-1.0681151151657104,73.33333587646484,257556.0,1.0
15162.6998883,296144.28125,295180.71875,323508.625,315043.21875,285683.1875,255413.9375,221139.40625,246219.140625,0.048095703125,0.99951171875,0.156982421875,0.3662109076976776,-1.7089842557907104,-1.0986326932907104,73.33333587646484,257557.0,1.0
15162.7174032,296024.8125,294439.1875,322313.875,314855.28125,285025.25,255277.3125,220916.96875,246113.453125,0.04931640625,1.0,0.1591796875,0.1831054538488388,-1.6784666776657104,-1.1596678495407104,73.33333587646484,257558.0,1.0
15162.7286523,296144.8125,294573.75,322290.34375,315018.96875,285071.75,255334.1875,221030.0625,246219.5,0.048828125,0.998291015625,0.158447265625,0.03051757626235485,-1.7089842557907104,-1.1901854276657104,73.33333587646484,257559.0,1.0
15162.744909,296350.4375,295427.75,323500.9375,315316.6875,285772.0625,255519.171875,221324.03125,246378.1875,0.049560546875,0.99755859375,0.157958984375,-0.0915527269244194,-1.6784666776657104,-1.2512205839157104,73.33333587646484,257560.0,1.0
15162.7545286,296347.75,295798.4375,324251.9375,315328.6875,286147.03125,255572.0,221391.0,246373.90625,0.048583984375,0.99609375,0.156982421875,-0.1220703050494194,-1.7395018339157104,-1.3732908964157104,73.33333587646484,257561.0,1.0
15162.7545334,296137.125,295185.65625,323516.65625,315039.71875,285682.9375,255412.328125,221139.234375,246218.78125,0.048583984375,0.9970703125,0.15673828125,-0.1525878757238388,-1.8005369901657104,-1.3732908964157104,73.33333587646484,257562.0,1.0
15162.7545346,296010.78125,294431.84375,322311.0,314854.03125,285019.28125,255259.96875,220919.203125,246131.703125,0.048828125,0.996337890625,0.156005859375,-0.1525878757238388,-1.7395018339157104,-1.2512205839157104,73.33333587646484,257563.0,1.0
15162.7612713,296134.96875,294569.28125,322285.625,315020.6875,285068.25,255336.0625,221039.0,246232.015625,0.04833984375,0.99755859375,0.1572265625,-0.2136230319738388,-1.7089842557907104,-1.2817381620407104,73.33333587646484,257564.0,1.0
15162.7612933,296348.84375,295424.8125,323491.28125,315324.46875,285777.71875,255546.078125,221346.5625,246399.03125,0.051513671875,0.995361328125,0.16259765625,-0.1831054538488388,-1.6174315214157104,-1.2817381620407104,73.33333587646484,257565.0,1.0
15162.7774173,296346.0625,295796.65625,324242.28125,315332.0625,286151.34375,255583.984375,221397.53125,246387.140625,0.052001953125,0.994873046875,0.15966796875,-0.0915527269244194,-1.6174315214157104,-1.2207030057907104,73.33333587646484,257566.0,1.0
15162.7924039,296136.75,295180.5625,323511.65625,315039.0,285685.625,255404.71875,221131.546875,246214.578125,0.05078125,0.9951171875,0.160888671875,-0.0915527269244194,-1.4953612089157104,-1.1901854276657104,73.33333587646484,257567.0,1.0
15162.8279468,296009.875,294422.8125,322306.28125,314849.71875,285023.375,255258.359375,220917.234375,246126.609375,0.050537109375,0.994384765625,0.1611328125,-0.03051757626235485,-1.5258787870407104,-1.1291502714157104,73.33333587646484,257568.0,1.0
15162.8279615,296133.1875,294553.8125,322272.125,315015.5625,285064.875,255336.234375,221042.046875,246236.75,0.0498046875,0.99365234375,0.15869140625,0.03051757626235485,-1.4038084745407104,-1.0375975370407104,73.33333587646484,257569.0,1.0
15162.8279662,296133.1875,294553.8125,322272.125,315015.5625,285064.875,255336.234375,221042.046875,246236.75,0.0498046875,0.99365234375,0.15869140625,0.03051757626235485,-1.4038084745407104,-1.0375975370407104,73.33333587646484,257570.0,0.0
15162.8279664,296133.1875,294553.8125,322272.125,315015.5625,285064.875,255336.234375,221042.046875,246236.75,0.0498046875,0.99365234375,0.15869140625,0.03051757626235485,-1.4038084745407104,-1.0375975370407104,73.33333587646484,257571.0,0.0
15162.8279666,296133.1875,294553.8125,322272.125,315015.5625,285064.875,255336.234375,221042.046875,246236.75,0.0498046875,0.99365234375,0.15869140625,0.03051757626235485,-1.4038084745407104,-1.0375975370407104,73.33333587646484,257572.0,0.0
15162.8279668,296133.1875,294553.8125,322272.125,315015.5625,285064.875,255336.234375,221042.046875,246236.75,0.0498046875,0.99365234375,0.15869140625,0.03051757626235485,-1.4038084745407104,-1.0375975370407104,73.33333587646484,257573.0,0.0
15162.827967,296133.1875,294553.8125,322272.125,315015.5625,285064.875,255336.234375,221042.046875,246236.75,0.0498046875,0.99365234375,0.15869140625,0.03051757626235485,-1.4038084745407104,-1.0375975370407104,73.33333587646484,257574.0,0.0
15162.8279672,296133.1875,294553.8125,322272.125,315015.5625,285064.875,255336.234375,221042.046875,246236.75,0.0498046875,0.99365234375,0.15869140625,0.03051757626235485,-1.4038084745407104,-1.0375975370407104,73.33333587646484,257575.0,0.0
15162.8279673,296133.1875,294553.8125,322272.125,315015.5625,285064.875,255336.234375,221042.046875,246236.75,0.0498046875,0.99365234375,0.15869140625,0.03051757626235485,-1.4038084745407104,-1.0375975370407104,73.33333587646484,257576.0,0.0
15162.8279675,296133.1875,294553.8125,322272.125,315015.5625,285064.875,255336.234375,221042.046875,246236.75,0.0498046875,0.99365234375,0.15869140625,0.03051757626235485,-1.4038084745407104,-1.0375975370407104,73.33333587646484,257577.0,0.0
15162.8279677,296133.1875,294553.8125,322272.125,315015.5625,285064.875,255336.234375,221042.046875,246236.75,0.0498046875,0.99365234375,0.15869140625,0.03051757626235485,-1.4038084745407104,-1.0375975370407104,73.33333587646484,257578.0,0.0
15162.8279679,296133.1875,294553.8125,322272.125,315015.5625,285064.875,255336.234375,221042.046875,246236.75,0.0498046875,0.99365234375,0.15869140625,0.03051757626235485,-1.4038084745407104,-1.0375975370407104,73.33333587646484,257579.0,0.0
15162.8279681,296133.1875,294553.8125,322272.125,315015.5625,285064.875,255336.234375,221042.046875,246236.75,0.0498046875,0.99365234375,0.15869140625,0.03051757626235485,-1.4038084745407104,-1.0375975370407104,73.33333587646484,257580.0,0.0
15162.8279682,296133.1875,294553.8125,322272.125,315015.5625,285064.875,255336.234375,221042.046875,246236.75,0.0498046875,0.99365234375,0.15869140625,0.03051757626235485,-1.4038084745407104,-1.0375975370407104,73.33333587646484,257581.0,0.0
15162.8279684,296133.1875,294553.8125,322272.125,315015.5625,285064.875,255336.234375,221042.046875,246236.75,0.0498046875,0.99365234375,0.15869140625,0.03051757626235485,-1.4038084745407104,-1.0375975370407104,73.33333587646484,257582.0,0.0
15162.8279685,296133.1875,294553.8125,322272.125,315015.5625,285064.875,255336.234375,221042.046875,246236.75,0.0498046875,0.99365234375,0.15869140625,0.03051757626235485,-1.4038084745407104,-1.0375975370407104,73.33333587646484,257583.0,0.0
15162.8279687,296133.1875,294553.8125,322272.125,315015.5625,285064.875,255336.234375,221042.046875,246236.75,0.0498046875,0.99365234375,0.15869140625,0.03051757626235485,-1.4038084745407104,-1.0375975370407104,73.33333587646484,257584.0,0.0
15162.8279689,296133.1875,294553.8125,322272.125,315015.5625,285064.875,255336.234375,221042.046875,246236.75,0.0498046875,0.99365234375,0.15869140625,0.03051757626235485,-1.4038084745407104,-1.0375975370407104,73.33333587646484,257585.0,0.0
15162.8279691,296133.1875,294553.8125,322272.125,315015.5625,285064.875,255336.234375,221042.046875,246236.75,0.0498046875,0.99365234375,0.15869140625,0.03051757626235485,-1.4038084745407104,-1.0375975370407104,73.33333587646484,257586.0,0.0
15162.8279693,296133.1875,294553.8125,322272.125,315015.5625,285064.875,255336.234375,221042.046875,246236.75,0.0498046875,0.99365234375,0.15869140625,0.03051757626235485,-1.4038084745407104,-1.0375975370407104,73.33333587646484,257587.0,0.0
15162.8279694,296133.1875,294553.8125,322272.125,315015.5625,285064.875,255336.234375,221042.046875,246236.75,0.0498046875,0.99365234375,0.15869140625,0.03051757626235485,-1.4038084745407104,-1.0375975370407104,73.33333587646484,257588.0,0.0
15162.8279696,296133.1875,294553.8125,322272.125,315015.5625,285064.875,255336.234375,221042.046875,246236.75,0.0498046875,0.99365234375,0.15869140625,0.03051757626235485,-1.4038084745407104,-1.0375975370407104,73.33333587646484,257589.0,0.0
15162.8279698,296133.1875,294553.8125,322272.125,315015.5625,285064.875,255336.234375,221042.046875,246236.75,0.0498046875,0.99365234375,0.15869140625,0.03051757626235485,-1.4038084745407104,-1.0375975370407104,73.33333587646484,257590.0,0.0
15162.8279699,296133.1875,294553.8125,322272.125,315015.5625,285064.875,255336.234375,221042.046875,246236.75,0.0498046875,0.99365234375,0.15869140625,0.03051757626235485,-1.4038084745407104,-1.0375975370407104,73.33333587646484,257591.0,0.0
15162.8279701,296133.1875,294553.8125,322272.125,315015.5625,285064.875,255336.234375,221042.046875,246236.75,0.0498046875,0.99365234375,0.15869140625,0.03051757626235485,-1.4038084745407104,-1.0375975370407104,73.33333587646484,257592.0,0.0
15162.8279703,296133.1875,294553.8125,322272.125,315015.5625,285064.875,255336.234375,221042.046875,246236.75,0.0498046875,0.99365234375,0.15869140625,0.03051757626235485,-1.4038084745407104,-1.0375975370407104,73.33333587646484,257593.0,0.0
15162.8279705,296133.1875,294553.8125,322272.125,315015.5625,285064.875,255336.234375,221042.046875,246236.75,0.0498046875,0.99365234375,0.15869140625,0.03051757626235485,-1.4038084745407104,-1.0375975370407104,73.33333587646484,257594.0,0.0
15162.8279707,296133.1875,294553.8125,322272.125,315015.5625,285064.875,255336.234375,221042.046875,246236.75,0.0498046875,0.99365234375,0.15869140625,0.03051757626235485,-1.4038084745407104,-1.0375975370407104,73.33333587646484,257595.0,0.0
15162.8279709,296133.1875,294553.8125,322272.125,315015.5625,285064.875,255336.234375,221042.046875,246236.75,0.0498046875,0.99365234375,0.15869140625,0.03051757626235485,-1.4038084745407104,-1.0375975370407104,73.33333587646484,257596.0,0.0
15162.827971,296133.1875,294553.8125,322272.125,315015.5625,285064.875,255336.234375,221042.046875,246236.75,0.0498046875,0.99365234375,0.15869140625,0.03051757626235485,-1.4038084745407104,-1.0375975370407104,73.33333587646484,257597.0,0.0
15162.8279713,296133.1875,294553.8125,322272.125,315015.5625,285064.875,255336.234375,221042.046875,246236.75,0.0498046875,0.99365234375,0.15869140625,0.03051757626235485,-1.4038084745407104,-1.0375975370407104,73.33333587646484,257598.0,0.0
15162.8279714,296133.1875,294553.8125,322272.125,315015.5625,285064.875,255336.234375,221042.046875,246236.75,0.0498046875,0.99365234375,0.15869140625,0.03051757626235485,-1.4038084745407104,-1.0375975370407104,73.33333587646484,257599.0,0.0
15162.8279716,296133.1875,294553.8125,322272.125,315015.5625,285064.875,255336.234375,221042.046875,246236.75,0.0498046875,0.99365234375,0.15869140625,0.03051757626235485,-1.4038084745407104,-1.0375975370407104,73.33333587646484,257600.0,0.0
15162.8279718,296133.1875,294553.8125,322272.125,315015.5625,285064.875,255336.234375,221042.046875,246236.75,0.0498046875,0.99365234375,0.15869140625,0.03051757626235485,-1.4038084745407104,-1.0375975370407104,73.33333587646484,257601.0,0.0
15162.827972,296133.1875,294553.8125,322272.125,315015.5625,285064.875,255336.234375,221042.046875,246236.75,0.0498046875,0.99365234375,0.15869140625,0.03051757626235485,-1.4038084745407104,-1.0375975370407104,73.33333587646484,257602.0,0.0
15162.8279721,296133.1875,294553.8125,322272.125,315015.5625,285064.875,255336.234375,221042.046875,246236.75,0.0498046875,0.99365234375,0.15869140625,0.03051757626235485,-1.4038084745407104,-1.0375975370407104,73.33333587646484,257603.0,0.0
15162.8279723,296133.1875,294553.8125,322272.125,315015.5625,285064.875,255336.234375,221042.046875,246236.75,0.0498046875,0.99365234375,0.15869140625,0.03051757626235485,-1.4038084745407104,-1.0375975370407104,73.33333587646484,257604.0,0.0
15162.8279725,296133.1875,294553.8125,322272.125,315015.5625,285064.875,255336.234375,221042.046875,246236.75,0.0498046875,0.99365234375,0.15869140625,0.03051757626235485,-1.4038084745407104,-1.0375975370407104,73.33333587646484,257605.0,0.0
15162.8279727,296133.1875,294553.8125,322272.125,315015.5625,285064.875,255336.234375,221042.046875,246236.75,0.0498046875,0.99365234375,0.15869140625,0.03051757626235485,-1.4038084745407104,-1.0375975370407104,73.33333587646484,257606.0,0.0
15162.8279729,296133.1875,294553.8125,322272.125,315015.5625,285064.875,255336.234375,221042.046875,246236.75,0.0498046875,0.99365234375,0.15869140625,0.03051757626235485,-1.4038084745407104,-1.0375975370407104,73.33333587646484,257607.0,0.0
15162.8279731,296133.1875,294553.8125,322272.125,315015.5625,285064.875,255336.234375,221042.046875,246236.75,0.0498046875,0.99365234375,0.15869140625,0.03051757626235485,-1.4038084745407104,-1.0375975370407104,73.33333587646484,257608.0,0.0
15162.8279733,296143.65625,294578.40625,322299.125,315029.15625,285092.84375,255342.578125,221056.625,246240.515625,0.045166015625,0.9951171875,0.158203125,0.4577636420726776,-1.7089842557907104,-0.9155272841453552,73.33333587646484,257609.0,1.0
15162.8279745,296353.03125,295442.40625,323520.78125,315332.0625,285801.5,255535.25,221353.09375,246404.484375,0.04638671875,0.996337890625,0.160400390625,0.4272460639476776,-1.7395018339157104,-0.8544921278953552,73.33333587646484,257610.0,1.0
15162.8279757,296345.6875,295797.09375,324249.875,315330.28125,286160.09375,255584.515625,221400.203125,246387.046875,0.046142578125,0.99609375,0.158447265625,0.4272460639476776,-1.6479490995407104,-0.8544921278953552,73.33333587646484,257611.0,1.0
15162.827977,296134.25,295171.25,323492.6875,315035.96875,285685.15625,255423.953125,221148.796875,246241.9375,0.048583984375,0.99853515625,0.15869140625,0.4272460639476776,-1.7089842557907104,-0.9765624403953552,73.33333587646484,257612.0,1.0
15162.8279782,296011.6875,294426.21875,322290.0,314848.125,285024.0,255275.265625,220935.03125,246146.625,0.048828125,0.99853515625,0.16064453125,0.3662109076976776,-1.7395018339157104,-0.9155272841453552,73.33333587646484,257613.0,1.0
15162.8279794,296144.8125,294585.625,322297.25,315019.5,285087.40625,255353.21875,221056.703125,246228.265625,0.0498046875,0.99755859375,0.1591796875,0.2441406100988388,-1.6479490995407104,-0.9155272841453552,73.33333587646484,257614.0,1.0
15162.8279806,296357.15625,295449.03125,323526.40625,315320.0,285798.28125,255539.640625,221342.453125,246375.0625,0.05126953125,0.997314453125,0.1591796875,0.1220703050494194,-1.6479490995407104,-0.8850097060203552,73.33333587646484,257615.0,1.0
15162.8279818,296357.9375,295811.125,324265.34375,315330.65625,286165.65625,255579.328125,221396.8125,246369.609375,0.05126953125,0.994384765625,0.16162109375,0.0915527269244194,-1.5563963651657104,-0.7629393935203552,73.33333587646484,257616.0,1.0
15162.827983,296140.875,295172.9375,323496.1875,315030.96875,285680.875,255415.1875,221138.0625,246215.65625,0.050048828125,0.99267578125,0.1611328125,0.1220703050494194,-1.6174315214157104,-0.7934569716453552,73.33333587646484,257617.0,1.0
15162.842588,296016.5,294425.5,322292.40625,314844.625,285023.5625,255281.4375,220931.359375,246128.296875,0.049072265625,0.99267578125,0.157958984375,0.1831054538488388,-1.5563963651657104,-0.9460448622703552,73.33333587646484,257618.0,1.0
15162.8425985,296016.5,294425.5,322292.40625,314844.625,285023.5625,255281.4375,220931.359375,246128.296875,0.049072265625,0.99267578125,0.157958984375,0.1831054538488388,-1.5563963651657104,-0.9460448622703552,73.33333587646484,257619.0,0.0
15162.8425987,296016.5,294425.5,322292.40625,314844.625,285023.5625,255281.4375,220931.359375,246128.296875,0.049072265625,0.99267578125,0.157958984375,0.1831054538488388,-1.5563963651657104,-0.9460448622703552,73.33333587646484,257620.0,0.0
15162.8425989,296016.5,294425.5,322292.40625,314844.625,285023.5625,255281.4375,220931.359375,246128.296875,0.049072265625,0.99267578125,0.157958984375,0.1831054538488388,-1.5563963651657104,-0.9460448622703552,73.33333587646484,257621.0,0.0
15162.8425991,296016.5,294425.5,322292.40625,314844.625,285023.5625,255281.4375,220931.359375,246128.296875,0.049072265625,0.99267578125,0.157958984375,0.1831054538488388,-1.5563963651657104,-0.9460448622703552,73.33333587646484,257622.0,0.0
15162.8425993,296016.5,294425.5,322292.40625,314844.625,285023.5625,255281.4375,220931.359375,246128.296875,0.049072265625,0.99267578125,0.157958984375,0.1831054538488388,-1.5563963651657104,-0.9460448622703552,73.33333587646484,257623.0,0.0
15162.8425995,296016.5,294425.5,322292.40625,314844.625,285023.5625,255281.4375,220931.359375,246128.296875,0.049072265625,0.99267578125,0.157958984375,0.1831054538488388,-1.5563963651657104,-0.9460448622703552,73.33333587646484,257624.0,0.0
15162.8425997,296016.5,294425.5,322292.40625,314844.625,285023.5625,255281.4375,220931.359375,246128.296875,0.049072265625,0.99267578125,0.157958984375,0.1831054538488388,-1.5563963651657104,-0.9460448622703552,73.33333587646484,257625.0,0.0
15162.8425999,296016.5,294425.5,322292.40625,314844.625,285023.5625,255281.4375,220931.359375,246128.296875,0.049072265625,0.99267578125,0.157958984375,0.1831054538488388,-1.5563963651657104,-0.9460448622703552,73.33333587646484,257626.0,0.0
15162.8426,296016.5,294425.5,322292.40625,314844.625,285023.5625,255281.4375,220931.359375,246128.296875,0.049072265625,0.99267578125,0.157958984375,0.1831054538488388,-1.5563963651657104,-0.9460448622703552,73.33333587646484,257627.0,0.0
15162.8426002,296016.5,294425.5,322292.40625,314844.625,285023.5625,255281.4375,220931.359375,246128.296875,0.049072265625,0.99267578125,0.157958984375,0.1831054538488388,-1.5563963651657104,-0.9460448622703552,73.33333587646484,257628.0,0.0
15162.8426004,296153.375,294570.78125,322294.65625,315024.59375,285080.0625,255338.390625,221044.453125,246230.859375,0.046630859375,0.9951171875,0.159912109375,0.3356933295726776,-1.1596678495407104,-0.9155272841453552,73.33333587646484,257629.0,1.0
15162.8586542,296369.03125,295439.21875,323523.375,315331.71875,285797.5625,255529.890625,221340.75,246400.09375,0.046142578125,0.995361328125,0.164794921875,0.3356933295726776,-1.1901854276657104,-1.0070799589157104,73.33333587646484,257630.0,1.0
15162.8736642,296361.15625,295797.09375,324255.78125,315333.875,286160.28125,255574.421875,221392.875,246389.640625,0.048583984375,0.9951171875,0.165283203125,0.2746581733226776,-1.1291502714157104,-0.8850097060203552,73.33333587646484,257631.0,1.0
15162.9958767,296148.5625,295164.28125,323495.125,315040.25,285682.40625,255412.328125,221133.234375,246226.203125,0.04736328125,0.995361328125,0.16162109375,0.2746581733226776,-1.1291502714157104,-0.9155272841453552,73.33333587646484,257632.0,1.0
15162.9958932,296021.34375,294407.28125,322283.03125,314853.40625,285016.59375,255261.3125,220918.578125,246139.828125,0.04638671875,0.99658203125,0.16455078125,0.2136230319738388,-1.1291502714157104,-0.9765624403953552,73.33333587646484,257633.0,1.0
15162.9958945,296152.21875,294576.0625,322291.25,315027.1875,285084.625,255348.390625,221047.40625,246242.5625,0.045654296875,0.996337890625,0.162841796875,0.1831054538488388,-1.1596678495407104,-0.9765624403953552,73.33333587646484,257634.0,1.0
15162.9958957,296358.75,295436.25,323517.28125,315326.71875,285799.6875,255552.78125,221353.1875,246399.734375,0.04638671875,0.998291015625,0.16259765625,0.1831054538488388,-1.1901854276657104,-1.0681151151657104,73.33333587646484,257635.0,1.0
15162.9958969,296355.53125,295799.78125,324256.59375,315332.0,286171.46875,255604.1875,221416.21875,246391.96875,0.0478515625,0.998291015625,0.1650390625,0.1525878757238388,-1.2207030057907104,-1.0070799589157104,73.33333587646484,257636.0,1.0
15162.9958982,296141.5,295163.21875,323492.4375,315028.625,285685.4375,255418.9375,221134.40625,246212.96875,0.049072265625,0.99658203125,0.164794921875,-0.03051757626235485,-1.1596678495407104,-0.9460448622703552,73.33333587646484,257637.0,1.0
15162.9958994,296020.15625,294421.03125,322289.90625,314843.46875,285025.0625,255278.84375,220917.765625,246118.015625,0.049560546875,0.99658203125,0.163330078125,-0.1220703050494194,-1.2207030057907104,-0.9460448622703552,73.33333587646484,257638.0,1.0
15162.9959006,296150.15625,294586.0,322298.65625,315019.15625,285092.9375,255349.5625,221044.90625,246226.46875,0.047607421875,0.99365234375,0.15966796875,-0.2441406100988388,-1.2512205839157104,-0.8850097060203552,73.33333587646484,257639.0,1.0
15163.0274136,296357.875,295451.09375,323531.78125,315321.34375,285806.75,255527.296875,221335.203125,246376.3125,0.049072265625,0.993408203125,0.161865234375,-0.1831054538488388,-1.1901854276657104,-0.8544921278953552,73.33333587646484,257640.0,1.0
15163.0336596,296348.46875,295801.5625,324265.625,315326.90625,286168.40625,255571.28125,221393.6875,246380.703125,0.048828125,0.99267578125,0.162841796875,-0.2441406100988388,-1.1901854276657104,-0.8544921278953552,73.33333587646484,257641.0,1.0
15163.0379655,296141.21875,295172.15625,323505.125,315035.34375,285691.15625,255423.671875,221157.109375,246235.59375,0.049560546875,0.992431640625,0.1611328125,-0.2136230319738388,-1.2512205839157104,-0.9155272841453552,73.33333587646484,257642.0,1.0
15163.0379801,296015.6875,294421.65625,322300.1875,314846.96875,285027.03125,255289.484375,220937.703125,246130.53125,0.048583984375,0.994384765625,0.16455078125,-0.1831054538488388,-1.1901854276657104,-0.8850097060203552,73.33333587646484,257643.0,1.0
15163.0379845,296135.9375,294565.53125,322291.59375,315009.5,285077.65625,255343.5625,221038.46875,246217.890625,0.04833984375,0.993896484375,0.16650390625,-0.1831054538488388,-1.1291502714157104,-0.8850097060203552,73.33333587646484,257644.0,1.0
15163.0379857,296345.34375,295423.28125,323513.34375,315309.09375,285784.21875,255526.234375,221332.796875,246379.53125,0.050048828125,0.994140625,0.166748046875,-0.3051757514476776,-1.1291502714157104,-0.8544921278953552,73.33333587646484,257645.0,1.0
15163.037987,296334.625,295773.84375,324232.0,315307.84375,286134.8125,255554.5625,221373.828125,246371.671875,0.047607421875,0.9951171875,0.1650390625,-0.3356933295726776,-1.1596678495407104,-0.7934569716453552,73.33333587646484,257646.0,1.0
15163.0379896,296118.25,295127.1875,323449.78125,315009.21875,285641.71875,255383.984375,221111.328125,246213.5,0.046875,0.993408203125,0.16015625,-0.3662109076976776,-1.2512205839157104,-0.7934569716453552,73.33333587646484,257647.0,1.0
15163.0399262,296004.875,294392.25,322260.03125,314830.59375,284992.4375,255243.25,220901.40625,246116.5,0.046142578125,0.993896484375,0.161376953125,-0.2441406100988388,-1.1901854276657104,-0.7629393935203552,73.33333587646484,257648.0,1.0
15163.0424145,296141.6875,294563.0,322274.53125,315011.375,285068.4375,255332.296875,221035.34375,246224.953125,0.048095703125,0.992919921875,0.163330078125,-0.1220703050494194,-1.3732908964157104,-0.7934569716453552,73.33333587646484,257649.0,1.0
15163.0449008,296352.0625,295435.8125,323513.34375,315317.3125,285789.5,255523.546875,221335.484375,246386.78125,0.04736328125,0.9951171875,0.1640625,-0.0610351525247097,-1.3427733182907104,-0.7934569716453552,73.33333587646484,257650.0,1.0
15163.0474191,296352.0625,295802.46875,324261.96875,315330.5625,286162.34375,255566.640625,221392.78125,246383.015625,0.047607421875,0.9951171875,0.163330078125,-0.03051757626235485,-1.3732908964157104,-0.7934569716453552,73.33333587646484,257651.0,1.0
15163.0498966,296143.71875,295164.28125,323496.0,315036.84375,285681.15625,255412.40625,221139.046875,246226.03125,0.04833984375,0.9951171875,0.1630859375,-0.0915527269244194,-1.4343260526657104,-0.7629393935203552,73.33333587646484,257652.0,1.0
15163.0524026,296019.0,294410.40625,322286.0625,314854.03125,285017.9375,255267.75,220928.9375,246145.375,0.047607421875,0.993408203125,0.163818359375,0.03051757626235485,-1.4038084745407104,-0.8544921278953552,73.33333587646484,257653.0,1.0
15163.0557176,296019.0,294410.40625,322286.0625,314854.03125,285017.9375,255267.75,220928.9375,246145.375,0.047607421875,0.993408203125,0.163818359375,0.03051757626235485,-1.4038084745407104,-0.8544921278953552,73.33333587646484,257654.0,0.0
15163.0557186,296019.0,294410.40625,322286.0625,314854.03125,285017.9375,255267.75,220928.9375,246145.375,0.047607421875,0.993408203125,0.163818359375,0.03051757626235485,-1.4038084745407104,-0.8544921278953552,73.33333587646484,257655.0,0.0
15163.0557188,296019.0,294410.40625,322286.0625,314854.03125,285017.9375,255267.75,220928.9375,246145.375,0.047607421875,0.993408203125,0.163818359375,0.03051757626235485,-1.4038084745407104,-0.8544921278953552,73.33333587646484,257656.0,0.0
15163.0557189,296019.0,294410.40625,322286.0625,314854.03125,285017.9375,255267.75,220928.9375,246145.375,0.047607421875,0.993408203125,0.163818359375,0.03051757626235485,-1.4038084745407104,-0.8544921278953552,73.33333587646484,257657.0,0.0
15163.0557191,296019.0,294410.40625,322286.0625,314854.03125,285017.9375,255267.75,220928.9375,246145.375,0.047607421875,0.993408203125,0.163818359375,0.03051757626235485,-1.4038084745407104,-0.8544921278953552,73.33333587646484,257658.0,0.0
15163.0557193,296019.0,294410.40625,322286.0625,314854.03125,285017.9375,255267.75,220928.9375,246145.375,0.047607421875,0.993408203125,0.163818359375,0.03051757626235485,-1.4038084745407104,-0.8544921278953552,73.33333587646484,257659.0,0.0
15163.0557196,296019.0,294410.40625,322286.0625,314854.03125,285017.9375,255267.75,220928.9375,246145.375,0.047607421875,0.993408203125,0.163818359375,0.03051757626235485,-1.4038084745407104,-0.8544921278953552,73.33333587646484,257660.0,0.0
15163.0557198,296019.0,294410.40625,322286.0625,314854.03125,285017.9375,255267.75,220928.9375,246145.375,0.047607421875,0.993408203125,0.163818359375,0.03051757626235485,-1.4038084745407104,-0.8544921278953552,73.33333587646484,257661.0,0.0
15163.05572,296019.0,294410.40625,322286.0625,314854.03125,285017.9375,255267.75,220928.9375,246145.375,0.047607421875,0.993408203125,0.163818359375,0.03051757626235485,-1.4038084745407104,-0.8544921278953552,73.33333587646484,257662.0,0.0
15163.0557202,296019.0,294410.40625,322286.0625,314854.03125,285017.9375,255267.75,220928.9375,246145.375,0.047607421875,0.993408203125,0.163818359375,0.03051757626235485,-1.4038084745407104,-0.8544921278953552,73.33333587646484,257663.0,0.0
15163.0557204,296019.0,294410.40625,322286.0625,314854.03125,285017.9375,255267.75,220928.9375,246145.375,0.047607421875,0.993408203125,0.163818359375,0.03051757626235485,-1.4038084745407104,-0.8544921278953552,73.33333587646484,257664.0,0.0
15163.0557205,296019.0,294410.40625,322286.0625,314854.03125,285017.9375,255267.75,220928.9375,246145.375,0.047607421875,0.993408203125,0.163818359375,0.03051757626235485,-1.4038084745407104,-0.8544921278953552,73.33333587646484,257665.0,0.0
15163.0557207,296019.0,294410.40625,322286.0625,314854.03125,285017.9375,255267.75,220928.9375,246145.375,0.047607421875,0.993408203125,0.163818359375,0.03051757626235485,-1.4038084745407104,-0.8544921278953552,73.33333587646484,257666.0,0.0
15163.0557209,296019.0,294410.40625,322286.0625,314854.03125,285017.9375,255267.75,220928.9375,246145.375,0.047607421875,0.993408203125,0.163818359375,0.03051757626235485,-1.4038084745407104,-0.8544921278953552,73.33333587646484,257667.0,0.0
15163.0557211,296019.0,294410.40625,322286.0625,314854.03125,285017.9375,255267.75,220928.9375,246145.375,0.047607421875,0.993408203125,0.163818359375,0.03051757626235485,-1.4038084745407104,-0.8544921278953552,73.33333587646484,257668.0,0.0
15163.0557213,296019.0,294410.40625,322286.0625,314854.03125,285017.9375,255267.75,220928.9375,246145.375,0.047607421875,0.993408203125,0.163818359375,0.03051757626235485,-1.4038084745407104,-0.8544921278953552,73.33333587646484,257669.0,0.0
15163.0557214,296019.0,294410.40625,322286.0625,314854.03125,285017.9375,255267.75,220928.9375,246145.375,0.047607421875,0.993408203125,0.163818359375,0.03051757626235485,-1.4038084745407104,-0.8544921278953552,73.33333587646484,257670.0,0.0
15163.0557216,296019.0,294410.40625,322286.0625,314854.03125,285017.9375,255267.75,220928.9375,246145.375,0.047607421875,0.993408203125,0.163818359375,0.03051757626235485,-1.4038084745407104,-0.8544921278953552,73.33333587646484,257671.0,0.0
15163.0557217,296019.0,294410.40625,322286.0625,314854.03125,285017.9375,255267.75,220928.9375,246145.375,0.047607421875,0.993408203125,0.163818359375,0.03051757626235485,-1.4038084745407104,-0.8544921278953552,73.33333587646484,257672.0,0.0
15163.0557219,296019.0,294410.40625,322286.0625,314854.03125,285017.9375,255267.75,220928.9375,246145.375,0.047607421875,0.993408203125,0.163818359375,0.03051757626235485,-1.4038084745407104,-0.8544921278953552,73.33333587646484,257673.0,0.0
15163.0557221,296019.0,294410.40625,322286.0625,314854.03125,285017.9375,255267.75,220928.9375,246145.375,0.047607421875,0.993408203125,0.163818359375,0.03051757626235485,-1.4038084745407104,-0.8544921278953552,73.33333587646484,257674.0,0.0
15163.0557223,296019.0,294410.40625,322286.0625,314854.03125,285017.9375,255267.75,220928.9375,246145.375,0.047607421875,0.993408203125,0.163818359375,0.03051757626235485,-1.4038084745407104,-0.8544921278953552,73.33333587646484,257675.0,0.0
15163.0557225,296019.0,294410.40625,322286.0625,314854.03125,285017.9375,255267.75,220928.9375,246145.375,0.047607421875,0.993408203125,0.163818359375,0.03051757626235485,-1.4038084745407104,-0.8544921278953552,73.33333587646484,257676.0,0.0
15163.0557227,296019.0,294410.40625,322286.0625,314854.03125,285017.9375,255267.75,220928.9375,246145.375,0.047607421875,0.993408203125,0.163818359375,0.03051757626235485,-1.4038084745407104,-0.8544921278953552,73.33333587646484,257677.0,0.0
15163.0557228,296017.125,294403.4375,322271.65625,314847.65625,285013.71875,255264.625,220921.796875,246142.34375,0.049072265625,0.994384765625,0.159423828125,1.0375975370407104,-0.9765624403953552,-0.4272460639476776,73.33333587646484,257678.0,1.0
15163.0557268,296155.8125,294579.03125,322297.25,315030.5,285090.96875,255356.53125,221052.140625,246245.515625,0.04638671875,0.99609375,0.161865234375,1.0375975370407104,-1.0070799589157104,-0.5493163466453552,73.33333587646484,257679.0,1.0
15163.0557281,296376.46875,295461.1875,323547.96875,315339.3125,285817.125,255550.90625,221348.359375,246397.328125,0.0478515625,0.995849609375,0.16015625,1.0070799589157104,-1.0681151151657104,-0.5798339247703552,73.33333587646484,257680.0,1.0
15163.0600011,296367.96875,295817.125,324277.59375,315338.875,286177.71875,255592.03125,221399.9375,246393.65625,0.0478515625,0.995849609375,0.1611328125,1.1291502714157104,-1.0986326932907104,-0.8239745497703552,73.33333587646484,257681.0,1.0
15163.0600038,296151.25,295170.4375,323494.84375,315039.625,285685.78125,255432.34375,221146.03125,246242.46875,0.04541015625,0.9970703125,0.16064453125,1.0070799589157104,-1.1596678495407104,-0.9460448622703552,73.33333587646484,257682.0,1.0
15163.0762104,296037.6875,294433.65625,322291.96875,314863.6875,285033.5625,255316.296875,220951.5625,246162.09375,0.046142578125,1.001220703125,0.158203125,1.0070799589157104,-1.1901854276657104,-1.0070799589157104,73.33333587646484,257683.0,1.0
15163.0911842,296168.84375,294609.5,322310.03125,315034.53125,285099.28125,255379.6875,221053.3125,246232.734375,0.04638671875,1.001708984375,0.1640625,0.9155272841453552,-1.2512205839157104,-1.1291502714157104,73.33333587646484,257684.0,1.0
15163.1067036,296375.03125,295474.78125,323553.84375,315336.90625,285817.03125,255547.859375,221339.328125,246399.03125,0.047119140625,1.003173828125,0.161865234375,0.6713866591453552,-1.3122557401657104,-1.1901854276657104,73.33333587646484,257685.0,1.0
15163.1067127,296371.53125,295830.8125,324289.5,315340.125,286184.5,255590.0625,221393.40625,246390.265625,0.048828125,1.001220703125,0.15966796875,0.6103515028953552,-1.2817381620407104,-1.2512205839157104,73.33333587646484,257686.0,1.0
15163.1067141,296151.875,295181.25,323505.65625,315032.28125,285688.125,255410.453125,221116.703125,246206.796875,0.04931640625,0.9990234375,0.160888671875,0.3662109076976776,-1.3427733182907104,-1.1901854276657104,73.33333587646484,257687.0,1.0
15163.1211766,296027.5,294426.3125,322290.0,314852.15625,285021.78125,255257.921875,220902.5625,246127.40625,0.050537109375,0.99609375,0.162109375,0.4272460639476776,-1.3427733182907104,-1.2817381620407104,73.33333587646484,257688.0,1.0
15163.1312628,296027.5,294426.3125,322290.0,314852.15625,285021.78125,255257.921875,220902.5625,246127.40625,0.050537109375,0.99609375,0.162109375,0.4272460639476776,-1.3427733182907104,-1.2817381620407104,73.33333587646484,257689.0,0.0
15163.1312636,296027.5,294426.3125,322290.0,314852.15625,285021.78125,255257.921875,220902.5625,246127.40625,0.050537109375,0.99609375,0.162109375,0.4272460639476776,-1.3427733182907104,-1.2817381620407104,73.33333587646484,257690.0,0.0
15163.1312638,296027.5,294426.3125,322290.0,314852.15625,285021.78125,255257.921875,220902.5625,246127.40625,0.050537109375,0.99609375,0.162109375,0.4272460639476776,-1.3427733182907104,-1.2817381620407104,73.33333587646484,257691.0,0.0
15163.131264,296027.5,294426.3125,322290.0,314852.15625,285021.78125,255257.921875,220902.5625,246127.40625,0.050537109375,0.99609375,0.162109375,0.4272460639476776,-1.3427733182907104,-1.2817381620407104,73.33333587646484,257692.0,0.0
15163.1312642,296027.5,294426.3125,322290.0,314852.15625,285021.78125,255257.921875,220902.5625,246127.40625,0.050537109375,0.99609375,0.162109375,0.4272460639476776,-1.3427733182907104,-1.2817381620407104,73.33333587646484,257693.0,0.0
15163.1312644,296027.5,294426.3125,322290.0,314852.15625,285021.78125,255257.921875,220902.5625,246127.40625,0.050537109375,0.99609375,0.162109375,0.4272460639476776,-1.3427733182907104,-1.2817381620407104,73.33333587646484,257694.0,0.0
15163.1312646,296027.5,294426.3125,322290.0,314852.15625,285021.78125,255257.921875,220902.5625,246127.40625,0.050537109375,0.99609375,0.162109375,0.4272460639476776,-1.3427733182907104,-1.2817381620407104,73.33333587646484,257695.0,0.0
15163.1312648,296027.5,294426.3125,322290.0,314852.15625,285021.78125,255257.921875,220902.5625,246127.40625,0.050537109375,0.99609375,0.162109375,0.4272460639476776,-1.3427733182907104,-1.2817381620407104,73.33333587646484,257696.0,0.0
15163.1312649,296027.5,294426.3125,322290.0,314852.15625,285021.78125,255257.921875,220902.5625,246127.40625,0.050537109375,0.99609375,0.162109375,0.4272460639476776,-1.3427733182907104,-1.2817381620407104,73.33333587646484,257697.0,0.0
15163.1312651,296027.5,294426.3125,322290.0,314852.15625,285021.78125,255257.921875,220902.5625,246127.40625,0.050537109375,0.99609375,0.162109375,0.4272460639476776,-1.3427733182907104,-1.2817381620407104,73.33333587646484,257698.0,0.0
15163.1312653,296027.5,294426.3125,322290.0,314852.15625,285021.78125,255257.921875,220902.5625,246127.40625,0.050537109375,0.99609375,0.162109375,0.4272460639476776,-1.3427733182907104,-1.2817381620407104,73.33333587646484,257699.0,0.0
15163.1312655,296027.5,294426.3125,322290.0,314852.15625,285021.78125,255257.921875,220902.5625,246127.40625,0.050537109375,0.99609375,0.162109375,0.4272460639476776,-1.3427733182907104,-1.2817381620407104,73.33333587646484,257700.0,0.0
15163.1312656,296027.5,294426.3125,322290.0,314852.15625,285021.78125,255257.921875,220902.5625,246127.40625,0.050537109375,0.99609375,0.162109375,0.4272460639476776,-1.3427733182907104,-1.2817381620407104,73.33333587646484,257701.0,0.0
15163.1312658,296027.5,294426.3125,322290.0,314852.15625,285021.78125,255257.921875,220902.5625,246127.40625,0.050537109375,0.99609375,0.162109375,0.4272460639476776,-1.3427733182907104,-1.2817381620407104,73.33333587646484,257702.0,0.0
15163.131266,296027.5,294426.3125,322290.0,314852.15625,285021.78125,255257.921875,220902.5625,246127.40625,0.050537109375,0.99609375,0.162109375,0.4272460639476776,-1.3427733182907104,-1.2817381620407104,73.33333587646484,257703.0,0.0
15163.1312661,296027.5,294426.3125,322290.0,314852.15625,285021.78125,255257.921875,220902.5625,246127.40625,0.050537109375,0.99609375,0.162109375,0.4272460639476776,-1.3427733182907104,-1.2817381620407104,73.33333587646484,257704.0,0.0
15163.1312663,296027.5,294426.3125,322290.0,314852.15625,285021.78125,255257.921875,220902.5625,246127.40625,0.050537109375,0.99609375,0.162109375,0.4272460639476776,-1.3427733182907104,-1.2817381620407104,73.33333587646484,257705.0,0.0
15163.1312665,296027.5,294426.3125,322290.0,314852.15625,285021.78125,255257.921875,220902.5625,246127.40625,0.050537109375,0.99609375,0.162109375,0.4272460639476776,-1.3427733182907104,-1.2817381620407104,73.33333587646484,257706.0,0.0
15163.1312666,296027.5,294426.3125,322290.0,314852.15625,285021.78125,255257.921875,220902.5625,246127.40625,0.050537109375,0.99609375,0.162109375,0.4272460639476776,-1.3427733182907104,-1.2817381620407104,73.33333587646484,257707.0,0.0
15163.1312668,296027.5,294426.3125,322290.0,314852.15625,285021.78125,255257.921875,220902.5625,246127.40625,0.050537109375,0.99609375,0.162109375,0.4272460639476776,-1.3427733182907104,-1.2817381620407104,73.33333587646484,257708.0,0.0
15163.131267,296027.5,294426.3125,322290.0,314852.15625,285021.78125,255257.921875,220902.5625,246127.40625,0.050537109375,0.99609375,0.162109375,0.4272460639476776,-1.3427733182907104,-1.2817381620407104,73.33333587646484,257709.0,0.0
15163.1312671,296371.625,295473.1875,323550.375,315324.375,285816.15625,255545.265625,221349.25,246394.015625,0.0478515625,0.995361328125,0.162109375,0.3051757514476776,-1.7089842557907104,-0.8239745497703552,73.33333587646484,257710.0,1.0
15163.13127,296357.9375,295815.59375,324269.1875,315321.4375,286170.375,255580.046875,221391.453125,246376.5,0.048828125,0.99560546875,0.16259765625,0.2746581733226776,-1.7395018339157104,-0.7934569716453552,73.33333587646484,257711.0,1.0
15163.1312712,296136.21875,295158.28125,323469.625,315016.125,285669.25,255417.328125,221127.15625,246218.78125,0.05029296875,0.9951171875,0.162841796875,0.2441406100988388,-1.7089842557907104,-0.7934569716453552,73.33333587646484,257712.0,1.0
15163.1312724,296019.71875,294414.34375,322262.71875,314842.125,285014.78125,255297.703125,220938.875,246149.046875,0.05029296875,0.994873046875,0.162109375,0.2746581733226776,-1.6784666776657104,-0.7019042372703552,73.33333587646484,257713.0,1.0
15163.1312737,296152.03125,294593.40625,322291.15625,315019.5,285092.84375,255363.15625,221064.03125,246248.375,0.05126953125,0.9951171875,0.161865234375,0.2441406100988388,-1.5563963651657104,-0.6408690810203552,73.33333587646484,257714.0,1.0
15163.1661864,296365.1875,295466.84375,323537.9375,315318.65625,285811.21875,255535.4375,221339.953125,246379.53125,0.052001953125,0.994873046875,0.162353515625,0.2746581733226776,-1.4953612089157104,-0.7629393935203552,73.33333587646484,257715.0,1.0
15163.1811815,296363.40625,295820.34375,324268.3125,315324.375,286173.78125,255571.828125,221386.171875,246373.90625,0.052734375,0.992919921875,0.161376953125,0.1525878757238388,-1.4038084745407104,-0.6713866591453552,73.33333587646484,257716.0,1.0
15163.1874042,296150.25,295168.46875,323478.5625,315023.96875,285679.4375,255418.21875,221134.84375,246225.046875,0.05126953125,0.99267578125,0.16357421875,0.2136230319738388,-1.3732908964157104,-0.6103515028953552,73.33333587646484,257717.0,1.0
15163.1955676,296028.21875,294421.3125,322270.5,314842.21875,285018.90625,255289.484375,220935.5625,246146.0,0.05322265625,0.990966796875,0.1640625,0.3051757514476776,-1.3122557401657104,-0.5798339247703552,73.33333587646484,257718.0,1.0
15163.1955842,296157.9375,294597.875,322293.40625,315015.5,285092.59375,255357.421875,221048.75,246233.265625,0.053466796875,0.991455078125,0.16259765625,0.3967284858226776,-1.1901854276657104,-0.5493163466453552,73.33333587646484,257719.0,1.0
15163.1955855,296367.25,295472.5625,323538.3125,315317.3125,285815.34375,255548.3125,221347.1875,246389.28125,0.051513671875,0.993408203125,0.161865234375,0.3051757514476776,-1.1291502714157104,-0.4882812201976776,73.33333587646484,257720.0,1.0
15163.2271482,296357.875,295822.40625,324263.3125,315319.90625,286172.96875,255591.859375,221396.625,246379.796875,0.05126953125,0.99462890625,0.163330078125,0.3051757514476776,-1.0070799589157104,-0.3967284858226776,73.33333587646484,257721.0,1.0
15163.2271525,296143.0,295172.59375,323476.0625,315025.21875,285682.40625,255428.421875,221141.546875,246234.96875,0.051513671875,0.991455078125,0.160888671875,0.3662109076976776,-1.0070799589157104,-0.4882812201976776,73.33333587646484,257722.0,1.0
15163.2271538,296014.09375,294420.84375,322264.875,314831.65625,285015.96875,255272.21875,220919.109375,246128.578125,0.0517578125,0.99169921875,0.161865234375,0.3356933295726776,-0.9460448622703552,-0.5493163466453552,73.33333587646484,257723.0,1.0
15163.227155,296153.28125,294601.375,322297.6875,315018.15625,285101.0625,255365.390625,221055.1875,246237.828125,0.050537109375,0.994140625,0.161865234375,0.4577636420726776,-0.9155272841453552,-0.5493163466453552,73.33333587646484,257724.0,1.0
15163.2271562,296368.40625,295483.28125,323546.53125,315326.96875,285827.9375,255569.671875,221363.90625,246412.703125,0.051025390625,0.99365234375,0.16357421875,0.5187987685203552,-0.9460448622703552,-0.6103515028953552,73.33333587646484,257725.0,1.0
15163.2271578,296363.40625,295837.34375,324277.875,315328.78125,286187.1875,255608.125,221405.03125,246387.046875,0.049072265625,0.99365234375,0.16357421875,0.5798339247703552,-0.9460448622703552,-0.5798339247703552,73.33333587646484,257726.0,1.0
15163.227159,296152.3125,295188.59375,323488.6875,315026.21875,285687.6875,255435.21875,221128.859375,246208.046875,0.048095703125,0.99267578125,0.163818359375,0.5798339247703552,-1.0375975370407104,-0.6713866591453552,73.33333587646484,257727.0,1.0
15163.2271604,296028.40625,294433.28125,322273.625,314841.5,285022.21875,255282.765625,220916.515625,246124.1875,0.047607421875,0.99267578125,0.16162109375,0.5798339247703552,-1.0681151151657104,-0.9155272841453552,73.33333587646484,257728.0,1.0
15163.2299024,296160.09375,294602.09375,322295.71875,315020.84375,285097.5,255357.78125,221047.765625,246234.25,0.047607421875,0.992431640625,0.160888671875,0.7324218153953552,-1.0986326932907104,-0.9765624403953552,73.33333587646484,257729.0,1.0
15163.3172231,296374.75,295481.9375,323543.21875,315329.40625,285825.28125,255562.609375,221354.4375,246402.421875,0.046630859375,0.99462890625,0.1640625,0.6408690810203552,-1.1901854276657104,-0.9155272841453552,73.33333587646484,257730.0,1.0
15163.3172445,296370.90625,295836.96875,324274.125,315330.8125,286187.0,255597.125,221399.9375,246384.625,0.045166015625,0.995361328125,0.1630859375,0.6103515028953552,-1.2512205839157104,-0.8850097060203552,73.33333587646484,257731.0,1.0
15163.3172467,296158.21875,295182.6875,323484.84375,315031.40625,285690.34375,255427.34375,221131.71875,246222.453125,0.04833984375,0.994140625,0.1640625,0.6408690810203552,-1.3732908964157104,-0.9460448622703552,73.33333587646484,257732.0,1.0
15163.3172484,296039.40625,294433.5625,322278.46875,314851.875,285028.03125,255276.6875,220922.421875,246138.578125,0.0537109375,0.98974609375,0.163818359375,0.7324218153953552,-1.2817381620407104,-1.0070799589157104,73.33333587646484,257733.0,1.0
15163.31725,296172.34375,294605.125,322299.5625,315032.65625,285104.46875,255361.453125,221058.859375,246250.875,0.054931640625,0.992431640625,0.16015625,0.7324218153953552,-1.2512205839157104,-0.9765624403953552,73.33333587646484,257734.0,1.0
15163.3172518,296386.1875,295488.8125,323555.71875,315331.53125,285831.4375,255558.765625,221351.921875,246390.078125,0.052978515625,0.99462890625,0.16259765625,0.7324218153953552,-1.3122557401657104,-0.8239745497703552,73.33333587646484,257735.0,1.0
15163.3172535,296376.28125,295836.09375,324278.21875,315331.4375,286187.0,255596.59375,221394.9375,246382.671875,0.051025390625,0.995849609375,0.16162109375,0.7934569716453552,-1.2207030057907104,-0.7324218153953552,73.33333587646484,257736.0,1.0
15163.3172552,296157.21875,295179.21875,323484.125,315026.5,285691.4375,255429.40625,221130.828125,246217.078125,0.051025390625,0.9970703125,0.161376953125,0.8544921278953552,-1.1901854276657104,-0.6408690810203552,73.33333587646484,257737.0,1.0
15163.3329984,296036.71875,294430.4375,322273.625,314846.0625,285031.6875,255285.28125,220922.0625,246130.171875,0.04931640625,0.996337890625,0.159912109375,0.8239745497703552,-1.0986326932907104,-0.7629393935203552,73.33333587646484,257738.0,1.0
15163.3330108,296171.28125,294610.125,322300.1875,315025.9375,285106.71875,255349.296875,221044.546875,246236.75,0.050537109375,0.99609375,0.1591796875,0.7934569716453552,-1.2207030057907104,-0.7629393935203552,73.33333587646484,257739.0,1.0
15163.3498811,296381.65625,295485.4375,323549.21875,315330.8125,285831.71875,255550.640625,221353.09375,246407.703125,0.05029296875,0.994384765625,0.15869140625,0.6713866591453552,-1.1291502714157104,-0.7629393935203552,73.33333587646484,257740.0,1.0
15163.3648931,296372.53125,295829.90625,324273.21875,315330.46875,286188.09375,255576.65625,221397.890625,246404.390625,0.050537109375,0.994140625,0.162353515625,0.7019042372703552,-1.1596678495407104,-0.8544921278953552,73.33333587646484,257741.0,1.0
15163.3961657,296153.375,295161.9375,323468.84375,315015.9375,285677.75,255404.546875,221107.578125,246199.015625,0.050048828125,0.993408203125,0.162841796875,0.6408690810203552,-1.2512205839157104,-0.8239745497703552,73.33333587646484,257742.0,1.0
15163.4120464,296045.84375,294432.84375,322272.21875,314842.75,285025.0625,255276.6875,220907.125,246111.5,0.04736328125,0.995849609375,0.163818359375,0.5187987685203552,-1.1901854276657104,-0.7934569716453552,73.33333587646484,257743.0,1.0
15163.4120647,296182.8125,294624.96875,322312.25,315030.78125,285112.25,255363.5,221053.84375,246226.734375,0.046875,0.994873046875,0.162353515625,0.4882812201976776,-1.2817381620407104,-0.7934569716453552,73.33333587646484,257744.0,1.0
15163.412066,296383.53125,295491.15625,323558.59375,315331.4375,285831.8125,255543.21875,221341.5625,246388.75,0.046875,0.996337890625,0.16015625,0.4882812201976776,-1.3122557401657104,-0.7934569716453552,73.33333587646484,257745.0,1.0
15163.4120673,296367.4375,295826.25,324277.15625,315329.3125,286183.0625,255578.171875,221382.234375,246382.84375,0.045166015625,0.9970703125,0.159423828125,0.4272460639476776,-1.4038084745407104,-0.9155272841453552,73.33333587646484,257746.0,1.0
15163.4262973,296151.59375,295167.0625,323474.1875,315029.0,285678.90625,255409.640625,221115.359375,246219.046875,0.04541015625,0.995849609375,0.1611328125,0.4882812201976776,-1.5258787870407104,-1.1291502714157104,73.33333587646484,257747.0,1.0
15163.4411761,296033.9375,294421.125,322265.9375,314846.5,285017.9375,255274.1875,220911.953125,246127.859375,0.044189453125,0.996337890625,0.16015625,0.4577636420726776,-1.6174315214157104,-1.0986326932907104,73.33333587646484,257748.0,1.0
15163.4607581,296175.28125,294610.40625,322306.0,315032.03125,285108.0625,255367.078125,221052.765625,246241.484375,0.044189453125,0.996337890625,0.160888671875,0.4882812201976776,-1.7700194120407104,-1.1596678495407104,73.33333587646484,257749.0,1.0
15163.4607657,296388.875,295497.59375,323568.59375,315337.875,285841.53125,255554.921875,221353.0,246399.46875,0.044677734375,0.99755859375,0.164306640625,0.4577636420726776,-1.8615721464157104,-1.1901854276657104,73.33333587646484,257750.0,1.0
15163.4607692,296388.875,295497.59375,323568.59375,315337.875,285841.53125,255554.921875,221353.0,246399.46875,0.044677734375,0.99755859375,0.164306640625,0.4577636420726776,-1.8615721464157104,-1.1901854276657104,73.33333587646484,257751.0,0.0
15163.4607694,296388.875,295497.59375,323568.59375,315337.875,285841.53125,255554.921875,221353.0,246399.46875,0.044677734375,0.99755859375,0.164306640625,0.4577636420726776,-1.8615721464157104,-1.1901854276657104,73.33333587646484,257752.0,0.0
15163.4607695,296388.875,295497.59375,323568.59375,315337.875,285841.53125,255554.921875,221353.0,246399.46875,0.044677734375,0.99755859375,0.164306640625,0.4577636420726776,-1.8615721464157104,-1.1901854276657104,73.33333587646484,257753.0,0.0
15163.4607697,296388.875,295497.59375,323568.59375,315337.875,285841.53125,255554.921875,221353.0,246399.46875,0.044677734375,0.99755859375,0.164306640625,0.4577636420726776,-1.8615721464157104,-1.1901854276657104,73.33333587646484,257754.0,0.0
15163.4607699,296388.875,295497.59375,323568.59375,315337.875,285841.53125,255554.921875,221353.0,246399.46875,0.044677734375,0.99755859375,0.164306640625,0.4577636420726776,-1.8615721464157104,-1.1901854276657104,73.33333587646484,257755.0,0.0
15163.4607702,296388.875,295497.59375,323568.59375,315337.875,285841.53125,255554.921875,221353.0,246399.46875,0.044677734375,0.99755859375,0.164306640625,0.4577636420726776,-1.8615721464157104,-1.1901854276657104,73.33333587646484,257756.0,0.0
15163.4607703,296388.875,295497.59375,323568.59375,315337.875,285841.53125,255554.921875,221353.0,246399.46875,0.044677734375,0.99755859375,0.164306640625,0.4577636420726776,-1.8615721464157104,-1.1901854276657104,73.33333587646484,257757.0,0.0
15163.4607708,296388.875,295497.59375,323568.59375,315337.875,285841.53125,255554.921875,221353.0,246399.46875,0.044677734375,0.99755859375,0.164306640625,0.4577636420726776,-1.8615721464157104,-1.1901854276657104,73.33333587646484,257758.0,0.0
15163.4607709,296388.875,295497.59375,323568.59375,315337.875,285841.53125,255554.921875,221353.0,246399.46875,0.044677734375,0.99755859375,0.164306640625,0.4577636420726776,-1.8615721464157104,-1.1901854276657104,73.33333587646484,257759.0,0.0
15163.4607711,296388.875,295497.59375,323568.59375,315337.875,285841.53125,255554.921875,221353.0,246399.46875,0.044677734375,0.99755859375,0.164306640625,0.4577636420726776,-1.8615721464157104,-1.1901854276657104,73.33333587646484,257760.0,0.0
15163.4607713,296388.875,295497.59375,323568.59375,315337.875,285841.53125,255554.921875,221353.0,246399.46875,0.044677734375,0.99755859375,0.164306640625,0.4577636420726776,-1.8615721464157104,-1.1901854276657104,73.33333587646484,257761.0,0.0
15163.4607715,296388.875,295497.59375,323568.59375,315337.875,285841.53125,255554.921875,221353.0,246399.46875,0.044677734375,0.99755859375,0.164306640625,0.4577636420726776,-1.8615721464157104,-1.1901854276657104,73.33333587646484,257762.0,0.0
15163.4607716,296388.875,295497.59375,323568.59375,315337.875,285841.53125,255554.921875,221353.0,246399.46875,0.044677734375,0.99755859375,0.164306640625,0.4577636420726776,-1.8615721464157104,-1.1901854276657104,73.33333587646484,257763.0,0.0
15163.4607718,296388.875,295497.59375,323568.59375,315337.875,285841.53125,255554.921875,221353.0,246399.46875,0.044677734375,0.99755859375,0.164306640625,0.4577636420726776,-1.8615721464157104,-1.1901854276657104,73.33333587646484,257764.0,0.0
15163.460772,296388.875,295497.59375,323568.59375,315337.875,285841.53125,255554.921875,221353.0,246399.46875,0.044677734375,0.99755859375,0.164306640625,0.4577636420726776,-1.8615721464157104,-1.1901854276657104,73.33333587646484,257765.0,0.0
15163.4607722,296388.875,295497.59375,323568.59375,315337.875,285841.53125,255554.921875,221353.0,246399.46875,0.044677734375,0.99755859375,0.164306640625,0.4577636420726776,-1.8615721464157104,-1.1901854276657104,73.33333587646484,257766.0,0.0
15163.4607723,296388.875,295497.59375,323568.59375,315337.875,285841.53125,255554.921875,221353.0,246399.46875,0.044677734375,0.99755859375,0.164306640625,0.4577636420726776,-1.8615721464157104,-1.1901854276657104,73.33333587646484,257767.0,0.0
15163.4607725,296388.875,295497.59375,323568.59375,315337.875,285841.53125,255554.921875,221353.0,246399.46875,0.044677734375,0.99755859375,0.164306640625,0.4577636420726776,-1.8615721464157104,-1.1901854276657104,73.33333587646484,257768.0,0.0
15163.4607727,296388.875,295497.59375,323568.59375,315337.875,285841.53125,255554.921875,221353.0,246399.46875,0.044677734375,0.99755859375,0.164306640625,0.4577636420726776,-1.8615721464157104,-1.1901854276657104,73.33333587646484,257769.0,0.0
15163.4607728,296388.875,295497.59375,323568.59375,315337.875,285841.53125,255554.921875,221353.0,246399.46875,0.044677734375,0.99755859375,0.164306640625,0.4577636420726776,-1.8615721464157104,-1.1901854276657104,73.33333587646484,257770.0,0.0
15163.460773,296388.875,295497.59375,323568.59375,315337.875,285841.53125,255554.921875,221353.0,246399.46875,0.044677734375,0.99755859375,0.164306640625,0.4577636420726776,-1.8615721464157104,-1.1901854276657104,73.33333587646484,257771.0,0.0
15163.4607732,296388.875,295497.59375,323568.59375,315337.875,285841.53125,255554.921875,221353.0,246399.46875,0.044677734375,0.99755859375,0.164306640625,0.4577636420726776,-1.8615721464157104,-1.1901854276657104,73.33333587646484,257772.0,0.0
15163.4607734,296388.875,295497.59375,323568.59375,315337.875,285841.53125,255554.921875,221353.0,246399.46875,0.044677734375,0.99755859375,0.164306640625,0.4577636420726776,-1.8615721464157104,-1.1901854276657104,73.33333587646484,257773.0,0.0
15163.4607735,296388.875,295497.59375,323568.59375,315337.875,285841.53125,255554.921875,221353.0,246399.46875,0.044677734375,0.99755859375,0.164306640625,0.4577636420726776,-1.8615721464157104,-1.1901854276657104,73.33333587646484,257774.0,0.0
15163.4607737,296388.875,295497.59375,323568.59375,315337.875,285841.53125,255554.921875,221353.0,246399.46875,0.044677734375,0.99755859375,0.164306640625,0.4577636420726776,-1.8615721464157104,-1.1901854276657104,73.33333587646484,257775.0,0.0
15163.4607739,296388.875,295497.59375,323568.59375,315337.875,285841.53125,255554.921875,221353.0,246399.46875,0.044677734375,0.99755859375,0.164306640625,0.4577636420726776,-1.8615721464157104,-1.1901854276657104,73.33333587646484,257776.0,0.0
15163.4607741,296388.875,295497.59375,323568.59375,315337.875,285841.53125,255554.921875,221353.0,246399.46875,0.044677734375,0.99755859375,0.164306640625,0.4577636420726776,-1.8615721464157104,-1.1901854276657104,73.33333587646484,257777.0,0.0
15163.4607743,296388.875,295497.59375,323568.59375,315337.875,285841.53125,255554.921875,221353.0,246399.46875,0.044677734375,0.99755859375,0.164306640625,0.4577636420726776,-1.8615721464157104,-1.1901854276657104,73.33333587646484,257778.0,0.0
15163.4607744,296388.875,295497.59375,323568.59375,315337.875,285841.53125,255554.921875,221353.0,246399.46875,0.044677734375,0.99755859375,0.164306640625,0.4577636420726776,-1.8615721464157104,-1.1901854276657104,73.33333587646484,257779.0,0.0
15163.4607746,296388.875,295497.59375,323568.59375,315337.875,285841.53125,255554.921875,221353.0,246399.46875,0.044677734375,0.99755859375,0.164306640625,0.4577636420726776,-1.8615721464157104,-1.1901854276657104,73.33333587646484,257780.0,0.0
15163.4607748,296388.875,295497.59375,323568.59375,315337.875,285841.53125,255554.921875,221353.0,246399.46875,0.044677734375,0.99755859375,0.164306640625,0.4577636420726776,-1.8615721464157104,-1.1901854276657104,73.33333587646484,257781.0,0.0
15163.4607749,296388.875,295497.59375,323568.59375,315337.875,285841.53125,255554.921875,221353.0,246399.46875,0.044677734375,0.99755859375,0.164306640625,0.4577636420726776,-1.8615721464157104,-1.1901854276657104,73.33333587646484,257782.0,0.0
15163.4607751,296388.875,295497.59375,323568.59375,315337.875,285841.53125,255554.921875,221353.0,246399.46875,0.044677734375,0.99755859375,0.164306640625,0.4577636420726776,-1.8615721464157104,-1.1901854276657104,73.33333587646484,257783.0,0.0
15163.4607753,296388.875,295497.59375,323568.59375,315337.875,285841.53125,255554.921875,221353.0,246399.46875,0.044677734375,0.99755859375,0.164306640625,0.4577636420726776,-1.8615721464157104,-1.1901854276657104,73.33333587646484,257784.0,0.0
15163.4607755,296388.875,295497.59375,323568.59375,315337.875,285841.53125,255554.921875,221353.0,246399.46875,0.044677734375,0.99755859375,0.164306640625,0.4577636420726776,-1.8615721464157104,-1.1901854276657104,73.33333587646484,257785.0,0.0
15163.4607757,296388.875,295497.59375,323568.59375,315337.875,285841.53125,255554.921875,221353.0,246399.46875,0.044677734375,0.99755859375,0.164306640625,0.4577636420726776,-1.8615721464157104,-1.1901854276657104,73.33333587646484,257786.0,0.0
15163.4607758,296388.875,295497.59375,323568.59375,315337.875,285841.53125,255554.921875,221353.0,246399.46875,0.044677734375,0.99755859375,0.164306640625,0.4577636420726776,-1.8615721464157104,-1.1901854276657104,73.33333587646484,257787.0,0.0
15163.460776,296388.875,295497.59375,323568.59375,315337.875,285841.53125,255554.921875,221353.0,246399.46875,0.044677734375,0.99755859375,0.164306640625,0.4577636420726776,-1.8615721464157104,-1.1901854276657104,73.33333587646484,257788.0,0.0
15163.4607762,296388.875,295497.59375,323568.59375,315337.875,285841.53125,255554.921875,221353.0,246399.46875,0.044677734375,0.99755859375,0.164306640625,0.4577636420726776,-1.8615721464157104,-1.1901854276657104,73.33333587646484,257789.0,0.0
15163.4607764,296388.875,295497.59375,323568.59375,315337.875,285841.53125,255554.921875,221353.0,246399.46875,0.044677734375,0.99755859375,0.164306640625,0.4577636420726776,-1.8615721464157104,-1.1901854276657104,73.33333587646484,257790.0,0.0
15163.4607765,296388.875,295497.59375,323568.59375,315337.875,285841.53125,255554.921875,221353.0,246399.46875,0.044677734375,0.99755859375,0.164306640625,0.4577636420726776,-1.8615721464157104,-1.1901854276657104,73.33333587646484,257791.0,0.0
15163.4607767,296388.875,295497.59375,323568.59375,315337.875,285841.53125,255554.921875,221353.0,246399.46875,0.044677734375,0.99755859375,0.164306640625,0.4577636420726776,-1.8615721464157104,-1.1901854276657104,73.33333587646484,257792.0,0.0
15163.4607769,296388.875,295497.59375,323568.59375,315337.875,285841.53125,255554.921875,221353.0,246399.46875,0.044677734375,0.99755859375,0.164306640625,0.4577636420726776,-1.8615721464157104,-1.1901854276657104,73.33333587646484,257793.0,0.0
15163.4607771,296169.03125,294590.46875,322290.34375,315020.84375,285096.4375,255346.96875,221037.484375,246237.015625,0.0478515625,0.9892578125,0.161865234375,0.3662109076976776,-1.5563963651657104,-0.8239745497703552,73.33333587646484,257794.0,1.0
15163.4607784,296383.875,295473.96875,323545.625,315328.0625,285827.0625,255550.546875,221344.515625,246399.46875,0.048583984375,0.98974609375,0.16015625,0.4272460639476776,-1.5258787870407104,-0.7934569716453552,73.33333587646484,257795.0,1.0
15163.4607796,296382.90625,295833.5,324278.125,315333.15625,286193.8125,255594.171875,221397.4375,246385.4375,0.0498046875,0.990234375,0.160400390625,0.6103515028953552,-1.4343260526657104,-0.7629393935203552,73.33333587646484,257796.0,1.0
15163.4607808,296162.3125,295172.0625,323475.71875,315025.59375,285687.125,255413.125,221125.90625,246220.84375,0.04931640625,0.990234375,0.162109375,0.7629393935203552,-1.4343260526657104,-0.7629393935203552,73.33333587646484,257797.0,1.0
15163.4607822,296036.1875,294414.40625,322252.53125,314835.59375,285014.78125,255274.015625,220913.125,246123.921875,0.04931640625,0.990966796875,0.1630859375,0.7934569716453552,-1.4648436307907104,-0.8544921278953552,73.33333587646484,257798.0,1.0
15163.4748861,296172.53125,294598.40625,322286.5,315020.9375,285100.4375,255366.375,221049.203125,246242.296875,0.04736328125,0.993408203125,0.16064453125,0.8544921278953552,-1.4953612089157104,-0.8850097060203552,73.33333587646484,257799.0,1.0
15163.489881,296384.25,295483.1875,323549.75,315326.28125,285831.71875,255554.921875,221347.71875,246399.296875,0.04736328125,0.994384765625,0.160888671875,0.7934569716453552,-1.5563963651657104,-0.8850097060203552,73.33333587646484,257800.0,1.0
15163.5049356,296374.84375,295834.90625,324280.28125,315326.625,286194.6875,255595.609375,221395.65625,246380.703125,0.04931640625,0.99609375,0.159912109375,0.7629393935203552,-1.5563963651657104,-0.7934569716453552,73.33333587646484,257801.0,1.0
15163.5198616,296156.4375,295172.21875,323477.9375,315021.125,285691.4375,255429.125,221131.625,246215.390625,0.049560546875,0.99609375,0.16552734375,0.7629393935203552,-1.5869139432907104,-0.8544921278953552,73.33333587646484,257802.0,1.0
15163.5348862,296036.25,294422.09375,322259.78125,314840.0625,285026.40625,255294.75,220927.953125,246132.421875,0.0478515625,0.9970703125,0.159912109375,0.8544921278953552,-1.4343260526657104,-0.8239745497703552,73.33333587646484,257803.0,1.0
15163.5523852,296166.0,294594.5625,322283.75,315014.15625,285099.28125,255359.125,221046.6875,246234.34375,0.048095703125,0.996337890625,0.162109375,0.9155272841453552,-1.5563963651657104,-0.9155272841453552,73.33333587646484,257804.0,1.0
15163.5674532,296379.21875,295477.8125,323545.375,315320.375,285833.0625,255559.75,221352.015625,246399.203125,0.048095703125,0.998291015625,0.16015625,0.9765624403953552,-1.5563963651657104,-1.0070799589157104,73.33333587646484,257805.0,1.0
15163.6099394,296368.6875,295826.59375,324275.1875,315322.15625,286192.5625,255590.6875,221400.65625,246393.21875,0.048828125,0.9990234375,0.160888671875,0.8850097060203552,-1.4953612089157104,-0.9460448622703552,73.33333587646484,257806.0,1.0
15163.6536858,296148.28125,295164.8125,323470.09375,315019.78125,285685.15625,255421.625,221133.953125,246233.4375,0.0498046875,0.999755859375,0.16357421875,0.8544921278953552,-1.4343260526657104,-0.9765624403953552,73.33333587646484,257807.0,1.0
15163.6624108,296022.84375,294412.28125,322253.4375,314832.125,285019.09375,255274.71875,220918.9375,246129.90625,0.04833984375,0.998779296875,0.16455078125,0.7934569716453552,-1.3732908964157104,-0.9460448622703552,73.33333587646484,257808.0,1.0
15163.6673743,296160.375,294598.5,322292.15625,315013.875,285104.03125,255348.390625,221037.84375,246234.515625,0.048583984375,0.9951171875,0.162353515625,0.7934569716453552,-1.4038084745407104,-0.9460448622703552,73.33333587646484,257809.0,1.0
15163.6783743,296371.28125,295477.46875,323551.1875,315315.625,285830.71875,255531.953125,221329.671875,246390.078125,0.04931640625,0.99462890625,0.159912109375,0.7019042372703552,-1.4343260526657104,-0.9155272841453552,73.33333587646484,257810.0,1.0
15163.6783806,296357.78125,295815.78125,324267.84375,315312.5,286180.125,255568.96875,221380.71875,246381.59375,0.05029296875,0.9931640625,0.159423828125,0.6408690810203552,-1.4038084745407104,-1.0070799589157104,73.33333587646484,257811.0,1.0
15163.6783819,296137.75,295149.96875,323460.875,315008.34375,285673.625,255407.40625,221120.71875,246221.734375,0.050048828125,0.99365234375,0.158935546875,0.6408690810203552,-1.3427733182907104,-0.8850097060203552,73.33333587646484,257812.0,1.0
15163.6783832,296025.09375,294415.125,322251.71875,314829.875,285015.96875,255285.546875,220925.015625,246135.90625,0.05029296875,0.99560546875,0.157470703125,0.7019042372703552,-1.3427733182907104,-0.9460448622703552,73.33333587646484,257813.0,1.0
15163.6783844,296170.71875,294609.5,322290.34375,315019.25,285108.40625,255386.125,221071.453125,246247.296875,0.0498046875,0.9951171875,0.15966796875,0.7019042372703552,-1.3732908964157104,-0.9765624403953552,73.33333587646484,257814.0,1.0
15163.6783856,296382.90625,295492.84375,323553.21875,315321.96875,285840.65625,255578.703125,221354.078125,246404.65625,0.048583984375,0.995849609375,0.158447265625,0.4577636420726776,-1.3122557401657104,-0.9460448622703552,73.33333587646484,257815.0,1.0
15163.678387,296363.5,295826.875,324269.65625,315317.3125,286191.5625,255594.09375,221400.921875,246403.234375,0.046630859375,0.99609375,0.164306640625,0.3051757514476776,-1.3427733182907104,-0.8239745497703552,73.33333587646484,257816.0,1.0
15163.7474718,296137.84375,295153.71875,323457.28125,315003.40625,285675.34375,255405.4375,221121.890625,246217.265625,0.0478515625,0.996826171875,0.159912109375,0.1831054538488388,-1.3427733182907104,-0.7934569716453552,73.33333587646484,257817.0,1.0
15163.7474779,296023.5625,294404.9375,322249.21875,314826.5625,285016.3125,255279.640625,220910.4375,246123.203125,0.046630859375,0.993896484375,0.159423828125,0.2746581733226776,-1.2512205839157104,-0.8544921278953552,73.33333587646484,257818.0,1.0
15163.7474792,296161.78125,294598.59375,322291.4375,315012.96875,285104.90625,255368.15625,221047.140625,246229.421875,0.047607421875,0.9951171875,0.159423828125,0.3051757514476776,-1.1901854276657104,-0.8850097060203552,73.33333587646484,257819.0,1.0
15163.7474804,296369.3125,295479.15625,323541.34375,315314.5625,285828.5,255545.71875,221344.6875,246390.265625,0.050048828125,0.9921875,0.1591796875,0.2746581733226776,-1.2512205839157104,-0.8239745497703552,73.33333587646484,257820.0,1.0
15163.7474818,296361.15625,295822.125,324266.59375,315313.21875,286182.90625,255573.078125,221389.03125,246378.1875,0.0498046875,0.992431640625,0.162109375,0.3356933295726776,-1.1901854276657104,-0.7934569716453552,73.33333587646484,257821.0,1.0
15163.7549367,296142.03125,295155.875,323465.53125,315010.40625,285678.90625,255403.921875,221121.265625,246212.34375,0.05078125,0.990966796875,0.161865234375,0.4272460639476776,-1.1596678495407104,-0.9460448622703552,73.33333587646484,257822.0,1.0
15163.7768148,296020.4375,294403.15625,322252.1875,314829.15625,285015.96875,255265.15625,220915.4375,246130.53125,0.050048828125,0.992431640625,0.16015625,0.3356933295726776,-1.1596678495407104,-0.8850097060203552,73.33333587646484,257823.0,1.0
15163.7768201,296161.34375,294590.5625,322281.40625,315012.28125,285096.59375,255355.1875,221050.1875,246239.078125,0.050048828125,0.993896484375,0.16064453125,0.3967284858226776,-1.1596678495407104,-0.9155272841453552,73.33333587646484,257824.0,1.0
15163.7768214,296373.6875,295470.9375,323535.625,315316.15625,285824.1875,255550.546875,221355.765625,246402.421875,0.04931640625,0.993896484375,0.160888671875,0.4272460639476776,-1.0070799589157104,-0.9155272841453552,73.33333587646484,257825.0,1.0
15163.7768226,296360.28125,295812.3125,324256.15625,315314.28125,286179.5,255585.421875,221403.78125,246398.765625,0.048828125,0.996826171875,0.160400390625,0.4577636420726776,-1.0375975370407104,-0.8239745497703552,73.33333587646484,257826.0,1.0
15163.7768239,296139.96875,295143.8125,323451.46875,315003.78125,285669.34375,255399.984375,221115.265625,246206.625,0.04833984375,0.997314453125,0.158203125,0.4272460639476776,-1.0375975370407104,-0.7934569716453552,73.33333587646484,257827.0,1.0
15163.7768251,296017.03125,294396.09375,322236.25,314816.03125,285001.46875,255252.734375,220902.84375,246110.953125,0.048095703125,0.997314453125,0.158447265625,0.3356933295726776,-1.0070799589157104,-0.8239745497703552,73.33333587646484,257828.0,1.0
15163.7861817,296162.40625,294595.03125,322283.65625,315010.65625,285096.15625,255353.140625,221049.640625,246234.421875,0.049072265625,0.996826171875,0.1611328125,0.3356933295726776,-1.0681151151657104,-1.0070799589157104,73.33333587646484,257829.0,1.0
15163.8032832,296377.25,295481.40625,323550.53125,315317.78125,285833.75,255559.3125,221356.3125,246400.546875,0.048095703125,0.994873046875,0.16015625,0.2746581733226776,-1.0070799589157104,-0.9155272841453552,73.33333587646484,257830.0,1.0
15163.8032986,296367.875,295820.25,324272.40625,315313.75,286187.09375,255593.109375,221402.984375,246382.9375,0.04541015625,0.995849609375,0.162353515625,0.2441406100988388,-1.0375975370407104,-0.8850097060203552,73.33333587646484,257831.0,1.0
15163.8033,296148.90625,295154.25,323462.75,315007.1875,285674.625,255420.09375,221128.59375,246218.953125,0.044677734375,0.996826171875,0.162841796875,0.2441406100988388,-1.1596678495407104,-0.9765624403953552,73.33333587646484,257832.0,1.0
15163.8033012,296027.40625,294402.53125,322247.15625,314828.4375,285008.4375,255268.5625,220921.96875,246151.375,0.04541015625,0.996826171875,0.16162109375,0.2746581733226776,-1.1901854276657104,-0.9155272841453552,73.33333587646484,257833.0,1.0
15163.8181753,296162.15625,294586.96875,322282.40625,315012.34375,285092.3125,255351.078125,221056.171875,246258.75,0.047119140625,0.99755859375,0.1591796875,0.3051757514476776,-1.0681151151657104,-0.8544921278953552,73.33333587646484,257834.0,1.0
15163.8181922,296377.25,295479.25,323550.375,315312.78125,285825.4375,255552.515625,221340.125,246386.234375,0.04736328125,0.998046875,0.1591796875,0.1525878757238388,-1.1291502714157104,-0.8239745497703552,73.33333587646484,257835.0,1.0
15163.8341572,296367.4375,295819.09375,324274.5625,315309.0,286180.03125,255582.203125,221389.484375,246381.59375,0.049072265625,0.999267578125,0.16162109375,0.0610351525247097,-1.1596678495407104,-0.8850097060203552,73.33333587646484,257836.0,1.0
15163.8341619,296150.71875,295151.84375,323464.90625,315001.90625,285670.875,255413.9375,221120.28125,246212.609375,0.048828125,0.996826171875,0.1640625,-0.2136230319738388,-1.1901854276657104,-0.9460448622703552,73.33333587646484,257837.0,1.0
15163.8341631,296033.84375,294402.875,322249.0625,314826.125,285007.46875,255279.734375,220915.171875,246130.8125,0.04931640625,0.996337890625,0.162109375,-0.2441406100988388,-1.1596678495407104,-0.7629393935203552,73.33333587646484,257838.0,1.0
15163.8341644,296169.84375,294593.0625,322283.90625,315011.375,285093.03125,255359.9375,221059.03125,246246.671875,0.04833984375,0.994384765625,0.161376953125,-0.2746581733226776,-1.1596678495407104,-0.6713866591453552,73.33333587646484,257839.0,1.0
15163.8341656,296388.71875,295498.9375,323560.84375,315322.875,285839.5625,255570.484375,221370.4375,246413.0625,0.04736328125,0.99365234375,0.159912109375,-0.2136230319738388,-1.0986326932907104,-0.8850097060203552,73.33333587646484,257840.0,1.0
15163.834167,296383.0625,295844.125,324291.65625,315323.6875,286200.875,255606.15625,221415.859375,246398.765625,0.046142578125,0.994384765625,0.159912109375,-0.1831054538488388,-1.2512205839157104,-0.9155272841453552,73.33333587646484,257841.0,1.0
15163.839888,296163.59375,295172.9375,323481.4375,315019.6875,285691.59375,255438.34375,221151.828125,246227.640625,0.044189453125,0.99609375,0.15966796875,-0.2136230319738388,-1.2512205839157104,-0.9460448622703552,73.33333587646484,257842.0,1.0
15163.856213,296163.59375,295172.9375,323481.4375,315019.6875,285691.59375,255438.34375,221151.828125,246227.640625,0.044189453125,0.99609375,0.15966796875,-0.2136230319738388,-1.2512205839157104,-0.9460448622703552,73.33333587646484,257843.0,0.0
15163.8562139,296163.59375,295172.9375,323481.4375,315019.6875,285691.59375,255438.34375,221151.828125,246227.640625,0.044189453125,0.99609375,0.15966796875,-0.2136230319738388,-1.2512205839157104,-0.9460448622703552,73.33333587646484,257844.0,0.0
15163.8562141,296163.59375,295172.9375,323481.4375,315019.6875,285691.59375,255438.34375,221151.828125,246227.640625,0.044189453125,0.99609375,0.15966796875,-0.2136230319738388,-1.2512205839157104,-0.9460448622703552,73.33333587646484,257845.0,0.0
15163.8562143,296163.59375,295172.9375,323481.4375,315019.6875,285691.59375,255438.34375,221151.828125,246227.640625,0.044189453125,0.99609375,0.15966796875,-0.2136230319738388,-1.2512205839157104,-0.9460448622703552,73.33333587646484,257846.0,0.0
15163.8562145,296163.59375,295172.9375,323481.4375,315019.6875,285691.59375,255438.34375,221151.828125,246227.640625,0.044189453125,0.99609375,0.15966796875,-0.2136230319738388,-1.2512205839157104,-0.9460448622703552,73.33333587646484,257847.0,0.0
15163.8562147,296163.59375,295172.9375,323481.4375,315019.6875,285691.59375,255438.34375,221151.828125,246227.640625,0.044189453125,0.99609375,0.15966796875,-0.2136230319738388,-1.2512205839157104,-0.9460448622703552,73.33333587646484,257848.0,0.0
15163.8562148,296163.59375,295172.9375,323481.4375,315019.6875,285691.59375,255438.34375,221151.828125,246227.640625,0.044189453125,0.99609375,0.15966796875,-0.2136230319738388,-1.2512205839157104,-0.9460448622703552,73.33333587646484,257849.0,0.0
15163.856215,296163.59375,295172.9375,323481.4375,315019.6875,285691.59375,255438.34375,221151.828125,246227.640625,0.044189453125,0.99609375,0.15966796875,-0.2136230319738388,-1.2512205839157104,-0.9460448622703552,73.33333587646484,257850.0,0.0
15163.8562152,296163.59375,295172.9375,323481.4375,315019.6875,285691.59375,255438.34375,221151.828125,246227.640625,0.044189453125,0.99609375,0.15966796875,-0.2136230319738388,-1.2512205839157104,-0.9460448622703552,73.33333587646484,257851.0,0.0
15163.8562154,296163.59375,295172.9375,323481.4375,315019.6875,285691.59375,255438.34375,221151.828125,246227.640625,0.044189453125,0.99609375,0.15966796875,-0.2136230319738388,-1.2512205839157104,-0.9460448622703552,73.33333587646484,257852.0,0.0
15163.8562156,296163.59375,295172.9375,323481.4375,315019.6875,285691.59375,255438.34375,221151.828125,246227.640625,0.044189453125,0.99609375,0.15966796875,-0.2136230319738388,-1.2512205839157104,-0.9460448622703552,73.33333587646484,257853.0,0.0
15163.8562158,296163.59375,295172.9375,323481.4375,315019.6875,285691.59375,255438.34375,221151.828125,246227.640625,0.044189453125,0.99609375,0.15966796875,-0.2136230319738388,-1.2512205839157104,-0.9460448622703552,73.33333587646484,257854.0,0.0
15163.8562159,296163.59375,295172.9375,323481.4375,315019.6875,285691.59375,255438.34375,221151.828125,246227.640625,0.044189453125,0.99609375,0.15966796875,-0.2136230319738388,-1.2512205839157104,-0.9460448622703552,73.33333587646484,257855.0,0.0
15163.8562161,296163.59375,295172.9375,323481.4375,315019.6875,285691.59375,255438.34375,221151.828125,246227.640625,0.044189453125,0.99609375,0.15966796875,-0.2136230319738388,-1.2512205839157104,-0.9460448622703552,73.33333587646484,257856.0,0.0
15163.8562163,296163.59375,295172.9375,323481.4375,315019.6875,285691.59375,255438.34375,221151.828125,246227.640625,0.044189453125,0.99609375,0.15966796875,-0.2136230319738388,-1.2512205839157104,-0.9460448622703552,73.33333587646484,257857.0,0.0
15163.8562165,296163.59375,295172.9375,323481.4375,315019.6875,285691.59375,255438.34375,221151.828125,246227.640625,0.044189453125,0.99609375,0.15966796875,-0.2136230319738388,-1.2512205839157104,-0.9460448622703552,73.33333587646484,257858.0,0.0
15163.8562166,296163.59375,295172.9375,323481.4375,315019.6875,285691.59375,255438.34375,221151.828125,246227.640625,0.044189453125,0.99609375,0.15966796875,-0.2136230319738388,-1.2512205839157104,-0.9460448622703552,73.33333587646484,257859.0,0.0
15163.8562168,296163.59375,295172.9375,323481.4375,315019.6875,285691.59375,255438.34375,221151.828125,246227.640625,0.044189453125,0.99609375,0.15966796875,-0.2136230319738388,-1.2512205839157104,-0.9460448622703552,73.33333587646484,257860.0,0.0
15163.856217,296163.59375,295172.9375,323481.4375,315019.6875,285691.59375,255438.34375,221151.828125,246227.640625,0.044189453125,0.99609375,0.15966796875,-0.2136230319738388,-1.2512205839157104,-0.9460448622703552,73.33333587646484,257861.0,0.0
15163.8562172,296163.59375,295172.9375,323481.4375,315019.6875,285691.59375,255438.34375,221151.828125,246227.640625,0.044189453125,0.99609375,0.15966796875,-0.2136230319738388,-1.2512205839157104,-0.9460448622703552,73.33333587646484,257862.0,0.0
15163.8562173,296163.59375,295172.9375,323481.4375,315019.6875,285691.59375,255438.34375,221151.828125,246227.640625,0.044189453125,0.99609375,0.15966796875,-0.2136230319738388,-1.2512205839157104,-0.9460448622703552,73.33333587646484,257863.0,0.0
15163.8562175,296163.59375,295172.9375,323481.4375,315019.6875,285691.59375,255438.34375,221151.828125,246227.640625,0.044189453125,0.99609375,0.15966796875,-0.2136230319738388,-1.2512205839157104,-0.9460448622703552,73.33333587646484,257864.0,0.0
15163.8562177,296163.59375,295172.9375,323481.4375,315019.6875,285691.59375,255438.34375,221151.828125,246227.640625,0.044189453125,0.99609375,0.15966796875,-0.2136230319738388,-1.2512205839157104,-0.9460448622703552,73.33333587646484,257865.0,0.0
15163.8562179,296366.625,295817.5625,324275.1875,315308.125,286181.65625,255559.578125,221377.40625,246386.953125,0.051025390625,0.989990234375,0.165283203125,0.03051757626235485,-1.5869139432907104,-0.7629393935203552,73.33333587646484,257866.0,1.0
15163.8749226,296149.4375,295152.65625,323465.15625,315001.375,285675.5,255402.84375,221106.234375,246214.671875,0.051513671875,0.989990234375,0.1650390625,-0.03051757626235485,-1.5258787870407104,-0.7324218153953552,73.33333587646484,257867.0,1.0
15163.8830164,296026.25,294399.3125,322240.90625,314821.46875,285006.84375,255263.546875,220903.734375,246135.453125,0.054443359375,0.989501953125,0.164306640625,0.1525878757238388,-1.4038084745407104,-0.7324218153953552,73.33333587646484,257868.0,1.0
15163.8830329,296162.0625,294586.875,322273.09375,315004.59375,285089.1875,255351.609375,221040.4375,246243.453125,0.052978515625,0.989990234375,0.164794921875,0.3051757514476776,-1.4038084745407104,-0.6408690810203552,73.33333587646484,257869.0,1.0
15163.8986914,296377.53125,295479.625,323545.625,315311.59375,285826.15625,255549.109375,221341.015625,246399.921875,0.05126953125,0.990966796875,0.164794921875,0.4577636420726776,-1.3427733182907104,-0.4882812201976776,73.33333587646484,257870.0,1.0
15163.9086784,296365.09375,295819.53125,324272.15625,315308.21875,286179.5,255572.1875,221383.40625,246380.96875,0.051513671875,0.990966796875,0.164306640625,0.5798339247703552,-1.2817381620407104,-0.5493163466453552,73.33333587646484,257871.0,1.0
15163.9249434,296146.3125,295145.78125,323455.25,315002.4375,285664.96875,255402.125,221113.03125,246214.765625,0.05126953125,0.9912109375,0.1611328125,0.5798339247703552,-1.1291502714157104,-0.4577636420726776,73.33333587646484,257872.0,1.0
15163.9399261,296028.3125,294398.9375,322234.84375,314825.0625,285003.8125,255275.171875,220914.453125,246139.125,0.05029296875,0.993408203125,0.159423828125,0.5187987685203552,-1.0070799589157104,-0.4577636420726776,73.33333587646484,257873.0,1.0
15163.9555044,296163.21875,294587.875,322272.90625,315008.0625,285087.65625,255353.84375,221044.1875,246245.328125,0.051025390625,0.99365234375,0.162353515625,0.5798339247703552,-0.9460448622703552,-0.5187987685203552,73.33333587646484,257874.0,1.0
15163.9555101,296376.90625,295475.40625,323542.0625,315313.40625,285822.21875,255533.5625,221336.015625,246399.5625,0.05078125,0.99267578125,0.164794921875,0.6408690810203552,-0.8850097060203552,-0.5187987685203552,73.33333587646484,257875.0,1.0
15163.9699338,296368.59375,295820.625,324271.0,315316.4375,286184.40625,255572.984375,221388.671875,246395.0,0.050537109375,0.99267578125,0.161376953125,0.6713866591453552,-0.9765624403953552,-0.6408690810203552,73.33333587646484,257876.0,1.0
15164.0370339,296147.03125,295146.5,323456.21875,315011.8125,285673.53125,255405.171875,221122.0625,246232.546875,0.048583984375,0.994873046875,0.158203125,0.7324218153953552,-0.9155272841453552,-0.7324218153953552,73.33333587646484,257877.0,1.0
15164.0370534,296025.71875,294396.625,322236.8125,314824.25,285007.28125,255273.75,220913.75,246135.09375,0.049072265625,0.994140625,0.157958984375,0.7324218153953552,-0.8239745497703552,-0.7629393935203552,73.33333587646484,257878.0,1.0
15164.0370555,296165.0,294587.4375,322274.4375,315009.6875,285093.21875,255367.265625,221051.609375,246249.09375,0.048583984375,0.995849609375,0.163330078125,0.9460448622703552,-0.8850097060203552,-0.8239745497703552,73.33333587646484,257879.0,1.0
15164.0370572,296384.25,295479.25,323541.6875,315323.0625,285833.9375,255572.890625,221363.28125,246421.5625,0.04541015625,0.998291015625,0.163330078125,1.0070799589157104,-0.9460448622703552,-0.9765624403953552,73.33333587646484,257880.0,1.0
15164.0451951,296380.84375,295833.21875,324276.53125,315324.5625,286198.09375,255609.015625,221406.46875,246398.40625,0.045166015625,0.999267578125,0.1611328125,0.9765624403953552,-1.0070799589157104,-1.1596678495407104,73.33333587646484,257881.0,1.0
15164.0452037,296380.84375,295833.21875,324276.53125,315324.5625,286198.09375,255609.015625,221406.46875,246398.40625,0.045166015625,0.999267578125,0.1611328125,0.9765624403953552,-1.0070799589157104,-1.1596678495407104,73.33333587646484,257882.0,0.0
15164.0452041,296380.84375,295833.21875,324276.53125,315324.5625,286198.09375,255609.015625,221406.46875,246398.40625,0.045166015625,0.999267578125,0.1611328125,0.9765624403953552,-1.0070799589157104,-1.1596678495407104,73.33333587646484,257883.0,0.0
15164.0452044,296380.84375,295833.21875,324276.53125,315324.5625,286198.09375,255609.015625,221406.46875,246398.40625,0.045166015625,0.999267578125,0.1611328125,0.9765624403953552,-1.0070799589157104,-1.1596678495407104,73.33333587646484,257884.0,0.0
15164.0452047,296380.84375,295833.21875,324276.53125,315324.5625,286198.09375,255609.015625,221406.46875,246398.40625,0.045166015625,0.999267578125,0.1611328125,0.9765624403953552,-1.0070799589157104,-1.1596678495407104,73.33333587646484,257885.0,0.0
15164.045205,296380.84375,295833.21875,324276.53125,315324.5625,286198.09375,255609.015625,221406.46875,246398.40625,0.045166015625,0.999267578125,0.1611328125,0.9765624403953552,-1.0070799589157104,-1.1596678495407104,73.33333587646484,257886.0,0.0
15164.0452052,296380.84375,295833.21875,324276.53125,315324.5625,286198.09375,255609.015625,221406.46875,246398.40625,0.045166015625,0.999267578125,0.1611328125,0.9765624403953552,-1.0070799589157104,-1.1596678495407104,73.33333587646484,257887.0,0.0
15164.0452055,296380.84375,295833.21875,324276.53125,315324.5625,286198.09375,255609.015625,221406.46875,246398.40625,0.045166015625,0.999267578125,0.1611328125,0.9765624403953552,-1.0070799589157104,-1.1596678495407104,73.33333587646484,257888.0,0.0
15164.0452058,296380.84375,295833.21875,324276.53125,315324.5625,286198.09375,255609.015625,221406.46875,246398.40625,0.045166015625,0.999267578125,0.1611328125,0.9765624403953552,-1.0070799589157104,-1.1596678495407104,73.33333587646484,257889.0,0.0
15164.0452061,296380.84375,295833.21875,324276.53125,315324.5625,286198.09375,255609.015625,221406.46875,246398.40625,0.045166015625,0.999267578125,0.1611328125,0.9765624403953552,-1.0070799589157104,-1.1596678495407104,73.33333587646484,257890.0,0.0
15164.0452064,296380.84375,295833.21875,324276.53125,315324.5625,286198.09375,255609.015625,221406.46875,246398.40625,0.045166015625,0.999267578125,0.1611328125,0.9765624403953552,-1.0070799589157104,-1.1596678495407104,73.33333587646484,257891.0,0.0
15164.0452067,296380.84375,295833.21875,324276.53125,315324.5625,286198.09375,255609.015625,221406.46875,246398.40625,0.045166015625,0.999267578125,0.1611328125,0.9765624403953552,-1.0070799589157104,-1.1596678495407104,73.33333587646484,257892.0,0.0
15164.0452069,296380.84375,295833.21875,324276.53125,315324.5625,286198.09375,255609.015625,221406.46875,246398.40625,0.045166015625,0.999267578125,0.1611328125,0.9765624403953552,-1.0070799589157104,-1.1596678495407104,73.33333587646484,257893.0,0.0
15164.0452072,296380.84375,295833.21875,324276.53125,315324.5625,286198.09375,255609.015625,221406.46875,246398.40625,0.045166015625,0.999267578125,0.1611328125,0.9765624403953552,-1.0070799589157104,-1.1596678495407104,73.33333587646484,257894.0,0.0
15164.0452074,296380.84375,295833.21875,324276.53125,315324.5625,286198.09375,255609.015625,221406.46875,246398.40625,0.045166015625,0.999267578125,0.1611328125,0.9765624403953552,-1.0070799589157104,-1.1596678495407104,73.33333587646484,257895.0,0.0
15164.0452077,296380.84375,295833.21875,324276.53125,315324.5625,286198.09375,255609.015625,221406.46875,246398.40625,0.045166015625,0.999267578125,0.1611328125,0.9765624403953552,-1.0070799589157104,-1.1596678495407104,73.33333587646484,257896.0,0.0
15164.0452079,296380.84375,295833.21875,324276.53125,315324.5625,286198.09375,255609.015625,221406.46875,246398.40625,0.045166015625,0.999267578125,0.1611328125,0.9765624403953552,-1.0070799589157104,-1.1596678495407104,73.33333587646484,257897.0,0.0
15164.0452082,296380.84375,295833.21875,324276.53125,315324.5625,286198.09375,255609.015625,221406.46875,246398.40625,0.045166015625,0.999267578125,0.1611328125,0.9765624403953552,-1.0070799589157104,-1.1596678495407104,73.33333587646484,257898.0,0.0
15164.0452086,296380.84375,295833.21875,324276.53125,315324.5625,286198.09375,255609.015625,221406.46875,246398.40625,0.045166015625,0.999267578125,0.1611328125,0.9765624403953552,-1.0070799589157104,-1.1596678495407104,73.33333587646484,257899.0,0.0
15164.0452089,296380.84375,295833.21875,324276.53125,315324.5625,286198.09375,255609.015625,221406.46875,246398.40625,0.045166015625,0.999267578125,0.1611328125,0.9765624403953552,-1.0070799589157104,-1.1596678495407104,73.33333587646484,257900.0,0.0
15164.0452092,296380.84375,295833.21875,324276.53125,315324.5625,286198.09375,255609.015625,221406.46875,246398.40625,0.045166015625,0.999267578125,0.1611328125,0.9765624403953552,-1.0070799589157104,-1.1596678495407104,73.33333587646484,257901.0,0.0
15164.0452095,296380.84375,295833.21875,324276.53125,315324.5625,286198.09375,255609.015625,221406.46875,246398.40625,0.045166015625,0.999267578125,0.1611328125,0.9765624403953552,-1.0070799589157104,-1.1596678495407104,73.33333587646484,257902.0,0.0
15164.0452098,296380.84375,295833.21875,324276.53125,315324.5625,286198.09375,255609.015625,221406.46875,246398.40625,0.045166015625,0.999267578125,0.1611328125,0.9765624403953552,-1.0070799589157104,-1.1596678495407104,73.33333587646484,257903.0,0.0
15164.0452101,296380.84375,295833.21875,324276.53125,315324.5625,286198.09375,255609.015625,221406.46875,246398.40625,0.045166015625,0.999267578125,0.1611328125,0.9765624403953552,-1.0070799589157104,-1.1596678495407104,73.33333587646484,257904.0,0.0
15164.0452104,296380.84375,295833.21875,324276.53125,315324.5625,286198.09375,255609.015625,221406.46875,246398.40625,0.045166015625,0.999267578125,0.1611328125,0.9765624403953552,-1.0070799589157104,-1.1596678495407104,73.33333587646484,257905.0,0.0
15164.0452107,296380.84375,295833.21875,324276.53125,315324.5625,286198.09375,255609.015625,221406.46875,246398.40625,0.045166015625,0.999267578125,0.1611328125,0.9765624403953552,-1.0070799589157104,-1.1596678495407104,73.33333587646484,257906.0,0.0
15164.045211,296380.84375,295833.21875,324276.53125,315324.5625,286198.09375,255609.015625,221406.46875,246398.40625,0.045166015625,0.999267578125,0.1611328125,0.9765624403953552,-1.0070799589157104,-1.1596678495407104,73.33333587646484,257907.0,0.0
15164.0452112,296380.84375,295833.21875,324276.53125,315324.5625,286198.09375,255609.015625,221406.46875,246398.40625,0.045166015625,0.999267578125,0.1611328125,0.9765624403953552,-1.0070799589157104,-1.1596678495407104,73.33333587646484,257908.0,0.0
15164.0452115,296380.84375,295833.21875,324276.53125,315324.5625,286198.09375,255609.015625,221406.46875,246398.40625,0.045166015625,0.999267578125,0.1611328125,0.9765624403953552,-1.0070799589157104,-1.1596678495407104,73.33333587646484,257909.0,0.0
15164.0452118,296380.84375,295833.21875,324276.53125,315324.5625,286198.09375,255609.015625,221406.46875,246398.40625,0.045166015625,0.999267578125,0.1611328125,0.9765624403953552,-1.0070799589157104,-1.1596678495407104,73.33333587646484,257910.0,0.0
15164.0452121,296380.84375,295833.21875,324276.53125,315324.5625,286198.09375,255609.015625,221406.46875,246398.40625,0.045166015625,0.999267578125,0.1611328125,0.9765624403953552,-1.0070799589157104,-1.1596678495407104,73.33333587646484,257911.0,0.0
15164.0452124,296380.84375,295833.21875,324276.53125,315324.5625,286198.09375,255609.015625,221406.46875,246398.40625,0.045166015625,0.999267578125,0.1611328125,0.9765624403953552,-1.0070799589157104,-1.1596678495407104,73.33333587646484,257912.0,0.0
15164.0452127,296380.84375,295833.21875,324276.53125,315324.5625,286198.09375,255609.015625,221406.46875,246398.40625,0.045166015625,0.999267578125,0.1611328125,0.9765624403953552,-1.0070799589157104,-1.1596678495407104,73.33333587646484,257913.0,0.0
15164.0452129,296380.84375,295833.21875,324276.53125,315324.5625,286198.09375,255609.015625,221406.46875,246398.40625,0.045166015625,0.999267578125,0.1611328125,0.9765624403953552,-1.0070799589157104,-1.1596678495407104,73.33333587646484,257914.0,0.0
15164.0452132,296377.875,295477.65625,323553.9375,315326.0,285839.5625,255562.34375,221356.40625,246421.109375,0.052490234375,0.99365234375,0.1611328125,0.4882812201976776,-1.5563963651657104,-1.0070799589157104,73.33333587646484,257915.0,1.0
15164.059935,296368.3125,295826.34375,324286.625,315319.375,286197.21875,255584.078125,221381.34375,246386.328125,0.051513671875,0.994384765625,0.161376953125,0.4272460639476776,-1.3732908964157104,-0.9765624403953552,73.33333587646484,257916.0,1.0
15164.0745341,296155.25,295159.90625,323476.78125,315014.15625,285688.75,255417.78125,221114.015625,246216.28125,0.051025390625,0.9951171875,0.164794921875,0.3662109076976776,-1.2207030057907104,-0.9765624403953552,73.33333587646484,257917.0,1.0
15164.0745483,296031.25,294398.40625,322244.59375,314830.40625,285016.0625,255278.921875,220910.96875,246144.390625,0.052734375,0.990478515625,0.162353515625,0.2746581733226776,-1.2207030057907104,-0.9460448622703552,73.33333587646484,257918.0,1.0
15164.0745496,296165.90625,294581.875,322273.8125,315008.875,285093.90625,255355.375,221033.546875,246240.953125,0.052978515625,0.9912109375,0.1630859375,0.2746581733226776,-1.1291502714157104,-0.9155272841453552,73.33333587646484,257919.0,1.0
15164.0745509,296389.5,295491.25,323557.6875,315325.5625,285840.375,255563.234375,221340.484375,246395.453125,0.05224609375,0.990478515625,0.158935546875,0.3967284858226776,-1.0375975370407104,-0.9460448622703552,73.33333587646484,257920.0,1.0
15164.0745521,296375.46875,295832.0625,324284.3125,315323.5,286197.21875,255591.671875,221382.953125,246386.78125,0.053466796875,0.9912109375,0.16015625,0.4882812201976776,-1.0070799589157104,-0.8544921278953552,73.33333587646484,257921.0,1.0
15164.0745533,296150.71875,295153.0,323466.3125,315014.875,285683.75,255416.4375,221112.3125,246223.078125,0.052978515625,0.991455078125,0.161376953125,0.4272460639476776,-0.9460448622703552,-0.8850097060203552,73.33333587646484,257922.0,1.0
15164.0745545,296030.09375,294397.78125,322243.3125,314834.96875,285017.46875,255284.203125,220907.21875,246142.703125,0.0517578125,0.991943359375,0.160888671875,0.4577636420726776,-0.8544921278953552,-0.8850097060203552,73.33333587646484,257923.0,1.0
15164.0745557,296166.53125,294586.25,322280.53125,315014.78125,285100.1875,255361.265625,221035.15625,246240.234375,0.0498046875,0.992431640625,0.161376953125,0.4272460639476776,-0.8544921278953552,-0.8239745497703552,73.33333587646484,257924.0,1.0
15164.0745572,296384.59375,295490.875,323563.6875,315324.9375,285844.5,255554.296875,221338.703125,246403.140625,0.04833984375,0.995849609375,0.1640625,0.4882812201976776,-0.8544921278953552,-0.8239745497703552,73.33333587646484,257925.0,1.0
15164.0745584,296375.75,295834.03125,324291.90625,315327.15625,286203.65625,255591.40625,221390.734375,246399.109375,0.046875,0.995361328125,0.162841796875,0.5798339247703552,-0.9460448622703552,-0.9155272841453552,73.33333587646484,257926.0,1.0
15164.0745596,296158.3125,295160.0625,323476.34375,315021.375,285693.125,255423.953125,221120.8125,246234.515625,0.04541015625,0.9951171875,0.1630859375,0.6408690810203552,-0.8850097060203552,-0.9460448622703552,73.33333587646484,257927.0,1.0
15164.0745608,296034.03125,294403.875,322246.8125,314833.09375,285018.5625,255280.53125,220901.046875,246133.3125,0.04541015625,0.9970703125,0.161865234375,0.6408690810203552,-1.0375975370407104,-0.9460448622703552,73.33333587646484,257928.0,1.0
15164.0774155,296174.125,294598.5,322284.90625,315020.75,285106.25,255366.8125,221041.421875,246245.875,0.0478515625,0.99560546875,0.1640625,0.6713866591453552,-1.2207030057907104,-1.0375975370407104,73.33333587646484,257929.0,1.0
15164.0808099,296390.75,295494.8125,323562.34375,315332.875,285849.3125,255566.546875,221348.890625,246410.203125,0.04736328125,0.99462890625,0.16455078125,0.5493163466453552,-1.2817381620407104,-0.9460448622703552,73.33333587646484,257930.0,1.0
15164.0808245,296384.9375,295847.96875,324295.3125,315335.21875,286213.46875,255614.921875,221403.875,246400.71875,0.04931640625,0.994873046875,0.159912109375,0.4577636420726776,-1.3732908964157104,-0.9765624403953552,73.33333587646484,257931.0,1.0
15164.0808311,296159.28125,295173.03125,323476.59375,315024.53125,285697.96875,255436.90625,221122.15625,246228.96875,0.050537109375,0.99365234375,0.161376953125,0.4577636420726776,-1.3732908964157104,-0.8850097060203552,73.33333587646484,257932.0,1.0
15164.0808323,296029.90625,294404.5,322240.71875,314834.09375,285016.75,255280.53125,220895.78125,246135.640625,0.052001953125,0.994140625,0.161376953125,0.5187987685203552,-1.4038084745407104,-0.8544921278953552,73.33333587646484,257933.0,1.0
15164.0954715,296168.5,294594.84375,322279.1875,315020.84375,285105.625,255372.625,221041.78125,246250.34375,0.052490234375,0.9951171875,0.1591796875,0.5798339247703552,-1.4953612089157104,-0.8239745497703552,73.33333587646484,257934.0,1.0
15164.0954943,296168.5,294594.84375,322279.1875,315020.84375,285105.625,255372.625,221041.78125,246250.34375,0.052490234375,0.9951171875,0.1591796875,0.5798339247703552,-1.4953612089157104,-0.8239745497703552,73.33333587646484,257935.0,0.0
15164.0954945,296168.5,294594.84375,322279.1875,315020.84375,285105.625,255372.625,221041.78125,246250.34375,0.052490234375,0.9951171875,0.1591796875,0.5798339247703552,-1.4953612089157104,-0.8239745497703552,73.33333587646484,257936.0,0.0
15164.0954948,296168.5,294594.84375,322279.1875,315020.84375,285105.625,255372.625,221041.78125,246250.34375,0.052490234375,0.9951171875,0.1591796875,0.5798339247703552,-1.4953612089157104,-0.8239745497703552,73.33333587646484,257937.0,0.0
15164.095495,296168.5,294594.84375,322279.1875,315020.84375,285105.625,255372.625,221041.78125,246250.34375,0.052490234375,0.9951171875,0.1591796875,0.5798339247703552,-1.4953612089157104,-0.8239745497703552,73.33333587646484,257938.0,0.0
15164.0954952,296168.5,294594.84375,322279.1875,315020.84375,285105.625,255372.625,221041.78125,246250.34375,0.052490234375,0.9951171875,0.1591796875,0.5798339247703552,-1.4953612089157104,-0.8239745497703552,73.33333587646484,257939.0,0.0
