Time,FZ,C3,CZ,C4,PZ,PO7,OZ,PO8,AccX,AccY,AccZ,Gyro1,Gyro2,Gyro3,Battery,Counter,Validation
14848.3778526,294269.40625,295146.65625,328192.125,321851.28125,285110.46875,255752.703125,221843.9375,246077.34375,0.0263671875,0.992431640625,0.076416015625,-0.7934569716453552,-0.7324218153953552,-0.7324218153953552,73.33333587646484,179045.0,1.0
14848.4115972,294235.78125,295158.90625,328165.03125,321807.28125,285103.65625,255741.78125,221822.296875,246059.1875,0.0263671875,0.991455078125,0.07275390625,-0.7629393935203552,-0.7934569716453552,-0.6408690810203552,73.33333587646484,179046.0,1.0
14848.4116107,294201.1875,294849.5625,327936.40625,321792.28125,284955.96875,255673.484375,221754.171875,246038.453125,0.028076171875,0.991943359375,0.073486328125,-0.6713866591453552,-0.7934569716453552,-0.5798339247703552,73.33333587646484,179047.0,1.0
14848.4360052,294210.125,294632.9375,327804.875,321824.71875,284860.375,255641.828125,221731.734375,246053.296875,0.024169921875,0.99072265625,0.0751953125,-0.6408690810203552,-0.7934569716453552,-0.6408690810203552,73.33333587646484,179048.0,1.0
14848.4610257,294244.28125,294819.625,327967.34375,321855.75,284952.03125,255678.484375,221776.34375,246071.53125,0.023681640625,0.990966796875,0.07470703125,-0.6103515028953552,-0.8850097060203552,-0.6103515028953552,73.33333587646484,179049.0,1.0
14848.486036,294258.59375,295135.9375,328184.6875,321841.25,285098.40625,255734.453125,221825.078125,246068.84375,0.02490234375,0.991455078125,0.07666015625,-0.7019042372703552,-0.9155272841453552,-0.5187987685203552,73.33333587646484,179050.0,1.0
14848.4965711,294221.125,295145.21875,328152.5,321790.65625,285090.25,255719.078125,221801.203125,246043.09375,0.024169921875,0.988525390625,0.0751953125,-0.6103515028953552,-0.9765624403953552,-0.5187987685203552,73.33333587646484,179051.0,1.0
14848.4965765,294187.0625,294832.5,327916.125,321777.34375,284935.9375,255660.703125,221737.09375,246029.6875,0.026611328125,0.988037109375,0.07421875,-0.4882812201976776,-0.9460448622703552,-0.4882812201976776,73.33333587646484,179052.0,1.0
14848.4984476,294190.90625,294599.5,327767.4375,321806.9375,284825.0625,255619.296875,221711.34375,246040.765625,0.026123046875,0.9873046875,0.073486328125,-0.4272460639476776,-0.8850097060203552,-0.4882812201976776,73.33333587646484,179053.0,1.0
14848.5009663,294230.78125,294791.71875,327944.71875,321842.96875,284935.84375,255668.5625,221774.828125,246067.78125,0.027587890625,0.987548828125,0.073486328125,-0.2136230319738388,-0.9155272841453552,-0.4882812201976776,73.33333587646484,179054.0,1.0
14848.503461,294240.53125,295114.65625,328164.03125,321823.5625,285084.96875,255730.34375,221822.03125,246061.25,0.029052734375,0.987060546875,0.075927734375,-0.1831054538488388,-1.0070799589157104,-0.4272460639476776,73.33333587646484,179055.0,1.0
14848.5078233,294211.65625,295134.78125,328139.8125,321780.90625,285084.53125,255726.59375,221807.09375,246044.96875,0.0283203125,0.986328125,0.07763671875,0.0,-0.9765624403953552,-0.3051757514476776,73.33333587646484,179056.0,1.0
14848.5078274,294179.71875,294833.28125,327915.65625,321769.28125,284944.4375,255670.359375,221749.609375,246034.609375,0.029052734375,0.98828125,0.07470703125,0.1525878757238388,-1.0375975370407104,-0.2441406100988388,73.33333587646484,179057.0,1.0
14848.5150193,294189.90625,294618.4375,327790.21875,321804.59375,284854.21875,255649.703125,221733.421875,246047.203125,0.02783203125,0.98974609375,0.077880859375,0.2441406100988388,-0.9765624403953552,-0.2441406100988388,73.33333587646484,179058.0,1.0
14848.5150219,294229.875,294807.8125,327953.9375,321840.90625,284951.21875,255693.515625,221784.484375,246069.203125,0.02783203125,0.990966796875,0.081787109375,0.3356933295726776,-0.9155272841453552,-0.1831054538488388,73.33333587646484,179059.0,1.0
14848.5150232,294240.4375,295122.0,328164.5625,321823.125,285092.84375,255739.109375,221828.203125,246065.984375,0.02978515625,0.990966796875,0.077880859375,0.4272460639476776,-0.8850097060203552,-0.1525878757238388,73.33333587646484,179060.0,1.0
14848.5150245,294212.53125,295136.46875,328133.09375,321778.84375,285085.0625,255724.53125,221805.671875,246044.96875,0.02978515625,0.99169921875,0.072998046875,0.4577636420726776,-0.9460448622703552,-0.1831054538488388,73.33333587646484,179061.0,1.0
14848.5150257,294187.15625,294843.5625,327916.03125,321770.625,284944.25,255670.4375,221746.75,246033.359375,0.03125,0.990234375,0.072265625,0.6103515028953552,-0.9155272841453552,-0.0610351525247097,73.33333587646484,179062.0,1.0
14848.5150269,294201.0,294635.25,327798.28125,321810.5,284858.5,255652.109375,221734.765625,246055.53125,0.033447265625,0.989501953125,0.06884765625,0.5493163466453552,-0.8544921278953552,0.0610351525247097,73.33333587646484,179063.0,1.0
14848.5150281,294245.625,294829.0,327971.0,321849.59375,284962.03125,255698.25,221788.328125,246073.859375,0.034423828125,0.990478515625,0.072265625,0.4882812201976776,-0.7934569716453552,0.0610351525247097,73.33333587646484,179064.0,1.0
14848.5150294,294258.59375,295134.3125,328178.4375,321835.4375,285101.25,255748.3125,221830.96875,246070.28125,0.03515625,0.990234375,0.072509765625,0.6103515028953552,-0.7629393935203552,0.1220703050494194,73.33333587646484,179065.0,1.0
14848.5150306,294223.90625,295138.53125,328142.75,321787.8125,285088.125,255726.671875,221800.296875,246043.09375,0.03515625,0.988037109375,0.073486328125,0.6408690810203552,-0.6408690810203552,0.0610351525247097,73.33333587646484,179066.0,1.0
14848.5150318,294194.21875,294838.21875,327920.40625,321774.46875,284941.5625,255659.625,221738.171875,246027.09375,0.03271484375,0.987060546875,0.072265625,0.7019042372703552,-0.6103515028953552,0.0610351525247097,73.33333587646484,179067.0,1.0
14848.515033,294203.34375,294627.84375,327804.09375,321810.6875,284852.34375,255622.515625,221714.03125,246039.703125,0.032958984375,0.98486328125,0.075439453125,0.7019042372703552,-0.6408690810203552,0.03051757626235485,73.33333587646484,179068.0,1.0
14848.5150342,294240.875,294819.34375,327977.71875,321846.625,284952.9375,255672.5,221766.328125,246062.40625,0.03076171875,0.986328125,0.073486328125,0.7629393935203552,-0.5493163466453552,0.03051757626235485,73.33333587646484,179069.0,1.0
14848.5150356,294252.5,295122.78125,328178.96875,321830.09375,285087.3125,255726.859375,221811.921875,246057.140625,0.032470703125,0.98583984375,0.07421875,0.8544921278953552,-0.4882812201976776,-0.0610351525247097,73.33333587646484,179070.0,1.0
14848.517212,294219.875,295130.46875,328133.5625,321783.6875,285072.46875,255717.203125,221788.5,246033.53125,0.033447265625,0.986083984375,0.071533203125,0.8544921278953552,-0.5798339247703552,-0.2136230319738388,73.33333587646484,179071.0,1.0
14848.5422853,294185.4375,294828.5625,327901.28125,321767.3125,284924.21875,255653.625,221725.203125,246022.09375,0.03466796875,0.9873046875,0.07177734375,0.8544921278953552,-0.5187987685203552,-0.3356933295726776,73.33333587646484,179072.0,1.0
14848.5922649,294188.3125,294612.1875,327771.4375,321797.09375,284828.375,255622.421875,221702.84375,246033.890625,0.033203125,0.98876953125,0.072509765625,0.9460448622703552,-0.4882812201976776,-0.3662109076976776,73.33333587646484,179073.0,1.0
14848.6264373,294245.0,294824.8125,327963.0625,321848.3125,284949.0,255693.515625,221778.21875,246070.640625,0.031005859375,0.9892578125,0.071533203125,1.0375975370407104,-0.5187987685203552,-0.3967284858226776,73.33333587646484,179074.0,1.0
14848.6264481,294261.1875,295140.3125,328179.3125,321834.03125,285093.46875,255750.640625,221830.171875,246067.0625,0.0302734375,0.9921875,0.07177734375,0.9460448622703552,-0.5493163466453552,-0.5187987685203552,73.33333587646484,179075.0,1.0
14848.6516633,294225.6875,295144.34375,328139.53125,321787.53125,285079.53125,255732.125,221800.125,246043.015625,0.02978515625,0.9931640625,0.0703125,0.9155272841453552,-0.6103515028953552,-0.5798339247703552,73.33333587646484,179076.0,1.0
14848.6516734,294192.25,294838.125,327912.96875,321775.8125,284933.96875,255667.3125,221732.265625,246033.890625,0.02880859375,0.994140625,0.0712890625,0.8544921278953552,-0.7019042372703552,-0.7324218153953552,73.33333587646484,179077.0,1.0
14848.6734892,294201.625,294620.875,327789.5,321809.25,284843.84375,255627.4375,221708.578125,246048.734375,0.0283203125,0.993896484375,0.068603515625,0.9765624403953552,-0.7934569716453552,-0.9155272841453552,73.33333587646484,179078.0,1.0
14848.6777466,294246.6875,294823.46875,327966.1875,321847.78125,284951.21875,255682.875,221771.0625,246071.625,0.029541015625,0.992431640625,0.069091796875,0.9155272841453552,-0.8239745497703552,-0.9765624403953552,73.33333587646484,179079.0,1.0
14848.6777512,294257.96875,295136.75,328180.21875,321830.4375,285099.09375,255743.84375,221823.734375,246068.671875,0.02978515625,0.993896484375,0.07080078125,0.7934569716453552,-1.0070799589157104,-1.0375975370407104,73.33333587646484,179080.0,1.0
14848.6777525,294226.125,295151.9375,328149.71875,321781.1875,285094.8125,255738.21875,221805.84375,246045.6875,0.03125,0.993408203125,0.073974609375,0.7019042372703552,-1.1291502714157104,-1.0375975370407104,73.33333587646484,179081.0,1.0
14848.6777539,294192.25,294843.40625,327915.5625,321766.0625,284941.125,255673.125,221736.828125,246030.84375,0.029052734375,0.994140625,0.071044921875,0.6103515028953552,-1.1901854276657104,-1.1291502714157104,73.33333587646484,179082.0,1.0
14848.67968,294201.71875,294633.375,327796.125,321802.625,284852.34375,255640.3125,221713.671875,246043.546875,0.02880859375,0.993408203125,0.068603515625,0.4577636420726776,-1.2207030057907104,-1.1291502714157104,73.33333587646484,179083.0,1.0
14848.6821797,294243.90625,294829.71875,327973.59375,321841.96875,284963.125,255696.1875,221772.953125,246066.171875,0.02734375,0.9921875,0.068359375,0.4272460639476776,-1.3427733182907104,-1.0986326932907104,73.33333587646484,179084.0,1.0
14848.6847382,294256.15625,295138.15625,328178.0625,321823.84375,285101.0625,255745.09375,221815.765625,246064.5625,0.030029296875,0.989990234375,0.068115234375,0.6103515028953552,-1.4343260526657104,-1.1596678495407104,73.33333587646484,179085.0,1.0
14848.6907518,294222.90625,295153.09375,328139.625,321775.8125,285088.28125,255733.203125,221794.40625,246042.03125,0.028076171875,0.9892578125,0.068603515625,0.6408690810203552,-1.4648436307907104,-1.0070799589157104,73.33333587646484,179086.0,1.0
14848.6907562,294190.71875,294851.0,327908.59375,321761.15625,284938.53125,255669.375,221727.34375,246023.515625,0.028076171875,0.9892578125,0.0693359375,0.5493163466453552,-1.4953612089157104,-1.0986326932907104,73.33333587646484,179087.0,1.0
14848.6907574,294196.09375,294631.3125,327773.96875,321794.78125,284842.25,255644.6875,221710.453125,246037.28125,0.02734375,0.98779296875,0.073974609375,0.5798339247703552,-1.6479490995407104,-0.9155272841453552,73.33333587646484,179088.0,1.0
14848.6907586,294237.84375,294829.09375,327949.8125,321835.4375,284950.6875,255696.28125,221775.265625,246061.15625,0.027587890625,0.986572265625,0.07275390625,0.4577636420726776,-1.7089842557907104,-0.9460448622703552,73.33333587646484,179089.0,1.0
14848.6907599,294252.0625,295151.59375,328174.9375,321823.84375,285102.59375,255750.8125,221823.109375,246060.359375,0.027099609375,0.986572265625,0.074951171875,0.4272460639476776,-1.7395018339157104,-0.8544921278953552,73.33333587646484,179090.0,1.0
14848.6907611,294219.15625,295166.96875,328149.8125,321778.59375,285099.375,255741.875,221802.09375,246042.109375,0.0283203125,0.98876953125,0.06982421875,0.5187987685203552,-1.8005369901657104,-0.8544921278953552,73.33333587646484,179091.0,1.0
14848.6907624,294186.6875,294861.375,327923.34375,321765.34375,284952.125,255678.484375,221736.375,246026.921875,0.028564453125,0.989013671875,0.07080078125,0.6103515028953552,-1.7395018339157104,-0.8544921278953552,73.33333587646484,179092.0,1.0
14848.6907636,294197.53125,294638.375,327789.0625,321800.84375,284852.34375,255641.203125,221708.390625,246040.765625,0.029296875,0.989501953125,0.071533203125,0.6103515028953552,-1.7089842557907104,-0.7934569716453552,73.33333587646484,179093.0,1.0
14848.6934953,294238.5625,294824.71875,327947.21875,321839.75,284947.28125,255680.453125,221758.90625,246059.640625,0.02734375,0.9892578125,0.06884765625,0.5187987685203552,-1.7700194120407104,-0.6408690810203552,73.33333587646484,179094.0,1.0
14848.6965648,294252.78125,295146.125,328165.8125,321828.5625,285094.375,255738.84375,221812.46875,246061.25,0.030029296875,0.98974609375,0.07275390625,0.4882812201976776,-1.8310545682907104,-0.6408690810203552,73.33333587646484,179095.0,1.0
14848.6965699,294227.1875,295171.6875,328147.40625,321789.40625,285096.15625,255730.515625,221795.203125,246045.15625,0.0302734375,0.98876953125,0.075439453125,0.5187987685203552,-1.7700194120407104,-0.5493163466453552,73.33333587646484,179096.0,1.0
14848.6965713,294193.6875,294866.1875,327923.1875,321775.46875,284950.4375,255666.0625,221732.984375,246031.03125,0.0302734375,0.9873046875,0.07421875,0.5187987685203552,-1.8310545682907104,-0.6103515028953552,73.33333587646484,179097.0,1.0
14848.6984452,294196.90625,294631.78125,327777.53125,321806.125,284843.59375,255634.59375,221705.890625,246037.375,0.030517578125,0.989013671875,0.07177734375,0.5798339247703552,-1.7395018339157104,-0.7019042372703552,73.33333587646484,179098.0,1.0
14848.7009489,294241.40625,294821.65625,327943.90625,321849.125,284946.65625,255693.421875,221767.5,246066.171875,0.029296875,0.989013671875,0.069580078125,0.5493163466453552,-1.7700194120407104,-0.5493163466453552,73.33333587646484,179099.0,1.0
14848.7052776,294254.84375,295145.59375,328166.53125,321833.125,285099.03125,255753.859375,221826.859375,246065.625,0.02978515625,0.98974609375,0.0712890625,0.5187987685203552,-1.7089842557907104,-0.4882812201976776,73.33333587646484,179100.0,1.0
14848.7052921,294224.59375,295166.6875,328144.0,321785.90625,285097.5,255749.03125,221806.921875,246043.359375,0.031494140625,0.990966796875,0.07177734375,0.6103515028953552,-1.7395018339157104,-0.6103515028953552,73.33333587646484,179101.0,1.0
14848.7127963,294190.8125,294855.71875,327913.0625,321772.0625,284945.6875,255675.359375,221733.421875,246024.234375,0.031494140625,0.992431640625,0.072021484375,0.6408690810203552,-1.6784666776657104,-0.6408690810203552,73.33333587646484,179102.0,1.0
14848.7128035,294203.40625,294633.5625,327778.59375,321808.28125,284846.71875,255632.4375,221707.671875,246038.0,0.0322265625,0.9921875,0.072021484375,0.5493163466453552,-1.5869139432907104,-0.7019042372703552,73.33333587646484,179103.0,1.0
14848.7128049,294243.84375,294823.8125,327948.125,321842.25,284948.46875,255668.46875,221760.15625,246060.0,0.03271484375,0.990234375,0.07275390625,0.4577636420726776,-1.5563963651657104,-0.7629393935203552,73.33333587646484,179104.0,1.0
14848.7128092,294243.84375,294823.8125,327948.125,321842.25,284948.46875,255668.46875,221760.15625,246060.0,0.03271484375,0.990234375,0.07275390625,0.4577636420726776,-1.5563963651657104,-0.7629393935203552,73.33333587646484,179105.0,0.0
14848.7128094,294243.84375,294823.8125,327948.125,321842.25,284948.46875,255668.46875,221760.15625,246060.0,0.03271484375,0.990234375,0.07275390625,0.4577636420726776,-1.5563963651657104,-0.7629393935203552,73.33333587646484,179106.0,0.0
14848.7128096,294243.84375,294823.8125,327948.125,321842.25,284948.46875,255668.46875,221760.15625,246060.0,0.03271484375,0.990234375,0.07275390625,0.4577636420726776,-1.5563963651657104,-0.7629393935203552,73.33333587646484,179107.0,0.0
14848.7128098,294243.84375,294823.8125,327948.125,321842.25,284948.46875,255668.46875,221760.15625,246060.0,0.03271484375,0.990234375,0.07275390625,0.4577636420726776,-1.5563963651657104,-0.7629393935203552,73.33333587646484,179108.0,0.0
14848.71281,294243.84375,294823.8125,327948.125,321842.25,284948.46875,255668.46875,221760.15625,246060.0,0.03271484375,0.990234375,0.07275390625,0.4577636420726776,-1.5563963651657104,-0.7629393935203552,73.33333587646484,179109.0,0.0
14848.7128102,294243.84375,294823.8125,327948.125,321842.25,284948.46875,255668.46875,221760.15625,246060.0,0.03271484375,0.990234375,0.07275390625,0.4577636420726776,-1.5563963651657104,-0.7629393935203552,73.33333587646484,179110.0,0.0
14848.7128103,294243.84375,294823.8125,327948.125,321842.25,284948.46875,255668.46875,221760.15625,246060.0,0.03271484375,0.990234375,0.07275390625,0.4577636420726776,-1.5563963651657104,-0.7629393935203552,73.33333587646484,179111.0,0.0
14848.7128105,294243.84375,294823.8125,327948.125,321842.25,284948.46875,255668.46875,221760.15625,246060.0,0.03271484375,0.990234375,0.07275390625,0.4577636420726776,-1.5563963651657104,-0.7629393935203552,73.33333587646484,179112.0,0.0
14848.7128107,294243.84375,294823.8125,327948.125,321842.25,284948.46875,255668.46875,221760.15625,246060.0,0.03271484375,0.990234375,0.07275390625,0.4577636420726776,-1.5563963651657104,-0.7629393935203552,73.33333587646484,179113.0,0.0
14848.7128109,294243.84375,294823.8125,327948.125,321842.25,284948.46875,255668.46875,221760.15625,246060.0,0.03271484375,0.990234375,0.07275390625,0.4577636420726776,-1.5563963651657104,-0.7629393935203552,73.33333587646484,179114.0,0.0
14848.7128111,294243.84375,294823.8125,327948.125,321842.25,284948.46875,255668.46875,221760.15625,246060.0,0.03271484375,0.990234375,0.07275390625,0.4577636420726776,-1.5563963651657104,-0.7629393935203552,73.33333587646484,179115.0,0.0
14848.7128113,294243.84375,294823.8125,327948.125,321842.25,284948.46875,255668.46875,221760.15625,246060.0,0.03271484375,0.990234375,0.07275390625,0.4577636420726776,-1.5563963651657104,-0.7629393935203552,73.33333587646484,179116.0,0.0
14848.7128115,294243.84375,294823.8125,327948.125,321842.25,284948.46875,255668.46875,221760.15625,246060.0,0.03271484375,0.990234375,0.07275390625,0.4577636420726776,-1.5563963651657104,-0.7629393935203552,73.33333587646484,179117.0,0.0
14848.7128117,294243.84375,294823.8125,327948.125,321842.25,284948.46875,255668.46875,221760.15625,246060.0,0.03271484375,0.990234375,0.07275390625,0.4577636420726776,-1.5563963651657104,-0.7629393935203552,73.33333587646484,179118.0,0.0
14848.7128119,294243.84375,294823.8125,327948.125,321842.25,284948.46875,255668.46875,221760.15625,246060.0,0.03271484375,0.990234375,0.07275390625,0.4577636420726776,-1.5563963651657104,-0.7629393935203552,73.33333587646484,179119.0,0.0
14848.7128121,294243.84375,294823.8125,327948.125,321842.25,284948.46875,255668.46875,221760.15625,246060.0,0.03271484375,0.990234375,0.07275390625,0.4577636420726776,-1.5563963651657104,-0.7629393935203552,73.33333587646484,179120.0,0.0
14848.7128122,294243.84375,294823.8125,327948.125,321842.25,284948.46875,255668.46875,221760.15625,246060.0,0.03271484375,0.990234375,0.07275390625,0.4577636420726776,-1.5563963651657104,-0.7629393935203552,73.33333587646484,179121.0,0.0
14848.7128124,294243.84375,294823.8125,327948.125,321842.25,284948.46875,255668.46875,221760.15625,246060.0,0.03271484375,0.990234375,0.07275390625,0.4577636420726776,-1.5563963651657104,-0.7629393935203552,73.33333587646484,179122.0,0.0
14848.7128126,294243.84375,294823.8125,327948.125,321842.25,284948.46875,255668.46875,221760.15625,246060.0,0.03271484375,0.990234375,0.07275390625,0.4577636420726776,-1.5563963651657104,-0.7629393935203552,73.33333587646484,179123.0,0.0
14848.7128128,294243.84375,294823.8125,327948.125,321842.25,284948.46875,255668.46875,221760.15625,246060.0,0.03271484375,0.990234375,0.07275390625,0.4577636420726776,-1.5563963651657104,-0.7629393935203552,73.33333587646484,179124.0,0.0
14848.712813,294243.84375,294823.8125,327948.125,321842.25,284948.46875,255668.46875,221760.15625,246060.0,0.03271484375,0.990234375,0.07275390625,0.4577636420726776,-1.5563963651657104,-0.7629393935203552,73.33333587646484,179125.0,0.0
14848.7128132,294243.84375,294823.8125,327948.125,321842.25,284948.46875,255668.46875,221760.15625,246060.0,0.03271484375,0.990234375,0.07275390625,0.4577636420726776,-1.5563963651657104,-0.7629393935203552,73.33333587646484,179126.0,0.0
14848.7128134,294243.84375,294823.8125,327948.125,321842.25,284948.46875,255668.46875,221760.15625,246060.0,0.03271484375,0.990234375,0.07275390625,0.4577636420726776,-1.5563963651657104,-0.7629393935203552,73.33333587646484,179127.0,0.0
14848.7128136,294243.84375,294823.8125,327948.125,321842.25,284948.46875,255668.46875,221760.15625,246060.0,0.03271484375,0.990234375,0.07275390625,0.4577636420726776,-1.5563963651657104,-0.7629393935203552,73.33333587646484,179128.0,0.0
14848.7128138,294243.84375,294823.8125,327948.125,321842.25,284948.46875,255668.46875,221760.15625,246060.0,0.03271484375,0.990234375,0.07275390625,0.4577636420726776,-1.5563963651657104,-0.7629393935203552,73.33333587646484,179129.0,0.0
14848.7128139,294243.84375,294823.8125,327948.125,321842.25,284948.46875,255668.46875,221760.15625,246060.0,0.03271484375,0.990234375,0.07275390625,0.4577636420726776,-1.5563963651657104,-0.7629393935203552,73.33333587646484,179130.0,0.0
14848.7128141,294243.84375,294823.8125,327948.125,321842.25,284948.46875,255668.46875,221760.15625,246060.0,0.03271484375,0.990234375,0.07275390625,0.4577636420726776,-1.5563963651657104,-0.7629393935203552,73.33333587646484,179131.0,0.0
14848.7128143,294243.84375,294823.8125,327948.125,321842.25,284948.46875,255668.46875,221760.15625,246060.0,0.03271484375,0.990234375,0.07275390625,0.4577636420726776,-1.5563963651657104,-0.7629393935203552,73.33333587646484,179132.0,0.0
14848.7128145,294243.84375,294823.8125,327948.125,321842.25,284948.46875,255668.46875,221760.15625,246060.0,0.03271484375,0.990234375,0.07275390625,0.4577636420726776,-1.5563963651657104,-0.7629393935203552,73.33333587646484,179133.0,0.0
14848.7128148,294243.84375,294823.8125,327948.125,321842.25,284948.46875,255668.46875,221760.15625,246060.0,0.03271484375,0.990234375,0.07275390625,0.4577636420726776,-1.5563963651657104,-0.7629393935203552,73.33333587646484,179134.0,0.0
14848.712815,294243.84375,294823.8125,327948.125,321842.25,284948.46875,255668.46875,221760.15625,246060.0,0.03271484375,0.990234375,0.07275390625,0.4577636420726776,-1.5563963651657104,-0.7629393935203552,73.33333587646484,179135.0,0.0
14848.7128152,294243.84375,294823.8125,327948.125,321842.25,284948.46875,255668.46875,221760.15625,246060.0,0.03271484375,0.990234375,0.07275390625,0.4577636420726776,-1.5563963651657104,-0.7629393935203552,73.33333587646484,179136.0,0.0
14848.7128154,294243.84375,294823.8125,327948.125,321842.25,284948.46875,255668.46875,221760.15625,246060.0,0.03271484375,0.990234375,0.07275390625,0.4577636420726776,-1.5563963651657104,-0.7629393935203552,73.33333587646484,179137.0,0.0
14848.7128156,294243.84375,294823.8125,327948.125,321842.25,284948.46875,255668.46875,221760.15625,246060.0,0.03271484375,0.990234375,0.07275390625,0.4577636420726776,-1.5563963651657104,-0.7629393935203552,73.33333587646484,179138.0,0.0
14848.7128158,294243.84375,294823.8125,327948.125,321842.25,284948.46875,255668.46875,221760.15625,246060.0,0.03271484375,0.990234375,0.07275390625,0.4577636420726776,-1.5563963651657104,-0.7629393935203552,73.33333587646484,179139.0,0.0
14848.712816,294243.84375,294823.8125,327948.125,321842.25,284948.46875,255668.46875,221760.15625,246060.0,0.03271484375,0.990234375,0.07275390625,0.4577636420726776,-1.5563963651657104,-0.7629393935203552,73.33333587646484,179140.0,0.0
14848.7128162,294243.84375,294823.8125,327948.125,321842.25,284948.46875,255668.46875,221760.15625,246060.0,0.03271484375,0.990234375,0.07275390625,0.4577636420726776,-1.5563963651657104,-0.7629393935203552,73.33333587646484,179141.0,0.0
14848.7128163,294243.84375,294823.8125,327948.125,321842.25,284948.46875,255668.46875,221760.15625,246060.0,0.03271484375,0.990234375,0.07275390625,0.4577636420726776,-1.5563963651657104,-0.7629393935203552,73.33333587646484,179142.0,0.0
14848.7128165,294243.84375,294823.8125,327948.125,321842.25,284948.46875,255668.46875,221760.15625,246060.0,0.03271484375,0.990234375,0.07275390625,0.4577636420726776,-1.5563963651657104,-0.7629393935203552,73.33333587646484,179143.0,0.0
14848.7128167,294243.84375,294823.8125,327948.125,321842.25,284948.46875,255668.46875,221760.15625,246060.0,0.03271484375,0.990234375,0.07275390625,0.4577636420726776,-1.5563963651657104,-0.7629393935203552,73.33333587646484,179144.0,0.0
14848.7128169,294243.84375,294823.8125,327948.125,321842.25,284948.46875,255668.46875,221760.15625,246060.0,0.03271484375,0.990234375,0.07275390625,0.4577636420726776,-1.5563963651657104,-0.7629393935203552,73.33333587646484,179145.0,0.0
14848.7128171,294243.84375,294823.8125,327948.125,321842.25,284948.46875,255668.46875,221760.15625,246060.0,0.03271484375,0.990234375,0.07275390625,0.4577636420726776,-1.5563963651657104,-0.7629393935203552,73.33333587646484,179146.0,0.0
14848.7128173,294243.84375,294823.8125,327948.125,321842.25,284948.46875,255668.46875,221760.15625,246060.0,0.03271484375,0.990234375,0.07275390625,0.4577636420726776,-1.5563963651657104,-0.7629393935203552,73.33333587646484,179147.0,0.0
14848.7128175,294243.84375,294823.8125,327948.125,321842.25,284948.46875,255668.46875,221760.15625,246060.0,0.03271484375,0.990234375,0.07275390625,0.4577636420726776,-1.5563963651657104,-0.7629393935203552,73.33333587646484,179148.0,0.0
14848.7128176,294243.84375,294823.8125,327948.125,321842.25,284948.46875,255668.46875,221760.15625,246060.0,0.03271484375,0.990234375,0.07275390625,0.4577636420726776,-1.5563963651657104,-0.7629393935203552,73.33333587646484,179149.0,0.0
14848.7128178,294243.84375,294823.8125,327948.125,321842.25,284948.46875,255668.46875,221760.15625,246060.0,0.03271484375,0.990234375,0.07275390625,0.4577636420726776,-1.5563963651657104,-0.7629393935203552,73.33333587646484,179150.0,0.0
14848.712818,294243.84375,294823.8125,327948.125,321842.25,284948.46875,255668.46875,221760.15625,246060.0,0.03271484375,0.990234375,0.07275390625,0.4577636420726776,-1.5563963651657104,-0.7629393935203552,73.33333587646484,179151.0,0.0
14848.7128182,294243.84375,294823.8125,327948.125,321842.25,284948.46875,255668.46875,221760.15625,246060.0,0.03271484375,0.990234375,0.07275390625,0.4577636420726776,-1.5563963651657104,-0.7629393935203552,73.33333587646484,179152.0,0.0
14848.7128184,294243.84375,294823.8125,327948.125,321842.25,284948.46875,255668.46875,221760.15625,246060.0,0.03271484375,0.990234375,0.07275390625,0.4577636420726776,-1.5563963651657104,-0.7629393935203552,73.33333587646484,179153.0,0.0
14848.7128186,294243.84375,294823.8125,327948.125,321842.25,284948.46875,255668.46875,221760.15625,246060.0,0.03271484375,0.990234375,0.07275390625,0.4577636420726776,-1.5563963651657104,-0.7629393935203552,73.33333587646484,179154.0,0.0
14848.7128187,294243.84375,294823.8125,327948.125,321842.25,284948.46875,255668.46875,221760.15625,246060.0,0.03271484375,0.990234375,0.07275390625,0.4577636420726776,-1.5563963651657104,-0.7629393935203552,73.33333587646484,179155.0,0.0
14848.7128189,294243.84375,294823.8125,327948.125,321842.25,284948.46875,255668.46875,221760.15625,246060.0,0.03271484375,0.990234375,0.07275390625,0.4577636420726776,-1.5563963651657104,-0.7629393935203552,73.33333587646484,179156.0,0.0
14848.7128191,294243.84375,294823.8125,327948.125,321842.25,284948.46875,255668.46875,221760.15625,246060.0,0.03271484375,0.990234375,0.07275390625,0.4577636420726776,-1.5563963651657104,-0.7629393935203552,73.33333587646484,179157.0,0.0
14848.7128193,294243.84375,294823.8125,327948.125,321842.25,284948.46875,255668.46875,221760.15625,246060.0,0.03271484375,0.990234375,0.07275390625,0.4577636420726776,-1.5563963651657104,-0.7629393935203552,73.33333587646484,179158.0,0.0
14848.7128195,294243.84375,294823.8125,327948.125,321842.25,284948.46875,255668.46875,221760.15625,246060.0,0.03271484375,0.990234375,0.07275390625,0.4577636420726776,-1.5563963651657104,-0.7629393935203552,73.33333587646484,179159.0,0.0
14848.7128197,294243.84375,294823.8125,327948.125,321842.25,284948.46875,255668.46875,221760.15625,246060.0,0.03271484375,0.990234375,0.07275390625,0.4577636420726776,-1.5563963651657104,-0.7629393935203552,73.33333587646484,179160.0,0.0
14848.7128199,294243.84375,294823.8125,327948.125,321842.25,284948.46875,255668.46875,221760.15625,246060.0,0.03271484375,0.990234375,0.07275390625,0.4577636420726776,-1.5563963651657104,-0.7629393935203552,73.33333587646484,179161.0,0.0
14848.7128201,294243.84375,294823.8125,327948.125,321842.25,284948.46875,255668.46875,221760.15625,246060.0,0.03271484375,0.990234375,0.07275390625,0.4577636420726776,-1.5563963651657104,-0.7629393935203552,73.33333587646484,179162.0,0.0
14848.7128203,294210.46875,294630.0625,327788.25,321804.0625,284862.34375,255638.609375,221710.984375,246037.203125,0.0263671875,0.989013671875,0.066650390625,-0.1525878757238388,-2.014159917831421,-1.0375975370407104,73.33333587646484,179163.0,1.0
14848.7128216,294248.3125,294822.5625,327962.5,321837.34375,284965.0,255681.796875,221762.578125,246057.3125,0.028564453125,0.988525390625,0.064453125,-0.2136230319738388,-1.8920897245407104,-0.7934569716453552,73.33333587646484,179164.0,1.0
14848.7128229,294265.03125,295142.625,328183.71875,321823.03125,285114.9375,255732.21875,221813.8125,246057.671875,0.028076171875,0.9892578125,0.0654296875,-0.2136230319738388,-2.075195074081421,-0.7019042372703552,73.33333587646484,179165.0,1.0
14848.7128242,294235.53125,295159.90625,328156.78125,321778.40625,285111.8125,255728.375,221797.171875,246039.078125,0.029541015625,0.987548828125,0.065185546875,-0.2136230319738388,-2.105712652206421,-0.7934569716453552,73.33333587646484,179166.0,1.0
14848.7128256,294203.15625,294854.40625,327928.1875,321767.25,284965.4375,255664.71875,221731.90625,246024.671875,0.027587890625,0.989501953125,0.06591796875,-0.2136230319738388,-2.044677495956421,-0.7629393935203552,73.33333587646484,179167.0,1.0
14848.7128269,294206.5625,294624.96875,327787.46875,321799.40625,284859.59375,255628.78125,221704.8125,246031.5625,0.02978515625,0.988037109375,0.067626953125,-0.2746581733226776,-1.9531248807907104,-0.7629393935203552,73.33333587646484,179168.0,1.0
14848.7128282,294245.96875,294804.9375,327941.0625,321834.90625,284949.0,255678.390625,221759.53125,246052.390625,0.02978515625,0.9892578125,0.070556640625,-0.2136230319738388,-2.044677495956421,-0.7019042372703552,73.33333587646484,179169.0,1.0
14848.7128295,294264.5625,295134.5,328165.46875,321824.46875,285105.53125,255744.828125,221818.09375,246063.125,0.0283203125,0.989013671875,0.06884765625,-0.1220703050494194,-1.9836424589157104,-0.7934569716453552,73.33333587646484,179170.0,1.0
14848.714284,294236.21875,295165.78125,328158.75,321784.5,285115.8125,255736.953125,221801.203125,246043.453125,0.029052734375,0.99072265625,0.066650390625,-0.0915527269244194,-2.044677495956421,-0.7629393935203552,73.33333587646484,179171.0,1.0
14848.7165514,294236.21875,295165.78125,328158.75,321784.5,285115.8125,255736.953125,221801.203125,246043.453125,0.029052734375,0.99072265625,0.066650390625,-0.0915527269244194,-2.044677495956421,-0.7629393935203552,73.33333587646484,179172.0,0.0
14848.7165528,294236.21875,295165.78125,328158.75,321784.5,285115.8125,255736.953125,221801.203125,246043.453125,0.029052734375,0.99072265625,0.066650390625,-0.0915527269244194,-2.044677495956421,-0.7629393935203552,73.33333587646484,179173.0,0.0
14848.7165531,294236.21875,295165.78125,328158.75,321784.5,285115.8125,255736.953125,221801.203125,246043.453125,0.029052734375,0.99072265625,0.066650390625,-0.0915527269244194,-2.044677495956421,-0.7629393935203552,73.33333587646484,179174.0,0.0
14848.7165534,294236.21875,295165.78125,328158.75,321784.5,285115.8125,255736.953125,221801.203125,246043.453125,0.029052734375,0.99072265625,0.066650390625,-0.0915527269244194,-2.044677495956421,-0.7629393935203552,73.33333587646484,179175.0,0.0
14848.7165536,294227.65625,295138.78125,328134.8125,321773.03125,285093.75,255717.734375,221795.65625,246035.9375,0.034423828125,0.990478515625,0.067626953125,-0.1831054538488388,-1.6784666776657104,-0.7934569716453552,73.33333587646484,179176.0,1.0
14848.7165583,294191.8125,294832.5625,327896.96875,321757.125,284939.25,255645.046875,221725.65625,246020.5625,0.034912109375,0.990966796875,0.067138671875,-0.1220703050494194,-1.6784666776657104,-0.7629393935203552,73.33333587646484,179177.0,1.0
14848.7190257,294201.625,294621.5625,327781.375,321796.90625,284858.4375,255626.0,221714.390625,246036.84375,0.035888671875,0.988037109375,0.06982421875,-0.1220703050494194,-1.4953612089157104,-0.8239745497703552,73.33333587646484,179178.0,1.0
14848.7190289,294245.71875,294816.65625,327957.6875,321839.28125,284964.71875,255686.4375,221776.078125,246065.71875,0.03759765625,0.98974609375,0.071533203125,-0.0915527269244194,-1.4038084745407104,-0.9155272841453552,73.33333587646484,179179.0,1.0
14848.7190308,294253.5,295115.71875,328154.65625,321820.53125,285096.15625,255741.078125,221820.328125,246062.671875,0.038330078125,0.989501953125,0.06982421875,-0.0610351525247097,-1.2512205839157104,-1.0070799589157104,73.33333587646484,179180.0,1.0
14848.7209256,294221.65625,295130.3125,328119.4375,321773.75,285086.3125,255732.84375,221799.953125,246039.875,0.04052734375,0.989013671875,0.068603515625,-0.1220703050494194,-1.0681151151657104,-0.9460448622703552,73.33333587646484,179181.0,1.0
14848.7240382,294193.0625,294831.78125,327897.6875,321761.25,284945.0625,255668.46875,221739.515625,246028.4375,0.0380859375,0.98974609375,0.069091796875,-0.1831054538488388,-0.9155272841453552,-0.9765624403953552,73.33333587646484,179182.0,1.0
14848.724042,294200.65625,294618.0,327768.6875,321794.3125,284851.28125,255634.328125,221716.625,246038.890625,0.03759765625,0.989013671875,0.07080078125,-0.2136230319738388,-0.5798339247703552,-1.0375975370407104,73.33333587646484,179183.0,1.0
14848.7259415,294243.84375,294812.1875,327945.34375,321835.09375,284955.0625,255684.828125,221771.6875,246063.03125,0.037353515625,0.9912109375,0.072509765625,-0.0915527269244194,-0.3356933295726776,-1.1291502714157104,73.33333587646484,179184.0,1.0
14848.7284416,294256.15625,295126.90625,328164.40625,321822.03125,285102.25,255743.9375,221821.3125,246062.671875,0.03662109375,0.994384765625,0.0712890625,-0.1220703050494194,-0.1525878757238388,-1.2512205839157104,73.33333587646484,179185.0,1.0
14848.7334284,294224.34375,295151.21875,328142.03125,321778.59375,285101.15625,255731.953125,221800.75,246040.953125,0.037109375,0.994384765625,0.07080078125,-0.2441406100988388,0.0915527269244194,-1.4038084745407104,73.33333587646484,179186.0,1.0
14848.7359455,294192.4375,294853.125,327922.71875,321766.4375,284958.125,255662.65625,221737.453125,246029.421875,0.03564453125,0.99462890625,0.07080078125,-0.3051757514476776,0.1525878757238388,-1.4343260526657104,73.33333587646484,179187.0,1.0
14848.7384526,294196.1875,294624.96875,327788.15625,321796.5625,284858.875,255631.453125,221711.796875,246038.265625,0.033447265625,0.994873046875,0.071044921875,-0.3356933295726776,0.2746581733226776,-1.4038084745407104,73.33333587646484,179188.0,1.0
14848.7822321,294245.1875,294816.84375,327962.78125,321840.28125,284967.15625,255694.484375,221776.96875,246065.359375,0.03369140625,0.995361328125,0.074462890625,-0.4577636420726776,0.3356933295726776,-1.4648436307907104,73.33333587646484,179189.0,1.0
14848.7872138,294260.09375,295130.65625,328178.875,321826.25,285110.90625,255752.421875,221831.15625,246066.171875,0.03173828125,0.99658203125,0.071533203125,-0.5493163466453552,0.4577636420726776,-1.4648436307907104,73.33333587646484,179190.0,1.0
14848.7938957,294232.125,295149.625,328151.6875,321781.8125,285104.375,255728.5625,221802.1875,246042.296875,0.030029296875,0.99755859375,0.07373046875,-0.6408690810203552,0.6713866591453552,-1.3732908964157104,73.33333587646484,179191.0,1.0
14848.7939034,294204.9375,294848.75,327927.65625,321771.15625,284962.03125,255659.171875,221733.875,246028.875,0.028076171875,0.99560546875,0.07177734375,-0.7934569716453552,0.5493163466453552,-1.5258787870407104,73.33333587646484,179192.0,1.0
14848.7939048,294214.875,294624.625,327799.78125,321803.53125,284866.125,255631.1875,221711.96875,246040.0625,0.02734375,0.997314453125,0.070068359375,-0.9155272841453552,0.5187987685203552,-1.4343260526657104,73.33333587646484,179193.0,1.0
14848.7939061,294261.28125,294813.1875,327970.125,321842.59375,284965.53125,255682.953125,221764.09375,246059.015625,0.0234375,0.99462890625,0.072509765625,-1.0986326932907104,0.4577636420726776,-1.2817381620407104,73.33333587646484,179194.0,1.0
14848.7939074,294273.78125,295129.21875,328184.25,321829.1875,285110.625,255747.515625,221819.53125,246066.34375,0.02197265625,0.9951171875,0.072509765625,-1.2817381620407104,0.3662109076976776,-1.0681151151657104,73.33333587646484,179195.0,1.0
14848.7939086,294244.71875,295154.4375,328161.625,321785.125,285111.0,255746.4375,221806.65625,246046.3125,0.021240234375,0.994384765625,0.072509765625,-1.4648436307907104,0.1220703050494194,-0.9765624403953552,73.33333587646484,179196.0,1.0
14848.7939099,294206.8125,294851.625,327930.78125,321769.1875,284964.375,255694.671875,221749.34375,246033.984375,0.018310546875,0.996337890625,0.07177734375,-1.5258787870407104,-0.0915527269244194,-0.8239745497703552,73.33333587646484,179197.0,1.0
14848.7939112,294220.125,294635.0,327808.71875,321808.0,284876.46875,255656.046875,221727.4375,246045.59375,0.014892578125,0.9951171875,0.06982421875,-1.6174315214157104,-0.3051757514476776,-0.7019042372703552,73.33333587646484,179198.0,1.0
14848.7939125,294258.75,294824.71875,327984.25,321841.96875,284977.34375,255681.796875,221764.28125,246050.34375,0.01416015625,0.992919921875,0.07470703125,-1.7395018339157104,-0.4577636420726776,-0.6713866591453552,73.33333587646484,179199.0,1.0
14848.7939137,294269.65625,295140.3125,328200.875,321824.71875,285119.125,255722.828125,221803.609375,246046.40625,0.014404296875,0.98974609375,0.073974609375,-1.7395018339157104,-0.7019042372703552,-0.5493163466453552,73.33333587646484,179200.0,1.0
14848.7965173,294234.53125,295156.0625,328176.46875,321778.5,285114.3125,255703.796875,221778.75,246025.75,0.015380859375,0.988037109375,0.073486328125,-1.6479490995407104,-0.8850097060203552,-0.7019042372703552,73.33333587646484,179201.0,1.0
14848.7965248,294198.3125,294844.125,327946.25,321762.0625,284965.8125,255629.765625,221702.84375,246005.28125,0.0166015625,0.983154296875,0.074951171875,-1.6174315214157104,-1.1291502714157104,-0.5493163466453552,73.33333587646484,179202.0,1.0
14848.7965265,294211.90625,294625.0625,327807.21875,321798.4375,284866.125,255602.765625,221687.203125,246024.140625,0.0166015625,0.981689453125,0.072021484375,-1.4648436307907104,-1.3732908964157104,-0.4272460639476776,73.33333587646484,179203.0,1.0
14848.7990372,294258.75,294822.125,327975.75,321840.0,284969.8125,255653.984375,221745.765625,246049.796875,0.0185546875,0.979248046875,0.074462890625,-1.4038084745407104,-1.6174315214157104,-0.1525878757238388,73.33333587646484,179204.0,1.0
14848.799041,294258.75,294822.125,327975.75,321840.0,284969.8125,255653.984375,221745.765625,246049.796875,0.0185546875,0.979248046875,0.074462890625,-1.4038084745407104,-1.6174315214157104,-0.1525878757238388,73.33333587646484,179205.0,0.0
14848.7990413,294258.75,294822.125,327975.75,321840.0,284969.8125,255653.984375,221745.765625,246049.796875,0.0185546875,0.979248046875,0.074462890625,-1.4038084745407104,-1.6174315214157104,-0.1525878757238388,73.33333587646484,179206.0,0.0
14848.7990416,294258.75,294822.125,327975.75,321840.0,284969.8125,255653.984375,221745.765625,246049.796875,0.0185546875,0.979248046875,0.074462890625,-1.4038084745407104,-1.6174315214157104,-0.1525878757238388,73.33333587646484,179207.0,0.0
14848.7990419,294258.75,294822.125,327975.75,321840.0,284969.8125,255653.984375,221745.765625,246049.796875,0.0185546875,0.979248046875,0.074462890625,-1.4038084745407104,-1.6174315214157104,-0.1525878757238388,73.33333587646484,179208.0,0.0
14848.7990423,294258.75,294822.125,327975.75,321840.0,284969.8125,255653.984375,221745.765625,246049.796875,0.0185546875,0.979248046875,0.074462890625,-1.4038084745407104,-1.6174315214157104,-0.1525878757238388,73.33333587646484,179209.0,0.0
14848.7990426,294258.75,294822.125,327975.75,321840.0,284969.8125,255653.984375,221745.765625,246049.796875,0.0185546875,0.979248046875,0.074462890625,-1.4038084745407104,-1.6174315214157104,-0.1525878757238388,73.33333587646484,179210.0,0.0
14848.799043,294231.5,295132.09375,328114.15625,321775.625,285084.53125,255721.671875,221792.53125,246033.625,0.035400390625,0.984619140625,0.072509765625,-0.1831054538488388,-2.410888433456421,0.4272460639476776,73.33333587646484,179211.0,1.0
14848.8015655,294205.3125,294851.1875,327908.5,321771.09375,284955.15625,255665.078125,221735.390625,246021.90625,0.037841796875,0.98779296875,0.07177734375,-0.0915527269244194,-2.288818120956421,0.3662109076976776,73.33333587646484,179212.0,1.0
14848.8015707,294215.125,294638.28125,327789.40625,321808.4375,284867.46875,255631.8125,221710.453125,246033.796875,0.039306640625,0.98779296875,0.0732421875,0.0610351525247097,-2.166747808456421,0.2136230319738388,73.33333587646484,179213.0,1.0
14848.8069551,294264.9375,294832.03125,327958.75,321852.15625,284974.125,255693.953125,221774.28125,246063.75,0.041015625,0.987548828125,0.076416015625,0.2136230319738388,-1.9836424589157104,0.0610351525247097,73.33333587646484,179214.0,1.0
14848.8069611,294278.625,295143.09375,328166.53125,321835.09375,285115.46875,255740.0,221821.671875,246061.96875,0.044677734375,0.9873046875,0.0712890625,0.2441406100988388,-1.8310545682907104,-0.1220703050494194,73.33333587646484,179215.0,1.0
14848.8069629,294249.8125,295160.6875,328140.0,321793.0625,285110.28125,255716.84375,221795.828125,246043.71875,0.045166015625,0.98876953125,0.072998046875,0.4272460639476776,-1.6479490995407104,-0.2441406100988388,73.33333587646484,179216.0,1.0
14848.8069644,294218.25,294859.84375,327926.125,321784.75,284975.46875,255665.34375,221744.15625,246038.1875,0.04638671875,0.99072265625,0.075927734375,0.5187987685203552,-1.4038084745407104,-0.3662109076976776,73.33333587646484,179217.0,1.0
14848.8069657,294225.3125,294642.3125,327802.65625,321811.21875,284883.46875,255636.375,221722.15625,246049.359375,0.04541015625,0.9912109375,0.07958984375,0.5187987685203552,-1.1291502714157104,-0.5493163466453552,73.33333587646484,179218.0,1.0
14848.806967,294273.34375,294839.09375,327981.65625,321849.125,284992.25,255693.0625,221779.921875,246072.15625,0.04541015625,0.991943359375,0.07763671875,0.4882812201976776,-0.8544921278953552,-0.7019042372703552,73.33333587646484,179219.0,1.0
14848.8069683,294284.0625,295149.4375,328192.1875,321830.4375,285132.625,255746.796875,221829.265625,246065.09375,0.04443359375,0.99072265625,0.074462890625,0.6103515028953552,-0.5187987685203552,-0.8544921278953552,73.33333587646484,179220.0,1.0
14848.8086763,294245.8125,295158.1875,328154.5625,321777.4375,285120.375,255731.78125,221803.703125,246038.625,0.044189453125,0.989501953125,0.07421875,0.6103515028953552,-0.3051757514476776,-1.0986326932907104,73.33333587646484,179221.0,1.0
14848.8086796,294245.8125,295158.1875,328154.5625,321777.4375,285120.375,255731.78125,221803.703125,246038.625,0.044189453125,0.989501953125,0.07421875,0.6103515028953552,-0.3051757514476776,-1.0986326932907104,73.33333587646484,179222.0,0.0
14848.8086799,294245.8125,295158.1875,328154.5625,321777.4375,285120.375,255731.78125,221803.703125,246038.625,0.044189453125,0.989501953125,0.07421875,0.6103515028953552,-0.3051757514476776,-1.0986326932907104,73.33333587646484,179223.0,0.0
14848.8086802,294245.8125,295158.1875,328154.5625,321777.4375,285120.375,255731.78125,221803.703125,246038.625,0.044189453125,0.989501953125,0.07421875,0.6103515028953552,-0.3051757514476776,-1.0986326932907104,73.33333587646484,179224.0,0.0
14848.8086806,294251.25,295113.5,328148.75,321800.84375,285096.59375,255713.890625,221798.34375,246038.71875,0.03466796875,0.990234375,0.074462890625,0.6408690810203552,0.1831054538488388,-1.4038084745407104,73.33333587646484,179225.0,1.0
14848.812718,294220.3125,295134.875,328124.875,321758.125,285096.15625,255706.734375,221779.46875,246021.109375,0.031494140625,0.990478515625,0.0751953125,0.5798339247703552,0.2441406100988388,-1.5258787870407104,73.33333587646484,179226.0,1.0
14848.8127207,294190.8125,294835.4375,327899.03125,321748.46875,284952.21875,255648.09375,221720.015625,246008.59375,0.02880859375,0.9912109375,0.07666015625,0.5493163466453552,0.2136230319738388,-1.4648436307907104,73.33333587646484,179227.0,1.0
14848.8127227,294201.71875,294618.4375,327774.84375,321785.46875,284860.3125,255623.859375,221704.015625,246019.671875,0.02490234375,0.99169921875,0.07275390625,0.3967284858226776,0.1831054538488388,-1.3427733182907104,73.33333587646484,179228.0,1.0
14848.8127245,294275.75,294843.84375,327978.78125,321853.78125,284995.5625,255707.015625,221790.5625,246073.140625,0.019775390625,0.989990234375,0.072021484375,0.3662109076976776,-0.0610351525247097,-1.2817381620407104,73.33333587646484,179229.0,1.0
14848.8147036,294306.25,295178.84375,328215.90625,321856.03125,285161.25,255786.046875,221863.78125,246093.875,0.017333984375,0.99169921875,0.074951171875,0.1831054538488388,-0.2746581733226776,-1.0986326932907104,73.33333587646484,179230.0,1.0
14848.8177716,294265.28125,295189.40625,328178.875,321804.0625,285149.0,255768.15625,221840.453125,246066.34375,0.014404296875,0.9912109375,0.075927734375,0.1831054538488388,-0.5798339247703552,-0.9155272841453552,73.33333587646484,179231.0,1.0
14848.8177746,294222.90625,294877.625,327941.9375,321782.6875,284994.5,255697.890625,221767.578125,246045.6875,0.01123046875,0.994873046875,0.075927734375,0.1525878757238388,-0.9155272841453552,-0.6408690810203552,73.33333587646484,179232.0,1.0
14848.8177766,294224.34375,294656.71875,327805.875,321811.75,284893.03125,255658.1875,221737.359375,246054.09375,0.010009765625,0.997314453125,0.07568359375,0.0915527269244194,-1.3732908964157104,-0.3967284858226776,73.33333587646484,179233.0,1.0
14848.8202918,294261.4375,294844.90625,327971.90625,321846.4375,284990.03125,255704.0625,221791.71875,246076.09375,0.00927734375,0.998291015625,0.077880859375,-0.0610351525247097,-1.8920897245407104,-0.2136230319738388,73.33333587646484,179234.0,1.0
14848.8202944,294265.46875,295154.25,328181.375,321822.5625,285128.96875,255758.59375,221836.96875,246069.109375,0.00830078125,1.000244140625,0.078369140625,-0.4272460639476776,-2.319335699081421,0.03051757626235485,73.33333587646484,179235.0,1.0
14848.8227725,294234.1875,295177.5,328160.28125,321777.78125,285127.09375,255746.171875,221816.390625,246048.546875,0.01025390625,0.999755859375,0.072998046875,-0.6103515028953552,-2.807616949081421,0.2136230319738388,73.33333587646484,179236.0,1.0
14848.8227901,294201.53125,294876.84375,327940.15625,321764.46875,284985.46875,255681.609375,221752.46875,246036.65625,0.0107421875,1.004150390625,0.073974609375,-0.7629393935203552,-3.326415777206421,0.3967284858226776,73.33333587646484,179237.0,1.0
14848.8247021,294212.71875,294663.875,327823.75,321802.71875,284899.09375,255653.71875,221733.15625,246048.28125,0.012451171875,1.00634765625,0.076416015625,-1.0375975370407104,-3.723144292831421,0.5798339247703552,73.33333587646484,179238.0,1.0
14848.8278026,294259.375,294859.75,328002.75,321844.03125,285006.46875,255699.140625,221790.203125,246069.828125,0.013427734375,1.00634765625,0.0791015625,-1.2512205839157104,-4.058837413787842,0.8544921278953552,73.33333587646484,179239.0,1.0
14848.8278091,294275.5625,295170.09375,328212.84375,321830.625,285146.9375,255757.4375,221841.609375,246071.265625,0.017333984375,1.002197265625,0.076171875,-1.5258787870407104,-4.394530773162842,1.0986326932907104,73.33333587646484,179240.0,1.0
14848.8297468,294236.21875,295147.5625,328127.1875,321771.4375,285101.6875,255734.015625,221803.4375,246041.671875,0.0234375,1.0009765625,0.06982421875,-1.7395018339157104,-4.791259288787842,1.1596678495407104,73.33333587646484,179241.0,1.0
14848.8327976,294203.40625,294839.625,327886.34375,321757.9375,284948.8125,255672.3125,221745.046875,246030.671875,0.0244140625,0.9990234375,0.073486328125,-1.9531248807907104,-5.035399913787842,1.2207030057907104,73.33333587646484,179242.0,1.0
14848.8328016,294223.28125,294640.625,327788.34375,321803.71875,284880.25,255651.3125,221735.578125,246050.421875,0.029052734375,0.9970703125,0.070068359375,-2.014159917831421,-5.249022960662842,1.2817381620407104,73.33333587646484,179243.0,1.0
14848.8352885,294272.09375,294839.8125,327976.5625,321846.0,284995.46875,255700.484375,221793.515625,246074.125,0.03369140625,0.996337890625,0.0732421875,-2.258300542831421,-5.279540538787842,1.3427733182907104,73.33333587646484,179244.0,1.0
14848.8352911,294286.375,295142.625,328176.03125,321829.71875,285129.5,255750.546875,221836.25,246072.953125,0.039306640625,0.9931640625,0.072998046875,-2.227782964706421,-5.371093273162842,1.3122557401657104,73.33333587646484,179245.0,1.0
14848.8377559,294260.375,295169.0,328154.28125,321788.6875,285131.46875,255751.625,221824.359375,246055.53125,0.044189453125,0.989501953125,0.0751953125,-2.532958745956421,-5.218505382537842,1.1596678495407104,73.33333587646484,179246.0,1.0
14848.8377611,294215.21875,294833.1875,327880.34375,321758.21875,284951.40625,255678.125,221739.6875,246025.21875,0.050048828125,0.989501953125,0.0703125,-2.502441167831421,-4.943847179412842,1.2512205839157104,73.33333587646484,179247.0,1.0
14848.8377626,294225.40625,294621.3125,327747.03125,321796.65625,284859.59375,255659.796875,221731.015625,246043.453125,0.0546875,0.987548828125,0.06884765625,-2.532958745956421,-4.699706554412842,1.2207030057907104,73.33333587646484,179248.0,1.0
14848.8396803,294269.125,294828.5625,327941.78125,321841.53125,284978.40625,255714.78125,221797.0,246071.96875,0.056884765625,0.984130859375,0.070068359375,-2.502441167831421,-4.302978038787842,1.1291502714157104,73.33333587646484,179249.0,1.0
14848.8421963,294282.375,295155.34375,328172.25,321831.53125,285133.0,255772.359375,221846.4375,246076.171875,0.05810546875,0.98095703125,0.07080078125,-2.532958745956421,-3.784179449081421,0.8544921278953552,73.33333587646484,179250.0,1.0
14848.8458777,294243.84375,295176.09375,328146.59375,321782.0625,285128.4375,255754.75,221820.15625,246054.0,0.06005859375,0.9814453125,0.0712890625,-2.532958745956421,-3.265380620956421,0.5798339247703552,73.33333587646484,179251.0,1.0
14848.845881,294206.09375,294871.28125,327918.71875,321764.03125,284982.6875,255689.3125,221755.15625,246044.078125,0.059814453125,0.984619140625,0.07177734375,-2.410888433456421,-2.685546636581421,0.2136230319738388,73.33333587646484,179252.0,1.0
14848.8458828,294211.65625,294650.375,327789.34375,321796.125,284887.65625,255657.5625,221732.796875,246053.015625,0.0595703125,0.98486328125,0.070068359375,-2.380370855331421,-2.166747808456421,-0.0915527269244194,73.33333587646484,179253.0,1.0
14848.8490324,294258.40625,294845.28125,327965.71875,321840.1875,284996.75,255719.96875,221803.34375,246085.75,0.0576171875,0.9853515625,0.072021484375,-2.441406011581421,-1.6784666776657104,-0.4272460639476776,73.33333587646484,179254.0,1.0
14848.8490357,294279.15625,295163.375,328186.3125,321827.84375,285142.65625,255780.140625,221849.203125,246077.15625,0.055908203125,0.984375,0.073974609375,-2.441406011581421,-1.2512205839157104,-0.6408690810203552,73.33333587646484,179255.0,1.0
14848.8515322,294246.78125,295180.5625,328154.8125,321774.65625,285130.5,255755.5625,221810.859375,246036.03125,0.052490234375,0.98388671875,0.072998046875,-2.502441167831421,-0.7324218153953552,-0.8850097060203552,73.33333587646484,179256.0,1.0
14848.8515362,294216.75,294873.875,327929.0,321760.8125,284983.5,255674.375,221739.15625,246017.890625,0.04833984375,0.98291015625,0.072265625,-2.471923589706421,-0.2441406100988388,-1.0986326932907104,73.33333587646484,179257.0,1.0
14848.8546319,294241.40625,294663.78125,327809.90625,321804.6875,284894.8125,255648.453125,221727.890625,246040.953125,0.0419921875,0.98046875,0.07470703125,-2.227782964706421,0.0610351525247097,-1.4343260526657104,73.33333587646484,179258.0,1.0
14848.8546384,294279.15625,294843.9375,327970.8125,321835.1875,284985.65625,255691.546875,221781.4375,246059.09375,0.035400390625,0.979736328125,0.072998046875,-2.075195074081421,0.3662109076976776,-1.8920897245407104,73.33333587646484,179259.0,1.0
14848.8546406,294308.375,295171.6875,328190.78125,321831.0625,285135.84375,255761.1875,221841.515625,246067.0625,0.03173828125,0.978271484375,0.072265625,-1.8615721464157104,0.5187987685203552,-2.075195074081421,73.33333587646484,179260.0,1.0
14848.8577941,294316.4375,295224.625,328194.0625,321815.875,285158.5625,255781.125,221846.703125,246071.171875,0.028076171875,0.9794921875,0.074462890625,-1.5258787870407104,0.5493163466453552,-2.319335699081421,73.33333587646484,179261.0,1.0
14848.8578004,294300.4375,294930.21875,327977.8125,321809.53125,285018.09375,255718.90625,221785.28125,246061.6875,0.025390625,0.981689453125,0.0771484375,-1.1901854276657104,0.3356933295726776,-2.380370855331421,73.33333587646484,179262.0,1.0
14848.8597228,294303.28125,294700.0625,327844.40625,321836.09375,284912.6875,255669.546875,221751.9375,246065.71875,0.02197265625,0.983642578125,0.07958984375,-1.0681151151657104,0.2441406100988388,-2.380370855331421,73.33333587646484,179263.0,1.0
14848.8622402,294345.9375,294886.65625,328012.75,321875.0625,285009.4375,255723.90625,221809.25,246087.71875,0.019287109375,0.986083984375,0.079345703125,-0.8850097060203552,0.0,-2.166747808456421,73.33333587646484,179264.0,1.0
14848.8647649,294364.53125,295202.53125,328229.40625,321862.1875,285152.9375,255786.484375,221861.453125,246085.5625,0.0185546875,0.98681640625,0.083984375,-0.7629393935203552,-0.2441406100988388,-2.014159917831421,73.33333587646484,179265.0,1.0
14848.8672247,294337.25,295230.875,328215.625,321820.0,285158.03125,255783.265625,221843.40625,246067.5,0.015869140625,0.988525390625,0.083984375,-0.6408690810203552,-0.5187987685203552,-1.7700194120407104,73.33333587646484,179266.0,1.0
14848.8702686,294302.84375,294927.34375,328000.59375,321806.5,285019.28125,255712.28125,221780.359375,246054.8125,0.01513671875,0.98779296875,0.08642578125,-0.3967284858226776,-0.7324218153953552,-1.4953612089157104,73.33333587646484,179267.0,1.0
14848.8702756,294311.5,294702.65625,327872.21875,321839.21875,284924.125,255669.8125,221754.171875,246060.4375,0.011962890625,0.990478515625,0.08203125,-0.2441406100988388,-1.1901854276657104,-1.2817381620407104,73.33333587646484,179268.0,1.0
14848.8734496,294346.03125,294861.0,327998.53125,321865.5,284990.3125,255694.046875,221784.65625,246066.703125,0.01220703125,0.99267578125,0.08447265625,-0.1831054538488388,-1.5258787870407104,-0.9765624403953552,73.33333587646484,179269.0,1.0
14848.8902801,294357.8125,295164.46875,328188.0,321849.84375,285117.625,255755.203125,221840.71875,246070.546875,0.014892578125,0.9931640625,0.087890625,-0.1525878757238388,-1.9531248807907104,-0.7019042372703552,73.33333587646484,179270.0,1.0
14848.8902875,294330.8125,295207.28125,328180.21875,321808.53125,285129.3125,255761.71875,221834.375,246052.84375,0.0166015625,0.992431640625,0.088134765625,0.0,-2.227782964706421,-0.4272460639476776,73.33333587646484,179271.0,1.0
14848.8927914,294297.21875,294917.875,327970.5625,321794.9375,284996.46875,255705.671875,221772.859375,246041.84375,0.02001953125,0.990478515625,0.088623046875,0.03051757626235485,-2.532958745956421,-0.0915527269244194,73.33333587646484,179272.0,1.0
14848.8927985,294301.59375,294698.28125,327839.84375,321826.5,284901.15625,255676.15625,221751.671875,246053.640625,0.025634765625,0.989501953125,0.0869140625,0.2136230319738388,-2.899169683456421,0.2136230319738388,73.33333587646484,179273.0,1.0
14848.8947109,294338.96875,294876.03125,327989.34375,321862.09375,284991.8125,255724.4375,221805.84375,246075.1875,0.02880859375,0.99072265625,0.08642578125,0.3051757514476776,-3.082275152206421,0.4577636420726776,73.33333587646484,179274.0,1.0
14848.9065755,294338.78125,295162.84375,328161.34375,321837.25,285106.15625,255769.5,221844.734375,246066.171875,0.030029296875,0.989013671875,0.089111328125,0.3051757514476776,-3.112792730331421,0.8544921278953552,73.33333587646484,179275.0,1.0
14848.9065833,294311.25,295200.03125,328146.6875,321799.875,285114.5,255761.71875,221831.15625,246050.15625,0.0341796875,0.990234375,0.088623046875,0.4882812201976776,-3.143310308456421,0.9155272841453552,73.33333587646484,179276.0,1.0
14848.9091394,294278.15625,294903.9375,327935.5,321790.84375,284981.71875,255702.53125,221771.421875,246041.125,0.039306640625,0.989013671875,0.084716796875,0.6408690810203552,-2.990722417831421,0.9460448622703552,73.33333587646484,179277.0,1.0
14848.9091445,294283.09375,294687.5625,327815.53125,321826.96875,284895.625,255676.96875,221758.28125,246056.78125,0.04150390625,0.98779296875,0.085205078125,0.8239745497703552,-2.929687261581421,0.9460448622703552,73.33333587646484,179278.0,1.0
14848.9184517,294321.34375,294872.625,327982.28125,321863.71875,284995.65625,255723.015625,221811.921875,246079.75,0.046142578125,0.985107421875,0.08203125,0.9765624403953552,-2.716064214706421,0.9765624403953552,73.33333587646484,179279.0,1.0
14848.9215234,294331.4375,295180.90625,328182.90625,321846.625,285133.53125,255778.4375,221861.28125,246081.1875,0.048583984375,0.986083984375,0.083740234375,1.0986326932907104,-2.502441167831421,0.8850097060203552,73.33333587646484,179280.0,1.0
14848.921527,294294.15625,295205.21875,328161.71875,321797.28125,285133.875,255769.0625,221846.53125,246055.34375,0.052490234375,0.986328125,0.081787109375,1.2512205839157104,-2.136230230331421,0.7324218153953552,73.33333587646484,179281.0,1.0
14848.928467,294256.53125,294904.375,327938.65625,321780.75,284990.5625,255707.640625,221781.796875,246040.0625,0.0546875,0.986328125,0.083251953125,1.3122557401657104,-1.7395018339157104,0.5187987685203552,73.33333587646484,179282.0,1.0
14848.9791173,294263.15625,294680.84375,327809.1875,321817.46875,284897.3125,255677.0625,221762.84375,246052.9375,0.0537109375,0.986083984375,0.08447265625,1.5563963651657104,-1.2817381620407104,0.2441406100988388,73.33333587646484,179283.0,1.0
14848.9791231,294298.5625,294861.8125,327975.21875,321854.21875,284993.96875,255718.625,221818.546875,246073.671875,0.054931640625,0.9892578125,0.084228515625,1.6784666776657104,-0.9155272841453552,-0.0610351525247097,73.33333587646484,179284.0,1.0
14849.004078,294311.15625,295180.46875,328187.8125,321840.28125,285137.28125,255780.40625,221871.203125,246073.5,0.05419921875,0.989013671875,0.0810546875,1.8615721464157104,-0.5187987685203552,-0.3662109076976776,73.33333587646484,179285.0,1.0
14849.0040832,294282.625,295206.3125,328165.90625,321797.53125,285138.28125,255781.578125,221850.375,246053.921875,0.053466796875,0.990234375,0.0791015625,1.9836424589157104,-0.03051757626235485,-0.7019042372703552,73.33333587646484,179286.0,1.0
14849.0273094,294241.78125,294891.9375,327932.84375,321778.9375,284985.28125,255704.328125,221775.1875,246030.484375,0.05126953125,0.988525390625,0.077880859375,2.044677495956421,0.5493163466453552,-0.9765624403953552,73.33333587646484,179287.0,1.0
14849.0297943,294242.3125,294657.96875,327794.4375,321805.84375,284879.96875,255656.046875,221740.578125,246032.640625,0.050537109375,0.98876953125,0.07861328125,2.136230230331421,0.7934569716453552,-1.2817381620407104,73.33333587646484,179288.0,1.0
14849.0323029,294281.84375,294837.6875,327961.8125,321840.1875,284977.78125,255696.734375,221791.546875,246053.5625,0.047607421875,0.990234375,0.080810546875,2.075195074081421,1.1901854276657104,-1.5563963651657104,73.33333587646484,179289.0,1.0
14849.0348108,294308.21875,295163.84375,328189.15625,321836.625,285132.375,255762.984375,221855.203125,246063.125,0.046142578125,0.990234375,0.079345703125,2.075195074081421,1.4343260526657104,-1.7395018339157104,73.33333587646484,179290.0,1.0
14849.0372918,294287.375,295191.1875,328171.28125,321801.9375,285136.5625,255762.265625,221846.625,246054.453125,0.041015625,0.989990234375,0.077880859375,2.014159917831421,1.5869139432907104,-1.7089842557907104,73.33333587646484,179291.0,1.0
14849.0397759,294250.53125,294880.84375,327941.6875,321786.0,284989.75,255697.53125,221778.84375,246040.59375,0.03515625,0.9892578125,0.078125,2.166747808456421,1.6479490995407104,-1.8005369901657104,73.33333587646484,179292.0,1.0
14849.0423027,294265.46875,294674.5,327824.90625,321829.71875,284908.03125,255681.703125,221772.859375,246066.515625,0.028076171875,0.98876953125,0.07861328125,2.136230230331421,1.5869139432907104,-1.6174315214157104,73.33333587646484,179293.0,1.0
14849.0447468,294311.0625,294874.15625,328001.125,321871.9375,285016.59375,255739.734375,221839.828125,246096.921875,0.022705078125,0.98779296875,0.07861328125,2.075195074081421,1.5258787870407104,-1.5563963651657104,73.33333587646484,179294.0,1.0
14849.047221,294308.65625,295178.125,328201.6875,321843.15625,285146.9375,255787.75,221880.40625,246086.734375,0.01904296875,0.989013671875,0.07763671875,2.105712652206421,1.3427733182907104,-1.2817381620407104,73.33333587646484,179295.0,1.0
14849.049735,294268.15625,295198.4375,328171.09375,321790.84375,285137.90625,255778.984375,221858.421875,246062.3125,0.01318359375,0.987548828125,0.0771484375,2.166747808456421,0.9765624403953552,-1.0375975370407104,73.33333587646484,179296.0,1.0
14849.0747951,294232.375,294897.03125,327948.3125,321776.4375,284995.03125,255721.578125,221798.15625,246045.875,0.0107421875,0.9912109375,0.08056640625,2.197265386581421,0.6713866591453552,-0.7629393935203552,73.33333587646484,179297.0,1.0
14849.0998283,294239.625,294676.90625,327826.0,321812.28125,284906.15625,255688.859375,221777.78125,246062.40625,0.007080078125,0.994140625,0.08056640625,2.258300542831421,0.1525878757238388,-0.4577636420726776,73.33333587646484,179298.0,1.0
14849.1448075,294273.15625,294862.0,327998.1875,321844.21875,285005.9375,255724.625,221822.921875,246079.3125,0.005859375,0.997802734375,0.079833984375,2.044677495956421,-0.5493163466453552,-0.1831054538488388,73.33333587646484,179299.0,1.0
14849.1697945,294282.28125,295180.09375,328213.5625,321827.84375,285152.3125,255789.265625,221876.484375,246082.4375,0.007568359375,1.0,0.0810546875,1.8310545682907104,-1.0375975370407104,0.0610351525247097,73.33333587646484,179300.0,1.0
14849.1948176,294243.65625,295177.25,328155.09375,321772.96875,285125.84375,255770.9375,221842.5,246052.125,0.007080078125,0.999267578125,0.0791015625,1.5869139432907104,-1.6174315214157104,0.3662109076976776,73.33333587646484,179301.0,1.0
14849.2273122,294209.84375,294866.375,327911.0,321759.28125,284969.90625,255702.453125,221768.65625,246031.828125,0.00927734375,0.999267578125,0.076416015625,1.3427733182907104,-2.105712652206421,0.5798339247703552,73.33333587646484,179302.0,1.0
14849.2523147,294222.375,294654.3125,327789.78125,321800.3125,284882.5625,255671.78125,221752.921875,246047.921875,0.01123046875,0.99658203125,0.07421875,1.1596678495407104,-2.563476324081421,0.7934569716453552,73.33333587646484,179303.0,1.0
14849.277311,294265.28125,294843.03125,327961.25,321838.59375,284982.4375,255705.40625,221801.46875,246068.40625,0.012451171875,0.996337890625,0.071533203125,1.0375975370407104,-3.143310308456421,1.0070799589157104,73.33333587646484,179304.0,1.0
14849.3023,294286.03125,295166.15625,328192.65625,321831.34375,285139.34375,255772.71875,221860.828125,246075.8125,0.016845703125,0.996826171875,0.07568359375,0.9460448622703552,-3.540038824081421,1.2207030057907104,73.33333587646484,179305.0,1.0
14849.3335744,294254.75,295178.59375,328149.90625,321783.15625,285122.09375,255762.625,221835.796875,246052.75,0.021240234375,0.993408203125,0.07373046875,0.7629393935203552,-3.997802495956421,1.2817381620407104,73.33333587646484,179306.0,1.0
14849.3585788,294219.0625,294861.375,327894.84375,321766.59375,284959.09375,255690.46875,221766.59375,246038.1875,0.026611328125,0.99169921875,0.073974609375,0.6713866591453552,-4.455565929412842,1.3427733182907104,73.33333587646484,179307.0,1.0
14849.383551,294232.46875,294646.53125,327774.40625,321805.5,284871.5625,255661.328125,221749.875,246050.609375,0.033935546875,0.9892578125,0.076904296875,0.5493163466453552,-4.638671398162842,1.4648436307907104,73.33333587646484,179308.0,1.0
14849.4093116,294279.15625,294843.5625,327961.25,321847.625,284985.46875,255717.640625,221811.84375,246075.109375,0.04150390625,0.989013671875,0.072265625,0.3967284858226776,-4.730224132537842,1.3427733182907104,73.33333587646484,179309.0,1.0
14849.4093348,294292.65625,295153.09375,328173.15625,321830.96875,285126.8125,255769.859375,221858.15625,246071.0,0.047607421875,0.98828125,0.06982421875,0.3967284858226776,-4.638671398162842,1.3122557401657104,73.33333587646484,179310.0,1.0
14849.4346529,294263.0625,295168.46875,328143.125,321786.8125,285120.03125,255752.515625,221834.453125,246045.15625,0.052001953125,0.98681640625,0.068603515625,0.4272460639476776,-4.394530773162842,1.3122557401657104,73.33333587646484,179311.0,1.0
14849.4346589,294228.8125,294871.75,327921.375,321774.21875,284978.3125,255693.0625,221776.171875,246035.5,0.05517578125,0.98779296875,0.069580078125,0.4272460639476776,-4.089354991912842,1.2207030057907104,73.33333587646484,179312.0,1.0
14849.4346603,294232.84375,294650.90625,327788.71875,321807.03125,284883.625,255662.125,221757.125,246049.984375,0.05908203125,0.989501953125,0.0703125,0.3051757514476776,-3.723144292831421,0.9460448622703552,73.33333587646484,179313.0,1.0
14849.4440884,294275.3125,294835.4375,327956.0625,321845.71875,284984.9375,255712.109375,221814.15625,246072.0625,0.060546875,0.989501953125,0.070556640625,0.1525878757238388,-3.326415777206421,0.6408690810203552,73.33333587646484,179314.0,1.0
14849.4440945,294285.9375,295146.75,328167.0625,321827.84375,285125.46875,255762.984375,221860.828125,246066.796875,0.062255859375,0.990478515625,0.06689453125,0.03051757626235485,-2.838134527206421,0.3967284858226776,73.33333587646484,179315.0,1.0
14849.4459743,294263.78125,295179.9375,328155.53125,321789.84375,285133.34375,255764.40625,221852.609375,246056.234375,0.063232421875,0.98974609375,0.065673828125,0.0,-2.349853277206421,0.0610351525247097,73.33333587646484,179316.0,1.0
14849.4484787,294232.84375,294883.09375,327936.125,321779.40625,284993.59375,255702.265625,221793.234375,246049.53125,0.06396484375,0.990966796875,0.06396484375,0.0610351525247097,-1.8310545682907104,-0.3662109076976776,73.33333587646484,179317.0,1.0
14849.4509864,294235.4375,294650.90625,327797.75,321804.6875,284885.15625,255656.578125,221755.6875,246048.734375,0.06201171875,0.98974609375,0.066162109375,0.0610351525247097,-1.3427733182907104,-0.6713866591453552,73.33333587646484,179318.0,1.0
14849.4759907,294280.84375,294835.09375,327964.21875,321845.1875,284980.71875,255700.03125,221809.421875,246072.6875,0.063232421875,0.9931640625,0.067138671875,0.0,-0.7324218153953552,-0.9765624403953552,73.33333587646484,179319.0,1.0
14849.5010006,294295.25,295154.25,328184.5,321833.65625,285130.5625,255763.515625,221865.84375,246074.75,0.060546875,0.99560546875,0.07177734375,-0.0915527269244194,-0.2136230319738388,-1.3732908964157104,73.33333587646484,179320.0,1.0
14849.526052,294255.46875,295171.875,328156.09375,321780.75,285122.4375,255758.0625,221843.75,246047.203125,0.055908203125,0.996826171875,0.07275390625,-0.3051757514476776,0.2746581733226776,-1.7089842557907104,73.33333587646484,179321.0,1.0
14849.5285148,294218.34375,294863.78125,327923.96875,321762.9375,284970.0,255694.84375,221773.75,246027.8125,0.052734375,0.997314453125,0.071533203125,-0.4272460639476776,0.7934569716453552,-2.014159917831421,73.33333587646484,179322.0,1.0
14849.5310234,294230.875,294637.03125,327790.9375,321798.625,284873.8125,255657.5625,221748.453125,246042.375,0.049072265625,0.9970703125,0.069580078125,-0.6103515028953552,0.9765624403953552,-2.258300542831421,73.33333587646484,179323.0,1.0
14849.5359838,294272.875,294826.84375,327962.15625,321837.6875,284977.5,255704.5,221805.578125,246066.703125,0.04443359375,0.9951171875,0.068603515625,-0.8239745497703552,1.1596678495407104,-2.593993902206421,73.33333587646484,179324.0,1.0
14849.5384643,294290.9375,295147.75,328182.8125,321827.40625,285124.6875,255763.15625,221860.5625,246068.84375,0.03955078125,0.9951171875,0.068359375,-0.9155272841453552,1.3122557401657104,-2.838134527206421,73.33333587646484,179325.0,1.0
14849.5410069,294276.5625,295187.875,328172.625,321797.1875,285136.125,255766.375,221855.015625,246057.140625,0.0341796875,0.994140625,0.07177734375,-1.0986326932907104,1.3427733182907104,-3.021239995956421,73.33333587646484,179326.0,1.0
14849.5434907,294255.1875,294896.40625,327954.09375,321793.53125,285002.1875,255712.375,221801.015625,246055.078125,0.031005859375,0.993896484375,0.07373046875,-1.1901854276657104,1.2817381620407104,-3.143310308456421,73.33333587646484,179327.0,1.0
14849.5460025,294252.15625,294658.78125,327807.40625,321816.9375,284894.90625,255670.625,221770.4375,246063.03125,0.025634765625,0.994140625,0.073974609375,-1.2817381620407104,1.3122557401657104,-3.112792730331421,73.33333587646484,179328.0,1.0
14849.5710341,294291.40625,294838.84375,327967.6875,321852.15625,284990.375,255721.671875,221822.484375,246079.125,0.0224609375,0.993896484375,0.07421875,-1.4343260526657104,0.9765624403953552,-3.051757574081421,73.33333587646484,179329.0,1.0
14849.5966183,294319.46875,295176.875,328202.5625,321853.0625,285152.21875,255796.328125,221889.625,246088.96875,0.017333984375,0.992919921875,0.072021484375,-1.5258787870407104,0.8544921278953552,-2.899169683456421,73.33333587646484,179330.0,1.0
14849.5966247,294294.53125,295204.6875,328186.65625,321815.96875,285157.21875,255785.421875,221875.234375,246076.359375,0.0126953125,0.99365234375,0.072265625,-1.7395018339157104,0.4272460639476776,-2.593993902206421,73.33333587646484,179331.0,1.0
14849.6234541,294258.40625,294899.0,327958.5,321797.625,285008.71875,255719.96875,221808.078125,246054.0,0.01171875,0.994140625,0.073974609375,-1.8310545682907104,0.0915527269244194,-2.349853277206421,73.33333587646484,179332.0,1.0
14849.6234596,294261.09375,294669.15625,327822.3125,321823.75,284907.6875,255685.90625,221779.203125,246059.734375,0.0087890625,0.99560546875,0.0732421875,-1.9226073026657104,-0.3967284858226776,-2.044677495956421,73.33333587646484,179333.0,1.0
14849.6234609,294301.21875,294854.21875,327990.5,321858.96875,285007.46875,255727.390625,221832.484375,246083.15625,0.009765625,1.000244140625,0.0751953125,-2.075195074081421,-0.9765624403953552,-1.6784666776657104,73.33333587646484,179334.0,1.0
14849.6234621,294314.28125,295179.21875,328215.71875,321846.28125,285159.46875,255790.609375,221887.46875,246089.5,0.009765625,1.001708984375,0.0771484375,-2.288818120956421,-1.4953612089157104,-1.2512205839157104,73.33333587646484,179335.0,1.0
14849.6234634,294284.5,295209.78125,328204.34375,321802.375,285164.28125,255784.703125,221866.375,246065.8125,0.009521484375,1.00341796875,0.081787109375,-2.380370855331421,-1.9836424589157104,-0.8544921278953552,73.33333587646484,179336.0,1.0
14849.6234646,294245.875,294902.75,327975.5625,321783.96875,285012.90625,255717.109375,221795.828125,246046.21875,0.010498046875,1.00439453125,0.080078125,-2.563476324081421,-2.502441167831421,-0.6408690810203552,73.33333587646484,179337.0,1.0
14849.6234658,294246.96875,294658.5,327815.4375,321809.625,284896.15625,255678.84375,221764.359375,246053.46875,0.011962890625,1.005126953125,0.081298828125,-2.838134527206421,-3.021239995956421,-0.2746581733226776,73.33333587646484,179338.0,1.0
14849.6234671,294287.5625,294831.6875,327952.0625,321848.5,284975.90625,255727.484375,221818.8125,246077.421875,0.012939453125,1.003662109375,0.080078125,-3.051757574081421,-3.570556402206421,0.2441406100988388,73.33333587646484,179339.0,1.0
14849.6260021,294309.1875,295165.875,328182.8125,321842.15625,285138.625,255797.484375,221884.796875,246087.890625,0.015380859375,0.9990234375,0.0810546875,-3.295898199081421,-3.997802495956421,0.5187987685203552,73.33333587646484,179340.0,1.0
14849.6284893,294282.8125,295197.96875,328166.90625,321799.25,285142.1875,255776.03125,221858.78125,246061.515625,0.01611328125,0.995361328125,0.0791015625,-3.417968511581421,-4.333495616912842,0.7019042372703552,73.33333587646484,179341.0,1.0
14849.6310019,294249.46875,294903.9375,327951.25,321786.625,285004.6875,255709.15625,221794.5,246050.34375,0.0205078125,0.99365234375,0.0791015625,-3.448486089706421,-4.730224132537842,0.7324218153953552,73.33333587646484,179342.0,1.0
14849.6673416,294250.4375,294674.25,327818.21875,321818.03125,284906.78125,255682.875,221778.84375,246064.734375,0.022216796875,0.989990234375,0.07861328125,-3.448486089706421,-4.974364757537842,0.6408690810203552,73.33333587646484,179343.0,1.0
14849.6673472,294282.53125,294837.9375,327961.25,321844.46875,284983.78125,255720.328125,221820.421875,246075.8125,0.026611328125,0.984619140625,0.07958984375,-3.417968511581421,-5.218505382537842,0.7324218153953552,73.33333587646484,179344.0,1.0
14849.6673485,294296.03125,295156.15625,328175.5625,321827.5,285122.53125,255772.1875,221865.65625,246072.328125,0.03466796875,0.984619140625,0.080810546875,-3.326415777206421,-5.340575695037842,0.7629393935203552,73.33333587646484,179345.0,1.0
14849.6673498,294257.6875,295178.40625,328152.25,321779.125,285118.78125,255756.09375,221846.53125,246048.46875,0.0400390625,0.98291015625,0.07861328125,-3.234863042831421,-5.432128429412842,0.7324218153953552,73.33333587646484,179346.0,1.0
14849.6673525,294218.96875,294872.53125,327920.75,321762.6875,284969.8125,255688.953125,221777.140625,246033.171875,0.045654296875,0.983154296875,0.079345703125,-2.929687261581421,-5.187987804412842,0.6408690810203552,73.33333587646484,179347.0,1.0
14849.6673537,294227.28125,294649.75,327788.34375,321797.375,284873.09375,255658.453125,221758.015625,246046.3125,0.0478515625,0.984130859375,0.078125,-2.838134527206421,-5.065917491912842,0.5493163466453552,73.33333587646484,179348.0,1.0
14849.6673549,294268.59375,294842.0625,327959.5625,321839.125,284973.5,255711.5625,221819.96875,246073.859375,0.0517578125,0.982666015625,0.08056640625,-2.685546636581421,-4.852294445037842,0.4577636420726776,73.33333587646484,179349.0,1.0
14849.6673561,294278.53125,295158.71875,328181.65625,321820.96875,285121.1875,255780.40625,221873.0,246066.609375,0.050537109375,0.981689453125,0.0810546875,-2.563476324081421,-4.486083507537842,0.1831054538488388,73.33333587646484,179350.0,1.0
14849.6673574,294255.8125,295189.84375,328167.78125,321783.875,285129.40625,255792.125,221869.0625,246055.4375,0.051513671875,0.983642578125,0.08056640625,-2.471923589706421,-4.150390148162842,-0.03051757626235485,73.33333587646484,179351.0,1.0
14849.6673586,294222.09375,294881.5625,327934.34375,321770.1875,284981.4375,255733.390625,221807.546875,246047.125,0.053466796875,0.98486328125,0.076171875,-2.319335699081421,-3.845214605331421,-0.1525878757238388,73.33333587646484,179352.0,1.0
14849.6673598,294229.53125,294657.4375,327799.78125,321802.5625,284883.71875,255690.375,221776.796875,246056.234375,0.052490234375,0.98291015625,0.075927734375,-2.166747808456421,-3.417968511581421,-0.4577636420726776,73.33333587646484,179353.0,1.0
14849.6673612,294274.9375,294848.03125,327969.9375,321840.46875,284984.9375,255721.578125,221827.484375,246071.4375,0.051025390625,0.9833984375,0.076904296875,-1.7700194120407104,-2.990722417831421,-1.0070799589157104,73.33333587646484,179354.0,1.0
14849.6673624,294292.375,295166.25,328189.34375,321831.34375,285133.4375,255781.65625,221886.5,246081.8125,0.052734375,0.983642578125,0.079345703125,-1.6174315214157104,-2.593993902206421,-1.3427733182907104,73.33333587646484,179355.0,1.0
14849.6673637,294267.625,295194.3125,328174.59375,321791.03125,285136.5625,255774.15625,221865.296875,246056.78125,0.04931640625,0.983642578125,0.077392578125,-1.4343260526657104,-2.197265386581421,-1.5258787870407104,73.33333587646484,179356.0,1.0
14849.6673649,294241.78125,294903.375,327964.75,321785.21875,285006.65625,255726.59375,221815.0625,246049.625,0.047119140625,0.98095703125,0.078369140625,-1.4343260526657104,-1.8615721464157104,-1.7700194120407104,73.33333587646484,179357.0,1.0
14849.6673662,294251.34375,294686.5625,327844.59375,321819.53125,284919.40625,255695.296875,221790.65625,246060.625,0.04736328125,0.979248046875,0.080810546875,-1.1596678495407104,-1.6174315214157104,-2.044677495956421,73.33333587646484,179358.0,1.0
14849.6673674,294285.21875,294860.21875,328002.9375,321849.65625,285006.84375,255716.671875,221822.296875,246068.84375,0.043701171875,0.9794921875,0.083251953125,-0.9460448622703552,-1.2512205839157104,-2.197265386581421,73.33333587646484,179359.0,1.0
14849.6673686,294291.125,295156.40625,328188.96875,321826.0625,285129.25,255768.34375,221870.3125,246066.171875,0.040283203125,0.98046875,0.086181640625,-0.8850097060203552,-1.0375975370407104,-2.410888433456421,73.33333587646484,179360.0,1.0
14849.6910119,294255.09375,295162.40625,328131.5,321775.8125,285103.65625,255757.4375,221846.703125,246044.078125,0.038818359375,0.978759765625,0.08544921875,-0.6103515028953552,-0.9460448622703552,-2.471923589706421,73.33333587646484,179361.0,1.0
14849.7160041,294226.125,294878.71875,327915.03125,321769.125,284967.40625,255709.6875,221791.8125,246036.03125,0.037841796875,0.9794921875,0.08203125,-0.1831054538488388,-0.6713866591453552,-2.441406011581421,73.33333587646484,179362.0,1.0
14849.7373149,294232.46875,294661.625,327793.53125,321805.5,284878.53125,255679.921875,221774.015625,246051.40625,0.033935546875,0.982177734375,0.08203125,0.03051757626235485,-0.5493163466453552,-2.410888433456421,73.33333587646484,179363.0,1.0
14849.7397971,294275.125,294852.96875,327970.1875,321846.71875,284986.625,255727.65625,221838.484375,246079.03125,0.031982421875,0.98486328125,0.083740234375,0.2136230319738388,-0.4882812201976776,-2.380370855331421,73.33333587646484,179364.0,1.0
14849.7422878,294293.0,295177.5,328201.59375,321833.75,285144.25,255795.25,221900.0,246077.25,0.0302734375,0.986572265625,0.0810546875,0.3662109076976776,-0.5798339247703552,-2.349853277206421,73.33333587646484,179365.0,1.0
14849.7447471,294272.875,295211.03125,328193.625,321799.40625,285157.125,255800.625,221892.9375,246065.8125,0.030029296875,0.989501953125,0.083251953125,0.5493163466453552,-0.6713866591453552,-2.166747808456421,73.33333587646484,179366.0,1.0
14849.7472502,294235.59375,294892.9375,327952.15625,321780.46875,284998.625,255729.0,221821.578125,246050.421875,0.02783203125,0.993408203125,0.0830078125,0.6408690810203552,-0.7019042372703552,-2.014159917831421,73.33333587646484,179367.0,1.0
14849.7503243,294245.1875,294669.3125,327811.40625,321814.1875,284897.84375,255699.859375,221800.296875,246066.171875,0.027587890625,0.994384765625,0.085693359375,0.6408690810203552,-0.7934569716453552,-2.014159917831421,73.33333587646484,179368.0,1.0
14849.7503266,294287.0,294862.34375,327986.21875,321854.9375,285003.09375,255741.875,221852.421875,246088.609375,0.02685546875,0.99072265625,0.08740234375,0.7019042372703552,-0.9460448622703552,-1.8005369901657104,73.33333587646484,179369.0,1.0
14849.7528351,294304.0,295187.96875,328217.78125,321846.0,285158.75,255806.703125,221907.140625,246091.28125,0.02734375,0.990966796875,0.0869140625,0.7019042372703552,-1.0681151151657104,-1.6174315214157104,73.33333587646484,179370.0,1.0
14849.7528369,294271.28125,295199.40625,328187.28125,321796.75,285148.375,255791.9375,221877.28125,246064.015625,0.02734375,0.9921875,0.084716796875,0.7324218153953552,-1.2207030057907104,-1.4038084745407104,73.33333587646484,179371.0,1.0
14849.7547102,294232.125,294869.5,327923.875,321772.0625,284973.21875,255707.640625,221797.4375,246043.359375,0.028564453125,0.9912109375,0.083740234375,0.7934569716453552,-1.3732908964157104,-1.2512205839157104,73.33333587646484,179372.0,1.0
14849.7572485,294244.46875,294640.8125,327778.875,321808.71875,284872.625,255681.078125,221782.875,246062.765625,0.029541015625,0.9892578125,0.0849609375,1.0070799589157104,-1.4038084745407104,-1.0681151151657104,73.33333587646484,179373.0,1.0
14849.7603288,294244.46875,294640.8125,327778.875,321808.71875,284872.625,255681.078125,221782.875,246062.765625,0.029541015625,0.9892578125,0.0849609375,1.0070799589157104,-1.4038084745407104,-1.0681151151657104,73.33333587646484,179374.0,0.0
14849.7603293,294244.46875,294640.8125,327778.875,321808.71875,284872.625,255681.078125,221782.875,246062.765625,0.029541015625,0.9892578125,0.0849609375,1.0070799589157104,-1.4038084745407104,-1.0681151151657104,73.33333587646484,179375.0,0.0
14849.7603295,294244.46875,294640.8125,327778.875,321808.71875,284872.625,255681.078125,221782.875,246062.765625,0.029541015625,0.9892578125,0.0849609375,1.0070799589157104,-1.4038084745407104,-1.0681151151657104,73.33333587646484,179376.0,0.0
14849.7603299,294244.46875,294640.8125,327778.875,321808.71875,284872.625,255681.078125,221782.875,246062.765625,0.029541015625,0.9892578125,0.0849609375,1.0070799589157104,-1.4038084745407104,-1.0681151151657104,73.33333587646484,179377.0,0.0
14849.7603301,294244.46875,294640.8125,327778.875,321808.71875,284872.625,255681.078125,221782.875,246062.765625,0.029541015625,0.9892578125,0.0849609375,1.0070799589157104,-1.4038084745407104,-1.0681151151657104,73.33333587646484,179378.0,0.0
14849.7603303,294244.46875,294640.8125,327778.875,321808.71875,284872.625,255681.078125,221782.875,246062.765625,0.029541015625,0.9892578125,0.0849609375,1.0070799589157104,-1.4038084745407104,-1.0681151151657104,73.33333587646484,179379.0,0.0
14849.7603305,294244.46875,294640.8125,327778.875,321808.71875,284872.625,255681.078125,221782.875,246062.765625,0.029541015625,0.9892578125,0.0849609375,1.0070799589157104,-1.4038084745407104,-1.0681151151657104,73.33333587646484,179380.0,0.0
14849.7603307,294244.46875,294640.8125,327778.875,321808.71875,284872.625,255681.078125,221782.875,246062.765625,0.029541015625,0.9892578125,0.0849609375,1.0070799589157104,-1.4038084745407104,-1.0681151151657104,73.33333587646484,179381.0,0.0
14849.7603309,294244.46875,294640.8125,327778.875,321808.71875,284872.625,255681.078125,221782.875,246062.765625,0.029541015625,0.9892578125,0.0849609375,1.0070799589157104,-1.4038084745407104,-1.0681151151657104,73.33333587646484,179382.0,0.0
14849.760331,294244.46875,294640.8125,327778.875,321808.71875,284872.625,255681.078125,221782.875,246062.765625,0.029541015625,0.9892578125,0.0849609375,1.0070799589157104,-1.4038084745407104,-1.0681151151657104,73.33333587646484,179383.0,0.0
14849.7603312,294244.46875,294640.8125,327778.875,321808.71875,284872.625,255681.078125,221782.875,246062.765625,0.029541015625,0.9892578125,0.0849609375,1.0070799589157104,-1.4038084745407104,-1.0681151151657104,73.33333587646484,179384.0,0.0
14849.7603314,294244.46875,294640.8125,327778.875,321808.71875,284872.625,255681.078125,221782.875,246062.765625,0.029541015625,0.9892578125,0.0849609375,1.0070799589157104,-1.4038084745407104,-1.0681151151657104,73.33333587646484,179385.0,0.0
14849.7603316,294244.46875,294640.8125,327778.875,321808.71875,284872.625,255681.078125,221782.875,246062.765625,0.029541015625,0.9892578125,0.0849609375,1.0070799589157104,-1.4038084745407104,-1.0681151151657104,73.33333587646484,179386.0,0.0
14849.7603318,294244.46875,294640.8125,327778.875,321808.71875,284872.625,255681.078125,221782.875,246062.765625,0.029541015625,0.9892578125,0.0849609375,1.0070799589157104,-1.4038084745407104,-1.0681151151657104,73.33333587646484,179387.0,0.0
14849.760332,294244.46875,294640.8125,327778.875,321808.71875,284872.625,255681.078125,221782.875,246062.765625,0.029541015625,0.9892578125,0.0849609375,1.0070799589157104,-1.4038084745407104,-1.0681151151657104,73.33333587646484,179388.0,0.0
14849.7603321,294244.46875,294640.8125,327778.875,321808.71875,284872.625,255681.078125,221782.875,246062.765625,0.029541015625,0.9892578125,0.0849609375,1.0070799589157104,-1.4038084745407104,-1.0681151151657104,73.33333587646484,179389.0,0.0
14849.7603324,294244.46875,294640.8125,327778.875,321808.71875,284872.625,255681.078125,221782.875,246062.765625,0.029541015625,0.9892578125,0.0849609375,1.0070799589157104,-1.4038084745407104,-1.0681151151657104,73.33333587646484,179390.0,0.0
14849.7603326,294244.46875,294640.8125,327778.875,321808.71875,284872.625,255681.078125,221782.875,246062.765625,0.029541015625,0.9892578125,0.0849609375,1.0070799589157104,-1.4038084745407104,-1.0681151151657104,73.33333587646484,179391.0,0.0
14849.7603328,294244.46875,294640.8125,327778.875,321808.71875,284872.625,255681.078125,221782.875,246062.765625,0.029541015625,0.9892578125,0.0849609375,1.0070799589157104,-1.4038084745407104,-1.0681151151657104,73.33333587646484,179392.0,0.0
14849.760333,294244.46875,294640.8125,327778.875,321808.71875,284872.625,255681.078125,221782.875,246062.765625,0.029541015625,0.9892578125,0.0849609375,1.0070799589157104,-1.4038084745407104,-1.0681151151657104,73.33333587646484,179393.0,0.0
14849.7603331,294244.46875,294640.8125,327778.875,321808.71875,284872.625,255681.078125,221782.875,246062.765625,0.029541015625,0.9892578125,0.0849609375,1.0070799589157104,-1.4038084745407104,-1.0681151151657104,73.33333587646484,179394.0,0.0
14849.7603333,294244.46875,294640.8125,327778.875,321808.71875,284872.625,255681.078125,221782.875,246062.765625,0.029541015625,0.9892578125,0.0849609375,1.0070799589157104,-1.4038084745407104,-1.0681151151657104,73.33333587646484,179395.0,0.0
14849.7603335,294244.46875,294640.8125,327778.875,321808.71875,284872.625,255681.078125,221782.875,246062.765625,0.029541015625,0.9892578125,0.0849609375,1.0070799589157104,-1.4038084745407104,-1.0681151151657104,73.33333587646484,179396.0,0.0
14849.7603337,294244.46875,294640.8125,327778.875,321808.71875,284872.625,255681.078125,221782.875,246062.765625,0.029541015625,0.9892578125,0.0849609375,1.0070799589157104,-1.4038084745407104,-1.0681151151657104,73.33333587646484,179397.0,0.0
14849.7603338,294244.46875,294640.8125,327778.875,321808.71875,284872.625,255681.078125,221782.875,246062.765625,0.029541015625,0.9892578125,0.0849609375,1.0070799589157104,-1.4038084745407104,-1.0681151151657104,73.33333587646484,179398.0,0.0
14849.760334,294244.46875,294640.8125,327778.875,321808.71875,284872.625,255681.078125,221782.875,246062.765625,0.029541015625,0.9892578125,0.0849609375,1.0070799589157104,-1.4038084745407104,-1.0681151151657104,73.33333587646484,179399.0,0.0
14849.7603342,294244.46875,294640.8125,327778.875,321808.71875,284872.625,255681.078125,221782.875,246062.765625,0.029541015625,0.9892578125,0.0849609375,1.0070799589157104,-1.4038084745407104,-1.0681151151657104,73.33333587646484,179400.0,0.0
14849.7603344,294244.46875,294640.8125,327778.875,321808.71875,284872.625,255681.078125,221782.875,246062.765625,0.029541015625,0.9892578125,0.0849609375,1.0070799589157104,-1.4038084745407104,-1.0681151151657104,73.33333587646484,179401.0,0.0
14849.7603345,294244.46875,294640.8125,327778.875,321808.71875,284872.625,255681.078125,221782.875,246062.765625,0.029541015625,0.9892578125,0.0849609375,1.0070799589157104,-1.4038084745407104,-1.0681151151657104,73.33333587646484,179402.0,0.0
14849.7603347,294244.46875,294640.8125,327778.875,321808.71875,284872.625,255681.078125,221782.875,246062.765625,0.029541015625,0.9892578125,0.0849609375,1.0070799589157104,-1.4038084745407104,-1.0681151151657104,73.33333587646484,179403.0,0.0
14849.7603349,294244.46875,294640.8125,327778.875,321808.71875,284872.625,255681.078125,221782.875,246062.765625,0.029541015625,0.9892578125,0.0849609375,1.0070799589157104,-1.4038084745407104,-1.0681151151657104,73.33333587646484,179404.0,0.0
14849.7603351,294244.46875,294640.8125,327778.875,321808.71875,284872.625,255681.078125,221782.875,246062.765625,0.029541015625,0.9892578125,0.0849609375,1.0070799589157104,-1.4038084745407104,-1.0681151151657104,73.33333587646484,179405.0,0.0
14849.7603352,294244.46875,294640.8125,327778.875,321808.71875,284872.625,255681.078125,221782.875,246062.765625,0.029541015625,0.9892578125,0.0849609375,1.0070799589157104,-1.4038084745407104,-1.0681151151657104,73.33333587646484,179406.0,0.0
14849.7603354,294244.46875,294640.8125,327778.875,321808.71875,284872.625,255681.078125,221782.875,246062.765625,0.029541015625,0.9892578125,0.0849609375,1.0070799589157104,-1.4038084745407104,-1.0681151151657104,73.33333587646484,179407.0,0.0
14849.7603356,294244.46875,294640.8125,327778.875,321808.71875,284872.625,255681.078125,221782.875,246062.765625,0.029541015625,0.9892578125,0.0849609375,1.0070799589157104,-1.4038084745407104,-1.0681151151657104,73.33333587646484,179408.0,0.0
14849.7603358,294244.46875,294640.8125,327778.875,321808.71875,284872.625,255681.078125,221782.875,246062.765625,0.029541015625,0.9892578125,0.0849609375,1.0070799589157104,-1.4038084745407104,-1.0681151151657104,73.33333587646484,179409.0,0.0
14849.7603359,294244.46875,294640.8125,327778.875,321808.71875,284872.625,255681.078125,221782.875,246062.765625,0.029541015625,0.9892578125,0.0849609375,1.0070799589157104,-1.4038084745407104,-1.0681151151657104,73.33333587646484,179410.0,0.0
14849.7603362,294244.46875,294640.8125,327778.875,321808.71875,284872.625,255681.078125,221782.875,246062.765625,0.029541015625,0.9892578125,0.0849609375,1.0070799589157104,-1.4038084745407104,-1.0681151151657104,73.33333587646484,179411.0,0.0
14849.7603364,294244.46875,294640.8125,327778.875,321808.71875,284872.625,255681.078125,221782.875,246062.765625,0.029541015625,0.9892578125,0.0849609375,1.0070799589157104,-1.4038084745407104,-1.0681151151657104,73.33333587646484,179412.0,0.0
14849.7603365,294244.46875,294640.8125,327778.875,321808.71875,284872.625,255681.078125,221782.875,246062.765625,0.029541015625,0.9892578125,0.0849609375,1.0070799589157104,-1.4038084745407104,-1.0681151151657104,73.33333587646484,179413.0,0.0
14849.7603367,294244.46875,294640.8125,327778.875,321808.71875,284872.625,255681.078125,221782.875,246062.765625,0.029541015625,0.9892578125,0.0849609375,1.0070799589157104,-1.4038084745407104,-1.0681151151657104,73.33333587646484,179414.0,0.0
14849.7603369,294244.46875,294640.8125,327778.875,321808.71875,284872.625,255681.078125,221782.875,246062.765625,0.029541015625,0.9892578125,0.0849609375,1.0070799589157104,-1.4038084745407104,-1.0681151151657104,73.33333587646484,179415.0,0.0
14849.7603371,294244.46875,294640.8125,327778.875,321808.71875,284872.625,255681.078125,221782.875,246062.765625,0.029541015625,0.9892578125,0.0849609375,1.0070799589157104,-1.4038084745407104,-1.0681151151657104,73.33333587646484,179416.0,0.0
14849.7603372,294237.46875,294870.40625,327906.71875,321764.28125,284976.53125,255707.984375,221809.875,246040.765625,0.04150390625,0.9892578125,0.0810546875,-0.1220703050494194,-2.075195074081421,-0.9765624403953552,73.33333587646484,179417.0,1.0
14849.760339,294254.90625,294651.71875,327779.21875,321804.53125,284883.375,255677.5,221790.203125,246054.8125,0.0419921875,0.990234375,0.083984375,-0.1525878757238388,-2.105712652206421,-1.0986326932907104,73.33333587646484,179418.0,1.0
14849.8109961,294305.53125,294850.8125,327961.875,321852.875,284996.65625,255741.34375,221863.34375,246089.953125,0.039306640625,0.991455078125,0.084716796875,-0.2441406100988388,-1.9836424589157104,-1.2512205839157104,73.33333587646484,179419.0,1.0
14849.8110013,294316.875,295164.09375,328172.25,321835.8125,285136.65625,255796.421875,221909.46875,246087.984375,0.038818359375,0.992431640625,0.0810546875,-0.3051757514476776,-1.8615721464157104,-1.2512205839157104,73.33333587646484,179420.0,1.0
14849.8110026,294288.53125,295193.59375,328154.125,321790.9375,285138.1875,255787.203125,221893.734375,246069.828125,0.037841796875,0.991943359375,0.078125,-0.3051757514476776,-1.8005369901657104,-1.2817381620407104,73.33333587646484,179421.0,1.0
14849.8110039,294256.71875,294895.875,327934.4375,321778.78125,284998.34375,255725.34375,221833.296875,246060.265625,0.037353515625,0.9921875,0.080322265625,-0.3356933295726776,-1.8005369901657104,-1.3427733182907104,73.33333587646484,179422.0,1.0
14849.8110051,294267.71875,294669.59375,327800.78125,321813.625,284902.15625,255694.046875,221809.875,246069.203125,0.035400390625,0.9912109375,0.0810546875,-0.3051757514476776,-1.6784666776657104,-1.3122557401657104,73.33333587646484,179423.0,1.0
14849.8110066,294308.90625,294855.1875,327966.34375,321852.53125,285001.84375,255749.75,221872.359375,246093.796875,0.0361328125,0.9931640625,0.081298828125,-0.3356933295726776,-1.8310545682907104,-1.3427733182907104,73.33333587646484,179424.0,1.0
14849.8110078,294314.90625,295166.34375,328179.3125,321833.21875,285144.625,255806.15625,221925.296875,246090.390625,0.03271484375,0.993408203125,0.08349609375,-0.3356933295726776,-1.7089842557907104,-1.4343260526657104,73.33333587646484,179425.0,1.0
14849.811009,294284.6875,295194.59375,328159.84375,321788.6875,285145.6875,255793.46875,221903.75,246066.96875,0.030517578125,0.9931640625,0.082275390625,-0.2441406100988388,-1.7395018339157104,-1.4038084745407104,73.33333587646484,179426.0,1.0
14849.8359432,294256.71875,294899.28125,327937.46875,321778.9375,285004.59375,255737.40625,221843.046875,246057.84375,0.030029296875,0.99462890625,0.083251953125,-0.2441406100988388,-1.8615721464157104,-1.4953612089157104,73.33333587646484,179427.0,1.0
14849.8359485,294264.40625,294667.875,327804.0,321813.625,284906.34375,255708.96875,221824.265625,246071.703125,0.029541015625,0.9951171875,0.085693359375,-0.3051757514476776,-1.9531248807907104,-1.2817381620407104,73.33333587646484,179428.0,1.0
14849.8359504,294264.40625,294667.875,327804.0,321813.625,284906.34375,255708.96875,221824.265625,246071.703125,0.029541015625,0.9951171875,0.085693359375,-0.3051757514476776,-1.9531248807907104,-1.2817381620407104,73.33333587646484,179429.0,0.0
14849.8359506,294264.40625,294667.875,327804.0,321813.625,284906.34375,255708.96875,221824.265625,246071.703125,0.029541015625,0.9951171875,0.085693359375,-0.3051757514476776,-1.9531248807907104,-1.2817381620407104,73.33333587646484,179430.0,0.0
14849.8359508,294264.40625,294667.875,327804.0,321813.625,284906.34375,255708.96875,221824.265625,246071.703125,0.029541015625,0.9951171875,0.085693359375,-0.3051757514476776,-1.9531248807907104,-1.2817381620407104,73.33333587646484,179431.0,0.0
14849.8359509,294264.40625,294667.875,327804.0,321813.625,284906.34375,255708.96875,221824.265625,246071.703125,0.029541015625,0.9951171875,0.085693359375,-0.3051757514476776,-1.9531248807907104,-1.2817381620407104,73.33333587646484,179432.0,0.0
14849.8359511,294264.40625,294667.875,327804.0,321813.625,284906.34375,255708.96875,221824.265625,246071.703125,0.029541015625,0.9951171875,0.085693359375,-0.3051757514476776,-1.9531248807907104,-1.2817381620407104,73.33333587646484,179433.0,0.0
14849.8359513,294264.40625,294667.875,327804.0,321813.625,284906.34375,255708.96875,221824.265625,246071.703125,0.029541015625,0.9951171875,0.085693359375,-0.3051757514476776,-1.9531248807907104,-1.2817381620407104,73.33333587646484,179434.0,0.0
14849.8359515,294264.40625,294667.875,327804.0,321813.625,284906.34375,255708.96875,221824.265625,246071.703125,0.029541015625,0.9951171875,0.085693359375,-0.3051757514476776,-1.9531248807907104,-1.2817381620407104,73.33333587646484,179435.0,0.0
14849.8359516,294264.40625,294667.875,327804.0,321813.625,284906.34375,255708.96875,221824.265625,246071.703125,0.029541015625,0.9951171875,0.085693359375,-0.3051757514476776,-1.9531248807907104,-1.2817381620407104,73.33333587646484,179436.0,0.0
14849.8359518,294267.53125,294882.1875,327918.0,321782.96875,284981.28125,255713.0,221827.125,246053.015625,0.032470703125,0.986083984375,0.08447265625,0.2441406100988388,-3.234863042831421,-0.8850097060203552,73.33333587646484,179437.0,1.0
14849.8884135,294278.0625,294660.75,327785.84375,321819.34375,284888.5625,255694.21875,221813.09375,246069.109375,0.034912109375,0.987060546875,0.080810546875,0.2746581733226776,-3.173827886581421,-0.7934569716453552,73.33333587646484,179438.0,1.0
14849.888419,294319.65625,294853.125,327962.5,321860.5625,284995.5625,255746.796875,221872.8125,246095.484375,0.03564453125,0.986083984375,0.0830078125,0.4272460639476776,-3.143310308456421,-0.5798339247703552,73.33333587646484,179439.0,1.0
14849.8884203,294339.84375,295183.9375,328195.40625,321854.75,285154.71875,255809.734375,221935.84375,246102.015625,0.035400390625,0.985107421875,0.08251953125,0.5493163466453552,-3.234863042831421,-0.4577636420726776,73.33333587646484,179440.0,1.0
14849.8884216,294311.59375,295220.5,328185.5,321811.125,285163.03125,255809.203125,221921.359375,246080.5625,0.037353515625,0.986328125,0.07763671875,0.6713866591453552,-3.082275152206421,-0.3662109076976776,73.33333587646484,179441.0,1.0
14849.8884228,294270.65625,294910.53125,327952.6875,321788.0625,285010.0625,255738.65625,221843.84375,246057.765625,0.041259765625,0.988525390625,0.080810546875,0.8239745497703552,-3.082275152206421,-0.2746581733226776,73.33333587646484,179442.0,1.0
14849.8884241,294283.78125,294689.96875,327828.03125,321827.0625,284920.21875,255707.546875,221823.90625,246076.71875,0.04296875,0.98681640625,0.07958984375,0.9765624403953552,-2.990722417831421,-0.1525878757238388,73.33333587646484,179443.0,1.0
14849.8884253,294318.3125,294851.1875,327966.53125,321859.78125,284998.875,255735.96875,221865.21875,246092.8125,0.043701171875,0.987548828125,0.080810546875,1.1901854276657104,-2.838134527206421,-0.1525878757238388,73.33333587646484,179444.0,1.0
14849.8884267,294330.375,295163.375,328173.78125,321845.28125,285137.65625,255791.140625,221918.328125,246091.015625,0.047119140625,0.9873046875,0.08056640625,1.2207030057907104,-2.685546636581421,-0.1831054538488388,73.33333587646484,179445.0,1.0
14849.9123452,294304.8125,295199.3125,328165.09375,321805.59375,285149.1875,255795.25,221909.375,246076.71875,0.04541015625,0.986083984375,0.080322265625,1.3122557401657104,-2.502441167831421,-0.2746581733226776,73.33333587646484,179446.0,1.0
14849.9373121,294269.3125,294883.53125,327923.4375,321787.4375,284991.71875,255729.71875,221837.765625,246060.796875,0.0458984375,0.98681640625,0.07958984375,1.4038084745407104,-2.319335699081421,-0.2746581733226776,73.33333587646484,179447.0,1.0
14849.9623418,294280.5625,294659.9375,327782.34375,321825.875,284893.1875,255706.5625,221822.828125,246078.953125,0.046875,0.98681640625,0.078125,1.4038084745407104,-2.044677495956421,-0.4272460639476776,73.33333587646484,179448.0,1.0
14850.0035849,294324.46875,294849.5625,327952.0625,321866.125,284995.75,255754.390625,221881.9375,246101.484375,0.047119140625,0.987548828125,0.077880859375,1.5258787870407104,-1.7395018339157104,-0.6408690810203552,73.33333587646484,179449.0,1.0
14850.0285724,294340.125,295175.09375,328178.53125,321854.5,285147.5625,255807.953125,221935.578125,246105.140625,0.04638671875,0.987548828125,0.07861328125,1.5869139432907104,-1.4953612089157104,-0.8544921278953552,73.33333587646484,179450.0,1.0
14850.0535769,294303.5625,295203.09375,328157.96875,321805.21875,285143.4375,255793.46875,221907.859375,246079.390625,0.046142578125,0.989013671875,0.079833984375,1.6784666776657104,-1.2512205839157104,-1.0986326932907104,73.33333587646484,179451.0,1.0
14850.0786206,294270.65625,294906.875,327938.65625,321793.4375,285004.59375,255741.34375,221849.65625,246065.53125,0.046142578125,0.99072265625,0.07568359375,1.6784666776657104,-1.0375975370407104,-1.2512205839157104,73.33333587646484,179452.0,1.0
14850.0919611,294285.125,294681.65625,327809.71875,321832.15625,284912.4375,255708.796875,221827.75,246078.328125,0.045166015625,0.990966796875,0.077880859375,1.7089842557907104,-0.8544921278953552,-1.5258787870407104,73.33333587646484,179453.0,1.0
14850.0919666,294326.625,294865.3125,327976.8125,321869.25,285008.34375,255738.5625,221871.203125,246100.671875,0.044677734375,0.992431640625,0.075439453125,1.7395018339157104,-0.6713866591453552,-1.6784666776657104,73.33333587646484,179454.0,1.0
14850.091968,294337.34375,295186.625,328197.03125,321853.78125,285156.6875,255797.3125,221925.46875,246100.671875,0.044189453125,0.993896484375,0.074462890625,1.6784666776657104,-0.3356933295726776,-1.9226073026657104,73.33333587646484,179455.0,1.0
14850.0919697,294298.375,295206.5625,328166.625,321801.125,285150.4375,255791.671875,221906.609375,246075.109375,0.041015625,0.99609375,0.07763671875,1.6174315214157104,-0.03051757626235485,-2.044677495956421,73.33333587646484,179456.0,1.0
14850.0919712,294269.3125,294911.53125,327941.59375,321792.8125,285012.125,255739.546875,221849.84375,246070.8125,0.03857421875,0.995361328125,0.079345703125,1.5563963651657104,0.0915527269244194,-2.014159917831421,73.33333587646484,179457.0,1.0
14850.0959256,294267.34375,294675.21875,327797.8125,321818.71875,284905.71875,255700.65625,221820.421875,246076.265625,0.03759765625,0.993896484375,0.076171875,1.5869139432907104,0.2441406100988388,-2.166747808456421,73.33333587646484,179458.0,1.0
14850.0959308,294303.375,294850.625,327958.59375,321853.875,285001.75,255749.65625,221877.640625,246100.671875,0.037109375,0.99267578125,0.07861328125,1.5258787870407104,0.3662109076976776,-2.197265386581421,73.33333587646484,179459.0,1.0
14850.0959322,294309.53125,295166.59375,328168.96875,321829.46875,285141.3125,255799.90625,221921.0,246089.40625,0.033447265625,0.991943359375,0.07958984375,1.3732908964157104,0.2746581733226776,-2.288818120956421,73.33333587646484,179460.0,1.0
14850.0985857,294283.78125,295203.96875,328152.15625,321785.46875,285144.875,255794.265625,221903.484375,246065.8125,0.03173828125,0.991455078125,0.07861328125,1.3732908964157104,0.3051757514476776,-2.258300542831421,73.33333587646484,179461.0,1.0
14850.1010694,294263.6875,294913.84375,327942.125,321789.59375,285015.5,255747.234375,221854.3125,246069.5625,0.027587890625,0.993408203125,0.07861328125,1.1901854276657104,0.3662109076976776,-2.044677495956421,73.33333587646484,179462.0,1.0
14850.1035595,294288.1875,294700.53125,327823.84375,321842.34375,284933.78125,255733.296875,221854.390625,246097.28125,0.0263671875,0.993896484375,0.0791015625,1.1291502714157104,0.1220703050494194,-1.9836424589157104,73.33333587646484,179463.0,1.0
14850.1060674,294338.34375,294899.46875,327998.53125,321890.625,285041.8125,255794.1875,221925.03125,246129.640625,0.0234375,0.994384765625,0.076416015625,1.0070799589157104,0.1831054538488388,-1.8615721464157104,73.33333587646484,179464.0,1.0
14850.1844877,294348.53125,295221.21875,328208.28125,321870.3125,285179.46875,255851.671875,221968.921875,246124.375,0.021240234375,0.9951171875,0.08056640625,0.9155272841453552,0.0,-1.5563963651657104,73.33333587646484,179465.0,1.0
14850.1844937,294313.125,295249.5625,328188.09375,321817.03125,285174.65625,255831.734375,221942.375,246094.953125,0.0205078125,0.996337890625,0.075439453125,0.8239745497703552,-0.3051757514476776,-1.3732908964157104,73.33333587646484,179466.0,1.0
14850.184495,294275.84375,294946.40625,327965.65625,321802.90625,285032.3125,255768.703125,221878.71875,246079.21875,0.01953125,0.99755859375,0.078125,0.6713866591453552,-0.5493163466453552,-1.1291502714157104,73.33333587646484,179467.0,1.0
14850.1844962,294283.875,294716.25,327833.0625,321837.78125,284933.15625,255731.5,221854.03125,246092.359375,0.017333984375,0.9970703125,0.078125,0.4577636420726776,-0.7934569716453552,-0.8850097060203552,73.33333587646484,179468.0,1.0
14850.1844975,294324.125,294895.0625,327997.90625,321871.46875,285026.96875,255773.4375,221903.921875,246112.5625,0.018798828125,1.000244140625,0.081298828125,0.2746581733226776,-1.2207030057907104,-0.6713866591453552,73.33333587646484,179469.0,1.0
14850.1844987,294339.21875,295214.6875,328216.59375,321858.53125,285173.9375,255833.609375,221956.3125,246113.375,0.017822265625,1.0,0.079345703125,0.1525878757238388,-1.4343260526657104,-0.4882812201976776,73.33333587646484,179470.0,1.0
14850.1844999,294310.15625,295240.71875,328190.78125,321813.46875,285174.125,255832.53125,221937.90625,246091.640625,0.0185546875,0.99951171875,0.078369140625,-0.03051757626235485,-1.8615721464157104,-0.2746581733226776,73.33333587646484,179471.0,1.0
14850.1845011,294276.65625,294938.96875,327953.5625,321799.0625,285021.21875,255762.34375,221870.9375,246078.5,0.02099609375,0.998046875,0.078125,-0.3356933295726776,-2.014159917831421,0.03051757626235485,73.33333587646484,179472.0,1.0
14850.1845023,294290.9375,294727.25,327836.4375,321842.5,284938.53125,255734.09375,221861.90625,246099.515625,0.0224609375,0.994384765625,0.079345703125,-0.6103515028953552,-2.288818120956421,0.2441406100988388,73.33333587646484,179473.0,1.0
14850.1845035,294328.40625,294893.09375,327989.4375,321875.3125,285026.78125,255769.59375,221906.4375,246112.296875,0.0234375,0.991943359375,0.080810546875,-0.7934569716453552,-2.563476324081421,0.3051757514476776,73.33333587646484,179474.0,1.0
14850.1845047,294339.21875,295198.34375,328186.75,321857.4375,285156.875,255816.265625,221947.109375,246109.078125,0.02783203125,0.991943359375,0.078369140625,-0.9765624403953552,-2.716064214706421,0.5798339247703552,73.33333587646484,179475.0,1.0
14850.184506,294311.59375,295235.625,328175.40625,321817.65625,285163.75,255812.6875,221935.3125,246093.703125,0.0302734375,0.991455078125,0.0791015625,-1.0070799589157104,-2.990722417831421,0.5493163466453552,73.33333587646484,179476.0,1.0
14850.1845072,294285.6875,294940.9375,327956.53125,321806.65625,285026.15625,255762.625,221878.984375,246080.296875,0.031982421875,0.98779296875,0.0791015625,-1.0986326932907104,-3.021239995956421,0.5798339247703552,73.33333587646484,179477.0,1.0
14850.1845084,294298.09375,294723.78125,327823.5625,321841.96875,284931.375,255734.71875,221857.4375,246095.3125,0.03662109375,0.988525390625,0.076171875,-1.1596678495407104,-3.112792730331421,0.5798339247703552,73.33333587646484,179478.0,1.0
14850.1845096,294331.28125,294892.375,327976.90625,321873.4375,285017.21875,255758.421875,221897.671875,246113.109375,0.04296875,0.988525390625,0.080078125,-1.1901854276657104,-3.051757574081421,0.4882812201976776,73.33333587646484,179479.0,1.0
14850.1845113,294336.625,295185.28125,328169.65625,321853.5,285143.28125,255804.28125,221940.140625,246110.875,0.04638671875,0.98681640625,0.078369140625,-1.1901854276657104,-2.929687261581421,0.4577636420726776,73.33333587646484,179480.0,1.0
14850.184513,294336.625,295185.28125,328169.65625,321853.5,285143.28125,255804.28125,221940.140625,246110.875,0.04638671875,0.98681640625,0.078369140625,-1.1901854276657104,-2.929687261581421,0.4577636420726776,73.33333587646484,179481.0,0.0
14850.1845132,294336.625,295185.28125,328169.65625,321853.5,285143.28125,255804.28125,221940.140625,246110.875,0.04638671875,0.98681640625,0.078369140625,-1.1901854276657104,-2.929687261581421,0.4577636420726776,73.33333587646484,179482.0,0.0
14850.1845134,294336.625,295185.28125,328169.65625,321853.5,285143.28125,255804.28125,221940.140625,246110.875,0.04638671875,0.98681640625,0.078369140625,-1.1901854276657104,-2.929687261581421,0.4577636420726776,73.33333587646484,179483.0,0.0
14850.1845136,294336.625,295185.28125,328169.65625,321853.5,285143.28125,255804.28125,221940.140625,246110.875,0.04638671875,0.98681640625,0.078369140625,-1.1901854276657104,-2.929687261581421,0.4577636420726776,73.33333587646484,179484.0,0.0
14850.1845137,294336.625,295185.28125,328169.65625,321853.5,285143.28125,255804.28125,221940.140625,246110.875,0.04638671875,0.98681640625,0.078369140625,-1.1901854276657104,-2.929687261581421,0.4577636420726776,73.33333587646484,179485.0,0.0
14850.184514,294336.625,295185.28125,328169.65625,321853.5,285143.28125,255804.28125,221940.140625,246110.875,0.04638671875,0.98681640625,0.078369140625,-1.1901854276657104,-2.929687261581421,0.4577636420726776,73.33333587646484,179486.0,0.0
14850.1845142,294336.625,295185.28125,328169.65625,321853.5,285143.28125,255804.28125,221940.140625,246110.875,0.04638671875,0.98681640625,0.078369140625,-1.1901854276657104,-2.929687261581421,0.4577636420726776,73.33333587646484,179487.0,0.0
14850.1845144,294336.625,295185.28125,328169.65625,321853.5,285143.28125,255804.28125,221940.140625,246110.875,0.04638671875,0.98681640625,0.078369140625,-1.1901854276657104,-2.929687261581421,0.4577636420726776,73.33333587646484,179488.0,0.0
14850.1845146,294336.625,295185.28125,328169.65625,321853.5,285143.28125,255804.28125,221940.140625,246110.875,0.04638671875,0.98681640625,0.078369140625,-1.1901854276657104,-2.929687261581421,0.4577636420726776,73.33333587646484,179489.0,0.0
14850.1845148,294323.125,295183.9375,328184.96875,321841.25,285150.53125,255807.765625,221941.125,246103.359375,0.054931640625,0.990478515625,0.0751953125,-0.7934569716453552,1.2817381620407104,-1.5563963651657104,73.33333587646484,179490.0,1.0
14850.184516,294298.1875,295218.8125,328168.59375,321800.21875,285157.125,255809.828125,221929.859375,246086.375,0.05224609375,0.991943359375,0.076171875,-0.8544921278953552,1.6174315214157104,-1.7395018339157104,73.33333587646484,179491.0,1.0
14850.1845172,294262.875,294916.4375,327942.9375,321783.25,285011.65625,255748.3125,221862.359375,246067.953125,0.0478515625,0.99365234375,0.076416015625,-0.8239745497703552,1.8920897245407104,-2.014159917831421,73.33333587646484,179492.0,1.0
14850.1845186,294269.125,294688.0,327805.4375,321816.6875,284909.375,255711.65625,221838.65625,246080.203125,0.045166015625,0.9921875,0.073974609375,-1.0070799589157104,1.9531248807907104,-2.105712652206421,73.33333587646484,179493.0,1.0
14850.1860315,294319.46875,294875.125,327975.84375,321863.875,285011.65625,255759.9375,221904.015625,246114.0,0.03857421875,0.990478515625,0.079833984375,-1.0986326932907104,2.014159917831421,-2.319335699081421,73.33333587646484,179494.0,1.0
14850.1985706,294334.84375,295203.0,328196.84375,321849.65625,285158.03125,255819.578125,221959.53125,246118.109375,0.03369140625,0.992919921875,0.081298828125,-1.2207030057907104,2.044677495956421,-2.441406011581421,73.33333587646484,179495.0,1.0
14850.2010802,294293.0,295226.59375,328171.375,321795.21875,285150.34375,255808.03125,221933.609375,246088.515625,0.02783203125,0.99169921875,0.081787109375,-1.2207030057907104,1.9226073026657104,-2.502441167831421,73.33333587646484,179496.0,1.0
14850.2035498,294286.75,294953.71875,327973.40625,321806.9375,285036.4375,255777.8125,221904.46875,246100.40625,0.0224609375,0.9951171875,0.082763671875,-1.2817381620407104,1.8005369901657104,-2.410888433456421,73.33333587646484,179497.0,1.0
14850.2060806,294289.15625,294721.625,327832.875,321837.15625,284935.5,255741.4375,221875.3125,246105.140625,0.01806640625,0.994384765625,0.08056640625,-1.4038084745407104,1.4648436307907104,-2.319335699081421,73.33333587646484,179498.0,1.0
14850.2092005,294321.875,294889.34375,327985.65625,321869.6875,285023.1875,255775.40625,221914.03125,246117.65625,0.01123046875,0.99658203125,0.086181640625,-1.5869139432907104,1.0681151151657104,-2.166747808456421,73.33333587646484,179499.0,1.0
14850.2092055,294337.71875,295203.625,328203.03125,321856.71875,285169.65625,255827.078125,221962.578125,246120.96875,0.00732421875,0.993896484375,0.0859375,-1.7089842557907104,0.4272460639476776,-2.014159917831421,73.33333587646484,179500.0,1.0
14850.209207,294310.15625,295237.3125,328188.8125,321812.90625,285174.21875,255826.546875,221949.96875,246098.625,0.00537109375,0.989990234375,0.084716796875,-1.8920897245407104,-0.2441406100988388,-1.7700194120407104,73.33333587646484,179501.0,1.0
14850.2111254,294281.125,294948.71875,327975.75,321803.96875,285037.78125,255768.703125,221891.40625,246086.90625,0.004638671875,0.990234375,0.08251953125,-1.8920897245407104,-0.7324218153953552,-1.4648436307907104,73.33333587646484,179502.0,1.0
14850.2142024,294286.3125,294721.4375,327848.96875,321837.15625,284944.0,255727.75,221861.734375,246097.375,0.004150390625,0.990478515625,0.0830078125,-1.6784666776657104,-1.3122557401657104,-1.1901854276657104,73.33333587646484,179503.0,1.0
14850.2142075,294322.78125,294902.5,328020.28125,321870.21875,285043.40625,255764.5,221905.984375,246113.375,0.001953125,0.99267578125,0.0859375,-1.7700194120407104,-1.9836424589157104,-0.8850097060203552,73.33333587646484,179504.0,1.0
14850.217837,294333.34375,295211.9375,328230.8125,321849.40625,285180.1875,255809.46875,221948.265625,246106.21875,0.005126953125,0.999755859375,0.0830078125,-1.7089842557907104,-3.112792730331421,-0.4272460639476776,73.33333587646484,179505.0,1.0
14850.2178421,294300.875,295227.65625,328195.34375,321801.21875,285168.125,255799.546875,221924.40625,246082.703125,0.006103515625,0.998779296875,0.084716796875,-1.7700194120407104,-3.662109136581421,-0.0610351525247097,73.33333587646484,179506.0,1.0
14850.2178435,294264.84375,294906.78125,327936.125,321783.875,285002.09375,255733.734375,221855.46875,246069.203125,0.012451171875,0.99755859375,0.08935546875,-2.014159917831421,-4.272460460662842,0.3051757514476776,73.33333587646484,179507.0,1.0
14850.2178447,294272.71875,294678.0,327789.0625,321819.90625,284898.3125,255705.578125,221837.671875,246088.515625,0.01806640625,0.995849609375,0.084716796875,-2.105712652206421,-4.882812023162842,0.5187987685203552,73.33333587646484,179508.0,1.0
14850.2178459,294316.53125,294870.5625,327961.625,321861.03125,285004.34375,255762.4375,221905.53125,246117.84375,0.025146484375,0.9921875,0.086669921875,-2.227782964706421,-5.187987804412842,0.8850097060203552,73.33333587646484,179509.0,1.0
14850.2178471,294332.625,295205.21875,328205.34375,321852.15625,285166.78125,255831.640625,221958.90625,246112.296875,0.031982421875,0.98974609375,0.083740234375,-2.197265386581421,-5.462646007537842,1.0681151151657104,73.33333587646484,179510.0,1.0
14850.2203987,294295.34375,295230.96875,328184.59375,321804.59375,285165.71875,255823.140625,221938.171875,246091.828125,0.036865234375,0.988037109375,0.08203125,-2.014159917831421,-5.645751476287842,1.2512205839157104,73.33333587646484,179511.0,1.0
14850.2204038,294252.9375,294901.59375,327924.78125,321781.375,284996.46875,255735.53125,221859.671875,246072.421875,0.039794921875,0.986083984375,0.080810546875,-1.9226073026657104,-5.615233898162842,1.1596678495407104,73.33333587646484,179512.0,1.0
14850.2204051,294250.53125,294634.71875,327733.8125,321803.09375,284858.875,255685.375,221823.546875,246077.78125,0.045654296875,0.98583984375,0.078857421875,-1.6174315214157104,-5.493163585662842,0.9460448622703552,73.33333587646484,179513.0,1.0
14850.2448475,294301.6875,294843.9375,327919.6875,321852.15625,284976.875,255752.34375,221901.6875,246110.234375,0.05078125,0.988037109375,0.0810546875,-1.4038084745407104,-5.310058116912842,0.9155272841453552,73.33333587646484,179514.0,1.0
14850.2698113,294317.875,295177.0625,328164.84375,321842.25,285141.3125,255816.171875,221963.46875,246113.375,0.055419921875,0.98828125,0.08251953125,-1.3122557401657104,-5.187987804412842,0.6103515028953552,73.33333587646484,179515.0,1.0
14850.2910787,294294.34375,295219.34375,328159.125,321801.9375,285154.0,255811.609375,221947.015625,246095.671875,0.057373046875,0.98681640625,0.082275390625,-1.1901854276657104,-4.852294445037842,0.4272460639476776,73.33333587646484,179516.0,1.0
14850.2935826,294294.34375,295219.34375,328159.125,321801.9375,285154.0,255811.609375,221947.015625,246095.671875,0.057373046875,0.98681640625,0.082275390625,-1.1901854276657104,-4.852294445037842,0.4272460639476776,73.33333587646484,179517.0,0.0
14850.2935838,294294.34375,295219.34375,328159.125,321801.9375,285154.0,255811.609375,221947.015625,246095.671875,0.057373046875,0.98681640625,0.082275390625,-1.1901854276657104,-4.852294445037842,0.4272460639476776,73.33333587646484,179518.0,0.0
14850.293584,294294.34375,295219.34375,328159.125,321801.9375,285154.0,255811.609375,221947.015625,246095.671875,0.057373046875,0.98681640625,0.082275390625,-1.1901854276657104,-4.852294445037842,0.4272460639476776,73.33333587646484,179519.0,0.0
14850.2935842,294294.34375,295219.34375,328159.125,321801.9375,285154.0,255811.609375,221947.015625,246095.671875,0.057373046875,0.98681640625,0.082275390625,-1.1901854276657104,-4.852294445037842,0.4272460639476776,73.33333587646484,179520.0,0.0
14850.2935843,294294.34375,295219.34375,328159.125,321801.9375,285154.0,255811.609375,221947.015625,246095.671875,0.057373046875,0.98681640625,0.082275390625,-1.1901854276657104,-4.852294445037842,0.4272460639476776,73.33333587646484,179521.0,0.0
14850.2935845,294294.34375,295219.34375,328159.125,321801.9375,285154.0,255811.609375,221947.015625,246095.671875,0.057373046875,0.98681640625,0.082275390625,-1.1901854276657104,-4.852294445037842,0.4272460639476776,73.33333587646484,179522.0,0.0
14850.2935847,294294.34375,295219.34375,328159.125,321801.9375,285154.0,255811.609375,221947.015625,246095.671875,0.057373046875,0.98681640625,0.082275390625,-1.1901854276657104,-4.852294445037842,0.4272460639476776,73.33333587646484,179523.0,0.0
14850.2935848,294294.34375,295219.34375,328159.125,321801.9375,285154.0,255811.609375,221947.015625,246095.671875,0.057373046875,0.98681640625,0.082275390625,-1.1901854276657104,-4.852294445037842,0.4272460639476776,73.33333587646484,179524.0,0.0
14850.293585,294294.34375,295219.34375,328159.125,321801.9375,285154.0,255811.609375,221947.015625,246095.671875,0.057373046875,0.98681640625,0.082275390625,-1.1901854276657104,-4.852294445037842,0.4272460639476776,73.33333587646484,179525.0,0.0
14850.2935852,294294.34375,295219.34375,328159.125,321801.9375,285154.0,255811.609375,221947.015625,246095.671875,0.057373046875,0.98681640625,0.082275390625,-1.1901854276657104,-4.852294445037842,0.4272460639476776,73.33333587646484,179526.0,0.0
14850.2935854,294294.34375,295219.34375,328159.125,321801.9375,285154.0,255811.609375,221947.015625,246095.671875,0.057373046875,0.98681640625,0.082275390625,-1.1901854276657104,-4.852294445037842,0.4272460639476776,73.33333587646484,179527.0,0.0
14850.2935855,294294.34375,295219.34375,328159.125,321801.9375,285154.0,255811.609375,221947.015625,246095.671875,0.057373046875,0.98681640625,0.082275390625,-1.1901854276657104,-4.852294445037842,0.4272460639476776,73.33333587646484,179528.0,0.0
14850.2935857,294294.34375,295219.34375,328159.125,321801.9375,285154.0,255811.609375,221947.015625,246095.671875,0.057373046875,0.98681640625,0.082275390625,-1.1901854276657104,-4.852294445037842,0.4272460639476776,73.33333587646484,179529.0,0.0
14850.2935859,294294.34375,295219.34375,328159.125,321801.9375,285154.0,255811.609375,221947.015625,246095.671875,0.057373046875,0.98681640625,0.082275390625,-1.1901854276657104,-4.852294445037842,0.4272460639476776,73.33333587646484,179530.0,0.0
14850.2935861,294294.34375,295219.34375,328159.125,321801.9375,285154.0,255811.609375,221947.015625,246095.671875,0.057373046875,0.98681640625,0.082275390625,-1.1901854276657104,-4.852294445037842,0.4272460639476776,73.33333587646484,179531.0,0.0
14850.2935863,294284.0625,294950.9375,327975.3125,321806.03125,285041.09375,255791.40625,221900.796875,246093.96875,0.011474609375,0.9951171875,0.0859375,-1.8310545682907104,-0.4882812201976776,-1.7395018339157104,73.33333587646484,179532.0,1.0
14850.3009905,294287.0,294717.59375,327840.03125,321832.3125,284935.65625,255734.1875,221856.359375,246089.328125,0.007568359375,0.99462890625,0.08544921875,-1.8615721464157104,-0.7934569716453552,-1.4648436307907104,73.33333587646484,179533.0,1.0
14850.3009957,294328.78125,294901.15625,328010.34375,321868.8125,285033.84375,255767.984375,221912.0625,246116.5,0.004150390625,0.992919921875,0.086669921875,-1.8005369901657104,-1.1291502714157104,-1.4038084745407104,73.33333587646484,179534.0,1.0
14850.300997,294338.0625,295216.65625,328229.03125,321849.125,285178.0625,255822.078125,221962.125,246112.390625,0.002685546875,0.991455078125,0.08544921875,-1.6479490995407104,-1.6174315214157104,-1.3122557401657104,73.33333587646484,179535.0,1.0
