Time,FZ,C3,CZ,C4,PZ,PO7,OZ,PO8,AccX,AccY,AccZ,Gyro1,Gyro2,Gyro3,Battery,Counter,Validation
14942.2867781,294719.03125,295025.25,326248.84375,319267.0625,285128.96875,255584.25,221439.09375,245373.265625,0.010009765625,0.99072265625,0.064208984375,1.1596678495407104,0.7324218153953552,-2.960204839706421,73.33333587646484,202555.0,1.0
14942.3136515,294683.09375,294701.40625,326013.875,319253.90625,284970.53125,255518.09375,221369.359375,245354.03125,0.009033203125,0.99072265625,0.061279296875,1.2512205839157104,0.4577636420726776,-2.532958745956421,73.33333587646484,202556.0,1.0
14942.3388656,294700.625,294532.625,325925.65625,319294.59375,284897.75,255486.4375,221351.65625,245368.4375,0.009521484375,0.9921875,0.065673828125,1.2207030057907104,0.2136230319738388,-2.288818120956421,73.33333587646484,202557.0,1.0
14942.3636819,294736.03125,294748.8125,326096.84375,319320.0625,285000.21875,255521.125,221399.046875,245382.5625,0.008544921875,0.993896484375,0.06396484375,1.2207030057907104,0.0610351525247097,-2.075195074081421,73.33333587646484,202558.0,1.0
14942.3886436,294738.53125,295038.5625,326275.65625,319297.90625,285128.78125,255571.5625,221444.46875,245380.328125,0.005126953125,0.991455078125,0.066650390625,1.0986326932907104,-0.1831054538488388,-1.8005369901657104,73.33333587646484,202559.0,1.0
14942.4374398,294710.0,295007.53125,326220.0625,319261.5,285108.21875,255559.484375,221428.1875,245367.984375,0.00634765625,0.990478515625,0.0654296875,0.9155272841453552,-0.4577636420726776,-1.4953612089157104,73.33333587646484,202560.0,1.0
14942.4624046,294683.28125,294691.9375,326006.1875,319257.9375,284967.6875,255501.546875,221368.46875,245362.0,0.0068359375,0.98876953125,0.066650390625,0.9765624403953552,-0.6713866591453552,-1.2512205839157104,73.33333587646484,202561.0,1.0
14942.4874034,294700.0625,294527.0625,325926.4375,319294.875,284900.96875,255485.453125,221356.84375,245375.671875,0.0087890625,0.989990234375,0.066162109375,0.8850097060203552,-0.9460448622703552,-1.0681151151657104,73.33333587646484,202562.0,1.0
14942.5124259,294738.875,294747.625,326110.28125,319323.21875,285013.53125,255535.609375,221409.328125,245387.203125,0.0107421875,0.98681640625,0.062744140625,0.9460448622703552,-1.1901854276657104,-0.8239745497703552,73.33333587646484,202563.0,1.0
14942.521147,294740.75,295043.125,326301.25,319300.84375,285150.34375,255579.78125,221453.765625,245381.3125,0.011962890625,0.98779296875,0.0625,0.8850097060203552,-1.3732908964157104,-0.6103515028953552,73.33333587646484,202564.0,1.0
14942.5236371,294708.46875,294993.15625,326226.0625,319259.09375,285113.59375,255552.6875,221422.109375,245359.9375,0.012451171875,0.98779296875,0.061279296875,0.8239745497703552,-1.4953612089157104,-0.6103515028953552,73.33333587646484,202565.0,1.0
14942.5261336,294680.5,294666.5625,325995.375,319251.15625,284959.90625,255479.46875,221354.515625,245353.234375,0.01220703125,0.988037109375,0.06005859375,0.9765624403953552,-1.6479490995407104,-0.5493163466453552,73.33333587646484,202566.0,1.0
14942.5286547,294699.90625,294500.875,325907.03125,319291.8125,284890.78125,255465.4375,221345.671875,245368.15625,0.012451171875,0.98779296875,0.05712890625,1.0375975370407104,-1.8005369901657104,-0.5798339247703552,73.33333587646484,202567.0,1.0
14942.531152,294740.03125,294736.1875,326101.875,319326.34375,285013.53125,255529.984375,221412.09375,245389.4375,0.015625,0.986572265625,0.060546875,1.0986326932907104,-1.9836424589157104,-0.5798339247703552,73.33333587646484,202568.0,1.0
14942.5335704,294744.78125,295032.40625,326297.5625,319301.5625,285151.0625,255583.984375,221456.359375,245382.734375,0.01806640625,0.98876953125,0.062255859375,1.1596678495407104,-2.105712652206421,-0.6408690810203552,73.33333587646484,202569.0,1.0
14942.5361436,294714.28125,295003.96875,326242.59375,319258.21875,285124.15625,255562.796875,221427.75,245359.40625,0.0205078125,0.988037109375,0.057861328125,1.0375975370407104,-2.166747808456421,-0.7019042372703552,73.33333587646484,202570.0,1.0
14942.5386027,294688.8125,294689.71875,326017.71875,319254.8125,284974.46875,255508.53125,221368.5625,245350.109375,0.021240234375,0.988525390625,0.060302734375,1.0986326932907104,-2.166747808456421,-0.7324218153953552,73.33333587646484,202571.0,1.0
14942.5411167,294700.96875,294509.71875,325913.40625,319289.21875,284890.15625,255482.6875,221351.84375,245363.421875,0.024658203125,0.989990234375,0.0595703125,1.0681151151657104,-2.197265386581421,-0.9460448622703552,73.33333587646484,202572.0,1.0
14942.5435714,294738.6875,294739.59375,326095.78125,319319.90625,285004.78125,255532.9375,221411.65625,245392.125,0.025634765625,0.987548828125,0.063720703125,1.1596678495407104,-2.044677495956421,-1.0375975370407104,73.33333587646484,202573.0,1.0
14942.5686332,294744.15625,295043.03125,326295.0625,319300.84375,285145.78125,255581.484375,221453.234375,245387.65625,0.02685546875,0.98876953125,0.05859375,1.1596678495407104,-1.9531248807907104,-1.1291502714157104,73.33333587646484,202574.0,1.0
14942.5936677,294709.03125,295003.53125,326231.3125,319257.84375,285116.09375,255557.703125,221422.921875,245358.421875,0.02685546875,0.990234375,0.06201171875,1.2512205839157104,-1.8310545682907104,-1.2207030057907104,73.33333587646484,202575.0,1.0
14942.6186842,294680.75,294687.28125,326000.03125,319252.84375,284962.5,255493.5,221360.421875,245348.671875,0.027587890625,0.99072265625,0.0625,1.2512205839157104,-1.5563963651657104,-1.2817381620407104,73.33333587646484,202576.0,1.0
14942.6561447,294695.15625,294521.0,325911.875,319290.75,284891.40625,255474.1875,221349.421875,245364.9375,0.02783203125,0.9873046875,0.06396484375,1.1901854276657104,-1.4038084745407104,-1.4038084745407104,73.33333587646484,202577.0,1.0
14942.6812374,294733.5,294748.8125,326103.125,319318.75,285009.0,255529.0,221405.125,245380.0625,0.0302734375,0.988525390625,0.06005859375,1.2512205839157104,-1.2207030057907104,-1.5258787870407104,73.33333587646484,202578.0,1.0
14942.7061742,294745.9375,295055.65625,326306.6875,319299.875,285152.9375,255586.21875,221453.140625,245380.140625,0.03076171875,0.989501953125,0.0576171875,1.3732908964157104,-0.9765624403953552,-1.6174315214157104,73.33333587646484,202579.0,1.0
14942.8558615,294719.3125,295032.59375,326260.03125,319262.5,285135.5,255572.546875,221432.390625,245366.203125,0.029052734375,0.989501953125,0.057861328125,1.4343260526657104,-0.8850097060203552,-1.6784666776657104,73.33333587646484,202580.0,1.0
14942.8558727,294684.96875,294699.53125,326017.28125,319249.4375,284969.8125,255497.625,221357.734375,245347.953125,0.030029296875,0.991455078125,0.058837890625,1.4038084745407104,-0.7934569716453552,-1.5563963651657104,73.33333587646484,202581.0,1.0
14942.855874,294698.28125,294520.28125,325914.03125,319285.65625,284886.3125,255477.671875,221346.296875,245362.796875,0.027099609375,0.992919921875,0.057373046875,1.3427733182907104,-0.5798339247703552,-1.5869139432907104,73.33333587646484,202582.0,1.0
14942.8558753,294738.6875,294753.375,326099.4375,319316.84375,285002.28125,255545.8125,221413.4375,245389.359375,0.025390625,0.9912109375,0.05908203125,1.1901854276657104,-0.4272460639476776,-1.6174315214157104,73.33333587646484,202583.0,1.0
14942.8558765,294740.5,295050.375,326290.4375,319290.75,285138.34375,255595.875,221458.0625,245376.65625,0.023193359375,0.990234375,0.05712890625,1.0986326932907104,-0.3051757514476776,-1.5258787870407104,73.33333587646484,202584.0,1.0
14942.8558777,294705.8125,295009.0625,326227.65625,319246.5,285108.21875,255550.28125,221417.640625,245350.015625,0.019775390625,0.98974609375,0.05859375,1.2207030057907104,-0.3051757514476776,-1.6174315214157104,73.33333587646484,202585.0,1.0
14942.855879,294678.71875,294683.90625,325998.25,319242.5625,284956.5,255482.0625,221355.140625,245341.34375,0.018310546875,0.989013671875,0.05810546875,1.1596678495407104,-0.2136230319738388,-1.5258787870407104,73.33333587646484,202586.0,1.0
14942.8558802,294702.5,294516.0625,325914.5625,319287.8125,284889.8125,255470.796875,221355.421875,245363.78125,0.017578125,0.9912109375,0.057861328125,1.0986326932907104,-0.2136230319738388,-1.4953612089157104,73.33333587646484,202587.0,1.0
14942.8558814,294743.09375,294744.0625,326103.65625,319319.1875,285006.46875,255532.125,221420.234375,245386.046875,0.01611328125,0.990966796875,0.059326171875,1.0375975370407104,-0.2441406100988388,-1.4648436307907104,73.33333587646484,202588.0,1.0
14942.8558826,294752.375,295052.59375,326306.53125,319302.71875,285152.03125,255592.828125,221467.0,245388.015625,0.013916015625,0.99072265625,0.059326171875,0.9155272841453552,-0.2746581733226776,-1.5258787870407104,73.33333587646484,202589.0,1.0
14942.8558838,294719.9375,295019.0,326254.21875,319261.59375,285130.3125,255557.703125,221432.3125,245364.40625,0.0146484375,0.98974609375,0.05859375,0.8239745497703552,-0.3662109076976776,-1.4648436307907104,73.33333587646484,202590.0,1.0
14942.855885,294689.78125,294689.15625,326018.53125,319252.65625,284972.25,255482.0625,221357.65625,245345.359375,0.015625,0.990478515625,0.05908203125,0.6713866591453552,-0.4577636420726776,-1.5258787870407104,73.33333587646484,202591.0,1.0
14942.8558862,294712.15625,294518.59375,325926.09375,319296.46875,284897.6875,255473.65625,221355.234375,245368.34375,0.01513671875,0.992431640625,0.057861328125,0.5493163466453552,-0.5493163466453552,-1.3427733182907104,73.33333587646484,202592.0,1.0
14942.8558874,294752.28125,294748.96875,326116.34375,319329.8125,285013.46875,255531.0625,221421.125,245388.28125,0.014404296875,0.992919921875,0.059814453125,0.3356933295726776,-0.6713866591453552,-1.3122557401657104,73.33333587646484,202593.0,1.0
14942.8558887,294758.5625,295050.46875,326311.6875,319308.53125,285152.5625,255585.0625,221465.65625,245383.984375,0.013671875,0.99365234375,0.0576171875,0.2441406100988388,-0.7934569716453552,-1.1596678495407104,73.33333587646484,202594.0,1.0
14942.8558899,294719.84375,295014.34375,326244.65625,319260.875,285118.5,255553.9375,221427.5625,245354.484375,0.014404296875,0.9931640625,0.056396484375,0.3662109076976776,-0.9460448622703552,-1.1291502714157104,73.33333587646484,202595.0,1.0
14942.8558911,294676.5625,294678.96875,325996.53125,319242.1875,284950.96875,255477.140625,221351.484375,245336.15625,0.01611328125,0.992919921875,0.053955078125,0.2441406100988388,-1.0070799589157104,-1.1291502714157104,73.33333587646484,202596.0,1.0
14942.8558923,294691.75,294512.0625,325910.53125,319283.875,284884.34375,255456.484375,221343.53125,245356.359375,0.017578125,0.9931640625,0.056640625,0.1220703050494194,-1.1596678495407104,-1.0681151151657104,73.33333587646484,202597.0,1.0
14942.8558935,294739.25,294748.09375,326108.46875,319320.34375,285011.21875,255524.171875,221414.25,245385.78125,0.018798828125,0.9931640625,0.05908203125,-0.03051757626235485,-1.2817381620407104,-1.0375975370407104,73.33333587646484,202598.0,1.0
14942.8558951,294745.3125,295047.34375,326304.09375,319295.84375,285148.5625,255584.515625,221459.125,245376.84375,0.018798828125,0.990478515625,0.060302734375,-0.0915527269244194,-1.2207030057907104,-0.8544921278953552,73.33333587646484,202599.0,1.0
14942.8573787,294713.03125,295008.53125,326242.9375,319255.15625,285120.75,255564.140625,221425.15625,245355.640625,0.01806640625,0.9873046875,0.05859375,-0.1831054538488388,-1.4343260526657104,-0.7629393935203552,73.33333587646484,202600.0,1.0
14942.8673752,294688.0,294688.625,326010.125,319251.6875,284967.59375,255503.25,221367.578125,245348.578125,0.017333984375,0.986572265625,0.058349609375,-0.0610351525247097,-1.4343260526657104,-0.7324218153953552,73.33333587646484,202601.0,1.0
14942.8698954,294694.8125,294515.0,325907.9375,319281.375,284886.5,255471.6875,221343.53125,245354.75,0.017333984375,0.988037109375,0.0595703125,-0.1831054538488388,-1.5869139432907104,-0.7324218153953552,73.33333587646484,202602.0,1.0
14942.8770585,294734.0625,294747.8125,326099.09375,319311.03125,285006.21875,255525.78125,221402.71875,245378.625,0.02001953125,0.990234375,0.05859375,-0.0610351525247097,-1.6174315214157104,-0.8239745497703552,73.33333587646484,202603.0,1.0
14942.8770638,294746.46875,295056.28125,326308.125,319296.375,285155.53125,255580.671875,221459.484375,245384.171875,0.01806640625,0.988037109375,0.06005859375,-0.1220703050494194,-1.6479490995407104,-0.9460448622703552,73.33333587646484,202604.0,1.0
14942.8770651,294713.21875,295023.5625,326254.46875,319255.625,285133.78125,255566.90625,221435.4375,245357.25,0.017578125,0.989013671875,0.060546875,-0.1831054538488388,-1.6479490995407104,-0.8850097060203552,73.33333587646484,202605.0,1.0
14942.8770663,294685.0625,294686.9375,326006.75,319249.1875,284969.46875,255503.15625,221366.40625,245344.5625,0.01904296875,0.989013671875,0.057373046875,-0.1525878757238388,-1.6479490995407104,-0.9155272841453552,73.33333587646484,202606.0,1.0
14942.8770675,294698.65625,294505.53125,325902.125,319286.28125,284889.4375,255482.953125,221353.53125,245359.84375,0.01953125,0.988037109375,0.05859375,-0.2441406100988388,-1.7089842557907104,-0.9155272841453552,73.33333587646484,202607.0,1.0
14942.8770688,294740.125,294750.15625,326100.25,319318.75,285013.28125,255545.09375,221422.296875,245382.015625,0.02294921875,0.987060546875,0.05908203125,-0.2441406100988388,-1.7089842557907104,-1.0375975370407104,73.33333587646484,202608.0,1.0
14942.87707,294748.96875,295053.15625,326306.96875,319302.28125,285158.75,255595.875,221466.28125,245378.890625,0.022705078125,0.988037109375,0.060546875,-0.1525878757238388,-1.7395018339157104,-1.0681151151657104,73.33333587646484,202609.0,1.0
14942.8786305,294716.625,295018.28125,326257.625,319263.5625,285137.09375,255569.328125,221430.78125,245358.234375,0.02294921875,0.98681640625,0.061279296875,-0.1831054538488388,-1.7395018339157104,-1.1291502714157104,73.33333587646484,202610.0,1.0
14942.8811522,294687.5625,294689.34375,326025.40625,319255.875,284979.9375,255502.265625,221364.265625,245345.984375,0.022705078125,0.98828125,0.064208984375,-0.0915527269244194,-1.6479490995407104,-1.2207030057907104,73.33333587646484,202611.0,1.0
14942.8835985,294696.84375,294504.1875,325919.125,319286.28125,284895.875,255462.484375,221342.625,245353.6875,0.022216796875,0.98828125,0.0625,0.0,-1.6784666776657104,-1.2207030057907104,73.33333587646484,202612.0,1.0
14942.8861497,294735.03125,294727.53125,326102.40625,319316.40625,285010.0625,255510.9375,221400.484375,245377.734375,0.022216796875,0.987548828125,0.061279296875,0.0,-1.7089842557907104,-1.1901854276657104,73.33333587646484,202613.0,1.0
14942.9111866,294740.65625,295023.71875,326281.21875,319291.03125,285133.875,255566.015625,221444.46875,245370.578125,0.022216796875,0.986083984375,0.060791015625,0.0610351525247097,-1.6784666776657104,-1.2512205839157104,73.33333587646484,202614.0,1.0
14942.9363017,294708.03125,294994.59375,326230.4375,319252.21875,285113.9375,255545.8125,221413.796875,245352.515625,0.02294921875,0.9873046875,0.061279296875,-0.03051757626235485,-1.6174315214157104,-1.3122557401657104,73.33333587646484,202615.0,1.0
14942.99747,294683.28125,294673.96875,326007.1875,319248.1875,284965.71875,255478.3125,221349.515625,245342.421875,0.0224609375,0.98779296875,0.0595703125,0.1525878757238388,-1.6174315214157104,-1.4648436307907104,73.33333587646484,202616.0,1.0
14943.0230613,294700.25,294496.0625,325907.03125,319285.21875,284886.75,255452.640625,221338.703125,245355.375,0.021728515625,0.98583984375,0.062744140625,0.2441406100988388,-1.5563963651657104,-1.5258787870407104,73.33333587646484,202617.0,1.0
14943.0230671,294738.78125,294726.375,326085.875,319321.15625,285000.9375,255511.5625,221403.6875,245381.9375,0.0224609375,0.9892578125,0.0634765625,0.2441406100988388,-1.5563963651657104,-1.4953612089157104,73.33333587646484,202618.0,1.0
14943.0493007,294740.03125,295031.25,326286.59375,319296.75,285140.875,255567.0,221447.234375,245372.453125,0.024169921875,0.99072265625,0.064208984375,0.1525878757238388,-1.5869139432907104,-1.4648436307907104,73.33333587646484,202619.0,1.0
14943.0493088,294740.03125,295031.25,326286.59375,319296.75,285140.875,255567.0,221447.234375,245372.453125,0.024169921875,0.99072265625,0.064208984375,0.1525878757238388,-1.5869139432907104,-1.4648436307907104,73.33333587646484,202620.0,0.0
14943.0493091,294740.03125,295031.25,326286.59375,319296.75,285140.875,255567.0,221447.234375,245372.453125,0.024169921875,0.99072265625,0.064208984375,0.1525878757238388,-1.5869139432907104,-1.4648436307907104,73.33333587646484,202621.0,0.0
14943.0493095,294740.03125,295031.25,326286.59375,319296.75,285140.875,255567.0,221447.234375,245372.453125,0.024169921875,0.99072265625,0.064208984375,0.1525878757238388,-1.5869139432907104,-1.4648436307907104,73.33333587646484,202622.0,0.0
14943.0493097,294740.03125,295031.25,326286.59375,319296.75,285140.875,255567.0,221447.234375,245372.453125,0.024169921875,0.99072265625,0.064208984375,0.1525878757238388,-1.5869139432907104,-1.4648436307907104,73.33333587646484,202623.0,0.0
14943.0493098,294740.03125,295031.25,326286.59375,319296.75,285140.875,255567.0,221447.234375,245372.453125,0.024169921875,0.99072265625,0.064208984375,0.1525878757238388,-1.5869139432907104,-1.4648436307907104,73.33333587646484,202624.0,0.0
14943.04931,294740.03125,295031.25,326286.59375,319296.75,285140.875,255567.0,221447.234375,245372.453125,0.024169921875,0.99072265625,0.064208984375,0.1525878757238388,-1.5869139432907104,-1.4648436307907104,73.33333587646484,202625.0,0.0
14943.0493102,294740.03125,295031.25,326286.59375,319296.75,285140.875,255567.0,221447.234375,245372.453125,0.024169921875,0.99072265625,0.064208984375,0.1525878757238388,-1.5869139432907104,-1.4648436307907104,73.33333587646484,202626.0,0.0
14943.0493104,294740.03125,295031.25,326286.59375,319296.75,285140.875,255567.0,221447.234375,245372.453125,0.024169921875,0.99072265625,0.064208984375,0.1525878757238388,-1.5869139432907104,-1.4648436307907104,73.33333587646484,202627.0,0.0
14943.0493105,294740.03125,295031.25,326286.59375,319296.75,285140.875,255567.0,221447.234375,245372.453125,0.024169921875,0.99072265625,0.064208984375,0.1525878757238388,-1.5869139432907104,-1.4648436307907104,73.33333587646484,202628.0,0.0
14943.0493107,294740.03125,295031.25,326286.59375,319296.75,285140.875,255567.0,221447.234375,245372.453125,0.024169921875,0.99072265625,0.064208984375,0.1525878757238388,-1.5869139432907104,-1.4648436307907104,73.33333587646484,202629.0,0.0
14943.0493109,294740.03125,295031.25,326286.59375,319296.75,285140.875,255567.0,221447.234375,245372.453125,0.024169921875,0.99072265625,0.064208984375,0.1525878757238388,-1.5869139432907104,-1.4648436307907104,73.33333587646484,202630.0,0.0
14943.0493111,294740.03125,295031.25,326286.59375,319296.75,285140.875,255567.0,221447.234375,245372.453125,0.024169921875,0.99072265625,0.064208984375,0.1525878757238388,-1.5869139432907104,-1.4648436307907104,73.33333587646484,202631.0,0.0
14943.0493112,294740.03125,295031.25,326286.59375,319296.75,285140.875,255567.0,221447.234375,245372.453125,0.024169921875,0.99072265625,0.064208984375,0.1525878757238388,-1.5869139432907104,-1.4648436307907104,73.33333587646484,202632.0,0.0
14943.0493114,294740.03125,295031.25,326286.59375,319296.75,285140.875,255567.0,221447.234375,245372.453125,0.024169921875,0.99072265625,0.064208984375,0.1525878757238388,-1.5869139432907104,-1.4648436307907104,73.33333587646484,202633.0,0.0
14943.0493116,294740.03125,295031.25,326286.59375,319296.75,285140.875,255567.0,221447.234375,245372.453125,0.024169921875,0.99072265625,0.064208984375,0.1525878757238388,-1.5869139432907104,-1.4648436307907104,73.33333587646484,202634.0,0.0
14943.0493118,294740.03125,295031.25,326286.59375,319296.75,285140.875,255567.0,221447.234375,245372.453125,0.024169921875,0.99072265625,0.064208984375,0.1525878757238388,-1.5869139432907104,-1.4648436307907104,73.33333587646484,202635.0,0.0
14943.0493119,294740.03125,295031.25,326286.59375,319296.75,285140.875,255567.0,221447.234375,245372.453125,0.024169921875,0.99072265625,0.064208984375,0.1525878757238388,-1.5869139432907104,-1.4648436307907104,73.33333587646484,202636.0,0.0
14943.0493121,294740.03125,295031.25,326286.59375,319296.75,285140.875,255567.0,221447.234375,245372.453125,0.024169921875,0.99072265625,0.064208984375,0.1525878757238388,-1.5869139432907104,-1.4648436307907104,73.33333587646484,202637.0,0.0
14943.0493123,294740.03125,295031.25,326286.59375,319296.75,285140.875,255567.0,221447.234375,245372.453125,0.024169921875,0.99072265625,0.064208984375,0.1525878757238388,-1.5869139432907104,-1.4648436307907104,73.33333587646484,202638.0,0.0
14943.0493125,294740.03125,295031.25,326286.59375,319296.75,285140.875,255567.0,221447.234375,245372.453125,0.024169921875,0.99072265625,0.064208984375,0.1525878757238388,-1.5869139432907104,-1.4648436307907104,73.33333587646484,202639.0,0.0
14943.0493126,294740.03125,295031.25,326286.59375,319296.75,285140.875,255567.0,221447.234375,245372.453125,0.024169921875,0.99072265625,0.064208984375,0.1525878757238388,-1.5869139432907104,-1.4648436307907104,73.33333587646484,202640.0,0.0
14943.0493128,294740.03125,295031.25,326286.59375,319296.75,285140.875,255567.0,221447.234375,245372.453125,0.024169921875,0.99072265625,0.064208984375,0.1525878757238388,-1.5869139432907104,-1.4648436307907104,73.33333587646484,202641.0,0.0
14943.049313,294740.03125,295031.25,326286.59375,319296.75,285140.875,255567.0,221447.234375,245372.453125,0.024169921875,0.99072265625,0.064208984375,0.1525878757238388,-1.5869139432907104,-1.4648436307907104,73.33333587646484,202642.0,0.0
14943.0493132,294740.03125,295031.25,326286.59375,319296.75,285140.875,255567.0,221447.234375,245372.453125,0.024169921875,0.99072265625,0.064208984375,0.1525878757238388,-1.5869139432907104,-1.4648436307907104,73.33333587646484,202643.0,0.0
14943.0493134,294740.03125,295031.25,326286.59375,319296.75,285140.875,255567.0,221447.234375,245372.453125,0.024169921875,0.99072265625,0.064208984375,0.1525878757238388,-1.5869139432907104,-1.4648436307907104,73.33333587646484,202644.0,0.0
14943.0493136,294740.03125,295031.25,326286.59375,319296.75,285140.875,255567.0,221447.234375,245372.453125,0.024169921875,0.99072265625,0.064208984375,0.1525878757238388,-1.5869139432907104,-1.4648436307907104,73.33333587646484,202645.0,0.0
14943.0493137,294740.03125,295031.25,326286.59375,319296.75,285140.875,255567.0,221447.234375,245372.453125,0.024169921875,0.99072265625,0.064208984375,0.1525878757238388,-1.5869139432907104,-1.4648436307907104,73.33333587646484,202646.0,0.0
14943.0493139,294740.03125,295031.25,326286.59375,319296.75,285140.875,255567.0,221447.234375,245372.453125,0.024169921875,0.99072265625,0.064208984375,0.1525878757238388,-1.5869139432907104,-1.4648436307907104,73.33333587646484,202647.0,0.0
14943.0493141,294740.03125,295031.25,326286.59375,319296.75,285140.875,255567.0,221447.234375,245372.453125,0.024169921875,0.99072265625,0.064208984375,0.1525878757238388,-1.5869139432907104,-1.4648436307907104,73.33333587646484,202648.0,0.0
14943.0493143,294740.03125,295031.25,326286.59375,319296.75,285140.875,255567.0,221447.234375,245372.453125,0.024169921875,0.99072265625,0.064208984375,0.1525878757238388,-1.5869139432907104,-1.4648436307907104,73.33333587646484,202649.0,0.0
14943.0493144,294740.03125,295031.25,326286.59375,319296.75,285140.875,255567.0,221447.234375,245372.453125,0.024169921875,0.99072265625,0.064208984375,0.1525878757238388,-1.5869139432907104,-1.4648436307907104,73.33333587646484,202650.0,0.0
14943.0493146,294740.03125,295031.25,326286.59375,319296.75,285140.875,255567.0,221447.234375,245372.453125,0.024169921875,0.99072265625,0.064208984375,0.1525878757238388,-1.5869139432907104,-1.4648436307907104,73.33333587646484,202651.0,0.0
14943.0493148,294740.03125,295031.25,326286.59375,319296.75,285140.875,255567.0,221447.234375,245372.453125,0.024169921875,0.99072265625,0.064208984375,0.1525878757238388,-1.5869139432907104,-1.4648436307907104,73.33333587646484,202652.0,0.0
14943.0493149,294740.03125,295031.25,326286.59375,319296.75,285140.875,255567.0,221447.234375,245372.453125,0.024169921875,0.99072265625,0.064208984375,0.1525878757238388,-1.5869139432907104,-1.4648436307907104,73.33333587646484,202653.0,0.0
14943.0493151,294740.03125,295031.25,326286.59375,319296.75,285140.875,255567.0,221447.234375,245372.453125,0.024169921875,0.99072265625,0.064208984375,0.1525878757238388,-1.5869139432907104,-1.4648436307907104,73.33333587646484,202654.0,0.0
14943.0493153,294740.03125,295031.25,326286.59375,319296.75,285140.875,255567.0,221447.234375,245372.453125,0.024169921875,0.99072265625,0.064208984375,0.1525878757238388,-1.5869139432907104,-1.4648436307907104,73.33333587646484,202655.0,0.0
14943.0493154,294740.03125,295031.25,326286.59375,319296.75,285140.875,255567.0,221447.234375,245372.453125,0.024169921875,0.99072265625,0.064208984375,0.1525878757238388,-1.5869139432907104,-1.4648436307907104,73.33333587646484,202656.0,0.0
14943.0493156,294740.03125,295031.25,326286.59375,319296.75,285140.875,255567.0,221447.234375,245372.453125,0.024169921875,0.99072265625,0.064208984375,0.1525878757238388,-1.5869139432907104,-1.4648436307907104,73.33333587646484,202657.0,0.0
14943.0493158,294740.03125,295031.25,326286.59375,319296.75,285140.875,255567.0,221447.234375,245372.453125,0.024169921875,0.99072265625,0.064208984375,0.1525878757238388,-1.5869139432907104,-1.4648436307907104,73.33333587646484,202658.0,0.0
14943.049316,294740.03125,295031.25,326286.59375,319296.75,285140.875,255567.0,221447.234375,245372.453125,0.024169921875,0.99072265625,0.064208984375,0.1525878757238388,-1.5869139432907104,-1.4648436307907104,73.33333587646484,202659.0,0.0
14943.0493162,294740.03125,295031.25,326286.59375,319296.75,285140.875,255567.0,221447.234375,245372.453125,0.024169921875,0.99072265625,0.064208984375,0.1525878757238388,-1.5869139432907104,-1.4648436307907104,73.33333587646484,202660.0,0.0
14943.0493163,294740.03125,295031.25,326286.59375,319296.75,285140.875,255567.0,221447.234375,245372.453125,0.024169921875,0.99072265625,0.064208984375,0.1525878757238388,-1.5869139432907104,-1.4648436307907104,73.33333587646484,202661.0,0.0
14943.0493165,294740.03125,295031.25,326286.59375,319296.75,285140.875,255567.0,221447.234375,245372.453125,0.024169921875,0.99072265625,0.064208984375,0.1525878757238388,-1.5869139432907104,-1.4648436307907104,73.33333587646484,202662.0,0.0
14943.0493167,294740.03125,295031.25,326286.59375,319296.75,285140.875,255567.0,221447.234375,245372.453125,0.024169921875,0.99072265625,0.064208984375,0.1525878757238388,-1.5869139432907104,-1.4648436307907104,73.33333587646484,202663.0,0.0
14943.0493169,294740.03125,295031.25,326286.59375,319296.75,285140.875,255567.0,221447.234375,245372.453125,0.024169921875,0.99072265625,0.064208984375,0.1525878757238388,-1.5869139432907104,-1.4648436307907104,73.33333587646484,202664.0,0.0
14943.0493171,294740.03125,295031.25,326286.59375,319296.75,285140.875,255567.0,221447.234375,245372.453125,0.024169921875,0.99072265625,0.064208984375,0.1525878757238388,-1.5869139432907104,-1.4648436307907104,73.33333587646484,202665.0,0.0
14943.0493172,294740.03125,295031.25,326286.59375,319296.75,285140.875,255567.0,221447.234375,245372.453125,0.024169921875,0.99072265625,0.064208984375,0.1525878757238388,-1.5869139432907104,-1.4648436307907104,73.33333587646484,202666.0,0.0
14943.0493174,294740.03125,295031.25,326286.59375,319296.75,285140.875,255567.0,221447.234375,245372.453125,0.024169921875,0.99072265625,0.064208984375,0.1525878757238388,-1.5869139432907104,-1.4648436307907104,73.33333587646484,202667.0,0.0
14943.0493176,294740.03125,295031.25,326286.59375,319296.75,285140.875,255567.0,221447.234375,245372.453125,0.024169921875,0.99072265625,0.064208984375,0.1525878757238388,-1.5869139432907104,-1.4648436307907104,73.33333587646484,202668.0,0.0
14943.0493178,294740.03125,295031.25,326286.59375,319296.75,285140.875,255567.0,221447.234375,245372.453125,0.024169921875,0.99072265625,0.064208984375,0.1525878757238388,-1.5869139432907104,-1.4648436307907104,73.33333587646484,202669.0,0.0
14943.0493179,294740.03125,295031.25,326286.59375,319296.75,285140.875,255567.0,221447.234375,245372.453125,0.024169921875,0.99072265625,0.064208984375,0.1525878757238388,-1.5869139432907104,-1.4648436307907104,73.33333587646484,202670.0,0.0
14943.0493181,294740.03125,295031.25,326286.59375,319296.75,285140.875,255567.0,221447.234375,245372.453125,0.024169921875,0.99072265625,0.064208984375,0.1525878757238388,-1.5869139432907104,-1.4648436307907104,73.33333587646484,202671.0,0.0
14943.0493183,294740.03125,295031.25,326286.59375,319296.75,285140.875,255567.0,221447.234375,245372.453125,0.024169921875,0.99072265625,0.064208984375,0.1525878757238388,-1.5869139432907104,-1.4648436307907104,73.33333587646484,202672.0,0.0
14943.0493184,294740.03125,295031.25,326286.59375,319296.75,285140.875,255567.0,221447.234375,245372.453125,0.024169921875,0.99072265625,0.064208984375,0.1525878757238388,-1.5869139432907104,-1.4648436307907104,73.33333587646484,202673.0,0.0
14943.0493186,294740.03125,295031.25,326286.59375,319296.75,285140.875,255567.0,221447.234375,245372.453125,0.024169921875,0.99072265625,0.064208984375,0.1525878757238388,-1.5869139432907104,-1.4648436307907104,73.33333587646484,202674.0,0.0
14943.0493188,294740.03125,295031.25,326286.59375,319296.75,285140.875,255567.0,221447.234375,245372.453125,0.024169921875,0.99072265625,0.064208984375,0.1525878757238388,-1.5869139432907104,-1.4648436307907104,73.33333587646484,202675.0,0.0
14943.049319,294740.03125,295031.25,326286.59375,319296.75,285140.875,255567.0,221447.234375,245372.453125,0.024169921875,0.99072265625,0.064208984375,0.1525878757238388,-1.5869139432907104,-1.4648436307907104,73.33333587646484,202676.0,0.0
14943.0493191,294726.09375,294531.53125,325916.0625,319294.78125,284908.59375,255478.03125,221352.46875,245352.875,0.021240234375,0.98974609375,0.064208984375,-0.0915527269244194,-1.6784666776657104,-0.9460448622703552,73.33333587646484,202677.0,1.0
14943.0493205,294766.6875,294757.9375,326094.71875,319329.03125,285020.0625,255528.90625,221417.109375,245380.140625,0.020751953125,0.9892578125,0.0615234375,-0.1525878757238388,-1.6784666776657104,-1.0070799589157104,73.33333587646484,202678.0,1.0
14943.0493217,294769.8125,295054.40625,326287.75,319309.4375,285157.9375,255588.546875,221471.203125,245381.9375,0.021484375,0.98828125,0.0615234375,-0.1831054538488388,-1.7089842557907104,-1.0070799589157104,73.33333587646484,202679.0,1.0
14943.0724416,294733.5,295026.40625,326245.09375,319270.1875,285144.34375,255581.125,221449.734375,245358.953125,0.022216796875,0.989990234375,0.062744140625,-0.0610351525247097,-1.7089842557907104,-1.1596678495407104,73.33333587646484,202680.0,1.0
14943.0766096,294701.875,294706.59375,326018.53125,319260.34375,284991.28125,255515.671875,221381.25,245342.765625,0.020263671875,0.989013671875,0.06396484375,-0.0915527269244194,-1.7089842557907104,-1.1291502714157104,73.33333587646484,202681.0,1.0
14943.0766149,294713.65625,294519.65625,325913.9375,319293.4375,284905.53125,255483.9375,221358.984375,245352.078125,0.020263671875,0.98974609375,0.064697265625,0.0,-1.6479490995407104,-1.0986326932907104,73.33333587646484,202682.0,1.0
14943.0766162,294754.625,294743.625,326101.96875,319326.96875,285021.9375,255530.078125,221413.890625,245373.078125,0.01953125,0.98876953125,0.066650390625,0.0610351525247097,-1.7089842557907104,-1.0986326932907104,73.33333587646484,202683.0,1.0
14943.0766177,294767.84375,295041.96875,326297.3125,319310.34375,285160.71875,255592.390625,221467.171875,245373.890625,0.01904296875,0.986083984375,0.067626953125,0.0,-1.7089842557907104,-1.1291502714157104,73.33333587646484,202684.0,1.0
14943.0792295,294743.34375,295023.90625,326256.71875,319275.5625,285148.0,255576.109375,221450.28125,245357.796875,0.018798828125,0.985595703125,0.0673828125,0.0610351525247097,-1.7395018339157104,-1.2207030057907104,73.33333587646484,202685.0,1.0
14943.0792338,294708.125,294705.4375,326033.125,319263.9375,284995.3125,255497.96875,221376.34375,245343.390625,0.018798828125,0.988037109375,0.064453125,0.0610351525247097,-1.6784666776657104,-1.2512205839157104,73.33333587646484,202686.0,1.0
14943.0811563,294715.625,294508.21875,325907.9375,319293.25,284893.28125,255465.609375,221345.140625,245346.34375,0.020263671875,0.987548828125,0.062255859375,0.1831054538488388,-1.7395018339157104,-1.2817381620407104,73.33333587646484,202687.0,1.0
14943.0836053,294753.90625,294729.59375,326074.3125,319325.1875,284998.78125,255523.8125,221404.140625,245366.546875,0.019775390625,0.98681640625,0.06396484375,0.1525878757238388,-1.8005369901657104,-1.1901854276657104,73.33333587646484,202688.0,1.0
14943.0861551,294760.4375,295041.34375,326275.21875,319305.6875,285144.4375,255577.1875,221459.65625,245366.640625,0.020751953125,0.987060546875,0.06298828125,0.1220703050494194,-1.8310545682907104,-1.1901854276657104,73.33333587646484,202689.0,1.0
14943.0886104,294729.40625,295022.84375,326233.1875,319265.28125,285130.3125,255563.875,221435.96875,245346.34375,0.020263671875,0.9873046875,0.0625,0.2746581733226776,-1.8005369901657104,-1.1291502714157104,73.33333587646484,202690.0,1.0
14943.1136814,294702.40625,294707.21875,326009.6875,319257.65625,284982.875,255506.734375,221372.765625,245334.1875,0.018798828125,0.989013671875,0.0634765625,0.3051757514476776,-1.8920897245407104,-1.1291502714157104,73.33333587646484,202691.0,1.0
14943.1386891,294726.1875,294538.34375,325923.40625,319303.09375,284914.21875,255491.890625,221365.875,245355.46875,0.0205078125,0.99072265625,0.064208984375,0.2746581733226776,-1.8615721464157104,-1.1291502714157104,73.33333587646484,202692.0,1.0
14943.1637034,294762.3125,294759.53125,326109.65625,319330.71875,285027.125,255541.875,221423.8125,245375.578125,0.02099609375,0.9892578125,0.06298828125,0.2441406100988388,-1.8005369901657104,-1.0375975370407104,73.33333587646484,202693.0,1.0
14943.1779545,294772.40625,295063.0625,326308.84375,319311.125,285168.125,255599.1875,221471.90625,245379.515625,0.021728515625,0.98974609375,0.0654296875,0.2441406100988388,-1.8310545682907104,-0.9155272841453552,73.33333587646484,202694.0,1.0
14943.1779598,294748.28125,295048.9375,326272.71875,319278.15625,285160.4375,255593.015625,221458.0625,245363.0625,0.021728515625,0.990234375,0.0625,0.3051757514476776,-1.8005369901657104,-0.9765624403953552,73.33333587646484,202695.0,1.0
14943.1779611,294715.53125,294720.90625,326035.625,319264.09375,284999.5,255521.484375,221382.328125,245342.234375,0.0205078125,0.9931640625,0.061279296875,0.2746581733226776,-1.8615721464157104,-0.9155272841453552,73.33333587646484,202696.0,1.0
14943.1779623,294723.6875,294524.5625,325912.40625,319290.40625,284902.15625,255485.8125,221355.421875,245350.109375,0.021240234375,0.99072265625,0.059326171875,0.2746581733226776,-1.8615721464157104,-0.7934569716453552,73.33333587646484,202697.0,1.0
14943.1779636,294757.5625,294733.15625,326071.1875,319314.90625,284997.8125,255539.375,221408.25,245367.53125,0.020751953125,0.989013671875,0.060546875,0.3356933295726776,-1.8005369901657104,-0.7629393935203552,73.33333587646484,202698.0,1.0
14943.1779648,294772.6875,295052.53125,326284.15625,319305.6875,285151.40625,255603.5625,221468.78125,245372.984375,0.02001953125,0.98681640625,0.0625,0.3051757514476776,-1.8615721464157104,-0.7324218153953552,73.33333587646484,202699.0,1.0
14943.1779661,294737.4375,295031.59375,326246.0625,319263.9375,285141.3125,255577.640625,221439.71875,245348.3125,0.019287109375,0.9833984375,0.065185546875,0.3662109076976776,-1.7700194120407104,-0.7934569716453552,73.33333587646484,202700.0,1.0
14943.1779673,294707.21875,294705.71875,326014.875,319255.0625,284987.71875,255513.359375,221372.9375,245338.921875,0.0205078125,0.983642578125,0.064208984375,0.4272460639476776,-1.6784666776657104,-0.8544921278953552,73.33333587646484,202701.0,1.0
14943.1779687,294722.6875,294526.625,325912.0625,319294.0625,284908.21875,255496.359375,221360.78125,245355.203125,0.021240234375,0.987548828125,0.064697265625,0.4577636420726776,-1.7089842557907104,-0.9460448622703552,73.33333587646484,202702.0,1.0
14943.1798986,294758.09375,294749.78125,326092.5625,319322.03125,285017.84375,255549.921875,221417.375,245371.5625,0.019287109375,0.98828125,0.061279296875,0.4577636420726776,-1.6784666776657104,-0.9765624403953552,73.33333587646484,202703.0,1.0
14943.1882875,294764.90625,295055.46875,326293.09375,319303.09375,285161.34375,255603.828125,221471.828125,245372.8125,0.01904296875,0.98583984375,0.061279296875,0.4272460639476776,-1.7089842557907104,-0.8850097060203552,73.33333587646484,202704.0,1.0
14943.1882927,294730.84375,295031.0625,326246.0,319264.03125,285144.71875,255575.140625,221438.46875,245352.34375,0.019287109375,0.98876953125,0.063232421875,0.4272460639476776,-1.6479490995407104,-1.0681151151657104,73.33333587646484,202705.0,1.0
14943.188294,294698.46875,294691.5,326000.125,319252.21875,284979.75,255493.859375,221359.34375,245339.46875,0.01806640625,0.989990234375,0.063232421875,0.4272460639476776,-1.6174315214157104,-1.2512205839157104,73.33333587646484,202706.0,1.0
14943.1882952,294712.0625,294509.0,325899.71875,319288.59375,284901.6875,255471.421875,221347.1875,245349.484375,0.0185546875,0.991943359375,0.061767578125,0.4577636420726776,-1.6784666776657104,-1.3732908964157104,73.33333587646484,202707.0,1.0
14943.1882965,294754.34375,294742.46875,326095.0625,319324.90625,285024.4375,255534.1875,221414.78125,245371.46875,0.018798828125,0.991943359375,0.064453125,0.3662109076976776,-1.6479490995407104,-1.4648436307907104,73.33333587646484,202708.0,1.0
14943.1882977,294767.9375,295051.96875,326301.59375,319312.03125,285172.34375,255601.6875,221472.1875,245376.75,0.01953125,0.992431640625,0.063720703125,0.3356933295726776,-1.6479490995407104,-1.4953612089157104,73.33333587646484,202709.0,1.0
14943.1882989,294738.875,295029.0,326253.5,319271.25,285152.21875,255586.484375,221442.671875,245353.140625,0.0224609375,0.9921875,0.061279296875,0.3356933295726776,-1.6784666776657104,-1.5563963651657104,73.33333587646484,202710.0,1.0
14943.1905029,294702.84375,294698.09375,326015.40625,319257.3125,284989.21875,255510.671875,221371.59375,245335.53125,0.020751953125,0.992919921875,0.064208984375,0.4577636420726776,-1.6479490995407104,-1.4953612089157104,73.33333587646484,202711.0,1.0
14943.1905086,294713.5625,294513.21875,325905.25,319291.03125,284901.6875,255479.375,221355.421875,245348.140625,0.021484375,0.99365234375,0.062744140625,0.3356933295726776,-1.7089842557907104,-1.5563963651657104,73.33333587646484,202712.0,1.0
14943.1924178,294753.28125,294741.375,326089.53125,319324.8125,285018.625,255538.390625,221418.359375,245372.359375,0.021240234375,0.99365234375,0.06298828125,0.2441406100988388,-1.6784666776657104,-1.4648436307907104,73.33333587646484,202713.0,1.0
14943.1949323,294767.5625,295055.375,326293.5625,319313.09375,285165.34375,255598.109375,221469.953125,245377.109375,0.021240234375,0.9931640625,0.062744140625,0.2136230319738388,-1.6479490995407104,-1.4648436307907104,73.33333587646484,202714.0,1.0
14943.2199539,294739.875,295034.46875,326247.78125,319272.59375,285150.34375,255582.828125,221445.984375,245360.125,0.020751953125,0.99267578125,0.06640625,0.2136230319738388,-1.5563963651657104,-1.4953612089157104,73.33333587646484,202715.0,1.0
14943.2466118,294714.5625,294716.4375,326022.03125,319266.625,284999.78125,255520.78125,221379.375,245348.578125,0.019287109375,0.9921875,0.068603515625,0.0610351525247097,-1.5563963651657104,-1.4648436307907104,73.33333587646484,202716.0,1.0
14943.2466307,294714.5625,294716.4375,326022.03125,319266.625,284999.78125,255520.78125,221379.375,245348.578125,0.019287109375,0.9921875,0.068603515625,0.0610351525247097,-1.5563963651657104,-1.4648436307907104,73.33333587646484,202717.0,0.0
14943.2466309,294714.5625,294716.4375,326022.03125,319266.625,284999.78125,255520.78125,221379.375,245348.578125,0.019287109375,0.9921875,0.068603515625,0.0610351525247097,-1.5563963651657104,-1.4648436307907104,73.33333587646484,202718.0,0.0
14943.2466311,294714.5625,294716.4375,326022.03125,319266.625,284999.78125,255520.78125,221379.375,245348.578125,0.019287109375,0.9921875,0.068603515625,0.0610351525247097,-1.5563963651657104,-1.4648436307907104,73.33333587646484,202719.0,0.0
14943.2466313,294714.5625,294716.4375,326022.03125,319266.625,284999.78125,255520.78125,221379.375,245348.578125,0.019287109375,0.9921875,0.068603515625,0.0610351525247097,-1.5563963651657104,-1.4648436307907104,73.33333587646484,202720.0,0.0
14943.2466315,294714.5625,294716.4375,326022.03125,319266.625,284999.78125,255520.78125,221379.375,245348.578125,0.019287109375,0.9921875,0.068603515625,0.0610351525247097,-1.5563963651657104,-1.4648436307907104,73.33333587646484,202721.0,0.0
14943.2466317,294714.5625,294716.4375,326022.03125,319266.625,284999.78125,255520.78125,221379.375,245348.578125,0.019287109375,0.9921875,0.068603515625,0.0610351525247097,-1.5563963651657104,-1.4648436307907104,73.33333587646484,202722.0,0.0
14943.2466319,294714.5625,294716.4375,326022.03125,319266.625,284999.78125,255520.78125,221379.375,245348.578125,0.019287109375,0.9921875,0.068603515625,0.0610351525247097,-1.5563963651657104,-1.4648436307907104,73.33333587646484,202723.0,0.0
14943.2466321,294714.5625,294716.4375,326022.03125,319266.625,284999.78125,255520.78125,221379.375,245348.578125,0.019287109375,0.9921875,0.068603515625,0.0610351525247097,-1.5563963651657104,-1.4648436307907104,73.33333587646484,202724.0,0.0
14943.2466322,294714.5625,294716.4375,326022.03125,319266.625,284999.78125,255520.78125,221379.375,245348.578125,0.019287109375,0.9921875,0.068603515625,0.0610351525247097,-1.5563963651657104,-1.4648436307907104,73.33333587646484,202725.0,0.0
14943.2466324,294714.5625,294716.4375,326022.03125,319266.625,284999.78125,255520.78125,221379.375,245348.578125,0.019287109375,0.9921875,0.068603515625,0.0610351525247097,-1.5563963651657104,-1.4648436307907104,73.33333587646484,202726.0,0.0
14943.2466326,294714.5625,294716.4375,326022.03125,319266.625,284999.78125,255520.78125,221379.375,245348.578125,0.019287109375,0.9921875,0.068603515625,0.0610351525247097,-1.5563963651657104,-1.4648436307907104,73.33333587646484,202727.0,0.0
14943.2466328,294714.5625,294716.4375,326022.03125,319266.625,284999.78125,255520.78125,221379.375,245348.578125,0.019287109375,0.9921875,0.068603515625,0.0610351525247097,-1.5563963651657104,-1.4648436307907104,73.33333587646484,202728.0,0.0
14943.246633,294714.5625,294716.4375,326022.03125,319266.625,284999.78125,255520.78125,221379.375,245348.578125,0.019287109375,0.9921875,0.068603515625,0.0610351525247097,-1.5563963651657104,-1.4648436307907104,73.33333587646484,202729.0,0.0
14943.2466332,294714.5625,294716.4375,326022.03125,319266.625,284999.78125,255520.78125,221379.375,245348.578125,0.019287109375,0.9921875,0.068603515625,0.0610351525247097,-1.5563963651657104,-1.4648436307907104,73.33333587646484,202730.0,0.0
14943.2466333,294714.5625,294716.4375,326022.03125,319266.625,284999.78125,255520.78125,221379.375,245348.578125,0.019287109375,0.9921875,0.068603515625,0.0610351525247097,-1.5563963651657104,-1.4648436307907104,73.33333587646484,202731.0,0.0
14943.2466336,294714.5625,294716.4375,326022.03125,319266.625,284999.78125,255520.78125,221379.375,245348.578125,0.019287109375,0.9921875,0.068603515625,0.0610351525247097,-1.5563963651657104,-1.4648436307907104,73.33333587646484,202732.0,0.0
14943.2466338,294714.5625,294716.4375,326022.03125,319266.625,284999.78125,255520.78125,221379.375,245348.578125,0.019287109375,0.9921875,0.068603515625,0.0610351525247097,-1.5563963651657104,-1.4648436307907104,73.33333587646484,202733.0,0.0
14943.2466339,294714.5625,294716.4375,326022.03125,319266.625,284999.78125,255520.78125,221379.375,245348.578125,0.019287109375,0.9921875,0.068603515625,0.0610351525247097,-1.5563963651657104,-1.4648436307907104,73.33333587646484,202734.0,0.0
14943.2466341,294714.5625,294716.4375,326022.03125,319266.625,284999.78125,255520.78125,221379.375,245348.578125,0.019287109375,0.9921875,0.068603515625,0.0610351525247097,-1.5563963651657104,-1.4648436307907104,73.33333587646484,202735.0,0.0
14943.2466343,294714.5625,294716.4375,326022.03125,319266.625,284999.78125,255520.78125,221379.375,245348.578125,0.019287109375,0.9921875,0.068603515625,0.0610351525247097,-1.5563963651657104,-1.4648436307907104,73.33333587646484,202736.0,0.0
14943.2466344,294714.5625,294716.4375,326022.03125,319266.625,284999.78125,255520.78125,221379.375,245348.578125,0.019287109375,0.9921875,0.068603515625,0.0610351525247097,-1.5563963651657104,-1.4648436307907104,73.33333587646484,202737.0,0.0
14943.2466346,294714.5625,294716.4375,326022.03125,319266.625,284999.78125,255520.78125,221379.375,245348.578125,0.019287109375,0.9921875,0.068603515625,0.0610351525247097,-1.5563963651657104,-1.4648436307907104,73.33333587646484,202738.0,0.0
14943.2466349,294714.5625,294716.4375,326022.03125,319266.625,284999.78125,255520.78125,221379.375,245348.578125,0.019287109375,0.9921875,0.068603515625,0.0610351525247097,-1.5563963651657104,-1.4648436307907104,73.33333587646484,202739.0,0.0
14943.2466351,294714.5625,294716.4375,326022.03125,319266.625,284999.78125,255520.78125,221379.375,245348.578125,0.019287109375,0.9921875,0.068603515625,0.0610351525247097,-1.5563963651657104,-1.4648436307907104,73.33333587646484,202740.0,0.0
14943.2466353,294714.5625,294716.4375,326022.03125,319266.625,284999.78125,255520.78125,221379.375,245348.578125,0.019287109375,0.9921875,0.068603515625,0.0610351525247097,-1.5563963651657104,-1.4648436307907104,73.33333587646484,202741.0,0.0
14943.2466354,294714.5625,294716.4375,326022.03125,319266.625,284999.78125,255520.78125,221379.375,245348.578125,0.019287109375,0.9921875,0.068603515625,0.0610351525247097,-1.5563963651657104,-1.4648436307907104,73.33333587646484,202742.0,0.0
14943.2466356,294714.5625,294716.4375,326022.03125,319266.625,284999.78125,255520.78125,221379.375,245348.578125,0.019287109375,0.9921875,0.068603515625,0.0610351525247097,-1.5563963651657104,-1.4648436307907104,73.33333587646484,202743.0,0.0
14943.2466358,294714.5625,294716.4375,326022.03125,319266.625,284999.78125,255520.78125,221379.375,245348.578125,0.019287109375,0.9921875,0.068603515625,0.0610351525247097,-1.5563963651657104,-1.4648436307907104,73.33333587646484,202744.0,0.0
14943.246636,294714.5625,294716.4375,326022.03125,319266.625,284999.78125,255520.78125,221379.375,245348.578125,0.019287109375,0.9921875,0.068603515625,0.0610351525247097,-1.5563963651657104,-1.4648436307907104,73.33333587646484,202745.0,0.0
14943.2466361,294714.5625,294716.4375,326022.03125,319266.625,284999.78125,255520.78125,221379.375,245348.578125,0.019287109375,0.9921875,0.068603515625,0.0610351525247097,-1.5563963651657104,-1.4648436307907104,73.33333587646484,202746.0,0.0
14943.2466364,294714.5625,294716.4375,326022.03125,319266.625,284999.78125,255520.78125,221379.375,245348.578125,0.019287109375,0.9921875,0.068603515625,0.0610351525247097,-1.5563963651657104,-1.4648436307907104,73.33333587646484,202747.0,0.0
14943.2466366,294714.5625,294716.4375,326022.03125,319266.625,284999.78125,255520.78125,221379.375,245348.578125,0.019287109375,0.9921875,0.068603515625,0.0610351525247097,-1.5563963651657104,-1.4648436307907104,73.33333587646484,202748.0,0.0
14943.2466367,294714.5625,294716.4375,326022.03125,319266.625,284999.78125,255520.78125,221379.375,245348.578125,0.019287109375,0.9921875,0.068603515625,0.0610351525247097,-1.5563963651657104,-1.4648436307907104,73.33333587646484,202749.0,0.0
14943.2466369,294789.03125,295062.625,326275.03125,319298.09375,285174.5625,255582.375,221449.109375,245361.90625,0.018310546875,0.991455078125,0.0576171875,1.1596678495407104,-0.8544921278953552,-1.2207030057907104,73.33333587646484,202750.0,1.0
14943.2466382,294753.71875,294730.75,326031.3125,319285.375,285010.3125,255515.859375,221379.015625,245346.53125,0.018798828125,0.992919921875,0.060302734375,1.2207030057907104,-0.7934569716453552,-1.2512205839157104,73.33333587646484,202751.0,1.0
14943.2466395,294774.65625,294569.71875,325942.8125,319328.125,284940.59375,255509.421875,221375.625,245362.796875,0.016357421875,0.993896484375,0.063720703125,1.1901854276657104,-1.0070799589157104,-1.4953612089157104,73.33333587646484,202752.0,1.0
14943.3203213,294810.21875,294787.875,326123.84375,319359.40625,285052.625,255557.15625,221435.078125,245385.328125,0.0166015625,0.99658203125,0.061767578125,0.9765624403953552,-1.1291502714157104,-1.4038084745407104,73.33333587646484,202753.0,1.0
14943.3203332,294813.8125,295089.71875,326322.875,319336.96875,285194.875,255609.28125,221485.234375,245384.96875,0.016845703125,0.9931640625,0.06298828125,0.8850097060203552,-1.1901854276657104,-1.3427733182907104,73.33333587646484,202754.0,1.0
14943.3203347,294783.125,295073.09375,326284.625,319298.34375,285185.5625,255600.171875,221466.546875,245367.453125,0.016845703125,0.989990234375,0.0615234375,0.7324218153953552,-1.2817381620407104,-1.2207030057907104,73.33333587646484,202755.0,1.0
14943.320336,294751.65625,294749.53125,326052.4375,319288.6875,285032.0625,255533.921875,221398.0625,245356.546875,0.018798828125,0.988037109375,0.06103515625,0.8239745497703552,-1.3427733182907104,-1.2512205839157104,73.33333587646484,202756.0,1.0
14943.3203374,294757.21875,294548.875,325928.3125,319316.9375,284936.125,255504.765625,221374.640625,245360.125,0.019775390625,0.988037109375,0.060546875,0.9460448622703552,-1.3732908964157104,-1.1901854276657104,73.33333587646484,202757.0,1.0
14943.3203387,294798.34375,294782.25,326111.15625,319349.59375,285049.5,255562.53125,221437.484375,245379.515625,0.0205078125,0.990966796875,0.061767578125,0.9155272841453552,-1.3732908964157104,-1.0681151151657104,73.33333587646484,202758.0,1.0
14943.3446858,294811.375,295095.0,326323.59375,319336.53125,285199.78125,255617.78125,221486.9375,245383.453125,0.019775390625,0.9931640625,0.05859375,0.8544921278953552,-1.3732908964157104,-1.0070799589157104,73.33333587646484,202759.0,1.0
14943.3461543,294811.375,295095.0,326323.59375,319336.53125,285199.78125,255617.78125,221486.9375,245383.453125,0.019775390625,0.9931640625,0.05859375,0.8544921278953552,-1.3732908964157104,-1.0070799589157104,73.33333587646484,202760.0,0.0
14943.3461549,294811.375,295095.0,326323.59375,319336.53125,285199.78125,255617.78125,221486.9375,245383.453125,0.019775390625,0.9931640625,0.05859375,0.8544921278953552,-1.3732908964157104,-1.0070799589157104,73.33333587646484,202761.0,0.0
14943.3461551,294811.375,295095.0,326323.59375,319336.53125,285199.78125,255617.78125,221486.9375,245383.453125,0.019775390625,0.9931640625,0.05859375,0.8544921278953552,-1.3732908964157104,-1.0070799589157104,73.33333587646484,202762.0,0.0
14943.3461553,294811.375,295095.0,326323.59375,319336.53125,285199.78125,255617.78125,221486.9375,245383.453125,0.019775390625,0.9931640625,0.05859375,0.8544921278953552,-1.3732908964157104,-1.0070799589157104,73.33333587646484,202763.0,0.0
14943.3461555,294811.375,295095.0,326323.59375,319336.53125,285199.78125,255617.78125,221486.9375,245383.453125,0.019775390625,0.9931640625,0.05859375,0.8544921278953552,-1.3732908964157104,-1.0070799589157104,73.33333587646484,202764.0,0.0
14943.3461557,294811.375,295095.0,326323.59375,319336.53125,285199.78125,255617.78125,221486.9375,245383.453125,0.019775390625,0.9931640625,0.05859375,0.8544921278953552,-1.3732908964157104,-1.0070799589157104,73.33333587646484,202765.0,0.0
14943.3461559,294811.375,295095.0,326323.59375,319336.53125,285199.78125,255617.78125,221486.9375,245383.453125,0.019775390625,0.9931640625,0.05859375,0.8544921278953552,-1.3732908964157104,-1.0070799589157104,73.33333587646484,202766.0,0.0
14943.3461561,294811.375,295095.0,326323.59375,319336.53125,285199.78125,255617.78125,221486.9375,245383.453125,0.019775390625,0.9931640625,0.05859375,0.8544921278953552,-1.3732908964157104,-1.0070799589157104,73.33333587646484,202767.0,0.0
14943.3461563,294811.375,295095.0,326323.59375,319336.53125,285199.78125,255617.78125,221486.9375,245383.453125,0.019775390625,0.9931640625,0.05859375,0.8544921278953552,-1.3732908964157104,-1.0070799589157104,73.33333587646484,202768.0,0.0
14943.3461565,294811.375,295095.0,326323.59375,319336.53125,285199.78125,255617.78125,221486.9375,245383.453125,0.019775390625,0.9931640625,0.05859375,0.8544921278953552,-1.3732908964157104,-1.0070799589157104,73.33333587646484,202769.0,0.0
14943.3461567,294766.6875,295072.375,326272.53125,319284.21875,285185.46875,255616.703125,221458.953125,245358.78125,0.015869140625,0.992431640625,0.0595703125,0.3662109076976776,-1.9226073026657104,-0.9765624403953552,73.33333587646484,202770.0,1.0
14943.3945524,294733.875,294750.3125,326043.21875,319273.40625,285029.5625,255532.578125,221383.3125,245341.875,0.0166015625,0.99267578125,0.060791015625,0.2441406100988388,-2.044677495956421,-1.0681151151657104,73.33333587646484,202771.0,1.0
14943.3945657,294747.375,294566.0625,325945.75,319313.8125,284950.96875,255502.265625,221367.03125,245360.828125,0.01806640625,0.9921875,0.06201171875,0.1220703050494194,-2.105712652206421,-1.1596678495407104,73.33333587646484,202772.0,1.0
14943.394567,294772.9375,294765.0625,326104.90625,319334.75,285044.375,255545.71875,221415.5,245373.796875,0.019287109375,0.990966796875,0.059326171875,0.0915527269244194,-2.136230230331421,-1.2207030057907104,73.33333587646484,202773.0,1.0
14943.3945682,294789.21875,295071.46875,326298.03125,319322.5,285187.09375,255612.328125,221476.5625,245379.34375,0.01904296875,0.989990234375,0.0595703125,0.0610351525247097,-2.166747808456421,-1.2207030057907104,73.33333587646484,202774.0,1.0
14943.3945694,294760.15625,295055.03125,326257.78125,319287.4375,285177.0625,255607.234375,221461.984375,245362.625,0.01904296875,0.99169921875,0.058349609375,0.0610351525247097,-2.258300542831421,-1.2207030057907104,73.33333587646484,202775.0,1.0
14943.3961421,294728.6875,294730.375,326030.875,319276.4375,285022.125,255531.40625,221383.671875,245344.828125,0.01806640625,0.991455078125,0.05859375,0.0610351525247097,-2.288818120956421,-1.3122557401657104,73.33333587646484,202776.0,1.0
14943.3986536,294742.46875,294549.15625,325935.46875,319309.96875,284944.34375,255502.0,221363.546875,245353.046875,0.02001953125,0.99072265625,0.057861328125,0.0610351525247097,-2.136230230331421,-1.3122557401657104,73.33333587646484,202777.0,1.0
14943.4236819,294779.5625,294773.125,326118.3125,319338.40625,285058.875,255553.765625,221424.96875,245373.265625,0.02001953125,0.990478515625,0.0556640625,-0.03051757626235485,-2.044677495956421,-1.2817381620407104,73.33333587646484,202778.0,1.0
14943.4486915,294784.9375,295071.90625,326312.78125,319317.46875,285196.125,255600.796875,221471.734375,245369.140625,0.019287109375,0.989013671875,0.05615234375,-0.0610351525247097,-2.014159917831421,-1.2817381620407104,73.33333587646484,202779.0,1.0
14943.4736806,294749.34375,295040.0,326258.0625,319275.71875,285172.96875,255587.5625,221443.296875,245347.78125,0.02197265625,0.989013671875,0.057373046875,0.03051757626235485,-2.014159917831421,-1.2207030057907104,73.33333587646484,202780.0,1.0
14943.5457941,294724.46875,294709.46875,326011.21875,319269.84375,285009.0,255522.390625,221376.515625,245339.109375,0.02197265625,0.989501953125,0.05859375,0.0,-2.044677495956421,-1.1901854276657104,73.33333587646484,202781.0,1.0
14943.5458025,294743.15625,294535.75,325908.46875,319305.15625,284930.75,255507.1875,221368.828125,245354.21875,0.020263671875,0.990478515625,0.055419921875,0.03051757626235485,-1.9531248807907104,-1.0986326932907104,73.33333587646484,202782.0,1.0
14943.5458038,294784.75,294773.3125,326108.21875,319340.09375,285060.40625,255561.90625,221434.359375,245384.4375,0.018798828125,0.9921875,0.058349609375,-0.0610351525247097,-1.8920897245407104,-1.0681151151657104,73.33333587646484,202783.0,1.0
14943.5458051,294795.21875,295084.71875,326317.4375,319321.96875,285207.46875,255611.25,221481.21875,245380.59375,0.018310546875,0.989990234375,0.056884765625,-0.03051757626235485,-1.9226073026657104,-0.9765624403953552,73.33333587646484,202784.0,1.0
14943.5458063,294762.21875,295064.15625,326273.15625,319280.03125,285189.40625,255598.921875,221453.671875,245353.859375,0.017822265625,0.98974609375,0.056884765625,-0.1525878757238388,-1.8615721464157104,-1.1596678495407104,73.33333587646484,202785.0,1.0
14943.5458075,294732.875,294741.1875,326039.09375,319270.375,285033.5625,255533.921875,221386.265625,245339.828125,0.018798828125,0.98876953125,0.058837890625,-0.0915527269244194,-1.7700194120407104,-0.9765624403953552,73.33333587646484,202786.0,1.0
14943.5458088,294748.71875,294554.25,325929.65625,319307.125,284949.0,255507.359375,221370.4375,245354.578125,0.0185546875,0.988037109375,0.05859375,-0.0915527269244194,-1.6784666776657104,-1.0375975370407104,73.33333587646484,202787.0,1.0
14943.5707776,294790.71875,294779.8125,326120.375,319341.90625,285068.8125,255565.390625,221436.6875,245377.375,0.017822265625,0.986572265625,0.0576171875,-0.0610351525247097,-1.6784666776657104,-1.0681151151657104,73.33333587646484,202788.0,1.0
14943.5707855,294790.71875,294779.8125,326120.375,319341.90625,285068.8125,255565.390625,221436.6875,245377.375,0.017822265625,0.986572265625,0.0576171875,-0.0610351525247097,-1.6784666776657104,-1.0681151151657104,73.33333587646484,202789.0,0.0
14943.5707857,294790.71875,294779.8125,326120.375,319341.90625,285068.8125,255565.390625,221436.6875,245377.375,0.017822265625,0.986572265625,0.0576171875,-0.0610351525247097,-1.6784666776657104,-1.0681151151657104,73.33333587646484,202790.0,0.0
14943.570786,294790.71875,294779.8125,326120.375,319341.90625,285068.8125,255565.390625,221436.6875,245377.375,0.017822265625,0.986572265625,0.0576171875,-0.0610351525247097,-1.6784666776657104,-1.0681151151657104,73.33333587646484,202791.0,0.0
14943.5707862,294790.71875,294779.8125,326120.375,319341.90625,285068.8125,255565.390625,221436.6875,245377.375,0.017822265625,0.986572265625,0.0576171875,-0.0610351525247097,-1.6784666776657104,-1.0681151151657104,73.33333587646484,202792.0,0.0
14943.5707863,294790.71875,294779.8125,326120.375,319341.90625,285068.8125,255565.390625,221436.6875,245377.375,0.017822265625,0.986572265625,0.0576171875,-0.0610351525247097,-1.6784666776657104,-1.0681151151657104,73.33333587646484,202793.0,0.0
14943.5707865,294790.71875,294779.8125,326120.375,319341.90625,285068.8125,255565.390625,221436.6875,245377.375,0.017822265625,0.986572265625,0.0576171875,-0.0610351525247097,-1.6784666776657104,-1.0681151151657104,73.33333587646484,202794.0,0.0
14943.5707867,294790.71875,294779.8125,326120.375,319341.90625,285068.8125,255565.390625,221436.6875,245377.375,0.017822265625,0.986572265625,0.0576171875,-0.0610351525247097,-1.6784666776657104,-1.0681151151657104,73.33333587646484,202795.0,0.0
14943.5707869,294790.71875,294779.8125,326120.375,319341.90625,285068.8125,255565.390625,221436.6875,245377.375,0.017822265625,0.986572265625,0.0576171875,-0.0610351525247097,-1.6784666776657104,-1.0681151151657104,73.33333587646484,202796.0,0.0
14943.570787,294790.71875,294779.8125,326120.375,319341.90625,285068.8125,255565.390625,221436.6875,245377.375,0.017822265625,0.986572265625,0.0576171875,-0.0610351525247097,-1.6784666776657104,-1.0681151151657104,73.33333587646484,202797.0,0.0
14943.5707872,294790.71875,294779.8125,326120.375,319341.90625,285068.8125,255565.390625,221436.6875,245377.375,0.017822265625,0.986572265625,0.0576171875,-0.0610351525247097,-1.6784666776657104,-1.0681151151657104,73.33333587646484,202798.0,0.0
14943.5707874,294790.71875,294779.8125,326120.375,319341.90625,285068.8125,255565.390625,221436.6875,245377.375,0.017822265625,0.986572265625,0.0576171875,-0.0610351525247097,-1.6784666776657104,-1.0681151151657104,73.33333587646484,202799.0,0.0
14943.5707876,294790.71875,294779.8125,326120.375,319341.90625,285068.8125,255565.390625,221436.6875,245377.375,0.017822265625,0.986572265625,0.0576171875,-0.0610351525247097,-1.6784666776657104,-1.0681151151657104,73.33333587646484,202800.0,0.0
14943.5707877,294790.71875,294779.8125,326120.375,319341.90625,285068.8125,255565.390625,221436.6875,245377.375,0.017822265625,0.986572265625,0.0576171875,-0.0610351525247097,-1.6784666776657104,-1.0681151151657104,73.33333587646484,202801.0,0.0
14943.5707879,294790.71875,294779.8125,326120.375,319341.90625,285068.8125,255565.390625,221436.6875,245377.375,0.017822265625,0.986572265625,0.0576171875,-0.0610351525247097,-1.6784666776657104,-1.0681151151657104,73.33333587646484,202802.0,0.0
14943.5707881,294790.71875,294779.8125,326120.375,319341.90625,285068.8125,255565.390625,221436.6875,245377.375,0.017822265625,0.986572265625,0.0576171875,-0.0610351525247097,-1.6784666776657104,-1.0681151151657104,73.33333587646484,202803.0,0.0
14943.5707883,294790.71875,294779.8125,326120.375,319341.90625,285068.8125,255565.390625,221436.6875,245377.375,0.017822265625,0.986572265625,0.0576171875,-0.0610351525247097,-1.6784666776657104,-1.0681151151657104,73.33333587646484,202804.0,0.0
14943.5707884,294790.71875,294779.8125,326120.375,319341.90625,285068.8125,255565.390625,221436.6875,245377.375,0.017822265625,0.986572265625,0.0576171875,-0.0610351525247097,-1.6784666776657104,-1.0681151151657104,73.33333587646484,202805.0,0.0
14943.5707886,294790.71875,294779.8125,326120.375,319341.90625,285068.8125,255565.390625,221436.6875,245377.375,0.017822265625,0.986572265625,0.0576171875,-0.0610351525247097,-1.6784666776657104,-1.0681151151657104,73.33333587646484,202806.0,0.0
14943.5707888,294790.71875,294779.8125,326120.375,319341.90625,285068.8125,255565.390625,221436.6875,245377.375,0.017822265625,0.986572265625,0.0576171875,-0.0610351525247097,-1.6784666776657104,-1.0681151151657104,73.33333587646484,202807.0,0.0
14943.570789,294790.71875,294779.8125,326120.375,319341.90625,285068.8125,255565.390625,221436.6875,245377.375,0.017822265625,0.986572265625,0.0576171875,-0.0610351525247097,-1.6784666776657104,-1.0681151151657104,73.33333587646484,202808.0,0.0
14943.5707892,294790.71875,294779.8125,326120.375,319341.90625,285068.8125,255565.390625,221436.6875,245377.375,0.017822265625,0.986572265625,0.0576171875,-0.0610351525247097,-1.6784666776657104,-1.0681151151657104,73.33333587646484,202809.0,0.0
14943.5707893,294790.71875,294779.8125,326120.375,319341.90625,285068.8125,255565.390625,221436.6875,245377.375,0.017822265625,0.986572265625,0.0576171875,-0.0610351525247097,-1.6784666776657104,-1.0681151151657104,73.33333587646484,202810.0,0.0
14943.5707895,294790.71875,294779.8125,326120.375,319341.90625,285068.8125,255565.390625,221436.6875,245377.375,0.017822265625,0.986572265625,0.0576171875,-0.0610351525247097,-1.6784666776657104,-1.0681151151657104,73.33333587646484,202811.0,0.0
14943.5707897,294790.71875,294779.8125,326120.375,319341.90625,285068.8125,255565.390625,221436.6875,245377.375,0.017822265625,0.986572265625,0.0576171875,-0.0610351525247097,-1.6784666776657104,-1.0681151151657104,73.33333587646484,202812.0,0.0
14943.5707899,294790.71875,294779.8125,326120.375,319341.90625,285068.8125,255565.390625,221436.6875,245377.375,0.017822265625,0.986572265625,0.0576171875,-0.0610351525247097,-1.6784666776657104,-1.0681151151657104,73.33333587646484,202813.0,0.0
14943.57079,294790.71875,294779.8125,326120.375,319341.90625,285068.8125,255565.390625,221436.6875,245377.375,0.017822265625,0.986572265625,0.0576171875,-0.0610351525247097,-1.6784666776657104,-1.0681151151657104,73.33333587646484,202814.0,0.0
14943.5707902,294790.71875,294779.8125,326120.375,319341.90625,285068.8125,255565.390625,221436.6875,245377.375,0.017822265625,0.986572265625,0.0576171875,-0.0610351525247097,-1.6784666776657104,-1.0681151151657104,73.33333587646484,202815.0,0.0
14943.5707904,294790.71875,294779.8125,326120.375,319341.90625,285068.8125,255565.390625,221436.6875,245377.375,0.017822265625,0.986572265625,0.0576171875,-0.0610351525247097,-1.6784666776657104,-1.0681151151657104,73.33333587646484,202816.0,0.0
14943.5707905,294790.71875,294779.8125,326120.375,319341.90625,285068.8125,255565.390625,221436.6875,245377.375,0.017822265625,0.986572265625,0.0576171875,-0.0610351525247097,-1.6784666776657104,-1.0681151151657104,73.33333587646484,202817.0,0.0
14943.5707907,294783.84375,294776.875,326118.75,319332.6875,285065.75,255562.171875,221440.796875,245384.34375,0.015869140625,0.990234375,0.06103515625,0.03051757626235485,-1.4953612089157104,-0.9155272841453552,73.33333587646484,202818.0,1.0
14943.5707921,294793.6875,295076.65625,326307.3125,319310.25,285195.125,255609.5625,221477.09375,245370.21875,0.015625,0.990234375,0.06591796875,0.0610351525247097,-1.5563963651657104,-0.9460448622703552,73.33333587646484,202819.0,1.0
14943.5974385,294760.59375,295055.75,326252.96875,319267.5,285169.8125,255587.5625,221441.0625,245343.390625,0.016357421875,0.9912109375,0.0654296875,0.0,-1.6174315214157104,-0.7324218153953552,73.33333587646484,202820.0,1.0
14943.5999004,294737.53125,294743.96875,326037.65625,319267.9375,285029.625,255534.546875,221388.5,245344.5625,0.015625,0.989013671875,0.06396484375,0.03051757626235485,-1.7395018339157104,-0.7019042372703552,73.33333587646484,202821.0,1.0
14943.6023962,294750.78125,294558.90625,325934.59375,319305.59375,284948.46875,255517.828125,221374.734375,245362.984375,0.015869140625,0.98828125,0.064208984375,-0.0915527269244194,-1.5869139432907104,-0.7324218153953552,73.33333587646484,202822.0,1.0
14943.6048653,294790.5625,294788.3125,326122.53125,319338.75,285066.21875,255571.28125,221436.6875,245383.453125,0.0166015625,0.988525390625,0.0634765625,-0.1220703050494194,-1.6784666776657104,-0.7934569716453552,73.33333587646484,202823.0,1.0
14943.6085922,294795.84375,295085.15625,326310.1875,319313.375,285198.875,255612.78125,221482.90625,245377.8125,0.017333984375,0.9892578125,0.062255859375,-0.03051757626235485,-1.7089842557907104,-0.8239745497703552,73.33333587646484,202824.0,1.0
14943.6085968,294763.28125,295062.09375,326261.1875,319270.90625,285180.46875,255593.375,221457.78125,245357.4375,0.0166015625,0.98828125,0.0625,0.0,-1.7395018339157104,-0.7629393935203552,73.33333587646484,202825.0,1.0
14943.6085982,294731.5625,294738.875,326029.71875,319260.34375,285024.53125,255518.71875,221377.765625,245338.84375,0.020263671875,0.9892578125,0.0654296875,0.0,-1.8310545682907104,-0.6713866591453552,73.33333587646484,202826.0,1.0
14943.6111207,294749.25,294555.59375,325931.1875,319302.09375,284946.5,255501.015625,221367.03125,245353.59375,0.020751953125,0.989990234375,0.0654296875,-0.0915527269244194,-1.9226073026657104,-0.7934569716453552,73.33333587646484,202827.0,1.0
14943.6136489,294797.71875,294788.3125,326129.125,319342.875,285074.59375,255573.53125,221442.859375,245384.4375,0.02001953125,0.987060546875,0.063720703125,0.0,-1.8920897245407104,-0.6713866591453552,73.33333587646484,202828.0,1.0
14943.6661372,294806.375,295085.6875,326319.65625,319322.21875,285208.1875,255632.796875,221489.796875,245382.734375,0.019775390625,0.989013671875,0.064208984375,0.0,-1.8615721464157104,-0.6713866591453552,73.33333587646484,202829.0,1.0
14943.6661479,294771.6875,295054.5,326253.9375,319277.59375,285176.8125,255605.078125,221447.5,245354.3125,0.01904296875,0.9892578125,0.061279296875,0.0610351525247097,-1.8005369901657104,-0.8544921278953552,73.33333587646484,202830.0,1.0
14943.6661493,294742.1875,294738.625,326025.78125,319269.90625,285025.71875,255530.875,221380.0,245342.859375,0.022216796875,0.988525390625,0.063720703125,0.0,-1.7089842557907104,-0.7629393935203552,73.33333587646484,202831.0,1.0
14943.7081828,294763.03125,294563.375,325936.1875,319312.75,284955.6875,255512.375,221376.0625,245364.40625,0.022216796875,0.98876953125,0.06298828125,0.1220703050494194,-1.6174315214157104,-0.7019042372703552,73.33333587646484,202832.0,1.0
14943.70819,294803.78125,294789.21875,326123.6875,319345.75,285075.15625,255570.84375,221443.75,245388.28125,0.02197265625,0.9892578125,0.064697265625,0.1525878757238388,-1.6174315214157104,-0.7019042372703552,73.33333587646484,202833.0,1.0
14943.7081914,294804.59375,295081.125,326311.625,319320.0,285208.0,255619.125,221483.984375,245380.953125,0.023681640625,0.98828125,0.064208984375,0.1220703050494194,-1.5869139432907104,-0.7934569716453552,73.33333587646484,202834.0,1.0
14943.7081926,294772.59375,295067.4375,326267.0,319280.46875,285194.5,255602.765625,221458.5,245362.0,0.023681640625,0.98681640625,0.065673828125,0.0915527269244194,-1.4343260526657104,-0.7934569716453552,73.33333587646484,202835.0,1.0
14943.7081938,294736.71875,294739.78125,326031.9375,319269.46875,285037.78125,255515.671875,221383.84375,245342.328125,0.022705078125,0.98828125,0.064208984375,0.2136230319738388,-1.3122557401657104,-0.9155272841453552,73.33333587646484,202836.0,1.0
14943.708195,294750.0625,294548.53125,325924.5625,319308.8125,284954.09375,255494.046875,221369.90625,245362.796875,0.022216796875,0.988525390625,0.062744140625,0.1831054538488388,-1.0986326932907104,-0.8239745497703552,73.33333587646484,202837.0,1.0
14943.7081962,294790.71875,294769.46875,326110.28125,319343.3125,285069.15625,255561.1875,221436.953125,245390.421875,0.021484375,0.988525390625,0.060546875,0.1525878757238388,-1.0986326932907104,-0.8850097060203552,73.33333587646484,202838.0,1.0
14943.7081974,294793.15625,295068.78125,326303.03125,319319.4375,285204.875,255611.703125,221481.21875,245384.796875,0.0224609375,0.98681640625,0.064453125,0.2136230319738388,-1.0986326932907104,-0.9155272841453552,73.33333587646484,202839.0,1.0
14943.7081986,294754.53125,295045.71875,326257.0625,319271.96875,285186.46875,255588.453125,221452.25,245358.953125,0.02392578125,0.988037109375,0.062744140625,0.2136230319738388,-1.0375975370407104,-1.0070799589157104,73.33333587646484,202840.0,1.0
14943.7081998,294732.0,294733.15625,326032.5625,319267.78125,285039.125,255533.203125,221392.96875,245350.015625,0.0224609375,0.989501953125,0.06640625,0.3356933295726776,-0.9765624403953552,-1.0986326932907104,73.33333587646484,202841.0,1.0
14943.7082011,294750.15625,294545.84375,325926.34375,319308.0,284956.5,255510.578125,221380.8125,245367.53125,0.02197265625,0.990234375,0.06591796875,0.3051757514476776,-0.8850097060203552,-1.0986326932907104,73.33333587646484,202842.0,1.0
14943.7082024,294786.4375,294760.59375,326101.59375,319336.71875,285063.6875,255562.96875,221433.734375,245383.8125,0.02001953125,0.991943359375,0.064453125,0.3356933295726776,-0.8850097060203552,-1.1596678495407104,73.33333587646484,202843.0,1.0
14943.7111792,294793.25,295069.0625,326298.125,319314.4375,285200.9375,255620.90625,221482.28125,245379.421875,0.019287109375,0.990478515625,0.061767578125,0.3356933295726776,-0.8850097060203552,-1.2207030057907104,73.33333587646484,202844.0,1.0
14943.7111843,294759.1875,295053.59375,326256.90625,319272.59375,285186.90625,255605.265625,221458.859375,245362.53125,0.019775390625,0.99072265625,0.06640625,0.3356933295726776,-0.8239745497703552,-1.2207030057907104,73.33333587646484,202845.0,1.0
14943.7111858,294732.71875,294740.21875,326033.1875,319265.71875,285038.03125,255528.734375,221391.53125,245353.40625,0.02001953125,0.99072265625,0.064697265625,0.2441406100988388,-0.8239745497703552,-1.1901854276657104,73.33333587646484,202846.0,1.0
14943.7137241,294746.3125,294554.0625,325926.71875,319302.8125,284954.34375,255503.96875,221373.65625,245359.671875,0.018798828125,0.990234375,0.064697265625,0.2136230319738388,-0.8850097060203552,-1.2512205839157104,73.33333587646484,202847.0,1.0
14943.7162147,294778.5,294769.53125,326102.9375,319332.78125,285061.5625,255556.984375,221427.828125,245375.765625,0.01708984375,0.99072265625,0.06884765625,0.0915527269244194,-0.8544921278953552,-1.1596678495407104,73.33333587646484,202848.0,1.0
14943.7187167,294781.875,295067.625,326293.71875,319309.71875,285197.1875,255614.03125,221473.796875,245375.859375,0.016357421875,0.991455078125,0.062744140625,0.0610351525247097,-0.8850097060203552,-1.0681151151657104,73.33333587646484,202849.0,1.0
14943.7212048,294756.65625,295055.1875,326252.59375,319271.34375,285188.59375,255613.125,221454.84375,245367.453125,0.014892578125,0.99072265625,0.064453125,0.0610351525247097,-0.9765624403953552,-1.0375975370407104,73.33333587646484,202850.0,1.0
14943.7487227,294733.59375,294745.125,326035.15625,319264.65625,285044.9375,255550.375,221392.515625,245353.140625,0.01611328125,0.990966796875,0.06787109375,0.03051757626235485,-1.0070799589157104,-1.0681151151657104,73.33333587646484,202851.0,1.0
14943.7743277,294745.0625,294549.15625,325929.65625,319297.46875,284955.96875,255510.046875,221366.40625,245355.375,0.014892578125,0.990478515625,0.06591796875,0.0915527269244194,-1.0070799589157104,-1.1291502714157104,73.33333587646484,202852.0,1.0
14943.7743328,294782.25,294765.34375,326105.53125,319325.4375,285061.1875,255551.34375,221421.84375,245373.703125,0.015625,0.990478515625,0.0673828125,0.0610351525247097,-1.0070799589157104,-1.1291502714157104,73.33333587646484,202853.0,1.0
14943.8033489,294785.0,295063.875,326299.375,319301.03125,285195.9375,255610.1875,221469.859375,245368.25,0.01513671875,0.99072265625,0.067138671875,0.0,-1.2512205839157104,-1.1291502714157104,73.33333587646484,202854.0,1.0
14943.8033539,294762.84375,295060.46875,326264.0625,319269.5625,285190.65625,255605.53125,221454.65625,245359.21875,0.013916015625,0.989501953125,0.065185546875,-0.0915527269244194,-1.2817381620407104,-1.0375975370407104,73.33333587646484,202855.0,1.0
14943.8033552,294732.875,294742.375,326033.5625,319259.625,285037.3125,255535.609375,221386.96875,245344.65625,0.01416015625,0.9931640625,0.067138671875,-0.0915527269244194,-1.2817381620407104,-0.9765624403953552,73.33333587646484,202856.0,1.0
14943.8033565,294744.25,294549.875,325927.25,319293.34375,284952.84375,255514.6875,221373.46875,245357.703125,0.01513671875,0.990478515625,0.06884765625,-0.1220703050494194,-1.4038084745407104,-0.9155272841453552,73.33333587646484,202857.0,1.0
14943.8033577,294785.1875,294770.4375,326110.28125,319328.75,285065.84375,255570.578125,221436.15625,245382.921875,0.015869140625,0.990966796875,0.071044921875,-0.1525878757238388,-1.5258787870407104,-0.8239745497703552,73.33333587646484,202858.0,1.0
14943.8033589,294791.71875,295074.15625,326307.84375,319309.53125,285206.5,255621.09375,221479.15625,245378.265625,0.017578125,0.989990234375,0.0673828125,-0.1831054538488388,-1.5258787870407104,-0.7629393935203552,73.33333587646484,202859.0,1.0
14943.8033601,294769.71875,295065.21875,326273.25,319278.40625,285202.90625,255621.0,221464.9375,245364.40625,0.018310546875,0.9873046875,0.06787109375,-0.3051757514476776,-1.6174315214157104,-0.5798339247703552,73.33333587646484,202860.0,1.0
14943.8033613,294746.9375,294759.25,326058.0625,319272.59375,285060.5625,255549.46875,221399.3125,245350.28125,0.0185546875,0.985107421875,0.06689453125,-0.3356933295726776,-1.7089842557907104,-0.5493163466453552,73.33333587646484,202861.0,1.0
14943.8033625,294759.625,294573.5625,325957.03125,319307.46875,284979.75,255518.71875,221380.453125,245363.609375,0.01708984375,0.98486328125,0.06298828125,-0.3356933295726776,-1.7089842557907104,-0.5187987685203552,73.33333587646484,202862.0,1.0
14943.8033637,294796.625,294789.46875,326139.6875,319341.53125,285094.625,255572.625,221440.53125,245389.4375,0.017578125,0.98388671875,0.06298828125,-0.3967284858226776,-1.6784666776657104,-0.5187987685203552,73.33333587646484,202863.0,1.0
14943.8048828,294800.9375,295083.625,326327.34375,319316.59375,285228.21875,255634.140625,221491.046875,245386.21875,0.017578125,0.9853515625,0.06640625,-0.2746581733226776,-1.7089842557907104,-0.5798339247703552,73.33333587646484,202864.0,1.0
14943.8074037,294764.34375,295056.71875,326267.8125,319267.9375,285198.875,255613.75,221455.46875,245356.359375,0.01806640625,0.98828125,0.06396484375,-0.1831054538488388,-1.8615721464157104,-0.5798339247703552,73.33333587646484,202865.0,1.0
14943.8099042,294764.34375,295056.71875,326267.8125,319267.9375,285198.875,255613.75,221455.46875,245356.359375,0.01806640625,0.98828125,0.06396484375,-0.1831054538488388,-1.8615721464157104,-0.5798339247703552,73.33333587646484,202866.0,0.0
14943.8099047,294764.34375,295056.71875,326267.8125,319267.9375,285198.875,255613.75,221455.46875,245356.359375,0.01806640625,0.98828125,0.06396484375,-0.1831054538488388,-1.8615721464157104,-0.5798339247703552,73.33333587646484,202867.0,0.0
14943.8099049,294764.34375,295056.71875,326267.8125,319267.9375,285198.875,255613.75,221455.46875,245356.359375,0.01806640625,0.98828125,0.06396484375,-0.1831054538488388,-1.8615721464157104,-0.5798339247703552,73.33333587646484,202868.0,0.0
14943.8099051,294764.34375,295056.71875,326267.8125,319267.9375,285198.875,255613.75,221455.46875,245356.359375,0.01806640625,0.98828125,0.06396484375,-0.1831054538488388,-1.8615721464157104,-0.5798339247703552,73.33333587646484,202869.0,0.0
14943.8099053,294764.34375,295056.71875,326267.8125,319267.9375,285198.875,255613.75,221455.46875,245356.359375,0.01806640625,0.98828125,0.06396484375,-0.1831054538488388,-1.8615721464157104,-0.5798339247703552,73.33333587646484,202870.0,0.0
14943.8099055,294764.34375,295056.71875,326267.8125,319267.9375,285198.875,255613.75,221455.46875,245356.359375,0.01806640625,0.98828125,0.06396484375,-0.1831054538488388,-1.8615721464157104,-0.5798339247703552,73.33333587646484,202871.0,0.0
14943.8099057,294764.34375,295056.71875,326267.8125,319267.9375,285198.875,255613.75,221455.46875,245356.359375,0.01806640625,0.98828125,0.06396484375,-0.1831054538488388,-1.8615721464157104,-0.5798339247703552,73.33333587646484,202872.0,0.0
14943.8099059,294764.34375,295056.71875,326267.8125,319267.9375,285198.875,255613.75,221455.46875,245356.359375,0.01806640625,0.98828125,0.06396484375,-0.1831054538488388,-1.8615721464157104,-0.5798339247703552,73.33333587646484,202873.0,0.0
14943.809906,294764.34375,295056.71875,326267.8125,319267.9375,285198.875,255613.75,221455.46875,245356.359375,0.01806640625,0.98828125,0.06396484375,-0.1831054538488388,-1.8615721464157104,-0.5798339247703552,73.33333587646484,202874.0,0.0
14943.8099063,294764.34375,295056.71875,326267.8125,319267.9375,285198.875,255613.75,221455.46875,245356.359375,0.01806640625,0.98828125,0.06396484375,-0.1831054538488388,-1.8615721464157104,-0.5798339247703552,73.33333587646484,202875.0,0.0
14943.8099065,294764.34375,295056.71875,326267.8125,319267.9375,285198.875,255613.75,221455.46875,245356.359375,0.01806640625,0.98828125,0.06396484375,-0.1831054538488388,-1.8615721464157104,-0.5798339247703552,73.33333587646484,202876.0,0.0
14943.8099066,294764.34375,295056.71875,326267.8125,319267.9375,285198.875,255613.75,221455.46875,245356.359375,0.01806640625,0.98828125,0.06396484375,-0.1831054538488388,-1.8615721464157104,-0.5798339247703552,73.33333587646484,202877.0,0.0
14943.8099068,294764.34375,295056.71875,326267.8125,319267.9375,285198.875,255613.75,221455.46875,245356.359375,0.01806640625,0.98828125,0.06396484375,-0.1831054538488388,-1.8615721464157104,-0.5798339247703552,73.33333587646484,202878.0,0.0
14943.809907,294764.34375,295056.71875,326267.8125,319267.9375,285198.875,255613.75,221455.46875,245356.359375,0.01806640625,0.98828125,0.06396484375,-0.1831054538488388,-1.8615721464157104,-0.5798339247703552,73.33333587646484,202879.0,0.0
14943.8099072,294764.34375,295056.71875,326267.8125,319267.9375,285198.875,255613.75,221455.46875,245356.359375,0.01806640625,0.98828125,0.06396484375,-0.1831054538488388,-1.8615721464157104,-0.5798339247703552,73.33333587646484,202880.0,0.0
14943.8099074,294764.34375,295056.71875,326267.8125,319267.9375,285198.875,255613.75,221455.46875,245356.359375,0.01806640625,0.98828125,0.06396484375,-0.1831054538488388,-1.8615721464157104,-0.5798339247703552,73.33333587646484,202881.0,0.0
14943.8099075,294764.34375,295056.71875,326267.8125,319267.9375,285198.875,255613.75,221455.46875,245356.359375,0.01806640625,0.98828125,0.06396484375,-0.1831054538488388,-1.8615721464157104,-0.5798339247703552,73.33333587646484,202882.0,0.0
14943.8099078,294764.34375,295056.71875,326267.8125,319267.9375,285198.875,255613.75,221455.46875,245356.359375,0.01806640625,0.98828125,0.06396484375,-0.1831054538488388,-1.8615721464157104,-0.5798339247703552,73.33333587646484,202883.0,0.0
14943.809908,294764.34375,295056.71875,326267.8125,319267.9375,285198.875,255613.75,221455.46875,245356.359375,0.01806640625,0.98828125,0.06396484375,-0.1831054538488388,-1.8615721464157104,-0.5798339247703552,73.33333587646484,202884.0,0.0
14943.8099082,294764.34375,295056.71875,326267.8125,319267.9375,285198.875,255613.75,221455.46875,245356.359375,0.01806640625,0.98828125,0.06396484375,-0.1831054538488388,-1.8615721464157104,-0.5798339247703552,73.33333587646484,202885.0,0.0
14943.8099084,294741.84375,294746.5625,326032.03125,319266.0,285048.5,255546.875,221394.3125,245347.328125,0.019287109375,0.988037109375,0.062744140625,1.3427733182907104,-1.0986326932907104,-1.4038084745407104,73.33333587646484,202886.0,1.0
14943.8124029,294750.3125,294554.0625,325928.0625,319299.6875,284965.09375,255511.828125,221372.40625,245356.71875,0.017578125,0.989990234375,0.060791015625,1.3732908964157104,-1.0375975370407104,-1.2512205839157104,73.33333587646484,202887.0,1.0
14943.8161181,294790.46875,294767.3125,326108.3125,319334.84375,285075.40625,255567.0,221433.28125,245381.390625,0.017578125,0.989990234375,0.066162109375,1.3122557401657104,-1.0681151151657104,-1.2512205839157104,73.33333587646484,202888.0,1.0
14943.8161202,294800.65625,295072.375,326305.09375,319317.75,285213.28125,255621.09375,221482.640625,245380.953125,0.019775390625,0.992919921875,0.061767578125,1.2817381620407104,-1.0986326932907104,-1.0986326932907104,73.33333587646484,202889.0,1.0
14943.8161215,294777.40625,295063.15625,326267.4375,319281.4375,285202.09375,255607.046875,221461.359375,245366.375,0.02001953125,0.99365234375,0.061279296875,1.2817381620407104,-1.1596678495407104,-0.9765624403953552,73.33333587646484,202890.0,1.0
14943.8186605,294749.53125,294750.21875,326044.09375,319273.5,285051.4375,255545.265625,221393.859375,245356.09375,0.019775390625,0.992919921875,0.06103515625,1.1596678495407104,-1.2512205839157104,-0.9155272841453552,73.33333587646484,202891.0,1.0
14943.8437171,294759.4375,294553.1875,325934.84375,319305.875,284963.03125,255517.28125,221373.203125,245363.875,0.018798828125,0.9921875,0.06396484375,1.0986326932907104,-1.1901854276657104,-0.8850097060203552,73.33333587646484,202892.0,1.0
14943.8699927,294793.875,294770.875,326111.15625,319335.71875,285068.0,255564.671875,221428.8125,245381.84375,0.01806640625,0.989990234375,0.060546875,1.0070799589157104,-1.2207030057907104,-0.7324218153953552,73.33333587646484,202893.0,1.0
14943.8699983,294800.3125,295074.875,326314.125,319316.3125,285208.1875,255622.609375,221478.53125,245381.390625,0.017578125,0.99072265625,0.060791015625,0.9460448622703552,-1.2512205839157104,-0.7324218153953552,73.33333587646484,202894.0,1.0
14943.8699996,294767.75,295058.34375,326269.21875,319273.75,285193.15625,255607.046875,221454.921875,245362.703125,0.01806640625,0.99169921875,0.063720703125,0.7934569716453552,-1.3427733182907104,-0.7019042372703552,73.33333587646484,202895.0,1.0
14943.9290659,294738.4375,294742.46875,326036.78125,319266.6875,285041.25,255545.359375,221392.609375,245352.78125,0.01708984375,0.990478515625,0.063720703125,0.8239745497703552,-1.3732908964157104,-0.7629393935203552,73.33333587646484,202896.0,1.0
14943.9290732,294738.4375,294742.46875,326036.78125,319266.6875,285041.25,255545.359375,221392.609375,245352.78125,0.01708984375,0.990478515625,0.063720703125,0.8239745497703552,-1.3732908964157104,-0.7629393935203552,73.33333587646484,202897.0,0.0
14943.9290734,294738.4375,294742.46875,326036.78125,319266.6875,285041.25,255545.359375,221392.609375,245352.78125,0.01708984375,0.990478515625,0.063720703125,0.8239745497703552,-1.3732908964157104,-0.7629393935203552,73.33333587646484,202898.0,0.0
14943.9290737,294738.4375,294742.46875,326036.78125,319266.6875,285041.25,255545.359375,221392.609375,245352.78125,0.01708984375,0.990478515625,0.063720703125,0.8239745497703552,-1.3732908964157104,-0.7629393935203552,73.33333587646484,202899.0,0.0
14943.9290738,294738.4375,294742.46875,326036.78125,319266.6875,285041.25,255545.359375,221392.609375,245352.78125,0.01708984375,0.990478515625,0.063720703125,0.8239745497703552,-1.3732908964157104,-0.7629393935203552,73.33333587646484,202900.0,0.0
14943.929074,294738.4375,294742.46875,326036.78125,319266.6875,285041.25,255545.359375,221392.609375,245352.78125,0.01708984375,0.990478515625,0.063720703125,0.8239745497703552,-1.3732908964157104,-0.7629393935203552,73.33333587646484,202901.0,0.0
14943.9290742,294738.4375,294742.46875,326036.78125,319266.6875,285041.25,255545.359375,221392.609375,245352.78125,0.01708984375,0.990478515625,0.063720703125,0.8239745497703552,-1.3732908964157104,-0.7629393935203552,73.33333587646484,202902.0,0.0
14943.9290744,294738.4375,294742.46875,326036.78125,319266.6875,285041.25,255545.359375,221392.609375,245352.78125,0.01708984375,0.990478515625,0.063720703125,0.8239745497703552,-1.3732908964157104,-0.7629393935203552,73.33333587646484,202903.0,0.0
14943.9290745,294738.4375,294742.46875,326036.78125,319266.6875,285041.25,255545.359375,221392.609375,245352.78125,0.01708984375,0.990478515625,0.063720703125,0.8239745497703552,-1.3732908964157104,-0.7629393935203552,73.33333587646484,202904.0,0.0
14943.9290747,294738.4375,294742.46875,326036.78125,319266.6875,285041.25,255545.359375,221392.609375,245352.78125,0.01708984375,0.990478515625,0.063720703125,0.8239745497703552,-1.3732908964157104,-0.7629393935203552,73.33333587646484,202905.0,0.0
14943.9290749,294738.4375,294742.46875,326036.78125,319266.6875,285041.25,255545.359375,221392.609375,245352.78125,0.01708984375,0.990478515625,0.063720703125,0.8239745497703552,-1.3732908964157104,-0.7629393935203552,73.33333587646484,202906.0,0.0
14943.9290751,294738.4375,294742.46875,326036.78125,319266.6875,285041.25,255545.359375,221392.609375,245352.78125,0.01708984375,0.990478515625,0.063720703125,0.8239745497703552,-1.3732908964157104,-0.7629393935203552,73.33333587646484,202907.0,0.0
14943.9290753,294738.4375,294742.46875,326036.78125,319266.6875,285041.25,255545.359375,221392.609375,245352.78125,0.01708984375,0.990478515625,0.063720703125,0.8239745497703552,-1.3732908964157104,-0.7629393935203552,73.33333587646484,202908.0,0.0
14943.9290755,294738.4375,294742.46875,326036.78125,319266.6875,285041.25,255545.359375,221392.609375,245352.78125,0.01708984375,0.990478515625,0.063720703125,0.8239745497703552,-1.3732908964157104,-0.7629393935203552,73.33333587646484,202909.0,0.0
14943.9290756,294738.4375,294742.46875,326036.78125,319266.6875,285041.25,255545.359375,221392.609375,245352.78125,0.01708984375,0.990478515625,0.063720703125,0.8239745497703552,-1.3732908964157104,-0.7629393935203552,73.33333587646484,202910.0,0.0
14943.9290758,294738.4375,294742.46875,326036.78125,319266.6875,285041.25,255545.359375,221392.609375,245352.78125,0.01708984375,0.990478515625,0.063720703125,0.8239745497703552,-1.3732908964157104,-0.7629393935203552,73.33333587646484,202911.0,0.0
14943.929076,294738.4375,294742.46875,326036.78125,319266.6875,285041.25,255545.359375,221392.609375,245352.78125,0.01708984375,0.990478515625,0.063720703125,0.8239745497703552,-1.3732908964157104,-0.7629393935203552,73.33333587646484,202912.0,0.0
14943.9290762,294738.4375,294742.46875,326036.78125,319266.6875,285041.25,255545.359375,221392.609375,245352.78125,0.01708984375,0.990478515625,0.063720703125,0.8239745497703552,-1.3732908964157104,-0.7629393935203552,73.33333587646484,202913.0,0.0
14943.9290763,294738.4375,294742.46875,326036.78125,319266.6875,285041.25,255545.359375,221392.609375,245352.78125,0.01708984375,0.990478515625,0.063720703125,0.8239745497703552,-1.3732908964157104,-0.7629393935203552,73.33333587646484,202914.0,0.0
14943.9290765,294738.4375,294742.46875,326036.78125,319266.6875,285041.25,255545.359375,221392.609375,245352.78125,0.01708984375,0.990478515625,0.063720703125,0.8239745497703552,-1.3732908964157104,-0.7629393935203552,73.33333587646484,202915.0,0.0
14943.9290767,294738.4375,294742.46875,326036.78125,319266.6875,285041.25,255545.359375,221392.609375,245352.78125,0.01708984375,0.990478515625,0.063720703125,0.8239745497703552,-1.3732908964157104,-0.7629393935203552,73.33333587646484,202916.0,0.0
14943.9290769,294738.4375,294742.46875,326036.78125,319266.6875,285041.25,255545.359375,221392.609375,245352.78125,0.01708984375,0.990478515625,0.063720703125,0.8239745497703552,-1.3732908964157104,-0.7629393935203552,73.33333587646484,202917.0,0.0
14943.9290771,294738.4375,294742.46875,326036.78125,319266.6875,285041.25,255545.359375,221392.609375,245352.78125,0.01708984375,0.990478515625,0.063720703125,0.8239745497703552,-1.3732908964157104,-0.7629393935203552,73.33333587646484,202918.0,0.0
14943.9290773,294738.4375,294742.46875,326036.78125,319266.6875,285041.25,255545.359375,221392.609375,245352.78125,0.01708984375,0.990478515625,0.063720703125,0.8239745497703552,-1.3732908964157104,-0.7629393935203552,73.33333587646484,202919.0,0.0
14943.9290774,294738.4375,294742.46875,326036.78125,319266.6875,285041.25,255545.359375,221392.609375,245352.78125,0.01708984375,0.990478515625,0.063720703125,0.8239745497703552,-1.3732908964157104,-0.7629393935203552,73.33333587646484,202920.0,0.0
14943.9290776,294738.4375,294742.46875,326036.78125,319266.6875,285041.25,255545.359375,221392.609375,245352.78125,0.01708984375,0.990478515625,0.063720703125,0.8239745497703552,-1.3732908964157104,-0.7629393935203552,73.33333587646484,202921.0,0.0
14943.9290778,294738.4375,294742.46875,326036.78125,319266.6875,285041.25,255545.359375,221392.609375,245352.78125,0.01708984375,0.990478515625,0.063720703125,0.8239745497703552,-1.3732908964157104,-0.7629393935203552,73.33333587646484,202922.0,0.0
14943.9290779,294738.4375,294742.46875,326036.78125,319266.6875,285041.25,255545.359375,221392.609375,245352.78125,0.01708984375,0.990478515625,0.063720703125,0.8239745497703552,-1.3732908964157104,-0.7629393935203552,73.33333587646484,202923.0,0.0
14943.9290781,294738.4375,294742.46875,326036.78125,319266.6875,285041.25,255545.359375,221392.609375,245352.78125,0.01708984375,0.990478515625,0.063720703125,0.8239745497703552,-1.3732908964157104,-0.7629393935203552,73.33333587646484,202924.0,0.0
14943.9290783,294738.4375,294742.46875,326036.78125,319266.6875,285041.25,255545.359375,221392.609375,245352.78125,0.01708984375,0.990478515625,0.063720703125,0.8239745497703552,-1.3732908964157104,-0.7629393935203552,73.33333587646484,202925.0,0.0
14943.9290785,294738.4375,294742.46875,326036.78125,319266.6875,285041.25,255545.359375,221392.609375,245352.78125,0.01708984375,0.990478515625,0.063720703125,0.8239745497703552,-1.3732908964157104,-0.7629393935203552,73.33333587646484,202926.0,0.0
14943.9290786,294738.4375,294742.46875,326036.78125,319266.6875,285041.25,255545.359375,221392.609375,245352.78125,0.01708984375,0.990478515625,0.063720703125,0.8239745497703552,-1.3732908964157104,-0.7629393935203552,73.33333587646484,202927.0,0.0
14943.9290788,294738.4375,294742.46875,326036.78125,319266.6875,285041.25,255545.359375,221392.609375,245352.78125,0.01708984375,0.990478515625,0.063720703125,0.8239745497703552,-1.3732908964157104,-0.7629393935203552,73.33333587646484,202928.0,0.0
14943.929079,294738.4375,294742.46875,326036.78125,319266.6875,285041.25,255545.359375,221392.609375,245352.78125,0.01708984375,0.990478515625,0.063720703125,0.8239745497703552,-1.3732908964157104,-0.7629393935203552,73.33333587646484,202929.0,0.0
14943.9290792,294738.4375,294742.46875,326036.78125,319266.6875,285041.25,255545.359375,221392.609375,245352.78125,0.01708984375,0.990478515625,0.063720703125,0.8239745497703552,-1.3732908964157104,-0.7629393935203552,73.33333587646484,202930.0,0.0
14943.9290793,294738.4375,294742.46875,326036.78125,319266.6875,285041.25,255545.359375,221392.609375,245352.78125,0.01708984375,0.990478515625,0.063720703125,0.8239745497703552,-1.3732908964157104,-0.7629393935203552,73.33333587646484,202931.0,0.0
14943.9290795,294738.4375,294742.46875,326036.78125,319266.6875,285041.25,255545.359375,221392.609375,245352.78125,0.01708984375,0.990478515625,0.063720703125,0.8239745497703552,-1.3732908964157104,-0.7629393935203552,73.33333587646484,202932.0,0.0
14943.9290797,294738.4375,294742.46875,326036.78125,319266.6875,285041.25,255545.359375,221392.609375,245352.78125,0.01708984375,0.990478515625,0.063720703125,0.8239745497703552,-1.3732908964157104,-0.7629393935203552,73.33333587646484,202933.0,0.0
14943.9290799,294738.4375,294742.46875,326036.78125,319266.6875,285041.25,255545.359375,221392.609375,245352.78125,0.01708984375,0.990478515625,0.063720703125,0.8239745497703552,-1.3732908964157104,-0.7629393935203552,73.33333587646484,202934.0,0.0
14943.9290801,294738.4375,294742.46875,326036.78125,319266.6875,285041.25,255545.359375,221392.609375,245352.78125,0.01708984375,0.990478515625,0.063720703125,0.8239745497703552,-1.3732908964157104,-0.7629393935203552,73.33333587646484,202935.0,0.0
14943.9290802,294738.4375,294742.46875,326036.78125,319266.6875,285041.25,255545.359375,221392.609375,245352.78125,0.01708984375,0.990478515625,0.063720703125,0.8239745497703552,-1.3732908964157104,-0.7629393935203552,73.33333587646484,202936.0,0.0
14943.9290804,294738.4375,294742.46875,326036.78125,319266.6875,285041.25,255545.359375,221392.609375,245352.78125,0.01708984375,0.990478515625,0.063720703125,0.8239745497703552,-1.3732908964157104,-0.7629393935203552,73.33333587646484,202937.0,0.0
14943.9290806,294738.4375,294742.46875,326036.78125,319266.6875,285041.25,255545.359375,221392.609375,245352.78125,0.01708984375,0.990478515625,0.063720703125,0.8239745497703552,-1.3732908964157104,-0.7629393935203552,73.33333587646484,202938.0,0.0
14943.9290807,294738.4375,294742.46875,326036.78125,319266.6875,285041.25,255545.359375,221392.609375,245352.78125,0.01708984375,0.990478515625,0.063720703125,0.8239745497703552,-1.3732908964157104,-0.7629393935203552,73.33333587646484,202939.0,0.0
14943.9290809,294738.4375,294742.46875,326036.78125,319266.6875,285041.25,255545.359375,221392.609375,245352.78125,0.01708984375,0.990478515625,0.063720703125,0.8239745497703552,-1.3732908964157104,-0.7629393935203552,73.33333587646484,202940.0,0.0
14943.9290811,294752.90625,294771.59375,326064.125,319276.09375,285065.21875,255567.796875,221409.59375,245359.046875,0.013916015625,0.9873046875,0.0634765625,-0.1220703050494194,-0.9155272841453552,-0.6103515028953552,73.33333587646484,202941.0,1.0
14943.9290824,294761.9375,294569.0,325945.125,319303.4375,284970.90625,255527.65625,221374.1875,245360.5625,0.015380859375,0.987060546875,0.065185546875,-0.0610351525247097,-1.0681151151657104,-0.4882812201976776,73.33333587646484,202942.0,1.0
14943.9290837,294802.34375,294778.9375,326104.46875,319333.03125,285067.1875,255578.890625,221432.578125,245382.640625,0.014892578125,0.9873046875,0.06396484375,-0.1220703050494194,-1.1901854276657104,-0.3356933295726776,73.33333587646484,202943.0,1.0
14943.9290849,294811.5625,295085.34375,326297.03125,319316.40625,285205.40625,255633.875,221485.6875,245386.765625,0.01416015625,0.987548828125,0.067626953125,-0.0610351525247097,-1.4038084745407104,-0.2441406100988388,73.33333587646484,202944.0,1.0
14943.9290862,294782.78125,295080.21875,326263.59375,319278.21875,285197.625,255613.578125,221456.09375,245369.234375,0.01416015625,0.987060546875,0.065673828125,0.03051757626235485,-1.4648436307907104,-0.3662109076976776,73.33333587646484,202945.0,1.0
14943.9290874,294750.6875,294761.6875,326037.21875,319267.0625,285045.71875,255538.5625,221386.796875,245350.90625,0.015380859375,0.984375,0.06689453125,0.1525878757238388,-1.4953612089157104,-0.3662109076976776,73.33333587646484,202946.0,1.0
14943.9290886,294767.84375,294581.625,325944.25,319307.1875,284971.25,255516.65625,221373.75,245363.25,0.016357421875,0.985107421875,0.0673828125,0.2746581733226776,-1.4953612089157104,-0.3967284858226776,73.33333587646484,202947.0,1.0
14943.92909,294808.09375,294794.59375,326123.21875,319340.0,285079.15625,255567.359375,221429.171875,245383.0,0.016845703125,0.984619140625,0.065673828125,0.2746581733226776,-1.5869139432907104,-0.4272460639476776,73.33333587646484,202948.0,1.0
14943.9524798,294817.28125,295096.59375,326318.75,319322.3125,285218.1875,255621.625,221479.328125,245383.90625,0.017333984375,0.984375,0.06298828125,0.3967284858226776,-1.8005369901657104,-0.3967284858226776,73.33333587646484,202949.0,1.0
14944.0030775,294789.03125,295091.21875,326290.0625,319285.46875,285215.96875,255620.28125,221464.9375,245367.625,0.01708984375,0.986083984375,0.065185546875,0.6713866591453552,-1.8920897245407104,-0.5187987685203552,73.33333587646484,202950.0,1.0
14944.0030848,294754.25,294761.9375,326047.59375,319269.03125,285052.78125,255548.3125,221393.859375,245350.90625,0.0205078125,0.985595703125,0.06591796875,0.7934569716453552,-1.8615721464157104,-0.5798339247703552,73.33333587646484,202951.0,1.0
14944.0399632,294766.875,294563.46875,325923.21875,319300.59375,284955.59375,255516.65625,221371.59375,245361.28125,0.0224609375,0.98388671875,0.06640625,0.9460448622703552,-1.8920897245407104,-0.5798339247703552,73.33333587646484,202952.0,1.0
14944.0649629,294805.03125,294769.375,326083.53125,319329.5625,285050.8125,255567.53125,221427.03125,245381.21875,0.025390625,0.98486328125,0.067138671875,1.0375975370407104,-1.8005369901657104,-0.5798339247703552,73.33333587646484,202953.0,1.0
14944.0899863,294816.21875,295081.5625,326289.09375,319315.15625,285195.84375,255627.171875,221479.6875,245380.6875,0.0283203125,0.985595703125,0.061279296875,1.1291502714157104,-1.6479490995407104,-0.6713866591453552,73.33333587646484,202954.0,1.0
14944.1262301,294789.21875,295075.59375,326262.71875,319276.0,285192.34375,255615.1875,221456.171875,245358.234375,0.028076171875,0.987060546875,0.06298828125,1.3427733182907104,-1.4648436307907104,-0.6408690810203552,73.33333587646484,202955.0,1.0
14944.1512298,294760.25,294758.46875,326041.6875,319265.71875,285043.84375,255547.0625,221387.15625,245343.75,0.027099609375,0.9931640625,0.06201171875,1.4648436307907104,-1.1901854276657104,-0.6713866591453552,73.33333587646484,202956.0,1.0
14944.1762144,294783.125,294580.8125,325949.34375,319311.59375,284972.875,255533.46875,221378.75,245362.53125,0.024169921875,0.991455078125,0.066162109375,1.4953612089157104,-1.0986326932907104,-0.6408690810203552,73.33333587646484,202957.0,1.0
14944.2012515,294825.96875,294798.34375,326132.0,319347.4375,285086.78125,255585.765625,221439.90625,245387.125,0.023193359375,0.9912109375,0.063232421875,1.4953612089157104,-0.9460448622703552,-0.7934569716453552,73.33333587646484,202958.0,1.0
14944.2275105,294836.5,295104.1875,326336.8125,319331.25,285232.5,255645.9375,221496.59375,245392.578125,0.02294921875,0.990966796875,0.06103515625,1.4953612089157104,-0.8850097060203552,-0.8850097060203552,73.33333587646484,202959.0,1.0
14944.2275156,294805.84375,295097.75,326297.3125,319291.28125,285219.53125,255634.671875,221473.34375,245376.5625,0.024658203125,0.989013671875,0.06298828125,1.4648436307907104,-0.8850097060203552,-0.9460448622703552,73.33333587646484,202960.0,1.0
14944.2275169,294775.4375,294780.09375,326068.34375,319282.53125,285065.75,255572.1875,221403.0625,245360.828125,0.025390625,0.986572265625,0.062255859375,1.4038084745407104,-0.8850097060203552,-1.0070799589157104,73.33333587646484,202961.0,1.0
14944.2470611,294776.96875,294580.71875,325954.25,319311.21875,284974.28125,255535.171875,221376.0625,245365.03125,0.02392578125,0.98828125,0.06298828125,1.3732908964157104,-0.7324218153953552,-1.0070799589157104,73.33333587646484,202962.0,1.0
14944.2470664,294803.53125,294787.875,326127.25,319336.09375,285074.53125,255570.65625,221423.90625,245375.5,0.02197265625,0.989990234375,0.061279296875,1.4038084745407104,-0.7019042372703552,-1.0375975370407104,73.33333587646484,202963.0,1.0
14944.2470676,294819.6875,295100.15625,326334.78125,319323.375,285222.9375,255636.90625,221484.15625,245382.296875,0.017822265625,0.992431640625,0.06005859375,1.4343260526657104,-0.6713866591453552,-1.1901854276657104,73.33333587646484,202964.0,1.0
14944.2470689,294791.0,295085.96875,326296.40625,319287.875,285216.6875,255629.765625,221469.140625,245372.09375,0.015380859375,0.9931640625,0.05908203125,1.4953612089157104,-0.6713866591453552,-1.1596678495407104,73.33333587646484,202965.0,1.0
14944.2470701,294755.15625,294765.0625,326064.9375,319275.375,285063.875,255558.859375,221399.9375,245359.40625,0.013427734375,0.9931640625,0.06005859375,1.4343260526657104,-0.8239745497703552,-1.4953612089157104,73.33333587646484,202966.0,1.0
14944.2470713,294766.25,294573.46875,325951.40625,319309.09375,284974.46875,255529.796875,221374.109375,245367.1875,0.012939453125,0.993896484375,0.059326171875,1.2817381620407104,-0.8850097060203552,-1.5258787870407104,73.33333587646484,202967.0,1.0
14944.2470725,294811.375,294794.125,326135.75,319345.90625,285088.375,255583.1875,221440.625,245392.125,0.011962890625,0.9912109375,0.061279296875,1.1596678495407104,-1.1596678495407104,-1.5869139432907104,73.33333587646484,202968.0,1.0
14944.2470737,294822.90625,295100.625,326338.625,319328.9375,285232.15625,255644.609375,221492.46875,245390.25,0.0126953125,0.990478515625,0.059326171875,1.0070799589157104,-1.3122557401657104,-1.4038084745407104,73.33333587646484,202969.0,1.0
14944.2470751,294792.53125,295089.25,326296.9375,319290.03125,285218.46875,255630.03125,221467.0,245372.28125,0.01123046875,0.99169921875,0.060791015625,0.9155272841453552,-1.4648436307907104,-1.4953612089157104,73.33333587646484,202970.0,1.0
14944.2470764,294756.125,294766.9375,326060.65625,319276.625,285061.8125,255556.984375,221397.96875,245356.984375,0.012451171875,0.98974609375,0.062255859375,0.9155272841453552,-1.5869139432907104,-1.3122557401657104,73.33333587646484,202971.0,1.0
14944.2492992,294779.1875,294588.0625,325965.53125,319320.34375,284990.03125,255549.390625,221397.078125,245378.09375,0.01318359375,0.9912109375,0.063232421875,0.7324218153953552,-1.7395018339157104,-1.2207030057907104,73.33333587646484,202972.0,1.0
14944.2493045,294830.4375,294823.46875,326163.28125,319362.0,285118.0625,255620.734375,221474.421875,245410.90625,0.010498046875,0.990966796875,0.060546875,0.5798339247703552,-1.8920897245407104,-1.1291502714157104,73.33333587646484,202973.0,1.0
14944.2529074,294834.0,295129.125,326371.96875,319337.34375,285263.09375,255664.984375,221515.1875,245403.65625,0.010009765625,0.990966796875,0.05859375,0.5493163466453552,-1.9836424589157104,-1.0681151151657104,73.33333587646484,202974.0,1.0
14944.2529132,294834.0,295129.125,326371.96875,319337.34375,285263.09375,255664.984375,221515.1875,245403.65625,0.010009765625,0.990966796875,0.05859375,0.5493163466453552,-1.9836424589157104,-1.0681151151657104,73.33333587646484,202975.0,0.0
14944.2529135,294757.9375,294778.21875,326085.0625,319269.75,285078.90625,255545.1875,221390.46875,245352.703125,0.0126953125,0.99169921875,0.060302734375,0.3356933295726776,-2.410888433456421,-0.6713866591453552,73.33333587646484,202976.0,1.0
14944.2529149,294759.71875,294561.0625,325941.1875,319293.96875,284968.03125,255510.765625,221364.0,245358.59375,0.0146484375,0.98974609375,0.059326171875,0.2746581733226776,-2.563476324081421,-0.6408690810203552,73.33333587646484,202977.0,1.0
14944.2529163,294798.0625,294764.625,326095.59375,319323.90625,285063.25,255573.609375,221428.28125,245382.015625,0.01708984375,0.988037109375,0.059814453125,0.3662109076976776,-2.716064214706421,-0.6103515028953552,73.33333587646484,202978.0,1.0
14944.2550134,294807.09375,295072.0,326292.375,319308.0,285204.25,255634.5,221481.75,245382.640625,0.01953125,0.9873046875,0.058349609375,0.2746581733226776,-2.807616949081421,-0.4577636420726776,73.33333587646484,202979.0,1.0
14944.2799962,294775.625,295055.90625,326242.21875,319270.625,285185.65625,255618.9375,221461.0,245367.0,0.021240234375,0.98486328125,0.05908203125,0.2746581733226776,-2.746581792831421,-0.3051757514476776,73.33333587646484,202980.0,1.0
14944.3049076,294751.21875,294751.5,326022.84375,319269.125,285044.03125,255561.546875,221401.8125,245361.1875,0.021240234375,0.98681640625,0.056396484375,0.4272460639476776,-2.777099370956421,-0.3662109076976776,73.33333587646484,202981.0,1.0
14944.3313243,294767.125,294571.0625,325932.15625,319303.96875,284972.5,255531.40625,221384.109375,245373.890625,0.021484375,0.987548828125,0.058349609375,0.3967284858226776,-2.746581792831421,-0.3356933295726776,73.33333587646484,202982.0,1.0
14944.3313298,294809.6875,294790.375,326121.1875,319336.71875,285085.25,255579.15625,221441.6875,245393.28125,0.021240234375,0.98828125,0.060791015625,0.3662109076976776,-2.593993902206421,-0.2746581733226776,73.33333587646484,202983.0,1.0
14944.3313311,294827.9375,295108.21875,326336.90625,319323.84375,285236.15625,255646.5625,221497.75,245395.609375,0.02294921875,0.98876953125,0.059814453125,0.2746581733226776,-2.563476324081421,-0.3967284858226776,73.33333587646484,202984.0,1.0
14944.384044,294788.78125,295075.9375,326272.53125,319273.75,285203.71875,255623.140625,221460.203125,245364.046875,0.0224609375,0.988525390625,0.0625,0.0915527269244194,-2.563476324081421,-0.3967284858226776,73.33333587646484,202985.0,1.0
14944.3840498,294749.25,294741.125,326021.65625,319258.84375,285032.84375,255548.125,221384.65625,245345.90625,0.024169921875,0.987548828125,0.06005859375,0.1831054538488388,-2.410888433456421,-0.4272460639476776,73.33333587646484,202986.0,1.0
14944.3840511,294761.0625,294567.5,325931.46875,319299.6875,284960.15625,255527.03125,221378.65625,245363.34375,0.025634765625,0.98681640625,0.06201171875,0.1220703050494194,-2.197265386581421,-0.6408690810203552,73.33333587646484,202987.0,1.0
14944.3840524,294802.4375,294790.46875,326123.5,319338.3125,285080.96875,255585.328125,221449.734375,245393.90625,0.02685546875,0.989501953125,0.062255859375,0.0610351525247097,-2.136230230331421,-0.7324218153953552,73.33333587646484,202988.0,1.0
14944.3840536,294810.03125,295100.96875,326331.375,319320.6875,285227.40625,255652.828125,221505.890625,245391.59375,0.02587890625,0.9873046875,0.06005859375,0.1220703050494194,-2.014159917831421,-0.8544921278953552,73.33333587646484,202989.0,1.0
14944.3840549,294779.5625,295090.96875,326288.0,319283.15625,285213.625,255632.796875,221479.15625,245373.703125,0.026123046875,0.98828125,0.059814453125,0.0610351525247097,-1.9226073026657104,-1.1291502714157104,73.33333587646484,202990.0,1.0
14944.3840561,294748.625,294767.84375,326053.125,319272.5,285057.53125,255551.4375,221401.109375,245360.828125,0.027587890625,0.989990234375,0.056884765625,0.1525878757238388,-1.7089842557907104,-1.2512205839157104,73.33333587646484,202991.0,1.0
14944.3840573,294761.84375,294570.15625,325940.65625,319306.21875,284969.65625,255527.03125,221380.09375,245371.734375,0.026123046875,0.989990234375,0.062255859375,0.0610351525247097,-1.6174315214157104,-1.4343260526657104,73.33333587646484,202992.0,1.0
14944.3840587,294797.8125,294782.78125,326114.03125,319332.78125,285074.875,255576.03125,221434.625,245385.78125,0.02734375,0.989501953125,0.06396484375,0.03051757626235485,-1.4953612089157104,-1.4648436307907104,73.33333587646484,202993.0,1.0
14944.408045,294807.1875,295094.71875,326318.84375,319313.90625,285219.4375,255629.046875,221486.9375,245385.421875,0.026123046875,0.990234375,0.064453125,-0.03051757626235485,-1.3122557401657104,-1.6174315214157104,73.33333587646484,202994.0,1.0
14944.4080505,294807.1875,295094.71875,326318.84375,319313.90625,285219.4375,255629.046875,221486.9375,245385.421875,0.026123046875,0.990234375,0.064453125,-0.03051757626235485,-1.3122557401657104,-1.6174315214157104,73.33333587646484,202995.0,0.0
14944.4080507,294807.1875,295094.71875,326318.84375,319313.90625,285219.4375,255629.046875,221486.9375,245385.421875,0.026123046875,0.990234375,0.064453125,-0.03051757626235485,-1.3122557401657104,-1.6174315214157104,73.33333587646484,202996.0,0.0
14944.4080509,294807.1875,295094.71875,326318.84375,319313.90625,285219.4375,255629.046875,221486.9375,245385.421875,0.026123046875,0.990234375,0.064453125,-0.03051757626235485,-1.3122557401657104,-1.6174315214157104,73.33333587646484,202997.0,0.0
14944.4080511,294807.1875,295094.71875,326318.84375,319313.90625,285219.4375,255629.046875,221486.9375,245385.421875,0.026123046875,0.990234375,0.064453125,-0.03051757626235485,-1.3122557401657104,-1.6174315214157104,73.33333587646484,202998.0,0.0
14944.4080513,294807.1875,295094.71875,326318.84375,319313.90625,285219.4375,255629.046875,221486.9375,245385.421875,0.026123046875,0.990234375,0.064453125,-0.03051757626235485,-1.3122557401657104,-1.6174315214157104,73.33333587646484,202999.0,0.0
14944.4080515,294807.1875,295094.71875,326318.84375,319313.90625,285219.4375,255629.046875,221486.9375,245385.421875,0.026123046875,0.990234375,0.064453125,-0.03051757626235485,-1.3122557401657104,-1.6174315214157104,73.33333587646484,203000.0,0.0
14944.4080516,294742.28125,294759.875,326043.9375,319262.59375,285054.3125,255556.984375,221409.15625,245350.1875,0.01513671875,0.98974609375,0.062255859375,-0.2441406100988388,-1.0070799589157104,-1.5869139432907104,73.33333587646484,203001.0,1.0
14944.4324863,294763.71875,294572.65625,325947.5625,319306.5625,284979.125,255537.5,221398.15625,245372.640625,0.012939453125,0.990234375,0.062744140625,-0.1831054538488388,-1.0375975370407104,-1.6174315214157104,73.33333587646484,203002.0,1.0
14944.4499153,294803.25,294786.25,326127.25,319337.15625,285086.15625,255581.578125,221449.375,245393.734375,0.01123046875,0.990478515625,0.06396484375,-0.2136230319738388,-1.2207030057907104,-1.5563963651657104,73.33333587646484,203003.0,1.0
14944.4524139,294809.0625,295097.21875,326331.8125,319314.09375,285227.6875,255636.640625,221493.546875,245389.0,0.009765625,0.9912109375,0.06396484375,-0.3051757514476776,-1.3427733182907104,-1.4038084745407104,73.33333587646484,203004.0,1.0
14944.4574493,294787.53125,295095.625,326306.34375,319279.03125,285225.25,255630.296875,221477.8125,245370.3125,0.010009765625,0.989990234375,0.0625,-0.3051757514476776,-1.4038084745407104,-1.3427733182907104,73.33333587646484,203005.0,1.0
14944.4611887,294755.15625,294777.78125,326084.875,319266.625,285073.96875,255556.71875,221403.515625,245350.46875,0.01220703125,0.98779296875,0.064697265625,-0.3051757514476776,-1.5869139432907104,-1.1901854276657104,73.33333587646484,203006.0,1.0
14944.4636578,294765.6875,294574.8125,325967.5,319297.625,284980.65625,255522.828125,221376.96875,245358.953125,0.010009765625,0.9873046875,0.062744140625,-0.2441406100988388,-1.7395018339157104,-1.0986326932907104,73.33333587646484,203007.0,1.0
14944.4661842,294798.34375,294769.625,326120.28125,319323.5625,285074.875,255565.65625,221431.234375,245378.265625,0.010986328125,0.98974609375,0.0625,-0.2136230319738388,-2.044677495956421,-1.0070799589157104,73.33333587646484,203008.0,1.0
14944.470555,294798.78125,295050.5625,326277.625,319297.90625,285185.125,255616.53125,221471.90625,245371.109375,0.010498046875,0.9892578125,0.06201171875,-0.1525878757238388,-2.258300542831421,-0.8544921278953552,73.33333587646484,203009.0,1.0
14944.4705574,294767.5625,295035.34375,326218.4375,319258.75,285163.375,255605.53125,221447.421875,245354.65625,0.010986328125,0.989013671875,0.065673828125,-0.1525878757238388,-2.441406011581421,-0.7019042372703552,73.33333587646484,203010.0,1.0
14944.4705589,294746.9375,294749.4375,326017.5625,319262.125,285036.34375,255551.53125,221396.09375,245347.421875,0.012451171875,0.98779296875,0.062744140625,-0.1831054538488388,-2.471923589706421,-0.4577636420726776,73.33333587646484,203011.0,1.0
14944.4705602,294763.03125,294577.9375,325939.84375,319301.375,284971.0,255525.421875,221381.34375,245357.171875,0.015625,0.986328125,0.063232421875,-0.03051757626235485,-2.502441167831421,-0.4577636420726776,73.33333587646484,203012.0,1.0
14944.497897,294795.28125,294795.21875,326127.53125,319327.59375,285083.90625,255567.4375,221432.84375,245375.859375,0.01708984375,0.98486328125,0.06591796875,0.0610351525247097,-2.532958745956421,-0.4577636420726776,73.33333587646484,203013.0,1.0
14944.4979023,294805.03125,295095.625,326330.03125,319311.59375,285224.28125,255618.9375,221484.34375,245379.96875,0.018310546875,0.98486328125,0.068115234375,0.1831054538488388,-2.471923589706421,-0.5187987685203552,73.33333587646484,203014.0,1.0
14944.4979036,294769.375,295053.6875,326250.1875,319264.65625,285181.28125,255601.15625,221450.09375,245355.296875,0.0185546875,0.9833984375,0.0673828125,0.2441406100988388,-2.502441167831421,-0.4577636420726776,73.33333587646484,203015.0,1.0
14944.497905,294733.59375,294725.28125,326002.34375,319252.21875,285017.75,255541.15625,221386.0,245341.96875,0.021484375,0.985107421875,0.065673828125,0.1831054538488388,-2.380370855331421,-0.4577636420726776,73.33333587646484,203016.0,1.0
14944.4979063,294742.71875,294532.71875,325881.5625,319286.28125,284927.0,255520.953125,221371.59375,245356.984375,0.0234375,0.984619140625,0.064208984375,0.4272460639476776,-2.227782964706421,-0.4272460639476776,73.33333587646484,203017.0,1.0
14944.4979076,294781.34375,294761.5,326069.9375,319315.78125,285044.03125,255573.875,221433.015625,245379.078125,0.02392578125,0.9873046875,0.066162109375,0.4577636420726776,-2.105712652206421,-0.5187987685203552,73.33333587646484,203018.0,1.0
14944.497909,294799.21875,295084.53125,326295.59375,319303.8125,285204.96875,255629.21875,221488.28125,245380.0625,0.02587890625,0.9873046875,0.06591796875,0.6408690810203552,-2.014159917831421,-0.6103515028953552,73.33333587646484,203019.0,1.0
14944.5225008,294766.15625,295068.53125,326253.78125,319262.6875,285191.09375,255611.171875,221463.6875,245359.40625,0.02685546875,0.987060546875,0.066650390625,0.7629393935203552,-1.8310545682907104,-0.7629393935203552,73.33333587646484,203020.0,1.0
14944.5424876,294766.15625,295068.53125,326253.78125,319262.6875,285191.09375,255611.171875,221463.6875,245359.40625,0.02685546875,0.987060546875,0.066650390625,0.7629393935203552,-1.8310545682907104,-0.7629393935203552,73.33333587646484,203021.0,0.0
14944.5424889,294766.15625,295068.53125,326253.78125,319262.6875,285191.09375,255611.171875,221463.6875,245359.40625,0.02685546875,0.987060546875,0.066650390625,0.7629393935203552,-1.8310545682907104,-0.7629393935203552,73.33333587646484,203022.0,0.0
14944.5424891,294766.15625,295068.53125,326253.78125,319262.6875,285191.09375,255611.171875,221463.6875,245359.40625,0.02685546875,0.987060546875,0.066650390625,0.7629393935203552,-1.8310545682907104,-0.7629393935203552,73.33333587646484,203023.0,0.0
14944.5424892,294766.15625,295068.53125,326253.78125,319262.6875,285191.09375,255611.171875,221463.6875,245359.40625,0.02685546875,0.987060546875,0.066650390625,0.7629393935203552,-1.8310545682907104,-0.7629393935203552,73.33333587646484,203024.0,0.0
14944.5424894,294766.15625,295068.53125,326253.78125,319262.6875,285191.09375,255611.171875,221463.6875,245359.40625,0.02685546875,0.987060546875,0.066650390625,0.7629393935203552,-1.8310545682907104,-0.7629393935203552,73.33333587646484,203025.0,0.0
14944.5424896,294766.15625,295068.53125,326253.78125,319262.6875,285191.09375,255611.171875,221463.6875,245359.40625,0.02685546875,0.987060546875,0.066650390625,0.7629393935203552,-1.8310545682907104,-0.7629393935203552,73.33333587646484,203026.0,0.0
14944.5424898,294766.15625,295068.53125,326253.78125,319262.6875,285191.09375,255611.171875,221463.6875,245359.40625,0.02685546875,0.987060546875,0.066650390625,0.7629393935203552,-1.8310545682907104,-0.7629393935203552,73.33333587646484,203027.0,0.0
14944.5424899,294766.15625,295068.53125,326253.78125,319262.6875,285191.09375,255611.171875,221463.6875,245359.40625,0.02685546875,0.987060546875,0.066650390625,0.7629393935203552,-1.8310545682907104,-0.7629393935203552,73.33333587646484,203028.0,0.0
14944.5424901,294766.15625,295068.53125,326253.78125,319262.6875,285191.09375,255611.171875,221463.6875,245359.40625,0.02685546875,0.987060546875,0.066650390625,0.7629393935203552,-1.8310545682907104,-0.7629393935203552,73.33333587646484,203029.0,0.0
14944.5424903,294766.15625,295068.53125,326253.78125,319262.6875,285191.09375,255611.171875,221463.6875,245359.40625,0.02685546875,0.987060546875,0.066650390625,0.7629393935203552,-1.8310545682907104,-0.7629393935203552,73.33333587646484,203030.0,0.0
14944.5424905,294766.15625,295068.53125,326253.78125,319262.6875,285191.09375,255611.171875,221463.6875,245359.40625,0.02685546875,0.987060546875,0.066650390625,0.7629393935203552,-1.8310545682907104,-0.7629393935203552,73.33333587646484,203031.0,0.0
14944.5424906,294766.15625,295068.53125,326253.78125,319262.6875,285191.09375,255611.171875,221463.6875,245359.40625,0.02685546875,0.987060546875,0.066650390625,0.7629393935203552,-1.8310545682907104,-0.7629393935203552,73.33333587646484,203032.0,0.0
14944.5424908,294766.15625,295068.53125,326253.78125,319262.6875,285191.09375,255611.171875,221463.6875,245359.40625,0.02685546875,0.987060546875,0.066650390625,0.7629393935203552,-1.8310545682907104,-0.7629393935203552,73.33333587646484,203033.0,0.0
14944.542491,294766.15625,295068.53125,326253.78125,319262.6875,285191.09375,255611.171875,221463.6875,245359.40625,0.02685546875,0.987060546875,0.066650390625,0.7629393935203552,-1.8310545682907104,-0.7629393935203552,73.33333587646484,203034.0,0.0
14944.5424912,294766.15625,295068.53125,326253.78125,319262.6875,285191.09375,255611.171875,221463.6875,245359.40625,0.02685546875,0.987060546875,0.066650390625,0.7629393935203552,-1.8310545682907104,-0.7629393935203552,73.33333587646484,203035.0,0.0
14944.5424913,294766.15625,295068.53125,326253.78125,319262.6875,285191.09375,255611.171875,221463.6875,245359.40625,0.02685546875,0.987060546875,0.066650390625,0.7629393935203552,-1.8310545682907104,-0.7629393935203552,73.33333587646484,203036.0,0.0
14944.5424915,294766.15625,295068.53125,326253.78125,319262.6875,285191.09375,255611.171875,221463.6875,245359.40625,0.02685546875,0.987060546875,0.066650390625,0.7629393935203552,-1.8310545682907104,-0.7629393935203552,73.33333587646484,203037.0,0.0
14944.5424917,294766.15625,295068.53125,326253.78125,319262.6875,285191.09375,255611.171875,221463.6875,245359.40625,0.02685546875,0.987060546875,0.066650390625,0.7629393935203552,-1.8310545682907104,-0.7629393935203552,73.33333587646484,203038.0,0.0
14944.5424918,294766.15625,295068.53125,326253.78125,319262.6875,285191.09375,255611.171875,221463.6875,245359.40625,0.02685546875,0.987060546875,0.066650390625,0.7629393935203552,-1.8310545682907104,-0.7629393935203552,73.33333587646484,203039.0,0.0
14944.542492,294766.15625,295068.53125,326253.78125,319262.6875,285191.09375,255611.171875,221463.6875,245359.40625,0.02685546875,0.987060546875,0.066650390625,0.7629393935203552,-1.8310545682907104,-0.7629393935203552,73.33333587646484,203040.0,0.0
14944.5424922,294766.15625,295068.53125,326253.78125,319262.6875,285191.09375,255611.171875,221463.6875,245359.40625,0.02685546875,0.987060546875,0.066650390625,0.7629393935203552,-1.8310545682907104,-0.7629393935203552,73.33333587646484,203041.0,0.0
14944.5424923,294766.15625,295068.53125,326253.78125,319262.6875,285191.09375,255611.171875,221463.6875,245359.40625,0.02685546875,0.987060546875,0.066650390625,0.7629393935203552,-1.8310545682907104,-0.7629393935203552,73.33333587646484,203042.0,0.0
14944.5424925,294766.15625,295068.53125,326253.78125,319262.6875,285191.09375,255611.171875,221463.6875,245359.40625,0.02685546875,0.987060546875,0.066650390625,0.7629393935203552,-1.8310545682907104,-0.7629393935203552,73.33333587646484,203043.0,0.0
