Time,FZ,C3,CZ,C4,PZ,PO7,OZ,PO8,AccX,AccY,AccZ,Gyro1,Gyro2,Gyro3,Battery,Counter,Validation
14627.7822815,292797.125,295572.25,334997.40625,330343.78125,285212.21875,256164.6875,222313.234375,244329.875,0.02392578125,0.99609375,0.1904296875,0.1831054538488388,-1.4343260526657104,-1.0681151151657104,80.0,123917.0,1.0
14627.7872447,292771.9375,295425.78125,334838.0,330318.03125,285131.5625,256134.015625,222275.40625,244322.375,0.023681640625,0.994873046875,0.19140625,0.2136230319738388,-1.4953612089157104,-1.1291502714157104,80.0,123918.0,1.0
14627.7897349,292776.65625,295172.3125,334695.3125,330344.3125,285021.3125,256095.484375,222238.21875,244325.328125,0.02490234375,0.99609375,0.193115234375,0.2441406100988388,-1.4343260526657104,-1.1901854276657104,80.0,123919.0,1.0
14627.7922441,292816.0,295174.8125,334792.21875,330397.0625,285049.21875,256111.484375,222259.140625,244331.671875,0.023681640625,0.997314453125,0.196533203125,0.1525878757238388,-1.4038084745407104,-1.1596678495407104,80.0,123920.0,1.0
14627.7947378,292833.0,295415.40625,334974.25,330398.21875,285164.28125,256167.453125,222309.390625,244335.78125,0.026123046875,0.993896484375,0.197021484375,0.03051757626235485,-1.4343260526657104,-1.1901854276657104,80.0,123921.0,1.0
14627.7972965,292797.5,295553.375,334983.71875,330339.40625,285197.71875,256169.0625,222311.71875,244319.859375,0.025146484375,0.993896484375,0.192626953125,0.0610351525247097,-1.4038084745407104,-1.0986326932907104,80.0,123922.0,1.0
14627.8222542,292773.90625,295415.78125,334827.90625,330315.78125,285118.6875,256139.203125,222284.171875,244321.5625,0.024169921875,0.995361328125,0.19091796875,0.2746581733226776,-1.3122557401657104,-1.1901854276657104,80.0,123923.0,1.0
14627.872311,292778.71875,295169.46875,334688.96875,330339.40625,285008.09375,256096.375,222239.921875,244320.671875,0.02587890625,0.99755859375,0.193603515625,0.1831054538488388,-1.2817381620407104,-1.2207030057907104,80.0,123924.0,1.0
14627.8973238,292817.53125,295166.5,334776.125,330393.03125,285032.3125,256111.3125,222258.34375,244342.9375,0.025146484375,0.998046875,0.193115234375,0.1525878757238388,-1.2512205839157104,-1.2512205839157104,80.0,123925.0,1.0
14627.9222395,292843.09375,295426.875,334981.0625,330405.8125,285167.875,256171.203125,222320.390625,244361.171875,0.02392578125,0.999267578125,0.1923828125,0.1525878757238388,-1.3427733182907104,-1.1901854276657104,80.0,123926.0,1.0
14627.9473084,292814.125,295578.40625,335002.0625,330347.09375,285211.03125,256186.5,222318.59375,244323.625,0.023681640625,0.998046875,0.193603515625,0.1525878757238388,-1.4038084745407104,-1.1901854276657104,80.0,123927.0,1.0
14627.9896893,292783.375,295430.96875,334836.5625,330318.5625,285126.71875,256156.546875,222282.5625,244318.25,0.0234375,0.99755859375,0.1962890625,0.0915527269244194,-1.3122557401657104,-1.2512205839157104,80.0,123928.0,1.0
14627.9897064,292788.28125,295184.5625,334703.25,330347.34375,285024.53125,256115.0625,222246.0,244334.625,0.0234375,0.99658203125,0.195068359375,0.03051757626235485,-1.3732908964157104,-1.1596678495407104,80.0,123929.0,1.0
14627.9897086,292823.96875,295181.875,334790.0625,330399.3125,285051.1875,256115.515625,222269.78125,244363.046875,0.02197265625,0.997314453125,0.195556640625,0.03051757626235485,-1.2817381620407104,-1.1596678495407104,80.0,123930.0,1.0
14627.9897105,292838.8125,295422.46875,334973.375,330400.0,285171.09375,256167.640625,222327.09375,244371.984375,0.02099609375,0.9970703125,0.196533203125,0.03051757626235485,-1.3122557401657104,-1.1901854276657104,80.0,123931.0,1.0
14627.9897125,292812.6875,295567.40625,334992.6875,330345.03125,285214.71875,256198.65625,222338.0,244346.328125,0.02197265625,0.995361328125,0.198486328125,-0.0915527269244194,-1.3122557401657104,-1.2512205839157104,80.0,123932.0,1.0
14627.9897143,292777.5625,295412.1875,334822.8125,330310.78125,285123.875,256167.8125,222298.65625,244335.875,0.021484375,0.99658203125,0.198974609375,0.0610351525247097,-1.3427733182907104,-1.2512205839157104,80.0,123933.0,1.0
14627.9897161,292775.3125,295160.4375,334686.625,330332.34375,285015.4375,256118.640625,222251.984375,244333.015625,0.02197265625,0.996826171875,0.19873046875,-0.0610351525247097,-1.3427733182907104,-1.1901854276657104,80.0,123934.0,1.0
14627.9897179,292811.96875,295159.71875,334780.34375,330386.0625,285042.5,256117.390625,222266.03125,244361.53125,0.019287109375,0.997802734375,0.197021484375,-0.1525878757238388,-1.4038084745407104,-1.2512205839157104,80.0,123935.0,1.0
14627.9897198,292819.59375,295398.53125,334959.78125,330378.375,285149.25,256140.1875,222298.03125,244357.15625,0.0205078125,0.997314453125,0.1962890625,-0.2136230319738388,-1.4953612089157104,-1.1901854276657104,80.0,123936.0,1.0
14627.9897217,292800.4375,295560.71875,334992.6875,330334.3125,285205.6875,256171.65625,222318.6875,244349.375,0.020751953125,0.997802734375,0.197998046875,-0.2441406100988388,-1.3732908964157104,-1.1596678495407104,80.0,123937.0,1.0
14627.9897236,292776.03125,295416.84375,334831.75,330307.9375,285124.3125,256136.34375,222271.84375,244332.921875,0.021484375,0.996337890625,0.19580078125,-0.2441406100988388,-1.3427733182907104,-1.3732908964157104,80.0,123938.0,1.0
14627.9897256,292788.1875,295169.375,334696.375,330342.96875,285023.28125,256103.078125,222244.75,244349.90625,0.021728515625,0.9970703125,0.1982421875,-0.0915527269244194,-1.3427733182907104,-1.2207030057907104,80.0,123939.0,1.0
14627.9897276,292833.0,295176.34375,334792.84375,330404.03125,285058.59375,256127.125,222279.890625,244379.046875,0.019287109375,0.996337890625,0.196533203125,-0.2136230319738388,-1.4038084745407104,-1.2512205839157104,80.0,123940.0,1.0
14627.9897299,292854.09375,295426.5,334981.75,330408.34375,285178.78125,256180.328125,222331.109375,244384.953125,0.019287109375,0.9951171875,0.198486328125,-0.1831054538488388,-1.5563963651657104,-1.1596678495407104,80.0,123941.0,1.0
14627.9897318,292827.625,295580.1875,335009.21875,330355.3125,285225.625,256193.828125,222328.609375,244358.671875,0.020751953125,0.995361328125,0.194091796875,-0.1525878757238388,-1.5869139432907104,-1.0375975370407104,80.0,123942.0,1.0
14627.9897342,292796.59375,295426.15625,334838.90625,330321.59375,285133.53125,256155.5625,222278.1875,244340.609375,0.021240234375,0.99560546875,0.19873046875,-0.1525878757238388,-1.6479490995407104,-1.1291502714157104,80.0,123943.0,1.0
14627.9922328,292800.96875,295177.6875,334696.8125,330350.21875,285024.8125,256106.125,222241.625,244353.390625,0.019775390625,0.996337890625,0.19482421875,-0.1525878757238388,-1.6479490995407104,-1.0070799589157104,80.0,123944.0,1.0
14627.9947178,292843.4375,295191.1875,334795.25,330408.0625,285057.1875,256125.34375,222273.171875,244371.546875,0.020263671875,0.99609375,0.198974609375,-0.1831054538488388,-1.7089842557907104,-1.0681151151657104,80.0,123945.0,1.0
14627.9972704,292853.5625,295429.46875,334973.8125,330403.59375,285168.84375,256170.3125,222315.640625,244371.8125,0.021728515625,0.99365234375,0.200927734375,-0.1220703050494194,-1.8310545682907104,-1.0986326932907104,80.0,123946.0,1.0
14627.9997124,292815.90625,295565.625,334981.21875,330344.5,285203.90625,256173.171875,222314.125,244357.15625,0.02099609375,0.995361328125,0.20068359375,-0.1220703050494194,-1.7089842557907104,-1.1596678495407104,80.0,123947.0,1.0
14628.0022463,292788.28125,295427.75,334833.0,330320.875,285130.03125,256148.59375,222281.3125,244343.375,0.020263671875,0.99267578125,0.2021484375,0.0,-1.7395018339157104,-1.1901854276657104,80.0,123948.0,1.0
14628.0053207,292794.375,295182.875,334708.34375,330349.40625,285033.84375,256105.9375,222248.6875,244354.5625,0.022216796875,0.992431640625,0.20166015625,0.0,-1.8005369901657104,-1.0986326932907104,80.0,123949.0,1.0
14628.0053268,292829.25,295181.25,334800.34375,330399.5625,285063.4375,256111.21875,222273.625,244384.0625,0.022216796875,0.99658203125,0.201416015625,0.0610351525247097,-1.8310545682907104,-1.0986326932907104,80.0,123950.0,1.0
14628.0303792,292849.8125,295429.71875,334991.40625,330404.65625,285187.53125,256167.09375,222322.625,244389.875,0.02197265625,0.9970703125,0.2001953125,0.0915527269244194,-1.8310545682907104,-1.0375975370407104,80.0,123951.0,1.0
14628.0303887,292822.25,295576.71875,335008.5,330352.375,285228.5625,256192.671875,222332.71875,244372.796875,0.024169921875,0.998291015625,0.201904296875,-0.03051757626235485,-1.8005369901657104,-0.9460448622703552,80.0,123952.0,1.0
14628.0562782,292789.90625,295413.375,334819.75,330320.09375,285124.0625,256158.0625,222288.015625,244359.03125,0.02490234375,0.997802734375,0.2021484375,-0.1525878757238388,-1.7395018339157104,-0.7934569716453552,80.0,123953.0,1.0
14628.0562925,292793.65625,295166.96875,334677.875,330341.8125,285014.875,256115.15625,222244.296875,244356.25,0.0244140625,0.998291015625,0.202880859375,-0.2441406100988388,-1.7395018339157104,-0.7324218153953552,80.0,123954.0,1.0
14628.0562939,292833.96875,295182.96875,334787.5625,330394.65625,285055.5625,256122.21875,222264.59375,244368.140625,0.023193359375,0.99560546875,0.202880859375,-0.1220703050494194,-1.6174315214157104,-0.7324218153953552,80.0,123955.0,1.0
14628.0562951,292847.03125,295428.46875,334977.375,330395.53125,285176.8125,256167.1875,222314.578125,244376.546875,0.0244140625,0.99365234375,0.19970703125,-0.1525878757238388,-1.5258787870407104,-0.6713866591453552,80.0,123956.0,1.0
14628.0562967,292824.75,295585.65625,335003.84375,330355.03125,285231.78125,256198.390625,222342.203125,244390.671875,0.02490234375,0.994384765625,0.2001953125,-0.1220703050494194,-1.5563963651657104,-0.6713866591453552,80.0,123957.0,1.0
14628.0798187,292800.8125,295440.8125,334851.5,330327.59375,285152.21875,256163.78125,222292.84375,244362.609375,0.025146484375,0.99462890625,0.20166015625,-0.0610351525247097,-1.4953612089157104,-0.6408690810203552,80.0,123958.0,1.0
14628.1047805,292800.1875,295180.90625,334707.65625,330344.3125,285033.9375,256096.375,222230.53125,244334.265625,0.02587890625,0.996337890625,0.200927734375,-0.1220703050494194,-1.4343260526657104,-0.6103515028953552,80.0,123959.0,1.0
14628.1298239,292833.4375,295180.09375,334784.53125,330392.59375,285050.28125,256106.5625,222257.984375,244369.40625,0.02392578125,0.99609375,0.199951171875,-0.1525878757238388,-1.5258787870407104,-0.6408690810203552,80.0,123960.0,1.0
14628.1562228,292846.03125,295424.625,334968.71875,330395.8125,285173.21875,256165.125,222321.28125,244389.875,0.025634765625,0.992919921875,0.1953125,-0.2441406100988388,-1.4343260526657104,-0.5187987685203552,80.0,123961.0,1.0
14628.1562316,292820.03125,295576.875,334994.8125,330346.09375,285227.75,256190.96875,222329.765625,244366.53125,0.02490234375,0.992919921875,0.198974609375,-0.2136230319738388,-1.2817381620407104,-0.5187987685203552,80.0,123962.0,1.0
14628.156233,292792.9375,295422.65625,334828.4375,330318.125,285141.21875,256146.625,222278.984375,244351.34375,0.0244140625,0.9931640625,0.197021484375,-0.1525878757238388,-1.1901854276657104,-0.6103515028953552,80.0,123963.0,1.0
14628.1562344,292800.625,295177.34375,334696.5625,330345.75,285038.75,256107.28125,222245.546875,244347.3125,0.022705078125,0.99365234375,0.201416015625,-0.0915527269244194,-1.1291502714157104,-0.7324218153953552,80.0,123964.0,1.0
14628.1562357,292836.65625,295181.96875,334788.28125,330397.6875,285067.625,256119.078125,222273.890625,244375.203125,0.023193359375,0.992431640625,0.19921875,0.03051757626235485,-1.0070799589157104,-0.7019042372703552,80.0,123965.0,1.0
14628.1798238,292852.125,295434.03125,334968.0,330400.28125,285185.84375,256176.125,222332.015625,244390.953125,0.02490234375,0.993408203125,0.20166015625,0.0915527269244194,-1.0986326932907104,-0.7324218153953552,80.0,123966.0,1.0
14628.2047819,292823.96875,295585.125,334994.8125,330347.25,285234.65625,256200.09375,222327.8125,244365.109375,0.02392578125,0.99658203125,0.19873046875,0.0915527269244194,-1.0986326932907104,-0.8239745497703552,80.0,123967.0,1.0
14628.2303163,292797.59375,295436.625,334840.15625,330320.0,285153.8125,256159.859375,222286.140625,244351.34375,0.021728515625,0.99560546875,0.19775390625,0.1525878757238388,-1.1291502714157104,-1.0375975370407104,80.0,123968.0,1.0
14628.2303239,292799.09375,295187.0625,334702.5625,330346.375,285047.53125,256113.359375,222248.140625,244358.3125,0.021484375,0.997802734375,0.20068359375,0.1831054538488388,-1.2207030057907104,-1.1291502714157104,80.0,123969.0,1.0
14628.2554211,292836.5625,295191.375,334790.4375,330397.875,285072.46875,256132.671875,222275.5,244376.109375,0.022705078125,1.000244140625,0.197021484375,0.1525878757238388,-1.2817381620407104,-1.2512205839157104,80.0,123970.0,1.0
14628.2554276,292852.65625,295442.59375,334978.5625,330401.34375,285190.9375,256181.9375,222326.546875,244383.609375,0.023681640625,1.00048828125,0.193603515625,0.2136230319738388,-1.2512205839157104,-1.3732908964157104,80.0,123971.0,1.0
14628.2803598,292824.0625,295591.90625,335003.75,330350.9375,285239.375,256202.328125,222334.421875,244375.390625,0.0224609375,0.99951171875,0.19775390625,0.1831054538488388,-1.3122557401657104,-1.4343260526657104,80.0,123972.0,1.0
14628.2803659,292793.90625,295436.34375,334837.03125,330320.0,285146.5,256156.015625,222285.6875,244352.5,0.023681640625,0.9990234375,0.19580078125,0.2136230319738388,-1.3427733182907104,-1.3427733182907104,80.0,123973.0,1.0
14628.2803673,292794.71875,295180.375,334686.8125,330342.15625,285025.0625,256095.84375,222235.53125,244349.90625,0.024658203125,0.9990234375,0.197265625,0.3356933295726776,-1.3427733182907104,-1.3122557401657104,80.0,123974.0,1.0
14628.3053846,292830.21875,295185.90625,334776.3125,330394.125,285050.125,256103.96875,222256.015625,244365.375,0.025634765625,0.998046875,0.1982421875,0.2746581733226776,-1.3122557401657104,-1.2817381620407104,80.0,123975.0,1.0
14628.3053915,292830.21875,295185.90625,334776.3125,330394.125,285050.125,256103.96875,222256.015625,244365.375,0.025634765625,0.998046875,0.1982421875,0.2746581733226776,-1.3122557401657104,-1.2817381620407104,80.0,123976.0,0.0
14628.3053917,292830.21875,295185.90625,334776.3125,330394.125,285050.125,256103.96875,222256.015625,244365.375,0.025634765625,0.998046875,0.1982421875,0.2746581733226776,-1.3122557401657104,-1.2817381620407104,80.0,123977.0,0.0
14628.3053919,292830.21875,295185.90625,334776.3125,330394.125,285050.125,256103.96875,222256.015625,244365.375,0.025634765625,0.998046875,0.1982421875,0.2746581733226776,-1.3122557401657104,-1.2817381620407104,80.0,123978.0,0.0
14628.3053921,292830.21875,295185.90625,334776.3125,330394.125,285050.125,256103.96875,222256.015625,244365.375,0.025634765625,0.998046875,0.1982421875,0.2746581733226776,-1.3122557401657104,-1.2817381620407104,80.0,123979.0,0.0
14628.3053923,292830.21875,295185.90625,334776.3125,330394.125,285050.125,256103.96875,222256.015625,244365.375,0.025634765625,0.998046875,0.1982421875,0.2746581733226776,-1.3122557401657104,-1.2817381620407104,80.0,123980.0,0.0
14628.3053924,292830.21875,295185.90625,334776.3125,330394.125,285050.125,256103.96875,222256.015625,244365.375,0.025634765625,0.998046875,0.1982421875,0.2746581733226776,-1.3122557401657104,-1.2817381620407104,80.0,123981.0,0.0
14628.3053926,292830.21875,295185.90625,334776.3125,330394.125,285050.125,256103.96875,222256.015625,244365.375,0.025634765625,0.998046875,0.1982421875,0.2746581733226776,-1.3122557401657104,-1.2817381620407104,80.0,123982.0,0.0
14628.3053928,292830.21875,295185.90625,334776.3125,330394.125,285050.125,256103.96875,222256.015625,244365.375,0.025634765625,0.998046875,0.1982421875,0.2746581733226776,-1.3122557401657104,-1.2817381620407104,80.0,123983.0,0.0
14628.305393,292830.21875,295185.90625,334776.3125,330394.125,285050.125,256103.96875,222256.015625,244365.375,0.025634765625,0.998046875,0.1982421875,0.2746581733226776,-1.3122557401657104,-1.2817381620407104,80.0,123984.0,0.0
14628.3053932,292830.21875,295185.90625,334776.3125,330394.125,285050.125,256103.96875,222256.015625,244365.375,0.025634765625,0.998046875,0.1982421875,0.2746581733226776,-1.3122557401657104,-1.2817381620407104,80.0,123985.0,0.0
14628.3053933,292830.21875,295185.90625,334776.3125,330394.125,285050.125,256103.96875,222256.015625,244365.375,0.025634765625,0.998046875,0.1982421875,0.2746581733226776,-1.3122557401657104,-1.2817381620407104,80.0,123986.0,0.0
14628.3053935,292830.21875,295185.90625,334776.3125,330394.125,285050.125,256103.96875,222256.015625,244365.375,0.025634765625,0.998046875,0.1982421875,0.2746581733226776,-1.3122557401657104,-1.2817381620407104,80.0,123987.0,0.0
14628.3053937,292830.21875,295185.90625,334776.3125,330394.125,285050.125,256103.96875,222256.015625,244365.375,0.025634765625,0.998046875,0.1982421875,0.2746581733226776,-1.3122557401657104,-1.2817381620407104,80.0,123988.0,0.0
14628.3053938,292830.21875,295185.90625,334776.3125,330394.125,285050.125,256103.96875,222256.015625,244365.375,0.025634765625,0.998046875,0.1982421875,0.2746581733226776,-1.3122557401657104,-1.2817381620407104,80.0,123989.0,0.0
14628.305394,292830.21875,295185.90625,334776.3125,330394.125,285050.125,256103.96875,222256.015625,244365.375,0.025634765625,0.998046875,0.1982421875,0.2746581733226776,-1.3122557401657104,-1.2817381620407104,80.0,123990.0,0.0
14628.3053942,292830.21875,295185.90625,334776.3125,330394.125,285050.125,256103.96875,222256.015625,244365.375,0.025634765625,0.998046875,0.1982421875,0.2746581733226776,-1.3122557401657104,-1.2817381620407104,80.0,123991.0,0.0
14628.3053943,292830.21875,295185.90625,334776.3125,330394.125,285050.125,256103.96875,222256.015625,244365.375,0.025634765625,0.998046875,0.1982421875,0.2746581733226776,-1.3122557401657104,-1.2817381620407104,80.0,123992.0,0.0
14628.3053945,292830.21875,295185.90625,334776.3125,330394.125,285050.125,256103.96875,222256.015625,244365.375,0.025634765625,0.998046875,0.1982421875,0.2746581733226776,-1.3122557401657104,-1.2817381620407104,80.0,123993.0,0.0
14628.3053947,292830.21875,295185.90625,334776.3125,330394.125,285050.125,256103.96875,222256.015625,244365.375,0.025634765625,0.998046875,0.1982421875,0.2746581733226776,-1.3122557401657104,-1.2817381620407104,80.0,123994.0,0.0
14628.3053948,292830.21875,295185.90625,334776.3125,330394.125,285050.125,256103.96875,222256.015625,244365.375,0.025634765625,0.998046875,0.1982421875,0.2746581733226776,-1.3122557401657104,-1.2817381620407104,80.0,123995.0,0.0
14628.305395,292830.21875,295185.90625,334776.3125,330394.125,285050.125,256103.96875,222256.015625,244365.375,0.025634765625,0.998046875,0.1982421875,0.2746581733226776,-1.3122557401657104,-1.2817381620407104,80.0,123996.0,0.0
14628.3053952,292830.21875,295185.90625,334776.3125,330394.125,285050.125,256103.96875,222256.015625,244365.375,0.025634765625,0.998046875,0.1982421875,0.2746581733226776,-1.3122557401657104,-1.2817381620407104,80.0,123997.0,0.0
14628.3053954,292830.21875,295185.90625,334776.3125,330394.125,285050.125,256103.96875,222256.015625,244365.375,0.025634765625,0.998046875,0.1982421875,0.2746581733226776,-1.3122557401657104,-1.2817381620407104,80.0,123998.0,0.0
14628.3053956,292830.21875,295185.90625,334776.3125,330394.125,285050.125,256103.96875,222256.015625,244365.375,0.025634765625,0.998046875,0.1982421875,0.2746581733226776,-1.3122557401657104,-1.2817381620407104,80.0,123999.0,0.0
14628.3053957,292830.21875,295185.90625,334776.3125,330394.125,285050.125,256103.96875,222256.015625,244365.375,0.025634765625,0.998046875,0.1982421875,0.2746581733226776,-1.3122557401657104,-1.2817381620407104,80.0,124000.0,0.0
14628.3053959,292830.21875,295185.90625,334776.3125,330394.125,285050.125,256103.96875,222256.015625,244365.375,0.025634765625,0.998046875,0.1982421875,0.2746581733226776,-1.3122557401657104,-1.2817381620407104,80.0,124001.0,0.0
14628.3053961,292830.21875,295185.90625,334776.3125,330394.125,285050.125,256103.96875,222256.015625,244365.375,0.025634765625,0.998046875,0.1982421875,0.2746581733226776,-1.3122557401657104,-1.2817381620407104,80.0,124002.0,0.0
14628.3053962,292830.21875,295185.90625,334776.3125,330394.125,285050.125,256103.96875,222256.015625,244365.375,0.025634765625,0.998046875,0.1982421875,0.2746581733226776,-1.3122557401657104,-1.2817381620407104,80.0,124003.0,0.0
14628.3053964,292830.21875,295185.90625,334776.3125,330394.125,285050.125,256103.96875,222256.015625,244365.375,0.025634765625,0.998046875,0.1982421875,0.2746581733226776,-1.3122557401657104,-1.2817381620407104,80.0,124004.0,0.0
14628.3053966,292830.21875,295185.90625,334776.3125,330394.125,285050.125,256103.96875,222256.015625,244365.375,0.025634765625,0.998046875,0.1982421875,0.2746581733226776,-1.3122557401657104,-1.2817381620407104,80.0,124005.0,0.0
14628.3053968,292830.21875,295185.90625,334776.3125,330394.125,285050.125,256103.96875,222256.015625,244365.375,0.025634765625,0.998046875,0.1982421875,0.2746581733226776,-1.3122557401657104,-1.2817381620407104,80.0,124006.0,0.0
14628.3053972,292830.21875,295185.90625,334776.3125,330394.125,285050.125,256103.96875,222256.015625,244365.375,0.025634765625,0.998046875,0.1982421875,0.2746581733226776,-1.3122557401657104,-1.2817381620407104,80.0,124007.0,0.0
14628.3053974,292830.21875,295185.90625,334776.3125,330394.125,285050.125,256103.96875,222256.015625,244365.375,0.025634765625,0.998046875,0.1982421875,0.2746581733226776,-1.3122557401657104,-1.2817381620407104,80.0,124008.0,0.0
14628.3053976,292830.21875,295185.90625,334776.3125,330394.125,285050.125,256103.96875,222256.015625,244365.375,0.025634765625,0.998046875,0.1982421875,0.2746581733226776,-1.3122557401657104,-1.2817381620407104,80.0,124009.0,0.0
14628.3053978,292830.21875,295185.90625,334776.3125,330394.125,285050.125,256103.96875,222256.015625,244365.375,0.025634765625,0.998046875,0.1982421875,0.2746581733226776,-1.3122557401657104,-1.2817381620407104,80.0,124010.0,0.0
14628.3053979,292830.21875,295185.90625,334776.3125,330394.125,285050.125,256103.96875,222256.015625,244365.375,0.025634765625,0.998046875,0.1982421875,0.2746581733226776,-1.3122557401657104,-1.2817381620407104,80.0,124011.0,0.0
14628.3053981,292830.21875,295185.90625,334776.3125,330394.125,285050.125,256103.96875,222256.015625,244365.375,0.025634765625,0.998046875,0.1982421875,0.2746581733226776,-1.3122557401657104,-1.2817381620407104,80.0,124012.0,0.0
14628.3053983,292797.21875,295437.3125,334828.6875,330310.4375,285140.59375,256133.03125,222254.578125,244290.8125,0.02099609375,0.994384765625,0.200439453125,0.9460448622703552,-0.8239745497703552,-0.8850097060203552,80.0,124013.0,1.0
14628.329823,292799.09375,295193.78125,334704.6875,330340.03125,285041.625,256092.984375,222222.3125,244302.875,0.021484375,0.995849609375,0.200439453125,0.9765624403953552,-0.9155272841453552,-1.0070799589157104,80.0,124014.0,1.0
14628.354777,292835.9375,295206.9375,334797.9375,330388.75,285069.5,256107.1875,222244.65625,244317.625,0.020751953125,0.998291015625,0.202880859375,0.7934569716453552,-0.9460448622703552,-0.9460448622703552,80.0,124015.0,1.0
14628.3798318,292852.5625,295454.21875,334979.34375,330389.71875,285188.59375,256165.578125,222296.609375,244321.46875,0.018798828125,0.9990234375,0.20068359375,0.8850097060203552,-0.9765624403953552,-1.0375975370407104,80.0,124016.0,1.0
14628.4085673,292815.8125,295577.53125,334968.34375,330333.9375,285215.34375,256181.765625,222308.578125,244315.671875,0.0185546875,0.998291015625,0.19921875,0.7934569716453552,-1.0070799589157104,-1.0070799589157104,80.0,124017.0,1.0
14628.4335158,292788.28125,295425.0,334808.40625,330309.71875,285131.90625,256144.203125,222269.875,244303.421875,0.01806640625,0.99658203125,0.195556640625,0.7629393935203552,-1.2207030057907104,-0.9765624403953552,80.0,124018.0,1.0
14628.4607253,292793.21875,295184.84375,334689.75,330332.0625,285027.75,256091.09375,222212.03125,244268.453125,0.020263671875,0.99365234375,0.19921875,0.7629393935203552,-1.3427733182907104,-1.0375975370407104,80.0,124019.0,1.0
14628.4607307,292828.53125,295199.15625,334791.875,330383.46875,285058.6875,256094.671875,222233.484375,244290.625,0.02392578125,0.993408203125,0.197021484375,0.7019042372703552,-1.3732908964157104,-0.9460448622703552,80.0,124020.0,1.0
14628.460732,292840.0625,295444.75,334969.34375,330380.0,285173.5,256140.28125,222273.0,244290.359375,0.024658203125,0.99267578125,0.19873046875,0.6408690810203552,-1.3732908964157104,-0.8544921278953552,80.0,124021.0,1.0
14628.4607333,292807.6875,295580.90625,334982.9375,330327.78125,285217.9375,256163.703125,222286.234375,244281.0625,0.02490234375,0.99560546875,0.199951171875,0.7019042372703552,-1.3732908964157104,-0.7324218153953552,80.0,124022.0,1.0
14628.4607345,292781.84375,295421.5,334826.375,330300.78125,285133.96875,256129.09375,222242.421875,244253.96875,0.024658203125,0.9970703125,0.200927734375,0.6408690810203552,-1.4038084745407104,-0.7019042372703552,80.0,124023.0,1.0
14628.4607357,292784.96875,295170.625,334694.6875,330326.0625,285026.25,256084.125,222204.25,244260.671875,0.0234375,0.99609375,0.197509765625,0.6713866591453552,-1.3427733182907104,-0.6713866591453552,80.0,124024.0,1.0
14628.4607371,292826.46875,295193.4375,334802.59375,330385.875,285066.03125,256111.125,222243.3125,244296.4375,0.0224609375,0.997314453125,0.193115234375,0.6713866591453552,-1.3732908964157104,-0.7324218153953552,80.0,124025.0,1.0
14628.483589,292841.03125,295443.21875,334989.53125,330384.375,285185.84375,256156.8125,222282.65625,244293.40625,0.02197265625,0.996826171875,0.19287109375,0.6408690810203552,-1.4953612089157104,-0.7934569716453552,80.0,124026.0,1.0
14628.5110924,292806.15625,295570.28125,334988.65625,330322.5,285211.5,256153.234375,222261.90625,244257.90625,0.02587890625,0.994873046875,0.1953125,0.5493163466453552,-1.5869139432907104,-0.7629393935203552,80.0,124027.0,1.0
14628.5390666,292772.625,295399.25,334808.40625,330288.0625,285110.46875,256103.4375,222217.5625,244236.265625,0.026611328125,0.9921875,0.19580078125,0.6103515028953552,-1.5563963651657104,-0.6408690810203552,80.0,124028.0,1.0
14628.5390718,292778.90625,295151.65625,334668.5625,330318.125,285002.09375,256063.921875,222190.75,244243.25,0.02734375,0.992431640625,0.19873046875,0.5493163466453552,-1.5258787870407104,-0.6713866591453552,80.0,124029.0,1.0
14628.539073,292824.75,295186.53125,334784.25,330376.5,285049.65625,256094.59375,222220.421875,244258.71875,0.02587890625,0.99560546875,0.197021484375,0.7019042372703552,-1.4343260526657104,-0.6713866591453552,80.0,124030.0,1.0
14628.5390742,292835.9375,295435.34375,334964.25,330372.5625,285169.90625,256143.046875,222272.828125,244263.984375,0.024169921875,0.995361328125,0.19677734375,0.6103515028953552,-1.3427733182907104,-0.7019042372703552,80.0,124031.0,1.0
14628.5390754,292812.0625,295581.8125,334985.34375,330329.28125,285224.375,256173.359375,222296.609375,244261.3125,0.0224609375,0.9970703125,0.19580078125,0.6103515028953552,-1.4038084745407104,-0.7934569716453552,80.0,124032.0,1.0
14628.5390767,292792.3125,295433.125,334835.75,330306.59375,285148.46875,256145.734375,222258.0625,244242.53125,0.021484375,0.99853515625,0.193115234375,0.6103515028953552,-1.5563963651657104,-0.8239745497703552,80.0,124033.0,1.0
14628.5636964,292803.5625,295186.8125,334704.96875,330335.46875,285041.625,256093.421875,222214.078125,244248.15625,0.02392578125,0.998291015625,0.194091796875,0.5187987685203552,-1.6784666776657104,-1.0681151151657104,80.0,124034.0,1.0
14628.5637032,292835.03125,295197.53125,334795.25,330381.96875,285064.40625,256098.875,222223.375,244252.71875,0.025146484375,0.998291015625,0.19921875,0.4882812201976776,-1.6479490995407104,-1.1291502714157104,80.0,124035.0,1.0
14628.5637044,292841.46875,295436.875,334961.75,330375.6875,285171.71875,256138.21875,222262.71875,244260.140625,0.02685546875,0.99658203125,0.19921875,0.5187987685203552,-1.6479490995407104,-1.1596678495407104,80.0,124036.0,1.0
14628.5637056,292814.84375,295574.46875,334967.71875,330319.0,285204.875,256149.578125,222260.84375,244219.546875,0.026611328125,0.997802734375,0.193603515625,0.5187987685203552,-1.6479490995407104,-1.2207030057907104,80.0,124037.0,1.0
14628.5637068,292788.71875,295417.65625,334810.28125,330294.96875,285121.625,256119.53125,222224.71875,244201.9375,0.027587890625,0.994384765625,0.196533203125,0.5493163466453552,-1.6784666776657104,-1.2512205839157104,80.0,124038.0,1.0
14628.5873609,292795.0,295166.6875,334678.75,330323.21875,285016.0625,256072.234375,222188.328125,244215.0,0.026611328125,0.99462890625,0.197265625,0.4882812201976776,-1.5563963651657104,-1.3427733182907104,80.0,124039.0,1.0
14628.6364517,292833.25,295186.625,334773.1875,330379.28125,285048.59375,256096.375,222227.765625,244256.828125,0.026123046875,0.993896484375,0.1943359375,0.4882812201976776,-1.5258787870407104,-1.4038084745407104,80.0,124040.0,1.0
14628.6364581,292833.25,295186.625,334773.1875,330379.28125,285048.59375,256096.375,222227.765625,244256.828125,0.026123046875,0.993896484375,0.1943359375,0.4882812201976776,-1.5258787870407104,-1.4038084745407104,80.0,124041.0,0.0
14628.6364583,292833.25,295186.625,334773.1875,330379.28125,285048.59375,256096.375,222227.765625,244256.828125,0.026123046875,0.993896484375,0.1943359375,0.4882812201976776,-1.5258787870407104,-1.4038084745407104,80.0,124042.0,0.0
14628.6364585,292833.25,295186.625,334773.1875,330379.28125,285048.59375,256096.375,222227.765625,244256.828125,0.026123046875,0.993896484375,0.1943359375,0.4882812201976776,-1.5258787870407104,-1.4038084745407104,80.0,124043.0,0.0
14628.6364587,292833.25,295186.625,334773.1875,330379.28125,285048.59375,256096.375,222227.765625,244256.828125,0.026123046875,0.993896484375,0.1943359375,0.4882812201976776,-1.5258787870407104,-1.4038084745407104,80.0,124044.0,0.0
14628.6364589,292833.25,295186.625,334773.1875,330379.28125,285048.59375,256096.375,222227.765625,244256.828125,0.026123046875,0.993896484375,0.1943359375,0.4882812201976776,-1.5258787870407104,-1.4038084745407104,80.0,124045.0,0.0
14628.6364591,292833.25,295186.625,334773.1875,330379.28125,285048.59375,256096.375,222227.765625,244256.828125,0.026123046875,0.993896484375,0.1943359375,0.4882812201976776,-1.5258787870407104,-1.4038084745407104,80.0,124046.0,0.0
14628.6364593,292833.25,295186.625,334773.1875,330379.28125,285048.59375,256096.375,222227.765625,244256.828125,0.026123046875,0.993896484375,0.1943359375,0.4882812201976776,-1.5258787870407104,-1.4038084745407104,80.0,124047.0,0.0
14628.6364594,292833.25,295186.625,334773.1875,330379.28125,285048.59375,256096.375,222227.765625,244256.828125,0.026123046875,0.993896484375,0.1943359375,0.4882812201976776,-1.5258787870407104,-1.4038084745407104,80.0,124048.0,0.0
14628.6364596,292833.25,295186.625,334773.1875,330379.28125,285048.59375,256096.375,222227.765625,244256.828125,0.026123046875,0.993896484375,0.1943359375,0.4882812201976776,-1.5258787870407104,-1.4038084745407104,80.0,124049.0,0.0
14628.6364598,292833.25,295186.625,334773.1875,330379.28125,285048.59375,256096.375,222227.765625,244256.828125,0.026123046875,0.993896484375,0.1943359375,0.4882812201976776,-1.5258787870407104,-1.4038084745407104,80.0,124050.0,0.0
14628.63646,292833.25,295186.625,334773.1875,330379.28125,285048.59375,256096.375,222227.765625,244256.828125,0.026123046875,0.993896484375,0.1943359375,0.4882812201976776,-1.5258787870407104,-1.4038084745407104,80.0,124051.0,0.0
14628.6364601,292833.25,295186.625,334773.1875,330379.28125,285048.59375,256096.375,222227.765625,244256.828125,0.026123046875,0.993896484375,0.1943359375,0.4882812201976776,-1.5258787870407104,-1.4038084745407104,80.0,124052.0,0.0
14628.6364603,292833.25,295186.625,334773.1875,330379.28125,285048.59375,256096.375,222227.765625,244256.828125,0.026123046875,0.993896484375,0.1943359375,0.4882812201976776,-1.5258787870407104,-1.4038084745407104,80.0,124053.0,0.0
14628.6364605,292833.25,295186.625,334773.1875,330379.28125,285048.59375,256096.375,222227.765625,244256.828125,0.026123046875,0.993896484375,0.1943359375,0.4882812201976776,-1.5258787870407104,-1.4038084745407104,80.0,124054.0,0.0
14628.6364606,292833.25,295186.625,334773.1875,330379.28125,285048.59375,256096.375,222227.765625,244256.828125,0.026123046875,0.993896484375,0.1943359375,0.4882812201976776,-1.5258787870407104,-1.4038084745407104,80.0,124055.0,0.0
14628.6364608,292833.25,295186.625,334773.1875,330379.28125,285048.59375,256096.375,222227.765625,244256.828125,0.026123046875,0.993896484375,0.1943359375,0.4882812201976776,-1.5258787870407104,-1.4038084745407104,80.0,124056.0,0.0
14628.636461,292833.25,295186.625,334773.1875,330379.28125,285048.59375,256096.375,222227.765625,244256.828125,0.026123046875,0.993896484375,0.1943359375,0.4882812201976776,-1.5258787870407104,-1.4038084745407104,80.0,124057.0,0.0
14628.6364612,292833.25,295186.625,334773.1875,330379.28125,285048.59375,256096.375,222227.765625,244256.828125,0.026123046875,0.993896484375,0.1943359375,0.4882812201976776,-1.5258787870407104,-1.4038084745407104,80.0,124058.0,0.0
14628.6364613,292833.25,295186.625,334773.1875,330379.28125,285048.59375,256096.375,222227.765625,244256.828125,0.026123046875,0.993896484375,0.1943359375,0.4882812201976776,-1.5258787870407104,-1.4038084745407104,80.0,124059.0,0.0
14628.6364615,292841.5625,295208.625,334789.625,330378.8125,285072.28125,256073.671875,222198.34375,244172.96875,0.02099609375,0.99658203125,0.196044921875,0.7019042372703552,-1.9836424589157104,-1.0986326932907104,80.0,124060.0,1.0
14628.636463,292854.28125,295452.0,334969.59375,330378.125,285189.9375,256135.0,222251.90625,244177.625,0.021484375,0.9970703125,0.1962890625,0.7934569716453552,-2.014159917831421,-1.2207030057907104,80.0,124061.0,1.0
14628.6364644,292823.96875,295592.0,334975.6875,330324.65625,285226.25,256148.671875,222258.25,244159.828125,0.021240234375,0.997802734375,0.193359375,0.8544921278953552,-2.014159917831421,-1.0375975370407104,80.0,124062.0,1.0
14628.6615876,292801.25,295435.8125,334822.53125,330309.34375,285146.40625,256098.515625,222218.734375,244156.515625,0.023193359375,0.99755859375,0.19482421875,0.7934569716453552,-2.044677495956421,-1.0681151151657104,80.0,124063.0,1.0
14628.6615988,292807.78125,295184.46875,334688.875,330338.25,285037.40625,256058.5625,222182.609375,244151.6875,0.025390625,0.99658203125,0.194580078125,0.7629393935203552,-2.044677495956421,-0.9765624403953552,80.0,124064.0,1.0
14628.6616002,292832.46875,295188.59375,334769.96875,330369.875,285050.28125,256054.984375,222174.109375,244138.015625,0.024658203125,0.996337890625,0.19287109375,0.6713866591453552,-2.075195074081421,-1.0070799589157104,80.0,124065.0,1.0
14628.6616015,292834.875,295423.8125,334930.28125,330358.25,285154.71875,256082.078125,222205.765625,244137.03125,0.023681640625,0.99365234375,0.194580078125,0.6408690810203552,-2.014159917831421,-1.0681151151657104,80.0,124066.0,1.0
14628.6848331,292810.28125,295571.0,334946.90625,330308.65625,285203.4375,256112.375,222223.734375,244115.125,0.02587890625,0.9931640625,0.19482421875,0.6103515028953552,-2.044677495956421,-0.9765624403953552,80.0,124067.0,1.0
14628.7098419,292787.5625,295410.78125,334787.84375,330288.0625,285120.5625,256086.359375,222190.125,244101.09375,0.026123046875,0.991943359375,0.19189453125,0.6713866591453552,-2.014159917831421,-1.0375975370407104,80.0,124068.0,1.0
14628.7348459,292798.375,295172.21875,334668.21875,330326.34375,285025.0625,256051.140625,222165.4375,244118.609375,0.0263671875,0.99560546875,0.19384765625,0.6408690810203552,-1.9531248807907104,-0.8850097060203552,80.0,124069.0,1.0
14628.7612065,292836.125,295207.09375,334789.625,330378.1875,285071.84375,256071.078125,222192.265625,244128.0,0.026123046875,0.9931640625,0.19287109375,0.7629393935203552,-1.9531248807907104,-0.8544921278953552,80.0,124070.0,1.0
14628.7612114,292850.6875,295453.5,334966.9375,330375.34375,285187.34375,256114.890625,222231.875,244127.734375,0.0234375,0.994873046875,0.19287109375,0.6713866591453552,-1.9226073026657104,-0.9155272841453552,80.0,124071.0,1.0
14628.7612127,292824.0625,295584.3125,334971.46875,330326.4375,285226.96875,256138.84375,222236.515625,244115.296875,0.025390625,0.9951171875,0.19287109375,0.6408690810203552,-1.8310545682907104,-0.8544921278953552,80.0,124072.0,1.0
14628.7612139,292786.5,295402.28125,334785.25,330288.96875,285116.90625,256071.703125,222173.40625,244082.140625,0.02294921875,0.9951171875,0.195556640625,0.7019042372703552,-1.7395018339157104,-0.9460448622703552,80.0,124073.0,1.0
14628.7612152,292784.25,295139.59375,334635.5,330312.84375,284994.9375,256001.0625,222127.796875,244083.03125,0.025390625,0.994140625,0.1943359375,0.8544921278953552,-1.6479490995407104,-1.0070799589157104,80.0,124074.0,1.0
14628.7854239,292823.34375,295172.3125,334746.53125,330367.03125,285039.125,256028.34375,222168.21875,244113.515625,0.024658203125,0.994873046875,0.1904296875,0.9460448622703552,-1.5563963651657104,-0.9765624403953552,80.0,124075.0,1.0
14628.7854288,292833.4375,295429.625,334933.5625,330360.6875,285163.03125,256084.21875,222215.6875,244107.53125,0.023681640625,0.996337890625,0.191162109375,1.0070799589157104,-1.5258787870407104,-1.0375975370407104,80.0,124076.0,1.0
14628.8097848,292813.0625,295566.25,334945.375,330316.34375,285206.84375,256111.484375,222225.53125,244096.625,0.024169921875,0.997802734375,0.189208984375,0.8850097060203552,-1.5869139432907104,-1.0986326932907104,80.0,124077.0,1.0
14628.837287,292786.125,295398.34375,334784.34375,330288.96875,285118.15625,256075.546875,222176.796875,244062.203125,0.02392578125,0.998046875,0.19287109375,0.8239745497703552,-1.5563963651657104,-1.1596678495407104,80.0,124078.0,1.0
14628.8623394,292791.59375,295156.5,334664.0,330317.9375,285021.6875,256029.328125,222142.640625,244070.421875,0.02392578125,0.997802734375,0.197021484375,0.8544921278953552,-1.4953612089157104,-1.0070799589157104,80.0,124079.0,1.0
14628.8660814,292832.375,295196.03125,334775.875,330370.15625,285064.25,256041.75,222170.71875,244089.015625,0.023681640625,0.996337890625,0.193115234375,0.7324218153953552,-1.4648436307907104,-1.0375975370407104,80.0,124080.0,1.0
14628.8910731,292842.5625,295444.75,334956.71875,330365.59375,285180.8125,256094.5,222219.796875,244090.359375,0.0224609375,0.996337890625,0.1923828125,0.7629393935203552,-1.4953612089157104,-1.1901854276657104,80.0,124081.0,1.0
14628.9416356,292809.375,295571.25,334957.8125,330312.9375,285214.53125,256117.390625,222231.96875,244075.15625,0.02294921875,0.995849609375,0.191162109375,0.7019042372703552,-1.4953612089157104,-1.1596678495407104,80.0,124082.0,1.0
14628.9416821,292784.0,295412.125,334797.9375,330289.96875,285130.75,256090.125,222195.65625,244061.390625,0.022216796875,0.99658203125,0.189697265625,0.7934569716453552,-1.4648436307907104,-1.1291502714157104,80.0,124083.0,1.0
14628.9416846,292788.71875,295161.59375,334669.1875,330319.375,285023.75,256018.5,222154.265625,244068.09375,0.02294921875,0.995361328125,0.190185546875,0.7934569716453552,-1.4648436307907104,-1.1291502714157104,80.0,124084.0,1.0
14628.9416865,292821.8125,295178.75,334761.75,330366.03125,285050.5625,256018.859375,222166.15625,244073.46875,0.022216796875,0.9951171875,0.191650390625,0.7629393935203552,-1.4038084745407104,-1.2817381620407104,80.0,124085.0,1.0
14628.9416885,292834.875,295419.1875,334918.5625,330358.71875,285154.0,256075.8125,222206.921875,244075.15625,0.0224609375,0.995849609375,0.188232421875,0.7629393935203552,-1.5563963651657104,-1.2512205839157104,80.0,124086.0,1.0
14628.9416905,292805.71875,295554.34375,334924.46875,330305.59375,285194.3125,256105.671875,222219.359375,244056.75,0.0224609375,0.998046875,0.19287109375,0.7019042372703552,-1.5563963651657104,-1.0986326932907104,80.0,124087.0,1.0
14628.9416929,292781.65625,295398.0,334774.6875,330282.1875,285114.3125,256066.15625,222178.140625,244024.46875,0.02294921875,0.998291015625,0.193603515625,0.5187987685203552,-1.4953612089157104,-1.0986326932907104,80.0,124088.0,1.0
14628.9672613,292789.09375,295157.84375,334659.53125,330314.375,285018.09375,256019.671875,222150.6875,244032.421875,0.0224609375,0.997802734375,0.18994140625,0.4577636420726776,-1.4648436307907104,-1.0070799589157104,80.0,124089.0,1.0
14628.9923766,292789.09375,295157.84375,334659.53125,330314.375,285018.09375,256019.671875,222150.6875,244032.421875,0.0224609375,0.997802734375,0.18994140625,0.4577636420726776,-1.4648436307907104,-1.0070799589157104,80.0,124090.0,0.0
14628.9923818,292789.09375,295157.84375,334659.53125,330314.375,285018.09375,256019.671875,222150.6875,244032.421875,0.0224609375,0.997802734375,0.18994140625,0.4577636420726776,-1.4648436307907104,-1.0070799589157104,80.0,124091.0,0.0
14628.992382,292789.09375,295157.84375,334659.53125,330314.375,285018.09375,256019.671875,222150.6875,244032.421875,0.0224609375,0.997802734375,0.18994140625,0.4577636420726776,-1.4648436307907104,-1.0070799589157104,80.0,124092.0,0.0
14628.9923822,292789.09375,295157.84375,334659.53125,330314.375,285018.09375,256019.671875,222150.6875,244032.421875,0.0224609375,0.997802734375,0.18994140625,0.4577636420726776,-1.4648436307907104,-1.0070799589157104,80.0,124093.0,0.0
14628.9923824,292789.09375,295157.84375,334659.53125,330314.375,285018.09375,256019.671875,222150.6875,244032.421875,0.0224609375,0.997802734375,0.18994140625,0.4577636420726776,-1.4648436307907104,-1.0070799589157104,80.0,124094.0,0.0
14628.9923826,292789.09375,295157.84375,334659.53125,330314.375,285018.09375,256019.671875,222150.6875,244032.421875,0.0224609375,0.997802734375,0.18994140625,0.4577636420726776,-1.4648436307907104,-1.0070799589157104,80.0,124095.0,0.0
14628.9923828,292789.09375,295157.84375,334659.53125,330314.375,285018.09375,256019.671875,222150.6875,244032.421875,0.0224609375,0.997802734375,0.18994140625,0.4577636420726776,-1.4648436307907104,-1.0070799589157104,80.0,124096.0,0.0
14628.992383,292789.09375,295157.84375,334659.53125,330314.375,285018.09375,256019.671875,222150.6875,244032.421875,0.0224609375,0.997802734375,0.18994140625,0.4577636420726776,-1.4648436307907104,-1.0070799589157104,80.0,124097.0,0.0
14628.9923832,292789.09375,295157.84375,334659.53125,330314.375,285018.09375,256019.671875,222150.6875,244032.421875,0.0224609375,0.997802734375,0.18994140625,0.4577636420726776,-1.4648436307907104,-1.0070799589157104,80.0,124098.0,0.0
14628.9923833,292789.09375,295157.84375,334659.53125,330314.375,285018.09375,256019.671875,222150.6875,244032.421875,0.0224609375,0.997802734375,0.18994140625,0.4577636420726776,-1.4648436307907104,-1.0070799589157104,80.0,124099.0,0.0
14628.9923835,292789.09375,295157.84375,334659.53125,330314.375,285018.09375,256019.671875,222150.6875,244032.421875,0.0224609375,0.997802734375,0.18994140625,0.4577636420726776,-1.4648436307907104,-1.0070799589157104,80.0,124100.0,0.0
14628.9923837,292789.09375,295157.84375,334659.53125,330314.375,285018.09375,256019.671875,222150.6875,244032.421875,0.0224609375,0.997802734375,0.18994140625,0.4577636420726776,-1.4648436307907104,-1.0070799589157104,80.0,124101.0,0.0
14628.9923839,292789.09375,295157.84375,334659.53125,330314.375,285018.09375,256019.671875,222150.6875,244032.421875,0.0224609375,0.997802734375,0.18994140625,0.4577636420726776,-1.4648436307907104,-1.0070799589157104,80.0,124102.0,0.0
14628.9923841,292789.09375,295157.84375,334659.53125,330314.375,285018.09375,256019.671875,222150.6875,244032.421875,0.0224609375,0.997802734375,0.18994140625,0.4577636420726776,-1.4648436307907104,-1.0070799589157104,80.0,124103.0,0.0
14628.9923843,292789.09375,295157.84375,334659.53125,330314.375,285018.09375,256019.671875,222150.6875,244032.421875,0.0224609375,0.997802734375,0.18994140625,0.4577636420726776,-1.4648436307907104,-1.0070799589157104,80.0,124104.0,0.0
14628.9923844,292789.09375,295157.84375,334659.53125,330314.375,285018.09375,256019.671875,222150.6875,244032.421875,0.0224609375,0.997802734375,0.18994140625,0.4577636420726776,-1.4648436307907104,-1.0070799589157104,80.0,124105.0,0.0
14628.9923846,292789.09375,295157.84375,334659.53125,330314.375,285018.09375,256019.671875,222150.6875,244032.421875,0.0224609375,0.997802734375,0.18994140625,0.4577636420726776,-1.4648436307907104,-1.0070799589157104,80.0,124106.0,0.0
14628.9923848,292789.09375,295157.84375,334659.53125,330314.375,285018.09375,256019.671875,222150.6875,244032.421875,0.0224609375,0.997802734375,0.18994140625,0.4577636420726776,-1.4648436307907104,-1.0070799589157104,80.0,124107.0,0.0
14628.9923849,292789.09375,295157.84375,334659.53125,330314.375,285018.09375,256019.671875,222150.6875,244032.421875,0.0224609375,0.997802734375,0.18994140625,0.4577636420726776,-1.4648436307907104,-1.0070799589157104,80.0,124108.0,0.0
14628.9923851,292789.09375,295157.84375,334659.53125,330314.375,285018.09375,256019.671875,222150.6875,244032.421875,0.0224609375,0.997802734375,0.18994140625,0.4577636420726776,-1.4648436307907104,-1.0070799589157104,80.0,124109.0,0.0
14628.9923853,292789.09375,295157.84375,334659.53125,330314.375,285018.09375,256019.671875,222150.6875,244032.421875,0.0224609375,0.997802734375,0.18994140625,0.4577636420726776,-1.4648436307907104,-1.0070799589157104,80.0,124110.0,0.0
14628.9923855,292789.09375,295157.84375,334659.53125,330314.375,285018.09375,256019.671875,222150.6875,244032.421875,0.0224609375,0.997802734375,0.18994140625,0.4577636420726776,-1.4648436307907104,-1.0070799589157104,80.0,124111.0,0.0
14628.9923857,292789.09375,295157.84375,334659.53125,330314.375,285018.09375,256019.671875,222150.6875,244032.421875,0.0224609375,0.997802734375,0.18994140625,0.4577636420726776,-1.4648436307907104,-1.0070799589157104,80.0,124112.0,0.0
14628.9923858,292789.09375,295157.84375,334659.53125,330314.375,285018.09375,256019.671875,222150.6875,244032.421875,0.0224609375,0.997802734375,0.18994140625,0.4577636420726776,-1.4648436307907104,-1.0070799589157104,80.0,124113.0,0.0
14628.992386,292789.09375,295157.84375,334659.53125,330314.375,285018.09375,256019.671875,222150.6875,244032.421875,0.0224609375,0.997802734375,0.18994140625,0.4577636420726776,-1.4648436307907104,-1.0070799589157104,80.0,124114.0,0.0
14628.9923862,292789.09375,295157.84375,334659.53125,330314.375,285018.09375,256019.671875,222150.6875,244032.421875,0.0224609375,0.997802734375,0.18994140625,0.4577636420726776,-1.4648436307907104,-1.0070799589157104,80.0,124115.0,0.0
14628.9923864,292789.09375,295157.84375,334659.53125,330314.375,285018.09375,256019.671875,222150.6875,244032.421875,0.0224609375,0.997802734375,0.18994140625,0.4577636420726776,-1.4648436307907104,-1.0070799589157104,80.0,124116.0,0.0
14628.9923865,292789.09375,295157.84375,334659.53125,330314.375,285018.09375,256019.671875,222150.6875,244032.421875,0.0224609375,0.997802734375,0.18994140625,0.4577636420726776,-1.4648436307907104,-1.0070799589157104,80.0,124117.0,0.0
14628.9923867,292789.09375,295157.84375,334659.53125,330314.375,285018.09375,256019.671875,222150.6875,244032.421875,0.0224609375,0.997802734375,0.18994140625,0.4577636420726776,-1.4648436307907104,-1.0070799589157104,80.0,124118.0,0.0
14628.9923869,292789.09375,295157.84375,334659.53125,330314.375,285018.09375,256019.671875,222150.6875,244032.421875,0.0224609375,0.997802734375,0.18994140625,0.4577636420726776,-1.4648436307907104,-1.0070799589157104,80.0,124119.0,0.0
14628.992387,292789.09375,295157.84375,334659.53125,330314.375,285018.09375,256019.671875,222150.6875,244032.421875,0.0224609375,0.997802734375,0.18994140625,0.4577636420726776,-1.4648436307907104,-1.0070799589157104,80.0,124120.0,0.0
14628.9923872,292789.09375,295157.84375,334659.53125,330314.375,285018.09375,256019.671875,222150.6875,244032.421875,0.0224609375,0.997802734375,0.18994140625,0.4577636420726776,-1.4648436307907104,-1.0070799589157104,80.0,124121.0,0.0
14628.9923874,292789.09375,295157.84375,334659.53125,330314.375,285018.09375,256019.671875,222150.6875,244032.421875,0.0224609375,0.997802734375,0.18994140625,0.4577636420726776,-1.4648436307907104,-1.0070799589157104,80.0,124122.0,0.0
14628.9923875,292789.09375,295157.84375,334659.53125,330314.375,285018.09375,256019.671875,222150.6875,244032.421875,0.0224609375,0.997802734375,0.18994140625,0.4577636420726776,-1.4648436307907104,-1.0070799589157104,80.0,124123.0,0.0
14628.9923877,292789.09375,295157.84375,334659.53125,330314.375,285018.09375,256019.671875,222150.6875,244032.421875,0.0224609375,0.997802734375,0.18994140625,0.4577636420726776,-1.4648436307907104,-1.0070799589157104,80.0,124124.0,0.0
14628.9923879,292789.09375,295157.84375,334659.53125,330314.375,285018.09375,256019.671875,222150.6875,244032.421875,0.0224609375,0.997802734375,0.18994140625,0.4577636420726776,-1.4648436307907104,-1.0070799589157104,80.0,124125.0,0.0
14628.992388,292789.09375,295157.84375,334659.53125,330314.375,285018.09375,256019.671875,222150.6875,244032.421875,0.0224609375,0.997802734375,0.18994140625,0.4577636420726776,-1.4648436307907104,-1.0070799589157104,80.0,124126.0,0.0
14628.9923882,292789.09375,295157.84375,334659.53125,330314.375,285018.09375,256019.671875,222150.6875,244032.421875,0.0224609375,0.997802734375,0.18994140625,0.4577636420726776,-1.4648436307907104,-1.0070799589157104,80.0,124127.0,0.0
14628.9923884,292789.09375,295157.84375,334659.53125,330314.375,285018.09375,256019.671875,222150.6875,244032.421875,0.0224609375,0.997802734375,0.18994140625,0.4577636420726776,-1.4648436307907104,-1.0070799589157104,80.0,124128.0,0.0
14628.9923886,292864.71875,295185.65625,334653.71875,330312.03125,285017.46875,255990.15625,222139.515625,243885.625,0.02001953125,0.9970703125,0.200927734375,-0.03051757626235485,-1.3122557401657104,-1.1596678495407104,80.0,124129.0,1.0
14629.0435522,292902.28125,295232.75,334779.15625,330365.40625,285069.25,256010.90625,222175.1875,243917.265625,0.02001953125,0.99609375,0.197998046875,-0.0610351525247097,-1.3122557401657104,-1.1291502714157104,80.0,124130.0,1.0
14629.0435614,292908.09375,295483.375,334955.5625,330359.96875,285189.75,256065.4375,222232.59375,243933.359375,0.021484375,0.996337890625,0.199462890625,-0.1220703050494194,-1.2512205839157104,-1.0986326932907104,80.0,124131.0,1.0
14629.0435627,292882.0,295611.3125,334956.28125,330310.78125,285225.625,256091.90625,222238.84375,243908.5,0.01904296875,0.995361328125,0.202392578125,-0.1220703050494194,-1.3427733182907104,-1.0986326932907104,80.0,124132.0,1.0
14629.0435641,292853.03125,295436.34375,334787.9375,330287.1875,285131.28125,256051.578125,222189.671875,243880.609375,0.022216796875,0.9951171875,0.198974609375,-0.1525878757238388,-1.4038084745407104,-1.0375975370407104,80.0,124133.0,1.0
14629.0435653,292866.53125,295209.875,334683.6875,330330.53125,285046.53125,256017.703125,222167.140625,243896.96875,0.021484375,0.997802734375,0.20166015625,-0.1220703050494194,-1.4038084745407104,-1.0681151151657104,80.0,124134.0,1.0
14629.0435665,292902.28125,295249.03125,334806.875,330378.5625,285091.40625,256015.28125,222181.359375,243899.921875,0.0234375,0.9951171875,0.19677734375,-0.1220703050494194,-1.3427733182907104,-1.0375975370407104,80.0,124135.0,1.0
14629.0932121,292908.375,295494.09375,334979.1875,330371.5,285204.6875,256057.390625,222225.53125,243914.234375,0.0224609375,0.99365234375,0.199462890625,-0.1525878757238388,-1.4648436307907104,-1.0070799589157104,80.0,124136.0,1.0
14629.0932224,292868.125,295598.71875,334952.34375,330309.4375,285220.875,256065.53125,222234.375,243901.265625,0.021484375,0.994873046875,0.203857421875,-0.1525878757238388,-1.4038084745407104,-0.9155272841453552,80.0,124137.0,1.0
14629.0932237,292833.71875,295417.75,334769.5,330273.6875,285114.5,256016.71875,222168.125,243844.484375,0.021728515625,0.996337890625,0.2041015625,-0.1831054538488388,-1.3427733182907104,-0.8544921278953552,80.0,124138.0,1.0
14629.0932249,292849.1875,295191.375,334659.625,330317.65625,285028.9375,255990.96875,222149.4375,243878.640625,0.02294921875,0.996337890625,0.2041015625,-0.2441406100988388,-1.4343260526657104,-0.9155272841453552,80.0,124139.0,1.0
14629.093226,292881.0,295236.15625,334781.03125,330366.03125,285077.5625,256017.15625,222179.125,243890.265625,0.02099609375,0.995849609375,0.20263671875,-0.3051757514476776,-1.4343260526657104,-0.8850097060203552,80.0,124140.0,1.0
14629.0948081,292886.8125,295486.21875,334962.90625,330361.84375,285199.96875,256064.1875,222228.109375,243897.6875,0.02099609375,0.995849609375,0.200439453125,-0.2441406100988388,-1.4648436307907104,-0.9460448622703552,80.0,124141.0,1.0
14629.1465622,292886.8125,295486.21875,334962.90625,330361.84375,285199.96875,256064.1875,222228.109375,243897.6875,0.02099609375,0.995849609375,0.200439453125,-0.2441406100988388,-1.4648436307907104,-0.9460448622703552,80.0,124142.0,0.0
14629.1465671,292886.8125,295486.21875,334962.90625,330361.84375,285199.96875,256064.1875,222228.109375,243897.6875,0.02099609375,0.995849609375,0.200439453125,-0.2441406100988388,-1.4648436307907104,-0.9460448622703552,80.0,124143.0,0.0
14629.1465683,292886.8125,295486.21875,334962.90625,330361.84375,285199.96875,256064.1875,222228.109375,243897.6875,0.02099609375,0.995849609375,0.200439453125,-0.2441406100988388,-1.4648436307907104,-0.9460448622703552,80.0,124144.0,0.0
14629.1465693,292886.8125,295486.21875,334962.90625,330361.84375,285199.96875,256064.1875,222228.109375,243897.6875,0.02099609375,0.995849609375,0.200439453125,-0.2441406100988388,-1.4648436307907104,-0.9460448622703552,80.0,124145.0,0.0
14629.1465704,292886.8125,295486.21875,334962.90625,330361.84375,285199.96875,256064.1875,222228.109375,243897.6875,0.02099609375,0.995849609375,0.200439453125,-0.2441406100988388,-1.4648436307907104,-0.9460448622703552,80.0,124146.0,0.0
14629.1465714,292886.8125,295486.21875,334962.90625,330361.84375,285199.96875,256064.1875,222228.109375,243897.6875,0.02099609375,0.995849609375,0.200439453125,-0.2441406100988388,-1.4648436307907104,-0.9460448622703552,80.0,124147.0,0.0
14629.1465732,292886.8125,295486.21875,334962.90625,330361.84375,285199.96875,256064.1875,222228.109375,243897.6875,0.02099609375,0.995849609375,0.200439453125,-0.2441406100988388,-1.4648436307907104,-0.9460448622703552,80.0,124148.0,0.0
14629.1465737,292886.8125,295486.21875,334962.90625,330361.84375,285199.96875,256064.1875,222228.109375,243897.6875,0.02099609375,0.995849609375,0.200439453125,-0.2441406100988388,-1.4648436307907104,-0.9460448622703552,80.0,124149.0,0.0
14629.1465739,292886.8125,295486.21875,334962.90625,330361.84375,285199.96875,256064.1875,222228.109375,243897.6875,0.02099609375,0.995849609375,0.200439453125,-0.2441406100988388,-1.4648436307907104,-0.9460448622703552,80.0,124150.0,0.0
14629.1465741,292886.8125,295486.21875,334962.90625,330361.84375,285199.96875,256064.1875,222228.109375,243897.6875,0.02099609375,0.995849609375,0.200439453125,-0.2441406100988388,-1.4648436307907104,-0.9460448622703552,80.0,124151.0,0.0
14629.1465743,292886.8125,295486.21875,334962.90625,330361.84375,285199.96875,256064.1875,222228.109375,243897.6875,0.02099609375,0.995849609375,0.200439453125,-0.2441406100988388,-1.4648436307907104,-0.9460448622703552,80.0,124152.0,0.0
14629.1465745,292886.8125,295486.21875,334962.90625,330361.84375,285199.96875,256064.1875,222228.109375,243897.6875,0.02099609375,0.995849609375,0.200439453125,-0.2441406100988388,-1.4648436307907104,-0.9460448622703552,80.0,124153.0,0.0
14629.1465746,292886.8125,295486.21875,334962.90625,330361.84375,285199.96875,256064.1875,222228.109375,243897.6875,0.02099609375,0.995849609375,0.200439453125,-0.2441406100988388,-1.4648436307907104,-0.9460448622703552,80.0,124154.0,0.0
14629.1465748,292886.8125,295486.21875,334962.90625,330361.84375,285199.96875,256064.1875,222228.109375,243897.6875,0.02099609375,0.995849609375,0.200439453125,-0.2441406100988388,-1.4648436307907104,-0.9460448622703552,80.0,124155.0,0.0
14629.146575,292886.8125,295486.21875,334962.90625,330361.84375,285199.96875,256064.1875,222228.109375,243897.6875,0.02099609375,0.995849609375,0.200439453125,-0.2441406100988388,-1.4648436307907104,-0.9460448622703552,80.0,124156.0,0.0
14629.1465752,292886.8125,295486.21875,334962.90625,330361.84375,285199.96875,256064.1875,222228.109375,243897.6875,0.02099609375,0.995849609375,0.200439453125,-0.2441406100988388,-1.4648436307907104,-0.9460448622703552,80.0,124157.0,0.0
14629.1465754,292886.8125,295486.21875,334962.90625,330361.84375,285199.96875,256064.1875,222228.109375,243897.6875,0.02099609375,0.995849609375,0.200439453125,-0.2441406100988388,-1.4648436307907104,-0.9460448622703552,80.0,124158.0,0.0
14629.1465756,292808.5,295180.625,334657.84375,330299.875,285031.15625,255951.453125,222127.0,243835.90625,0.0234375,0.99365234375,0.197998046875,0.1831054538488388,-1.1291502714157104,-0.7019042372703552,80.0,124159.0,1.0
14629.1465824,292852.46875,295223.71875,334769.4375,330353.53125,285075.3125,255982.03125,222161.6875,243861.296875,0.023193359375,0.99365234375,0.195556640625,0.2136230319738388,-1.1291502714157104,-0.8850097060203552,80.0,124160.0,1.0
14629.1465837,292864.71875,295479.15625,334941.0,330347.96875,285189.21875,256028.421875,222208.984375,243869.703125,0.02490234375,0.994873046875,0.1962890625,0.1831054538488388,-1.1901854276657104,-1.0375975370407104,80.0,124161.0,1.0
14629.1465849,292830.03125,295592.28125,334924.90625,330291.46875,285212.65625,256040.5,222214.265625,243857.640625,0.022216796875,0.99560546875,0.1982421875,0.3662109076976776,-1.1901854276657104,-1.1291502714157104,80.0,124162.0,1.0
14629.1716202,292804.5625,295422.40625,334762.375,330267.25,285124.15625,256002.671875,222167.671875,243840.640625,0.0224609375,0.997314453125,0.198486328125,0.5187987685203552,-1.2207030057907104,-1.1596678495407104,80.0,124163.0,1.0
14629.1716265,292818.40625,295193.96875,334655.15625,330302.84375,285034.28125,255967.1875,222135.484375,243843.953125,0.02197265625,0.9990234375,0.198974609375,0.4882812201976776,-1.3122557401657104,-1.2817381620407104,80.0,124164.0,1.0
14629.1716278,292854.0,295233.125,334767.28125,330353.34375,285078.0,255974.25,222160.96875,243861.65625,0.0224609375,0.997802734375,0.19970703125,0.4272460639476776,-1.3122557401657104,-1.3732908964157104,80.0,124165.0,1.0
14629.171629,292863.5625,295480.5,334940.375,330342.78125,285192.0,256015.1875,222194.953125,243853.15625,0.02392578125,0.996826171875,0.20361328125,0.3967284858226776,-1.2817381620407104,-1.3732908964157104,80.0,124166.0,1.0
14629.1954304,292837.28125,295598.625,334933.5625,330294.4375,285226.5,256035.9375,222212.46875,243846.28125,0.02490234375,0.9970703125,0.203857421875,0.3356933295726776,-1.2512205839157104,-1.4648436307907104,80.0,124167.0,1.0
14629.1954483,292803.21875,295420.25,334764.6875,330263.3125,285125.40625,255974.78125,222147.109375,243811.671875,0.02490234375,0.998291015625,0.205078125,0.2441406100988388,-1.3122557401657104,-1.3427733182907104,80.0,124168.0,1.0
14629.2273401,292812.59375,295184.9375,334655.59375,330294.5,285027.03125,255922.921875,222098.125,243807.65625,0.02197265625,1.0,0.2001953125,0.2441406100988388,-1.2817381620407104,-1.4343260526657104,80.0,124169.0,1.0
14629.277991,292849.0,295223.71875,334761.03125,330345.21875,285066.28125,255937.328125,222136.390625,243844.21875,0.02197265625,0.995849609375,0.20556640625,0.2441406100988388,-1.3732908964157104,-1.3732908964157104,80.0,124170.0,1.0
14629.2779989,292849.0,295223.71875,334761.03125,330345.21875,285066.28125,255937.328125,222136.390625,243844.21875,0.02197265625,0.995849609375,0.20556640625,0.2441406100988388,-1.3732908964157104,-1.3732908964157104,80.0,124171.0,0.0
14629.2779991,292849.0,295223.71875,334761.03125,330345.21875,285066.28125,255937.328125,222136.390625,243844.21875,0.02197265625,0.995849609375,0.20556640625,0.2441406100988388,-1.3732908964157104,-1.3732908964157104,80.0,124172.0,0.0
14629.2779992,292849.0,295223.71875,334761.03125,330345.21875,285066.28125,255937.328125,222136.390625,243844.21875,0.02197265625,0.995849609375,0.20556640625,0.2441406100988388,-1.3732908964157104,-1.3732908964157104,80.0,124173.0,0.0
14629.2779994,292849.0,295223.71875,334761.03125,330345.21875,285066.28125,255937.328125,222136.390625,243844.21875,0.02197265625,0.995849609375,0.20556640625,0.2441406100988388,-1.3732908964157104,-1.3732908964157104,80.0,124174.0,0.0
14629.2779997,292849.0,295223.71875,334761.03125,330345.21875,285066.28125,255937.328125,222136.390625,243844.21875,0.02197265625,0.995849609375,0.20556640625,0.2441406100988388,-1.3732908964157104,-1.3732908964157104,80.0,124175.0,0.0
14629.2780001,292849.0,295223.71875,334761.03125,330345.21875,285066.28125,255937.328125,222136.390625,243844.21875,0.02197265625,0.995849609375,0.20556640625,0.2441406100988388,-1.3732908964157104,-1.3732908964157104,80.0,124176.0,0.0
14629.2780003,292849.0,295223.71875,334761.03125,330345.21875,285066.28125,255937.328125,222136.390625,243844.21875,0.02197265625,0.995849609375,0.20556640625,0.2441406100988388,-1.3732908964157104,-1.3732908964157104,80.0,124177.0,0.0
14629.2780005,292849.0,295223.71875,334761.03125,330345.21875,285066.28125,255937.328125,222136.390625,243844.21875,0.02197265625,0.995849609375,0.20556640625,0.2441406100988388,-1.3732908964157104,-1.3732908964157104,80.0,124178.0,0.0
14629.2780006,292849.0,295223.71875,334761.03125,330345.21875,285066.28125,255937.328125,222136.390625,243844.21875,0.02197265625,0.995849609375,0.20556640625,0.2441406100988388,-1.3732908964157104,-1.3732908964157104,80.0,124179.0,0.0
14629.2780008,292849.0,295223.71875,334761.03125,330345.21875,285066.28125,255937.328125,222136.390625,243844.21875,0.02197265625,0.995849609375,0.20556640625,0.2441406100988388,-1.3732908964157104,-1.3732908964157104,80.0,124180.0,0.0
14629.278001,292849.0,295223.71875,334761.03125,330345.21875,285066.28125,255937.328125,222136.390625,243844.21875,0.02197265625,0.995849609375,0.20556640625,0.2441406100988388,-1.3732908964157104,-1.3732908964157104,80.0,124181.0,0.0
14629.2780012,292849.0,295223.71875,334761.03125,330345.21875,285066.28125,255937.328125,222136.390625,243844.21875,0.02197265625,0.995849609375,0.20556640625,0.2441406100988388,-1.3732908964157104,-1.3732908964157104,80.0,124182.0,0.0
14629.2780013,292849.0,295223.71875,334761.03125,330345.21875,285066.28125,255937.328125,222136.390625,243844.21875,0.02197265625,0.995849609375,0.20556640625,0.2441406100988388,-1.3732908964157104,-1.3732908964157104,80.0,124183.0,0.0
14629.2780015,292849.0,295223.71875,334761.03125,330345.21875,285066.28125,255937.328125,222136.390625,243844.21875,0.02197265625,0.995849609375,0.20556640625,0.2441406100988388,-1.3732908964157104,-1.3732908964157104,80.0,124184.0,0.0
14629.2780017,292849.0,295223.71875,334761.03125,330345.21875,285066.28125,255937.328125,222136.390625,243844.21875,0.02197265625,0.995849609375,0.20556640625,0.2441406100988388,-1.3732908964157104,-1.3732908964157104,80.0,124185.0,0.0
14629.2780019,292864.90625,295493.84375,334939.375,330335.65625,285188.25,255971.46875,222175.71875,243843.953125,0.021240234375,0.997802734375,0.2041015625,-0.0610351525247097,-2.166747808456421,-0.7019042372703552,80.0,124186.0,1.0
14629.2780032,292840.0625,295613.8125,334933.65625,330284.0625,285221.5,255997.9375,222187.34375,243818.65625,0.021484375,0.998291015625,0.206298828125,0.0,-2.197265386581421,-0.6408690810203552,80.0,124187.0,1.0
14629.2780045,292818.6875,295444.5625,334770.6875,330265.71875,285131.84375,255965.9375,222145.140625,243806.5,0.0224609375,0.99609375,0.206787109375,-0.0610351525247097,-2.105712652206421,-0.7629393935203552,80.0,124188.0,1.0
14629.2780056,292830.03125,295214.6875,334666.15625,330301.9375,285041.15625,255919.171875,222114.75,243823.5625,0.021728515625,0.993896484375,0.201904296875,0.0915527269244194,-2.136230230331421,-0.7629393935203552,80.0,124189.0,1.0
14629.2780069,292860.0,295248.125,334775.59375,330347.25,285080.34375,255928.109375,222141.75,243850.484375,0.0244140625,0.992919921875,0.20361328125,0.0610351525247097,-2.136230230331421,-0.8239745497703552,80.0,124190.0,1.0
14629.2780081,292862.75,295496.875,334943.84375,330336.53125,285193.96875,255978.265625,222183.0625,243837.515625,0.02490234375,0.9921875,0.202880859375,0.1220703050494194,-2.105712652206421,-0.7629393935203552,80.0,124191.0,1.0
14629.3023723,292833.25,295612.03125,334935.90625,330284.78125,285225.4375,255995.25,222182.875,243816.6875,0.027099609375,0.99169921875,0.20361328125,0.0610351525247097,-2.014159917831421,-0.7324218153953552,80.0,124192.0,1.0
14629.327341,292793.375,295416.3125,334748.15625,330250.4375,285117.71875,255933.296875,222127.53125,243806.40625,0.02734375,0.99072265625,0.20556640625,0.0915527269244194,-1.8005369901657104,-0.7629393935203552,80.0,124193.0,1.0
14629.3523389,292806.0,295188.5,334639.59375,330285.65625,285023.375,255894.046875,222095.171875,243803.28125,0.029541015625,0.9912109375,0.2021484375,0.1525878757238388,-1.6174315214157104,-0.6713866591453552,80.0,124194.0,1.0
14629.3773737,292843.375,295235.625,334759.84375,330339.03125,285074.4375,255920.421875,222138.0,243843.0625,0.029541015625,0.99072265625,0.201904296875,0.2746581733226776,-1.5563963651657104,-0.6713866591453552,80.0,124195.0,1.0
14629.4023805,292848.8125,295482.3125,334924.09375,330330.71875,285188.6875,255972.90625,222197.625,243872.65625,0.029052734375,0.9912109375,0.201416015625,0.4272460639476776,-1.5258787870407104,-0.7019042372703552,80.0,124196.0,1.0
14629.4578846,292820.75,295602.5625,334920.625,330269.125,285214.96875,255980.421875,222162.578125,243798.0,0.02734375,0.992431640625,0.20458984375,0.4272460639476776,-1.4038084745407104,-0.6408690810203552,80.0,124197.0,1.0
14629.4578907,292820.75,295602.5625,334920.625,330269.125,285214.96875,255980.421875,222162.578125,243798.0,0.02734375,0.992431640625,0.20458984375,0.4272460639476776,-1.4038084745407104,-0.6408690810203552,80.0,124198.0,0.0
14629.4578909,292820.75,295602.5625,334920.625,330269.125,285214.96875,255980.421875,222162.578125,243798.0,0.02734375,0.992431640625,0.20458984375,0.4272460639476776,-1.4038084745407104,-0.6408690810203552,80.0,124199.0,0.0
14629.457891,292820.75,295602.5625,334920.625,330269.125,285214.96875,255980.421875,222162.578125,243798.0,0.02734375,0.992431640625,0.20458984375,0.4272460639476776,-1.4038084745407104,-0.6408690810203552,80.0,124200.0,0.0
14629.4578912,292820.75,295602.5625,334920.625,330269.125,285214.96875,255980.421875,222162.578125,243798.0,0.02734375,0.992431640625,0.20458984375,0.4272460639476776,-1.4038084745407104,-0.6408690810203552,80.0,124201.0,0.0
14629.4578918,292820.75,295602.5625,334920.625,330269.125,285214.96875,255980.421875,222162.578125,243798.0,0.02734375,0.992431640625,0.20458984375,0.4272460639476776,-1.4038084745407104,-0.6408690810203552,80.0,124202.0,0.0
14629.4578921,292820.75,295602.5625,334920.625,330269.125,285214.96875,255980.421875,222162.578125,243798.0,0.02734375,0.992431640625,0.20458984375,0.4272460639476776,-1.4038084745407104,-0.6408690810203552,80.0,124203.0,0.0
14629.4578923,292820.75,295602.5625,334920.625,330269.125,285214.96875,255980.421875,222162.578125,243798.0,0.02734375,0.992431640625,0.20458984375,0.4272460639476776,-1.4038084745407104,-0.6408690810203552,80.0,124204.0,0.0
14629.4578925,292820.75,295602.5625,334920.625,330269.125,285214.96875,255980.421875,222162.578125,243798.0,0.02734375,0.992431640625,0.20458984375,0.4272460639476776,-1.4038084745407104,-0.6408690810203552,80.0,124205.0,0.0
14629.4578926,292820.75,295602.5625,334920.625,330269.125,285214.96875,255980.421875,222162.578125,243798.0,0.02734375,0.992431640625,0.20458984375,0.4272460639476776,-1.4038084745407104,-0.6408690810203552,80.0,124206.0,0.0
14629.4578928,292820.75,295602.5625,334920.625,330269.125,285214.96875,255980.421875,222162.578125,243798.0,0.02734375,0.992431640625,0.20458984375,0.4272460639476776,-1.4038084745407104,-0.6408690810203552,80.0,124207.0,0.0
14629.457893,292820.75,295602.5625,334920.625,330269.125,285214.96875,255980.421875,222162.578125,243798.0,0.02734375,0.992431640625,0.20458984375,0.4272460639476776,-1.4038084745407104,-0.6408690810203552,80.0,124208.0,0.0
14629.4578932,292820.75,295602.5625,334920.625,330269.125,285214.96875,255980.421875,222162.578125,243798.0,0.02734375,0.992431640625,0.20458984375,0.4272460639476776,-1.4038084745407104,-0.6408690810203552,80.0,124209.0,0.0
14629.4578933,292820.75,295602.5625,334920.625,330269.125,285214.96875,255980.421875,222162.578125,243798.0,0.02734375,0.992431640625,0.20458984375,0.4272460639476776,-1.4038084745407104,-0.6408690810203552,80.0,124210.0,0.0
14629.4578935,292820.75,295602.5625,334920.625,330269.125,285214.96875,255980.421875,222162.578125,243798.0,0.02734375,0.992431640625,0.20458984375,0.4272460639476776,-1.4038084745407104,-0.6408690810203552,80.0,124211.0,0.0
14629.4578937,292820.75,295602.5625,334920.625,330269.125,285214.96875,255980.421875,222162.578125,243798.0,0.02734375,0.992431640625,0.20458984375,0.4272460639476776,-1.4038084745407104,-0.6408690810203552,80.0,124212.0,0.0
14629.4578939,292820.75,295602.5625,334920.625,330269.125,285214.96875,255980.421875,222162.578125,243798.0,0.02734375,0.992431640625,0.20458984375,0.4272460639476776,-1.4038084745407104,-0.6408690810203552,80.0,124213.0,0.0
14629.457894,292820.75,295602.5625,334920.625,330269.125,285214.96875,255980.421875,222162.578125,243798.0,0.02734375,0.992431640625,0.20458984375,0.4272460639476776,-1.4038084745407104,-0.6408690810203552,80.0,124214.0,0.0
14629.4578942,292820.75,295602.5625,334920.625,330269.125,285214.96875,255980.421875,222162.578125,243798.0,0.02734375,0.992431640625,0.20458984375,0.4272460639476776,-1.4038084745407104,-0.6408690810203552,80.0,124215.0,0.0
14629.4578944,292820.75,295602.5625,334920.625,330269.125,285214.96875,255980.421875,222162.578125,243798.0,0.02734375,0.992431640625,0.20458984375,0.4272460639476776,-1.4038084745407104,-0.6408690810203552,80.0,124216.0,0.0
14629.4578945,292820.75,295602.5625,334920.625,330269.125,285214.96875,255980.421875,222162.578125,243798.0,0.02734375,0.992431640625,0.20458984375,0.4272460639476776,-1.4038084745407104,-0.6408690810203552,80.0,124217.0,0.0
14629.4578947,292820.75,295602.5625,334920.625,330269.125,285214.96875,255980.421875,222162.578125,243798.0,0.02734375,0.992431640625,0.20458984375,0.4272460639476776,-1.4038084745407104,-0.6408690810203552,80.0,124218.0,0.0
14629.4578949,292820.75,295602.5625,334920.625,330269.125,285214.96875,255980.421875,222162.578125,243798.0,0.02734375,0.992431640625,0.20458984375,0.4272460639476776,-1.4038084745407104,-0.6408690810203552,80.0,124219.0,0.0
14629.457895,292820.75,295602.5625,334920.625,330269.125,285214.96875,255980.421875,222162.578125,243798.0,0.02734375,0.992431640625,0.20458984375,0.4272460639476776,-1.4038084745407104,-0.6408690810203552,80.0,124220.0,0.0
14629.4578952,292820.75,295602.5625,334920.625,330269.125,285214.96875,255980.421875,222162.578125,243798.0,0.02734375,0.992431640625,0.20458984375,0.4272460639476776,-1.4038084745407104,-0.6408690810203552,80.0,124221.0,0.0
14629.4578954,292820.75,295602.5625,334920.625,330269.125,285214.96875,255980.421875,222162.578125,243798.0,0.02734375,0.992431640625,0.20458984375,0.4272460639476776,-1.4038084745407104,-0.6408690810203552,80.0,124222.0,0.0
14629.4578956,292800.09375,295412.1875,334756.375,330253.5625,285121.1875,255898.34375,222118.5,243811.234375,0.0244140625,0.992431640625,0.197265625,1.0681151151657104,-1.2207030057907104,-0.4272460639476776,80.0,124223.0,1.0
14629.4578969,292815.09375,295188.25,334659.0,330288.0,285033.9375,255861.6875,222093.921875,243816.0625,0.0224609375,0.99658203125,0.199951171875,1.0375975370407104,-1.2207030057907104,-0.4577636420726776,80.0,124224.0,1.0
14629.457898,292855.25,295249.125,334784.09375,330338.15625,285087.75,255893.15625,222139.78125,243850.484375,0.023193359375,0.99853515625,0.1953125,0.9155272841453552,-1.2207030057907104,-0.6408690810203552,80.0,124225.0,1.0
14629.4578993,292862.59375,295495.1875,334949.03125,330326.875,285200.59375,255940.8125,222181.171875,243854.953125,0.021484375,0.99951171875,0.196533203125,0.9460448622703552,-1.3427733182907104,-0.8850097060203552,80.0,124226.0,1.0
14629.4579005,292831.90625,295598.25,334926.875,330272.0625,285220.4375,255944.03125,222171.078125,243837.0625,0.023681640625,0.9990234375,0.196533203125,0.8239745497703552,-1.4953612089157104,-0.9460448622703552,80.0,124227.0,1.0
14629.4579016,292812.4375,295420.875,334758.875,330249.53125,285124.59375,255906.921875,222126.109375,243806.046875,0.0263671875,0.998291015625,0.19384765625,0.8239745497703552,-1.4953612089157104,-0.9460448622703552,80.0,124228.0,1.0
14629.4836154,292819.75,295183.9375,334643.28125,330285.5,285023.8125,255859.8125,222093.46875,243816.59375,0.025634765625,0.996826171875,0.19580078125,0.6713866591453552,-1.5563963651657104,-1.0375975370407104,80.0,124229.0,1.0
14629.5085951,292856.59375,295239.65625,334770.84375,330339.75,285078.71875,255886.8125,222124.9375,243841.625,0.025634765625,0.9970703125,0.194091796875,0.6408690810203552,-1.5563963651657104,-1.1596678495407104,80.0,124230.0,1.0
14629.5598586,292862.21875,295500.90625,334951.28125,330327.3125,285197.1875,255921.046875,222165.796875,243835.546875,0.0263671875,0.996337890625,0.1962890625,0.5798339247703552,-1.5563963651657104,-1.2207030057907104,80.0,124231.0,1.0
14629.5598637,292827.90625,295606.125,334939.375,330271.8125,285221.0625,255918.90625,222160.171875,243818.921875,0.024658203125,0.996337890625,0.19580078125,0.6713866591453552,-1.4343260526657104,-1.3122557401657104,80.0,124232.0,1.0
14629.559865,292799.1875,295411.75,334761.375,330253.125,285120.03125,255865.4375,222114.390625,243823.390625,0.02685546875,0.99658203125,0.193603515625,0.6713866591453552,-1.4343260526657104,-1.4343260526657104,80.0,124233.0,1.0
14629.5598679,292799.1875,295411.75,334761.375,330253.125,285120.03125,255865.4375,222114.390625,243823.390625,0.02685546875,0.99658203125,0.193603515625,0.6713866591453552,-1.4343260526657104,-1.4343260526657104,80.0,124234.0,0.0
14629.5598681,292799.1875,295411.75,334761.375,330253.125,285120.03125,255865.4375,222114.390625,243823.390625,0.02685546875,0.99658203125,0.193603515625,0.6713866591453552,-1.4343260526657104,-1.4343260526657104,80.0,124235.0,0.0
14629.5598683,292799.1875,295411.75,334761.375,330253.125,285120.03125,255865.4375,222114.390625,243823.390625,0.02685546875,0.99658203125,0.193603515625,0.6713866591453552,-1.4343260526657104,-1.4343260526657104,80.0,124236.0,0.0
14629.5598685,292799.1875,295411.75,334761.375,330253.125,285120.03125,255865.4375,222114.390625,243823.390625,0.02685546875,0.99658203125,0.193603515625,0.6713866591453552,-1.4343260526657104,-1.4343260526657104,80.0,124237.0,0.0
14629.5598686,292799.1875,295411.75,334761.375,330253.125,285120.03125,255865.4375,222114.390625,243823.390625,0.02685546875,0.99658203125,0.193603515625,0.6713866591453552,-1.4343260526657104,-1.4343260526657104,80.0,124238.0,0.0
14629.5598688,292799.1875,295411.75,334761.375,330253.125,285120.03125,255865.4375,222114.390625,243823.390625,0.02685546875,0.99658203125,0.193603515625,0.6713866591453552,-1.4343260526657104,-1.4343260526657104,80.0,124239.0,0.0
14629.559869,292799.1875,295411.75,334761.375,330253.125,285120.03125,255865.4375,222114.390625,243823.390625,0.02685546875,0.99658203125,0.193603515625,0.6713866591453552,-1.4343260526657104,-1.4343260526657104,80.0,124240.0,0.0
14629.5598692,292799.1875,295411.75,334761.375,330253.125,285120.03125,255865.4375,222114.390625,243823.390625,0.02685546875,0.99658203125,0.193603515625,0.6713866591453552,-1.4343260526657104,-1.4343260526657104,80.0,124241.0,0.0
14629.5598694,292799.1875,295411.75,334761.375,330253.125,285120.03125,255865.4375,222114.390625,243823.390625,0.02685546875,0.99658203125,0.193603515625,0.6713866591453552,-1.4343260526657104,-1.4343260526657104,80.0,124242.0,0.0
14629.5598696,292799.1875,295411.75,334761.375,330253.125,285120.03125,255865.4375,222114.390625,243823.390625,0.02685546875,0.99658203125,0.193603515625,0.6713866591453552,-1.4343260526657104,-1.4343260526657104,80.0,124243.0,0.0
14629.5598697,292799.1875,295411.75,334761.375,330253.125,285120.03125,255865.4375,222114.390625,243823.390625,0.02685546875,0.99658203125,0.193603515625,0.6713866591453552,-1.4343260526657104,-1.4343260526657104,80.0,124244.0,0.0
14629.5598699,292799.1875,295411.75,334761.375,330253.125,285120.03125,255865.4375,222114.390625,243823.390625,0.02685546875,0.99658203125,0.193603515625,0.6713866591453552,-1.4343260526657104,-1.4343260526657104,80.0,124245.0,0.0
14629.5598701,292799.1875,295411.75,334761.375,330253.125,285120.03125,255865.4375,222114.390625,243823.390625,0.02685546875,0.99658203125,0.193603515625,0.6713866591453552,-1.4343260526657104,-1.4343260526657104,80.0,124246.0,0.0
14629.5598703,292799.1875,295411.75,334761.375,330253.125,285120.03125,255865.4375,222114.390625,243823.390625,0.02685546875,0.99658203125,0.193603515625,0.6713866591453552,-1.4343260526657104,-1.4343260526657104,80.0,124247.0,0.0
14629.5598705,292799.1875,295411.75,334761.375,330253.125,285120.03125,255865.4375,222114.390625,243823.390625,0.02685546875,0.99658203125,0.193603515625,0.6713866591453552,-1.4343260526657104,-1.4343260526657104,80.0,124248.0,0.0
14629.5598706,292799.1875,295411.75,334761.375,330253.125,285120.03125,255865.4375,222114.390625,243823.390625,0.02685546875,0.99658203125,0.193603515625,0.6713866591453552,-1.4343260526657104,-1.4343260526657104,80.0,124249.0,0.0
14629.5598708,292799.1875,295411.75,334761.375,330253.125,285120.03125,255865.4375,222114.390625,243823.390625,0.02685546875,0.99658203125,0.193603515625,0.6713866591453552,-1.4343260526657104,-1.4343260526657104,80.0,124250.0,0.0
14629.559871,292799.1875,295411.75,334761.375,330253.125,285120.03125,255865.4375,222114.390625,243823.390625,0.02685546875,0.99658203125,0.193603515625,0.6713866591453552,-1.4343260526657104,-1.4343260526657104,80.0,124251.0,0.0
14629.5598711,292799.1875,295411.75,334761.375,330253.125,285120.03125,255865.4375,222114.390625,243823.390625,0.02685546875,0.99658203125,0.193603515625,0.6713866591453552,-1.4343260526657104,-1.4343260526657104,80.0,124252.0,0.0
14629.5598713,292799.1875,295411.75,334761.375,330253.125,285120.03125,255865.4375,222114.390625,243823.390625,0.02685546875,0.99658203125,0.193603515625,0.6713866591453552,-1.4343260526657104,-1.4343260526657104,80.0,124253.0,0.0
14629.5598715,292799.1875,295411.75,334761.375,330253.125,285120.03125,255865.4375,222114.390625,243823.390625,0.02685546875,0.99658203125,0.193603515625,0.6713866591453552,-1.4343260526657104,-1.4343260526657104,80.0,124254.0,0.0
14629.5598717,292799.1875,295411.75,334761.375,330253.125,285120.03125,255865.4375,222114.390625,243823.390625,0.02685546875,0.99658203125,0.193603515625,0.6713866591453552,-1.4343260526657104,-1.4343260526657104,80.0,124255.0,0.0
14629.5598718,292799.1875,295411.75,334761.375,330253.125,285120.03125,255865.4375,222114.390625,243823.390625,0.02685546875,0.99658203125,0.193603515625,0.6713866591453552,-1.4343260526657104,-1.4343260526657104,80.0,124256.0,0.0
14629.559872,292799.1875,295411.75,334761.375,330253.125,285120.03125,255865.4375,222114.390625,243823.390625,0.02685546875,0.99658203125,0.193603515625,0.6713866591453552,-1.4343260526657104,-1.4343260526657104,80.0,124257.0,0.0
14629.5598722,292799.1875,295411.75,334761.375,330253.125,285120.03125,255865.4375,222114.390625,243823.390625,0.02685546875,0.99658203125,0.193603515625,0.6713866591453552,-1.4343260526657104,-1.4343260526657104,80.0,124258.0,0.0
14629.5598723,292799.1875,295411.75,334761.375,330253.125,285120.03125,255865.4375,222114.390625,243823.390625,0.02685546875,0.99658203125,0.193603515625,0.6713866591453552,-1.4343260526657104,-1.4343260526657104,80.0,124259.0,0.0
14629.5598725,292799.1875,295411.75,334761.375,330253.125,285120.03125,255865.4375,222114.390625,243823.390625,0.02685546875,0.99658203125,0.193603515625,0.6713866591453552,-1.4343260526657104,-1.4343260526657104,80.0,124260.0,0.0
14629.5598727,292799.1875,295411.75,334761.375,330253.125,285120.03125,255865.4375,222114.390625,243823.390625,0.02685546875,0.99658203125,0.193603515625,0.6713866591453552,-1.4343260526657104,-1.4343260526657104,80.0,124261.0,0.0
14629.5598729,292799.1875,295411.75,334761.375,330253.125,285120.03125,255865.4375,222114.390625,243823.390625,0.02685546875,0.99658203125,0.193603515625,0.6713866591453552,-1.4343260526657104,-1.4343260526657104,80.0,124262.0,0.0
14629.559873,292799.1875,295411.75,334761.375,330253.125,285120.03125,255865.4375,222114.390625,243823.390625,0.02685546875,0.99658203125,0.193603515625,0.6713866591453552,-1.4343260526657104,-1.4343260526657104,80.0,124263.0,0.0
14629.5598732,292799.1875,295411.75,334761.375,330253.125,285120.03125,255865.4375,222114.390625,243823.390625,0.02685546875,0.99658203125,0.193603515625,0.6713866591453552,-1.4343260526657104,-1.4343260526657104,80.0,124264.0,0.0
14629.5598734,292799.1875,295411.75,334761.375,330253.125,285120.03125,255865.4375,222114.390625,243823.390625,0.02685546875,0.99658203125,0.193603515625,0.6713866591453552,-1.4343260526657104,-1.4343260526657104,80.0,124265.0,0.0
14629.5598736,292799.1875,295411.75,334761.375,330253.125,285120.03125,255865.4375,222114.390625,243823.390625,0.02685546875,0.99658203125,0.193603515625,0.6713866591453552,-1.4343260526657104,-1.4343260526657104,80.0,124266.0,0.0
14629.5598737,292823.59375,295579.3125,334905.21875,330270.5625,285212.84375,255892.265625,222160.171875,243852.8125,0.02392578125,0.9970703125,0.1953125,0.9155272841453552,-1.6479490995407104,-1.2207030057907104,80.0,124267.0,1.0
14629.559875,292798.03125,295394.6875,334736.0,330249.1875,285116.09375,255844.6875,222111.0,243845.5625,0.022705078125,0.99560546875,0.19482421875,0.9460448622703552,-1.5869139432907104,-1.1291502714157104,80.0,124268.0,1.0
14629.5598762,292812.78125,295175.28125,334643.1875,330284.78125,285031.96875,255805.71875,222082.296875,243852.53125,0.022216796875,0.995849609375,0.1943359375,0.9460448622703552,-1.5869139432907104,-0.9765624403953552,80.0,124269.0,1.0
14629.6095,292850.96875,295234.71875,334768.1875,330333.6875,285085.875,255819.65625,222113.59375,243878.90625,0.022705078125,0.99658203125,0.196533203125,0.8850097060203552,-1.6784666776657104,-1.1291502714157104,80.0,124270.0,1.0
14629.609519,292861.15625,295495.875,334944.40625,330329.84375,285211.5,255875.453125,222171.078125,243897.59375,0.022705078125,0.99658203125,0.195068359375,0.8850097060203552,-1.5869139432907104,-1.1901854276657104,80.0,124271.0,1.0
14629.6095203,292831.8125,295597.375,334920.96875,330277.78125,285234.46875,255898.421875,222173.125,243877.125,0.02001953125,0.99658203125,0.193603515625,0.9155272841453552,-1.6784666776657104,-1.1291502714157104,80.0,124272.0,1.0
14629.6095217,292804.125,295398.96875,334736.78125,330254.71875,285128.15625,255856.234375,222128.78125,243863.890625,0.020263671875,0.9970703125,0.19287109375,0.9460448622703552,-1.7395018339157104,-1.1291502714157104,80.0,124273.0,1.0
14629.6095229,292817.0625,295170.1875,334637.28125,330285.5625,285034.5625,255793.734375,222084.4375,243849.9375,0.02001953125,0.99853515625,0.193115234375,0.7324218153953552,-1.7700194120407104,-1.0681151151657104,80.0,124274.0,1.0
14629.6110496,292851.21875,295235.34375,334772.03125,330331.625,285089.09375,255802.234375,222110.90625,243880.34375,0.01953125,0.99853515625,0.193603515625,0.7934569716453552,-1.8005369901657104,-1.0070799589157104,80.0,124275.0,1.0
14629.6378231,292860.875,295492.40625,334946.90625,330319.375,285206.5625,255849.25,222151.234375,243873.28125,0.019287109375,0.997314453125,0.193603515625,0.6408690810203552,-1.8005369901657104,-1.0070799589157104,80.0,124276.0,1.0
14629.6378286,292860.875,295492.40625,334946.90625,330319.375,285206.5625,255849.25,222151.234375,243873.28125,0.019287109375,0.997314453125,0.193603515625,0.6408690810203552,-1.8005369901657104,-1.0070799589157104,80.0,124277.0,0.0
14629.6378288,292860.875,295492.40625,334946.90625,330319.375,285206.5625,255849.25,222151.234375,243873.28125,0.019287109375,0.997314453125,0.193603515625,0.6408690810203552,-1.8005369901657104,-1.0070799589157104,80.0,124278.0,0.0
14629.637829,292860.875,295492.40625,334946.90625,330319.375,285206.5625,255849.25,222151.234375,243873.28125,0.019287109375,0.997314453125,0.193603515625,0.6408690810203552,-1.8005369901657104,-1.0070799589157104,80.0,124279.0,0.0
14629.6378292,292860.875,295492.40625,334946.90625,330319.375,285206.5625,255849.25,222151.234375,243873.28125,0.019287109375,0.997314453125,0.193603515625,0.6408690810203552,-1.8005369901657104,-1.0070799589157104,80.0,124280.0,0.0
14629.6378294,292860.875,295492.40625,334946.90625,330319.375,285206.5625,255849.25,222151.234375,243873.28125,0.019287109375,0.997314453125,0.193603515625,0.6408690810203552,-1.8005369901657104,-1.0070799589157104,80.0,124281.0,0.0
14629.6378297,292836.65625,295585.125,334914.625,330275.28125,285219.71875,255861.59375,222161.78125,243872.390625,0.02392578125,0.999755859375,0.193603515625,0.4882812201976776,-1.9836424589157104,-1.0681151151657104,80.0,124282.0,1.0
14629.6378309,292819.3125,295406.3125,334749.03125,330262.15625,285125.9375,255825.109375,222113.859375,243857.71875,0.02197265625,0.998046875,0.19091796875,0.3356933295726776,-2.014159917831421,-1.0375975370407104,80.0,124283.0,1.0
14629.6378321,292828.53125,295182.4375,334652.9375,330293.625,285036.96875,255776.921875,222077.28125,243863.71875,0.022705078125,0.99853515625,0.19287109375,0.1831054538488388,-2.044677495956421,-1.0070799589157104,80.0,124284.0,1.0
14629.6468875,292866.34375,295244.28125,334780.0625,330342.625,285090.0625,255795.609375,222111.703125,243894.015625,0.022216796875,0.99609375,0.19482421875,0.1220703050494194,-1.9531248807907104,-0.9765624403953552,80.0,124285.0,1.0
14629.6468899,292871.875,295497.59375,334947.6875,330332.25,285204.78125,255833.515625,222147.5625,243893.65625,0.021240234375,0.994384765625,0.193115234375,0.1831054538488388,-1.8310545682907104,-1.0681151151657104,80.0,124286.0,1.0
14629.6468912,292845.6875,295600.21875,334931.875,330285.84375,285234.90625,255844.875,222148.984375,243887.9375,0.0224609375,0.993896484375,0.19580078125,0.2441406100988388,-1.8615721464157104,-1.1291502714157104,80.0,124287.0,1.0
14629.6468924,292811.34375,295397.625,334751.0,330258.75,285132.625,255799.546875,222103.75,243878.828125,0.02392578125,0.996337890625,0.195068359375,0.2441406100988388,-1.8920897245407104,-1.1596678495407104,80.0,124288.0,1.0
14629.6468936,292824.84375,295172.9375,334649.96875,330293.34375,285039.03125,255755.203125,222067.625,243879.09375,0.024658203125,0.99609375,0.19970703125,0.2746581733226776,-2.044677495956421,-1.1291502714157104,80.0,124289.0,1.0
14629.6468948,292872.40625,295243.65625,334782.3125,330346.1875,285098.21875,255784.703125,222108.40625,243900.546875,0.0244140625,0.9970703125,0.1943359375,0.1831054538488388,-1.8920897245407104,-1.0681151151657104,80.0,124290.0,1.0
14629.646896,292878.59375,295496.4375,334944.75,330329.65625,285210.5,255838.171875,222155.078125,243896.796875,0.0244140625,0.996826171875,0.197998046875,0.1525878757238388,-1.8615721464157104,-1.0070799589157104,80.0,124291.0,1.0
14629.653568,292846.125,295592.71875,334918.375,330275.75,285227.125,255847.203125,222149.4375,243877.84375,0.025390625,0.99658203125,0.193359375,0.1525878757238388,-1.9531248807907104,-0.9155272841453552,80.0,124292.0,1.0
14629.6535822,292846.125,295592.71875,334918.375,330275.75,285227.125,255847.203125,222149.4375,243877.84375,0.025390625,0.99658203125,0.193359375,0.1525878757238388,-1.9531248807907104,-0.9155272841453552,80.0,124293.0,0.0
14629.6535824,292846.125,295592.71875,334918.375,330275.75,285227.125,255847.203125,222149.4375,243877.84375,0.025390625,0.99658203125,0.193359375,0.1525878757238388,-1.9531248807907104,-0.9155272841453552,80.0,124294.0,0.0
14629.653584,292846.125,295592.71875,334918.375,330275.75,285227.125,255847.203125,222149.4375,243877.84375,0.025390625,0.99658203125,0.193359375,0.1525878757238388,-1.9531248807907104,-0.9155272841453552,80.0,124295.0,0.0
14629.6535842,292846.125,295592.71875,334918.375,330275.75,285227.125,255847.203125,222149.4375,243877.84375,0.025390625,0.99658203125,0.193359375,0.1525878757238388,-1.9531248807907104,-0.9155272841453552,80.0,124296.0,0.0
14629.6535846,292846.125,295592.71875,334918.375,330275.75,285227.125,255847.203125,222149.4375,243877.84375,0.025390625,0.99658203125,0.193359375,0.1525878757238388,-1.9531248807907104,-0.9155272841453552,80.0,124297.0,0.0
14629.6535848,292846.125,295592.71875,334918.375,330275.75,285227.125,255847.203125,222149.4375,243877.84375,0.025390625,0.99658203125,0.193359375,0.1525878757238388,-1.9531248807907104,-0.9155272841453552,80.0,124298.0,0.0
14629.653585,292846.125,295592.71875,334918.375,330275.75,285227.125,255847.203125,222149.4375,243877.84375,0.025390625,0.99658203125,0.193359375,0.1525878757238388,-1.9531248807907104,-0.9155272841453552,80.0,124299.0,0.0
14629.6535852,292846.125,295592.71875,334918.375,330275.75,285227.125,255847.203125,222149.4375,243877.84375,0.025390625,0.99658203125,0.193359375,0.1525878757238388,-1.9531248807907104,-0.9155272841453552,80.0,124300.0,0.0
14629.6535854,292846.125,295592.71875,334918.375,330275.75,285227.125,255847.203125,222149.4375,243877.84375,0.025390625,0.99658203125,0.193359375,0.1525878757238388,-1.9531248807907104,-0.9155272841453552,80.0,124301.0,0.0
14629.6535856,292846.125,295592.71875,334918.375,330275.75,285227.125,255847.203125,222149.4375,243877.84375,0.025390625,0.99658203125,0.193359375,0.1525878757238388,-1.9531248807907104,-0.9155272841453552,80.0,124302.0,0.0
14629.6535857,292846.125,295592.71875,334918.375,330275.75,285227.125,255847.203125,222149.4375,243877.84375,0.025390625,0.99658203125,0.193359375,0.1525878757238388,-1.9531248807907104,-0.9155272841453552,80.0,124303.0,0.0
14629.6535859,292846.125,295592.71875,334918.375,330275.75,285227.125,255847.203125,222149.4375,243877.84375,0.025390625,0.99658203125,0.193359375,0.1525878757238388,-1.9531248807907104,-0.9155272841453552,80.0,124304.0,0.0
14629.6535861,292846.125,295592.71875,334918.375,330275.75,285227.125,255847.203125,222149.4375,243877.84375,0.025390625,0.99658203125,0.193359375,0.1525878757238388,-1.9531248807907104,-0.9155272841453552,80.0,124305.0,0.0
14629.6535863,292846.125,295592.71875,334918.375,330275.75,285227.125,255847.203125,222149.4375,243877.84375,0.025390625,0.99658203125,0.193359375,0.1525878757238388,-1.9531248807907104,-0.9155272841453552,80.0,124306.0,0.0
14629.6535865,292846.125,295592.71875,334918.375,330275.75,285227.125,255847.203125,222149.4375,243877.84375,0.025390625,0.99658203125,0.193359375,0.1525878757238388,-1.9531248807907104,-0.9155272841453552,80.0,124307.0,0.0
14629.6535866,292846.125,295592.71875,334918.375,330275.75,285227.125,255847.203125,222149.4375,243877.84375,0.025390625,0.99658203125,0.193359375,0.1525878757238388,-1.9531248807907104,-0.9155272841453552,80.0,124308.0,0.0
14629.6535868,292843.71875,295181.4375,334649.0,330299.15625,285048.15625,255759.765625,222081.578125,243922.09375,0.023681640625,0.99755859375,0.1962890625,-0.2746581733226776,-1.4038084745407104,-1.0375975370407104,80.0,124309.0,1.0
14629.6535881,292881.09375,295257.71875,334793.21875,330351.1875,285116.53125,255793.203125,222127.53125,243962.78125,0.0244140625,0.997802734375,0.1923828125,-0.2746581733226776,-1.2817381620407104,-0.9155272841453552,80.0,124310.0,1.0
14629.6535893,292883.40625,295507.96875,334957.8125,330329.21875,285230.4375,255841.03125,222164.28125,243949.453125,0.024169921875,0.99853515625,0.196533203125,-0.2441406100988388,-1.2817381620407104,-1.0986326932907104,80.0,124311.0,1.0
14629.6535905,292843.71875,295592.28125,334914.34375,330266.8125,285233.5625,255829.234375,222138.53125,243922.625,0.022216796875,0.999267578125,0.1943359375,-0.2746581733226776,-1.2512205839157104,-1.0986326932907104,80.0,124312.0,1.0
14629.6535917,292821.28125,295398.0625,334741.34375,330251.78125,285131.46875,255773.796875,222084.96875,243907.4375,0.022705078125,0.9970703125,0.195556640625,-0.3051757514476776,-1.2817381620407104,-1.1901854276657104,80.0,124313.0,1.0
14629.6535929,292833.875,295172.5,334638.71875,330288.4375,285039.21875,255733.203125,222059.5,243918.25,0.021728515625,0.995849609375,0.196044921875,-0.3967284858226776,-1.3122557401657104,-1.0986326932907104,80.0,124314.0,1.0
14629.6535942,292872.15625,295247.875,334774.875,330338.3125,285100.1875,255769.328125,222093.828125,243934.34375,0.02099609375,0.996337890625,0.198486328125,-0.4882812201976776,-1.2207030057907104,-1.1291502714157104,80.0,124315.0,1.0
14629.656105,292878.9375,295497.21875,334940.0,330330.71875,285212.75,255813.578125,222137.90625,243943.734375,0.02294921875,0.99365234375,0.19873046875,-0.6103515028953552,-1.2207030057907104,-1.0986326932907104,80.0,124316.0,1.0
14629.6586203,292843.09375,295590.46875,334916.21875,330275.90625,285230.4375,255814.03125,222137.90625,243940.609375,0.024658203125,0.994140625,0.1953125,-0.6713866591453552,-1.2512205839157104,-1.0986326932907104,80.0,124317.0,1.0
14629.6611176,292814.9375,295394.15625,334741.625,330253.21875,285128.4375,255766.734375,222086.234375,243926.5625,0.025390625,0.99609375,0.197998046875,-0.6408690810203552,-1.1291502714157104,-1.1291502714157104,80.0,124318.0,1.0
14629.6636117,292830.75,295166.34375,334638.34375,330287.8125,285036.0,255738.65625,222054.671875,243922.8125,0.025390625,0.996337890625,0.199951171875,-0.6713866591453552,-0.9155272841453552,-1.0681151151657104,80.0,124319.0,1.0
14629.7141638,292887.09375,295255.75,334787.125,330347.90625,285109.3125,255774.6875,222102.859375,243957.046875,0.022216796875,0.994873046875,0.201171875,-0.7019042372703552,-1.0070799589157104,-1.0375975370407104,80.0,124320.0,1.0
14629.7141702,292893.0625,295519.03125,334961.8125,330334.375,285225.625,255817.875,222139.34375,243951.0625,0.023193359375,0.99609375,0.199462890625,-0.6713866591453552,-1.0375975370407104,-1.0070799589157104,80.0,124321.0,1.0
14629.7141715,292858.90625,295609.53125,334935.90625,330277.96875,285239.9375,255824.125,222133.703125,243932.640625,0.021728515625,0.994873046875,0.201904296875,-0.7629393935203552,-0.9765624403953552,-1.0070799589157104,80.0,124322.0,1.0
14629.7141726,292832.375,295408.8125,334759.5,330253.03125,285131.90625,255765.125,222081.046875,243913.0625,0.0185546875,0.994384765625,0.202392578125,-0.7324218153953552,-0.9765624403953552,-1.0681151151657104,80.0,124323.0,1.0
14629.7141739,292843.71875,295190.375,334665.53125,330292.5625,285049.5,255733.296875,222063.78125,243941.765625,0.01953125,0.995849609375,0.20361328125,-0.6103515028953552,-1.0681151151657104,-1.0986326932907104,80.0,124324.0,1.0
14629.714175,292874.65625,295252.34375,334788.375,330337.0625,285100.90625,255753.859375,222097.578125,243973.328125,0.022216796875,0.996337890625,0.205810546875,-0.5798339247703552,-1.0375975370407104,-1.0986326932907104,80.0,124325.0,1.0
14629.7141763,292877.34375,295492.65625,334939.84375,330321.59375,285206.3125,255801.59375,222138.984375,243977.078125,0.0224609375,0.997802734375,0.203125,-0.5187987685203552,-1.0986326932907104,-1.1291502714157104,80.0,124326.0,1.0
14629.7404562,292835.65625,295576.25,334896.375,330256.25,285210.96875,255803.03125,222128.875,243957.40625,0.02294921875,0.995849609375,0.202880859375,-0.5493163466453552,-1.1291502714157104,-1.0681151151657104,80.0,124327.0,1.0
14629.7404754,292835.65625,295576.25,334896.375,330256.25,285210.96875,255803.03125,222128.875,243957.40625,0.02294921875,0.995849609375,0.202880859375,-0.5493163466453552,-1.1291502714157104,-1.0681151151657104,80.0,124328.0,0.0
14629.7404756,292835.65625,295576.25,334896.375,330256.25,285210.96875,255803.03125,222128.875,243957.40625,0.02294921875,0.995849609375,0.202880859375,-0.5493163466453552,-1.1291502714157104,-1.0681151151657104,80.0,124329.0,0.0
14629.7404758,292835.65625,295576.25,334896.375,330256.25,285210.96875,255803.03125,222128.875,243957.40625,0.02294921875,0.995849609375,0.202880859375,-0.5493163466453552,-1.1291502714157104,-1.0681151151657104,80.0,124330.0,0.0
14629.740476,292835.65625,295576.25,334896.375,330256.25,285210.96875,255803.03125,222128.875,243957.40625,0.02294921875,0.995849609375,0.202880859375,-0.5493163466453552,-1.1291502714157104,-1.0681151151657104,80.0,124331.0,0.0
14629.7404762,292835.65625,295576.25,334896.375,330256.25,285210.96875,255803.03125,222128.875,243957.40625,0.02294921875,0.995849609375,0.202880859375,-0.5493163466453552,-1.1291502714157104,-1.0681151151657104,80.0,124332.0,0.0
14629.7404765,292835.65625,295576.25,334896.375,330256.25,285210.96875,255803.03125,222128.875,243957.40625,0.02294921875,0.995849609375,0.202880859375,-0.5493163466453552,-1.1291502714157104,-1.0681151151657104,80.0,124333.0,0.0
14629.7404767,292835.65625,295576.25,334896.375,330256.25,285210.96875,255803.03125,222128.875,243957.40625,0.02294921875,0.995849609375,0.202880859375,-0.5493163466453552,-1.1291502714157104,-1.0681151151657104,80.0,124334.0,0.0
14629.7404769,292835.65625,295576.25,334896.375,330256.25,285210.96875,255803.03125,222128.875,243957.40625,0.02294921875,0.995849609375,0.202880859375,-0.5493163466453552,-1.1291502714157104,-1.0681151151657104,80.0,124335.0,0.0
14629.740477,292835.65625,295576.25,334896.375,330256.25,285210.96875,255803.03125,222128.875,243957.40625,0.02294921875,0.995849609375,0.202880859375,-0.5493163466453552,-1.1291502714157104,-1.0681151151657104,80.0,124336.0,0.0
14629.7404772,292835.65625,295576.25,334896.375,330256.25,285210.96875,255803.03125,222128.875,243957.40625,0.02294921875,0.995849609375,0.202880859375,-0.5493163466453552,-1.1291502714157104,-1.0681151151657104,80.0,124337.0,0.0
14629.7404774,292835.65625,295576.25,334896.375,330256.25,285210.96875,255803.03125,222128.875,243957.40625,0.02294921875,0.995849609375,0.202880859375,-0.5493163466453552,-1.1291502714157104,-1.0681151151657104,80.0,124338.0,0.0
14629.7404776,292835.65625,295576.25,334896.375,330256.25,285210.96875,255803.03125,222128.875,243957.40625,0.02294921875,0.995849609375,0.202880859375,-0.5493163466453552,-1.1291502714157104,-1.0681151151657104,80.0,124339.0,0.0
14629.7404777,292835.65625,295576.25,334896.375,330256.25,285210.96875,255803.03125,222128.875,243957.40625,0.02294921875,0.995849609375,0.202880859375,-0.5493163466453552,-1.1291502714157104,-1.0681151151657104,80.0,124340.0,0.0
14629.7404779,292835.65625,295576.25,334896.375,330256.25,285210.96875,255803.03125,222128.875,243957.40625,0.02294921875,0.995849609375,0.202880859375,-0.5493163466453552,-1.1291502714157104,-1.0681151151657104,80.0,124341.0,0.0
14629.7404781,292835.65625,295576.25,334896.375,330256.25,285210.96875,255803.03125,222128.875,243957.40625,0.02294921875,0.995849609375,0.202880859375,-0.5493163466453552,-1.1291502714157104,-1.0681151151657104,80.0,124342.0,0.0
14629.7404782,292835.65625,295576.25,334896.375,330256.25,285210.96875,255803.03125,222128.875,243957.40625,0.02294921875,0.995849609375,0.202880859375,-0.5493163466453552,-1.1291502714157104,-1.0681151151657104,80.0,124343.0,0.0
14629.7404784,292835.65625,295576.25,334896.375,330256.25,285210.96875,255803.03125,222128.875,243957.40625,0.02294921875,0.995849609375,0.202880859375,-0.5493163466453552,-1.1291502714157104,-1.0681151151657104,80.0,124344.0,0.0
14629.7404786,292835.65625,295576.25,334896.375,330256.25,285210.96875,255803.03125,222128.875,243957.40625,0.02294921875,0.995849609375,0.202880859375,-0.5493163466453552,-1.1291502714157104,-1.0681151151657104,80.0,124345.0,0.0
14629.7404787,292835.65625,295576.25,334896.375,330256.25,285210.96875,255803.03125,222128.875,243957.40625,0.02294921875,0.995849609375,0.202880859375,-0.5493163466453552,-1.1291502714157104,-1.0681151151657104,80.0,124346.0,0.0
14629.7404789,292835.65625,295576.25,334896.375,330256.25,285210.96875,255803.03125,222128.875,243957.40625,0.02294921875,0.995849609375,0.202880859375,-0.5493163466453552,-1.1291502714157104,-1.0681151151657104,80.0,124347.0,0.0
14629.7404791,292835.65625,295576.25,334896.375,330256.25,285210.96875,255803.03125,222128.875,243957.40625,0.02294921875,0.995849609375,0.202880859375,-0.5493163466453552,-1.1291502714157104,-1.0681151151657104,80.0,124348.0,0.0
14629.7404793,292835.65625,295576.25,334896.375,330256.25,285210.96875,255803.03125,222128.875,243957.40625,0.02294921875,0.995849609375,0.202880859375,-0.5493163466453552,-1.1291502714157104,-1.0681151151657104,80.0,124349.0,0.0
14629.7404794,292835.65625,295576.25,334896.375,330256.25,285210.96875,255803.03125,222128.875,243957.40625,0.02294921875,0.995849609375,0.202880859375,-0.5493163466453552,-1.1291502714157104,-1.0681151151657104,80.0,124350.0,0.0
14629.7404796,292835.65625,295576.25,334896.375,330256.25,285210.96875,255803.03125,222128.875,243957.40625,0.02294921875,0.995849609375,0.202880859375,-0.5493163466453552,-1.1291502714157104,-1.0681151151657104,80.0,124351.0,0.0
14629.7404798,292835.65625,295576.25,334896.375,330256.25,285210.96875,255803.03125,222128.875,243957.40625,0.02294921875,0.995849609375,0.202880859375,-0.5493163466453552,-1.1291502714157104,-1.0681151151657104,80.0,124352.0,0.0
14629.7404799,292835.65625,295576.25,334896.375,330256.25,285210.96875,255803.03125,222128.875,243957.40625,0.02294921875,0.995849609375,0.202880859375,-0.5493163466453552,-1.1291502714157104,-1.0681151151657104,80.0,124353.0,0.0
14629.7404801,292835.65625,295576.25,334896.375,330256.25,285210.96875,255803.03125,222128.875,243957.40625,0.02294921875,0.995849609375,0.202880859375,-0.5493163466453552,-1.1291502714157104,-1.0681151151657104,80.0,124354.0,0.0
14629.7404803,292835.65625,295576.25,334896.375,330256.25,285210.96875,255803.03125,222128.875,243957.40625,0.02294921875,0.995849609375,0.202880859375,-0.5493163466453552,-1.1291502714157104,-1.0681151151657104,80.0,124355.0,0.0
14629.7404804,292835.65625,295576.25,334896.375,330256.25,285210.96875,255803.03125,222128.875,243957.40625,0.02294921875,0.995849609375,0.202880859375,-0.5493163466453552,-1.1291502714157104,-1.0681151151657104,80.0,124356.0,0.0
14629.7404806,292835.65625,295576.25,334896.375,330256.25,285210.96875,255803.03125,222128.875,243957.40625,0.02294921875,0.995849609375,0.202880859375,-0.5493163466453552,-1.1291502714157104,-1.0681151151657104,80.0,124357.0,0.0
14629.7404808,292835.65625,295576.25,334896.375,330256.25,285210.96875,255803.03125,222128.875,243957.40625,0.02294921875,0.995849609375,0.202880859375,-0.5493163466453552,-1.1291502714157104,-1.0681151151657104,80.0,124358.0,0.0
14629.7404813,292835.65625,295576.25,334896.375,330256.25,285210.96875,255803.03125,222128.875,243957.40625,0.02294921875,0.995849609375,0.202880859375,-0.5493163466453552,-1.1291502714157104,-1.0681151151657104,80.0,124359.0,0.0
14629.7404814,292835.65625,295576.25,334896.375,330256.25,285210.96875,255803.03125,222128.875,243957.40625,0.02294921875,0.995849609375,0.202880859375,-0.5493163466453552,-1.1291502714157104,-1.0681151151657104,80.0,124360.0,0.0
14629.7404819,292835.65625,295576.25,334896.375,330256.25,285210.96875,255803.03125,222128.875,243957.40625,0.02294921875,0.995849609375,0.202880859375,-0.5493163466453552,-1.1291502714157104,-1.0681151151657104,80.0,124361.0,0.0
14629.7404821,292835.65625,295576.25,334896.375,330256.25,285210.96875,255803.03125,222128.875,243957.40625,0.02294921875,0.995849609375,0.202880859375,-0.5493163466453552,-1.1291502714157104,-1.0681151151657104,80.0,124362.0,0.0
14629.7404822,292835.65625,295576.25,334896.375,330256.25,285210.96875,255803.03125,222128.875,243957.40625,0.02294921875,0.995849609375,0.202880859375,-0.5493163466453552,-1.1291502714157104,-1.0681151151657104,80.0,124363.0,0.0
14629.7404824,292835.65625,295576.25,334896.375,330256.25,285210.96875,255803.03125,222128.875,243957.40625,0.02294921875,0.995849609375,0.202880859375,-0.5493163466453552,-1.1291502714157104,-1.0681151151657104,80.0,124364.0,0.0
14629.7404826,292835.65625,295576.25,334896.375,330256.25,285210.96875,255803.03125,222128.875,243957.40625,0.02294921875,0.995849609375,0.202880859375,-0.5493163466453552,-1.1291502714157104,-1.0681151151657104,80.0,124365.0,0.0
14629.7404827,292835.65625,295576.25,334896.375,330256.25,285210.96875,255803.03125,222128.875,243957.40625,0.02294921875,0.995849609375,0.202880859375,-0.5493163466453552,-1.1291502714157104,-1.0681151151657104,80.0,124366.0,0.0
14629.7404829,292835.65625,295576.25,334896.375,330256.25,285210.96875,255803.03125,222128.875,243957.40625,0.02294921875,0.995849609375,0.202880859375,-0.5493163466453552,-1.1291502714157104,-1.0681151151657104,80.0,124367.0,0.0
14629.7404831,292835.65625,295576.25,334896.375,330256.25,285210.96875,255803.03125,222128.875,243957.40625,0.02294921875,0.995849609375,0.202880859375,-0.5493163466453552,-1.1291502714157104,-1.0681151151657104,80.0,124368.0,0.0
14629.7404833,292835.65625,295576.25,334896.375,330256.25,285210.96875,255803.03125,222128.875,243957.40625,0.02294921875,0.995849609375,0.202880859375,-0.5493163466453552,-1.1291502714157104,-1.0681151151657104,80.0,124369.0,0.0
14629.7404834,292835.65625,295576.25,334896.375,330256.25,285210.96875,255803.03125,222128.875,243957.40625,0.02294921875,0.995849609375,0.202880859375,-0.5493163466453552,-1.1291502714157104,-1.0681151151657104,80.0,124370.0,0.0
14629.7404836,292886.71875,295525.75,334953.0625,330334.75,285237.6875,255760.203125,222151.578125,244052.453125,0.022216796875,0.99853515625,0.196044921875,0.3051757514476776,-1.7395018339157104,-1.4343260526657104,80.0,124371.0,1.0
14629.7911476,292848.0,295603.71875,334911.40625,330271.53125,285242.53125,255759.9375,222136.296875,244023.296875,0.02197265625,0.99658203125,0.196044921875,0.2746581733226776,-1.7700194120407104,-1.2817381620407104,80.0,124372.0,1.0
14629.7911532,292822.15625,295403.4375,334738.40625,330258.125,285137.8125,255699.046875,222081.046875,244009.09375,0.021484375,0.9951171875,0.200927734375,0.2746581733226776,-1.7395018339157104,-1.2207030057907104,80.0,124373.0,1.0
14629.7911545,292843.0,295186.625,334646.9375,330301.9375,285051.90625,255668.109375,222057.890625,244031.078125,0.0224609375,0.995849609375,0.20068359375,0.2136230319738388,-1.7395018339157104,-1.2512205839157104,80.0,124374.0,1.0
14629.7911558,292882.15625,295260.3125,334773.90625,330348.875,285110.8125,255700.578125,222109.203125,244080.4375,0.0224609375,0.995849609375,0.20263671875,0.2441406100988388,-1.7700194120407104,-1.2512205839157104,80.0,124375.0,1.0
14629.791157,292878.84375,295509.125,334928.21875,330320.1875,285215.25,255741.15625,222128.515625,244045.125,0.020751953125,0.995849609375,0.20458984375,0.0610351525247097,-1.7395018339157104,-1.0375975370407104,80.0,124376.0,1.0
14629.7911582,292850.4375,295602.375,334902.5625,330268.84375,285234.1875,255760.5625,222126.46875,244024.5625,0.020263671875,0.99853515625,0.203125,0.0,-1.8310545682907104,-1.0070799589157104,80.0,124377.0,1.0
14629.8176438,292816.71875,295390.84375,334720.34375,330248.5625,285125.46875,255712.375,222084.078125,244019.90625,0.0205078125,0.999267578125,0.2041015625,0.03051757626235485,-1.8310545682907104,-0.9155272841453552,80.0,124378.0,1.0
14629.8176666,292840.78125,295194.5,334648.375,330297.90625,285054.40625,255681.4375,222070.21875,244042.34375,0.020263671875,0.998779296875,0.206298828125,-0.03051757626235485,-1.8920897245407104,-0.8544921278953552,80.0,124379.0,1.0
14629.8176679,292879.03125,295275.84375,334790.78125,330348.59375,285120.65625,255705.046875,222108.484375,244088.75,0.019287109375,0.995361328125,0.201171875,-0.0610351525247097,-1.8615721464157104,-0.8850097060203552,80.0,124380.0,1.0
14629.840639,292878.40625,295518.78125,334944.40625,330322.84375,285224.8125,255745.359375,222139.6875,244063.890625,0.0166015625,0.997314453125,0.201904296875,-0.0610351525247097,-1.9226073026657104,-0.7629393935203552,80.0,124381.0,1.0
14629.8423685,292878.40625,295518.78125,334944.40625,330322.84375,285224.8125,255745.359375,222139.6875,244063.890625,0.0166015625,0.997314453125,0.201904296875,-0.0610351525247097,-1.9226073026657104,-0.7629393935203552,80.0,124382.0,0.0
14629.8423714,292878.40625,295518.78125,334944.40625,330322.84375,285224.8125,255745.359375,222139.6875,244063.890625,0.0166015625,0.997314453125,0.201904296875,-0.0610351525247097,-1.9226073026657104,-0.7629393935203552,80.0,124383.0,0.0
14629.8423727,292878.40625,295518.78125,334944.40625,330322.84375,285224.8125,255745.359375,222139.6875,244063.890625,0.0166015625,0.997314453125,0.201904296875,-0.0610351525247097,-1.9226073026657104,-0.7629393935203552,80.0,124384.0,0.0
14629.842374,292878.40625,295518.78125,334944.40625,330322.84375,285224.8125,255745.359375,222139.6875,244063.890625,0.0166015625,0.997314453125,0.201904296875,-0.0610351525247097,-1.9226073026657104,-0.7629393935203552,80.0,124385.0,0.0
14629.842375,292878.40625,295518.78125,334944.40625,330322.84375,285224.8125,255745.359375,222139.6875,244063.890625,0.0166015625,0.997314453125,0.201904296875,-0.0610351525247097,-1.9226073026657104,-0.7629393935203552,80.0,124386.0,0.0
14629.8423761,292878.40625,295518.78125,334944.40625,330322.84375,285224.8125,255745.359375,222139.6875,244063.890625,0.0166015625,0.997314453125,0.201904296875,-0.0610351525247097,-1.9226073026657104,-0.7629393935203552,80.0,124387.0,0.0
14629.8423772,292878.40625,295518.78125,334944.40625,330322.84375,285224.8125,255745.359375,222139.6875,244063.890625,0.0166015625,0.997314453125,0.201904296875,-0.0610351525247097,-1.9226073026657104,-0.7629393935203552,80.0,124388.0,0.0
14629.842379,292878.40625,295518.78125,334944.40625,330322.84375,285224.8125,255745.359375,222139.6875,244063.890625,0.0166015625,0.997314453125,0.201904296875,-0.0610351525247097,-1.9226073026657104,-0.7629393935203552,80.0,124389.0,0.0
14629.8423794,292878.40625,295518.78125,334944.40625,330322.84375,285224.8125,255745.359375,222139.6875,244063.890625,0.0166015625,0.997314453125,0.201904296875,-0.0610351525247097,-1.9226073026657104,-0.7629393935203552,80.0,124390.0,0.0
14629.8423796,292878.40625,295518.78125,334944.40625,330322.84375,285224.8125,255745.359375,222139.6875,244063.890625,0.0166015625,0.997314453125,0.201904296875,-0.0610351525247097,-1.9226073026657104,-0.7629393935203552,80.0,124391.0,0.0
14629.8423798,292878.40625,295518.78125,334944.40625,330322.84375,285224.8125,255745.359375,222139.6875,244063.890625,0.0166015625,0.997314453125,0.201904296875,-0.0610351525247097,-1.9226073026657104,-0.7629393935203552,80.0,124392.0,0.0
14629.8423799,292878.40625,295518.78125,334944.40625,330322.84375,285224.8125,255745.359375,222139.6875,244063.890625,0.0166015625,0.997314453125,0.201904296875,-0.0610351525247097,-1.9226073026657104,-0.7629393935203552,80.0,124393.0,0.0
14629.8423801,292878.40625,295518.78125,334944.40625,330322.84375,285224.8125,255745.359375,222139.6875,244063.890625,0.0166015625,0.997314453125,0.201904296875,-0.0610351525247097,-1.9226073026657104,-0.7629393935203552,80.0,124394.0,0.0
14629.8423803,292878.40625,295518.78125,334944.40625,330322.84375,285224.8125,255745.359375,222139.6875,244063.890625,0.0166015625,0.997314453125,0.201904296875,-0.0610351525247097,-1.9226073026657104,-0.7629393935203552,80.0,124395.0,0.0
14629.8423804,292878.40625,295518.78125,334944.40625,330322.84375,285224.8125,255745.359375,222139.6875,244063.890625,0.0166015625,0.997314453125,0.201904296875,-0.0610351525247097,-1.9226073026657104,-0.7629393935203552,80.0,124396.0,0.0
14629.8423806,292878.40625,295518.78125,334944.40625,330322.84375,285224.8125,255745.359375,222139.6875,244063.890625,0.0166015625,0.997314453125,0.201904296875,-0.0610351525247097,-1.9226073026657104,-0.7629393935203552,80.0,124397.0,0.0
14629.8423808,292878.40625,295518.78125,334944.40625,330322.84375,285224.8125,255745.359375,222139.6875,244063.890625,0.0166015625,0.997314453125,0.201904296875,-0.0610351525247097,-1.9226073026657104,-0.7629393935203552,80.0,124398.0,0.0
14629.842381,292878.40625,295518.78125,334944.40625,330322.84375,285224.8125,255745.359375,222139.6875,244063.890625,0.0166015625,0.997314453125,0.201904296875,-0.0610351525247097,-1.9226073026657104,-0.7629393935203552,80.0,124399.0,0.0
14629.8423811,292878.40625,295518.78125,334944.40625,330322.84375,285224.8125,255745.359375,222139.6875,244063.890625,0.0166015625,0.997314453125,0.201904296875,-0.0610351525247097,-1.9226073026657104,-0.7629393935203552,80.0,124400.0,0.0
14629.8423813,292878.40625,295518.78125,334944.40625,330322.84375,285224.8125,255745.359375,222139.6875,244063.890625,0.0166015625,0.997314453125,0.201904296875,-0.0610351525247097,-1.9226073026657104,-0.7629393935203552,80.0,124401.0,0.0
14629.8423815,292878.40625,295518.78125,334944.40625,330322.84375,285224.8125,255745.359375,222139.6875,244063.890625,0.0166015625,0.997314453125,0.201904296875,-0.0610351525247097,-1.9226073026657104,-0.7629393935203552,80.0,124402.0,0.0
14629.8423817,292878.40625,295518.78125,334944.40625,330322.84375,285224.8125,255745.359375,222139.6875,244063.890625,0.0166015625,0.997314453125,0.201904296875,-0.0610351525247097,-1.9226073026657104,-0.7629393935203552,80.0,124403.0,0.0
14629.8423818,292878.40625,295518.78125,334944.40625,330322.84375,285224.8125,255745.359375,222139.6875,244063.890625,0.0166015625,0.997314453125,0.201904296875,-0.0610351525247097,-1.9226073026657104,-0.7629393935203552,80.0,124404.0,0.0
14629.842382,292878.40625,295518.78125,334944.40625,330322.84375,285224.8125,255745.359375,222139.6875,244063.890625,0.0166015625,0.997314453125,0.201904296875,-0.0610351525247097,-1.9226073026657104,-0.7629393935203552,80.0,124405.0,0.0
14629.8423822,292878.40625,295518.78125,334944.40625,330322.84375,285224.8125,255745.359375,222139.6875,244063.890625,0.0166015625,0.997314453125,0.201904296875,-0.0610351525247097,-1.9226073026657104,-0.7629393935203552,80.0,124406.0,0.0
14629.8423837,292878.40625,295518.78125,334944.40625,330322.84375,285224.8125,255745.359375,222139.6875,244063.890625,0.0166015625,0.997314453125,0.201904296875,-0.0610351525247097,-1.9226073026657104,-0.7629393935203552,80.0,124407.0,0.0
14629.8423839,292878.40625,295518.78125,334944.40625,330322.84375,285224.8125,255745.359375,222139.6875,244063.890625,0.0166015625,0.997314453125,0.201904296875,-0.0610351525247097,-1.9226073026657104,-0.7629393935203552,80.0,124408.0,0.0
14629.8423841,292839.0625,295185.90625,334651.0625,330295.0625,285057.625,255662.75,222059.40625,244112.4375,0.02099609375,0.99853515625,0.19775390625,0.9460448622703552,-0.8239745497703552,-0.8544921278953552,80.0,124409.0,1.0
14629.8986131,292879.21875,295275.40625,334792.21875,330338.6875,285120.03125,255685.109375,222088.828125,244116.734375,0.017822265625,0.998779296875,0.198974609375,0.7019042372703552,-0.8850097060203552,-0.8544921278953552,80.0,124410.0,1.0
14629.9253855,292882.0,295525.03125,334948.875,330318.03125,285230.53125,255721.84375,222124.40625,244111.375,0.017578125,0.99853515625,0.196533203125,0.5798339247703552,-0.9765624403953552,-0.8544921278953552,80.0,124411.0,1.0
14629.9254034,292848.90625,295606.03125,334914.625,330265.375,285246.625,255742.0625,222128.703125,244105.734375,0.01953125,0.99609375,0.199462890625,0.7019042372703552,-1.1291502714157104,-0.9765624403953552,80.0,124412.0,1.0
14629.9254047,292826.46875,295406.9375,334746.28125,330256.6875,285151.40625,255701.828125,222092.125,244112.265625,0.02197265625,0.993408203125,0.197509765625,0.6713866591453552,-1.1901854276657104,-0.8850097060203552,80.0,124413.0,1.0
14629.9254058,292845.25,295196.09375,334664.8125,330299.25,285073.1875,255658.015625,222061.546875,244116.734375,0.025146484375,0.99267578125,0.198486328125,0.7019042372703552,-1.2207030057907104,-0.9155272841453552,80.0,124414.0,1.0
14629.9742189,292875.28125,295264.59375,334790.96875,330332.34375,285123.4375,255675.984375,222083.71875,244119.59375,0.02490234375,0.99462890625,0.1962890625,0.6103515028953552,-1.3122557401657104,-0.7934569716453552,80.0,124415.0,1.0
14629.9742241,292878.21875,295514.75,334942.0625,330313.90625,285230.90625,255718.09375,222125.484375,244129.34375,0.02294921875,0.9970703125,0.197021484375,0.6103515028953552,-1.2817381620407104,-0.6408690810203552,80.0,124416.0,1.0
14629.9742254,292846.59375,295600.5,334908.09375,330258.3125,285242.96875,255724.0,222120.296875,244100.546875,0.022216796875,0.997802734375,0.19775390625,0.5798339247703552,-1.2512205839157104,-0.6713866591453552,80.0,124417.0,1.0
14629.9742266,292829.25,295406.84375,334743.59375,330250.25,285147.84375,255692.25,222082.296875,244095.453125,0.02392578125,0.99755859375,0.197509765625,0.5187987685203552,-1.3427733182907104,-0.7019042372703552,80.0,124418.0,1.0
14629.9742278,292848.90625,295199.5,334663.75,330297.8125,285070.84375,255665.25,222065.671875,244122.71875,0.022705078125,0.9951171875,0.19384765625,0.4882812201976776,-1.3732908964157104,-0.7324218153953552,80.0,124419.0,1.0
14629.974229,292874.03125,295267.28125,334785.4375,330332.0625,285116.53125,255663.640625,222085.6875,244142.21875,0.023193359375,0.993896484375,0.192138671875,0.5493163466453552,-1.4038084745407104,-0.6408690810203552,80.0,124420.0,1.0
14629.9742302,292874.21875,295507.875,334932.59375,330314.0,285218.65625,255703.796875,222123.328125,244140.875,0.024658203125,0.993408203125,0.193115234375,0.5798339247703552,-1.6174315214157104,-0.5798339247703552,80.0,124421.0,1.0
14630.0033164,292839.875,295586.0,334894.9375,330261.875,285233.5625,255722.125,222125.296875,244123.796875,0.027587890625,0.99462890625,0.196533203125,0.7324218153953552,-1.5563963651657104,-0.6103515028953552,80.0,124422.0,1.0
14630.0033229,292821.09375,295402.09375,334730.4375,330248.75,285143.28125,255690.640625,222085.421875,244110.203125,0.025146484375,0.994140625,0.20068359375,0.6713866591453552,-1.4953612089157104,-0.5798339247703552,80.0,124423.0,1.0
14630.0033247,292834.6875,295188.40625,334645.59375,330289.40625,285062.375,255654.703125,222064.5,244124.6875,0.02392578125,0.99609375,0.198974609375,0.7629393935203552,-1.4038084745407104,-0.7934569716453552,80.0,124424.0,1.0
14630.0033266,292874.03125,295269.875,334778.375,330336.28125,285120.03125,255683.5,222100.0,244153.5625,0.02197265625,0.9970703125,0.1943359375,0.7019042372703552,-1.4648436307907104,-0.8544921278953552,80.0,124425.0,1.0
14630.0093532,292874.84375,295516.4375,334931.875,330317.84375,285225.09375,255721.046875,222136.5625,244155.8125,0.021728515625,0.999267578125,0.195068359375,0.7019042372703552,-1.4953612089157104,-1.0681151151657104,80.0,124426.0,1.0
14630.0111115,292874.84375,295516.4375,334931.875,330317.84375,285225.09375,255721.046875,222136.5625,244155.8125,0.021728515625,0.999267578125,0.195068359375,0.7019042372703552,-1.4953612089157104,-1.0681151151657104,80.0,124427.0,0.0
14630.011112,292874.84375,295516.4375,334931.875,330317.84375,285225.09375,255721.046875,222136.5625,244155.8125,0.021728515625,0.999267578125,0.195068359375,0.7019042372703552,-1.4953612089157104,-1.0681151151657104,80.0,124428.0,0.0
14630.0111122,292874.84375,295516.4375,334931.875,330317.84375,285225.09375,255721.046875,222136.5625,244155.8125,0.021728515625,0.999267578125,0.195068359375,0.7019042372703552,-1.4953612089157104,-1.0681151151657104,80.0,124429.0,0.0
14630.0111124,292874.84375,295516.4375,334931.875,330317.84375,285225.09375,255721.046875,222136.5625,244155.8125,0.021728515625,0.999267578125,0.195068359375,0.7019042372703552,-1.4953612089157104,-1.0681151151657104,80.0,124430.0,0.0
14630.0111126,292874.84375,295516.4375,334931.875,330317.84375,285225.09375,255721.046875,222136.5625,244155.8125,0.021728515625,0.999267578125,0.195068359375,0.7019042372703552,-1.4953612089157104,-1.0681151151657104,80.0,124431.0,0.0
14630.0111128,292874.84375,295516.4375,334931.875,330317.84375,285225.09375,255721.046875,222136.5625,244155.8125,0.021728515625,0.999267578125,0.195068359375,0.7019042372703552,-1.4953612089157104,-1.0681151151657104,80.0,124432.0,0.0
14630.011113,292874.84375,295516.4375,334931.875,330317.84375,285225.09375,255721.046875,222136.5625,244155.8125,0.021728515625,0.999267578125,0.195068359375,0.7019042372703552,-1.4953612089157104,-1.0681151151657104,80.0,124433.0,0.0
