Time,FZ,C3,CZ,C4,PZ,PO7,OZ,PO8,AccX,AccY,AccZ,Gyro1,Gyro2,Gyro3,Battery,Counter,Validation
14583.3389254,292435.125,295417.75,336875.75,332769.375,285150.875,256328.390625,222382.515625,245951.1875,0.026123046875,0.996337890625,0.16845703125,0.5493163466453552,-1.9531248807907104,-1.0681151151657104,80.0,112739.0,1.0
14583.3389267,292433.4375,295673.1875,337001.8125,332740.25,285257.34375,256380.421875,222417.578125,245931.609375,0.025146484375,0.997802734375,0.16796875,0.4272460639476776,-1.9531248807907104,-1.0986326932907104,80.0,112740.0,1.0
14583.338928,292401.78125,295641.25,336931.65625,332704.21875,285233.5625,256360.9375,222390.125,245909.4375,0.02587890625,0.994384765625,0.17138671875,0.4272460639476776,-1.9226073026657104,-1.0070799589157104,80.0,112741.0,1.0
14583.3389292,292385.59375,295366.5,336760.96875,332707.78125,285112.25,256301.921875,222341.125,245905.140625,0.026611328125,0.9921875,0.170166015625,0.3967284858226776,-1.8310545682907104,-1.0070799589157104,80.0,112742.0,1.0
14583.3389304,292412.59375,295231.15625,336726.625,332748.28125,285060.9375,256283.421875,222330.84375,245915.25,0.02685546875,0.993408203125,0.169677734375,0.3967284858226776,-1.9226073026657104,-1.0070799589157104,80.0,112743.0,1.0
14583.3389316,292442.90625,295437.6875,336890.875,332773.40625,285162.5,256329.109375,222379.578125,245939.46875,0.02685546875,0.994873046875,0.16748046875,0.5187987685203552,-1.9531248807907104,-1.0070799589157104,80.0,112744.0,1.0
14583.3389327,292432.09375,295675.78125,337004.15625,332742.75,285261.375,256365.765625,222414.53125,245937.234375,0.028076171875,0.995849609375,0.167236328125,0.5493163466453552,-1.8920897245407104,-1.0070799589157104,80.0,112745.0,1.0
14583.3389354,292407.40625,295639.125,336927.25,332711.375,285236.34375,256357.359375,222395.75,245919.09375,0.02978515625,0.995849609375,0.16845703125,0.6103515028953552,-1.8615721464157104,-0.9765624403953552,80.0,112746.0,1.0
14583.3389366,292402.5,295380.8125,336771.875,332726.90625,285128.625,256318.1875,222353.46875,245922.9375,0.02978515625,0.996826171875,0.170166015625,0.5493163466453552,-1.8615721464157104,-0.9155272841453552,80.0,112747.0,1.0
14583.3389378,292430.9375,295254.75,336757.75,332769.5625,285090.34375,256313.8125,222354.1875,245930.71875,0.030517578125,0.996826171875,0.1708984375,0.5187987685203552,-1.8005369901657104,-0.7019042372703552,80.0,112748.0,1.0
14583.3389392,292458.09375,295454.21875,336920.03125,332785.65625,285183.78125,256346.890625,222397.1875,245941.53125,0.029541015625,0.9970703125,0.168701171875,0.5187987685203552,-1.7089842557907104,-0.6713866591453552,80.0,112749.0,1.0
14583.3422057,292450.96875,295698.84375,337038.03125,332751.25,285280.5,256377.296875,222417.390625,245927.21875,0.028564453125,0.995361328125,0.172119140625,0.3356933295726776,-1.6174315214157104,-0.6713866591453552,80.0,112750.0,1.0
14583.3472303,292450.96875,295698.84375,337038.03125,332751.25,285280.5,256377.296875,222417.390625,245927.21875,0.028564453125,0.995361328125,0.172119140625,0.3356933295726776,-1.6174315214157104,-0.6713866591453552,80.0,112751.0,0.0
14583.3472327,292450.96875,295698.84375,337038.03125,332751.25,285280.5,256377.296875,222417.390625,245927.21875,0.028564453125,0.995361328125,0.172119140625,0.3356933295726776,-1.6174315214157104,-0.6713866591453552,80.0,112752.0,0.0
14583.347233,292450.96875,295698.84375,337038.03125,332751.25,285280.5,256377.296875,222417.390625,245927.21875,0.028564453125,0.995361328125,0.172119140625,0.3356933295726776,-1.6174315214157104,-0.6713866591453552,80.0,112753.0,0.0
14583.3472332,292450.96875,295698.84375,337038.03125,332751.25,285280.5,256377.296875,222417.390625,245927.21875,0.028564453125,0.995361328125,0.172119140625,0.3356933295726776,-1.6174315214157104,-0.6713866591453552,80.0,112754.0,0.0
14583.3472334,292450.96875,295698.84375,337038.03125,332751.25,285280.5,256377.296875,222417.390625,245927.21875,0.028564453125,0.995361328125,0.172119140625,0.3356933295726776,-1.6174315214157104,-0.6713866591453552,80.0,112755.0,0.0
14583.3472336,292450.96875,295698.84375,337038.03125,332751.25,285280.5,256377.296875,222417.390625,245927.21875,0.028564453125,0.995361328125,0.172119140625,0.3356933295726776,-1.6174315214157104,-0.6713866591453552,80.0,112756.0,0.0
14583.3472338,292450.96875,295698.84375,337038.03125,332751.25,285280.5,256377.296875,222417.390625,245927.21875,0.028564453125,0.995361328125,0.172119140625,0.3356933295726776,-1.6174315214157104,-0.6713866591453552,80.0,112757.0,0.0
14583.347234,292450.96875,295698.84375,337038.03125,332751.25,285280.5,256377.296875,222417.390625,245927.21875,0.028564453125,0.995361328125,0.172119140625,0.3356933295726776,-1.6174315214157104,-0.6713866591453552,80.0,112758.0,0.0
14583.3472342,292450.96875,295698.84375,337038.03125,332751.25,285280.5,256377.296875,222417.390625,245927.21875,0.028564453125,0.995361328125,0.172119140625,0.3356933295726776,-1.6174315214157104,-0.6713866591453552,80.0,112759.0,0.0
14583.3472344,292450.96875,295698.84375,337038.03125,332751.25,285280.5,256377.296875,222417.390625,245927.21875,0.028564453125,0.995361328125,0.172119140625,0.3356933295726776,-1.6174315214157104,-0.6713866591453552,80.0,112760.0,0.0
14583.3472346,292450.96875,295698.84375,337038.03125,332751.25,285280.5,256377.296875,222417.390625,245927.21875,0.028564453125,0.995361328125,0.172119140625,0.3356933295726776,-1.6174315214157104,-0.6713866591453552,80.0,112761.0,0.0
14583.3472348,292450.96875,295698.84375,337038.03125,332751.25,285280.5,256377.296875,222417.390625,245927.21875,0.028564453125,0.995361328125,0.172119140625,0.3356933295726776,-1.6174315214157104,-0.6713866591453552,80.0,112762.0,0.0
14583.347235,292450.96875,295698.84375,337038.03125,332751.25,285280.5,256377.296875,222417.390625,245927.21875,0.028564453125,0.995361328125,0.172119140625,0.3356933295726776,-1.6174315214157104,-0.6713866591453552,80.0,112763.0,0.0
14583.3472352,292450.96875,295698.84375,337038.03125,332751.25,285280.5,256377.296875,222417.390625,245927.21875,0.028564453125,0.995361328125,0.172119140625,0.3356933295726776,-1.6174315214157104,-0.6713866591453552,80.0,112764.0,0.0
14583.3472354,292450.96875,295698.84375,337038.03125,332751.25,285280.5,256377.296875,222417.390625,245927.21875,0.028564453125,0.995361328125,0.172119140625,0.3356933295726776,-1.6174315214157104,-0.6713866591453552,80.0,112765.0,0.0
14583.3472356,292450.96875,295698.84375,337038.03125,332751.25,285280.5,256377.296875,222417.390625,245927.21875,0.028564453125,0.995361328125,0.172119140625,0.3356933295726776,-1.6174315214157104,-0.6713866591453552,80.0,112766.0,0.0
14583.3472358,292450.96875,295698.84375,337038.03125,332751.25,285280.5,256377.296875,222417.390625,245927.21875,0.028564453125,0.995361328125,0.172119140625,0.3356933295726776,-1.6174315214157104,-0.6713866591453552,80.0,112767.0,0.0
14583.347236,292450.96875,295698.84375,337038.03125,332751.25,285280.5,256377.296875,222417.390625,245927.21875,0.028564453125,0.995361328125,0.172119140625,0.3356933295726776,-1.6174315214157104,-0.6713866591453552,80.0,112768.0,0.0
14583.3472362,292450.96875,295698.84375,337038.03125,332751.25,285280.5,256377.296875,222417.390625,245927.21875,0.028564453125,0.995361328125,0.172119140625,0.3356933295726776,-1.6174315214157104,-0.6713866591453552,80.0,112769.0,0.0
14583.3472364,292442.0,295695.96875,337030.25,332743.46875,285268.71875,256373.71875,222405.328125,245929.1875,0.027587890625,0.993408203125,0.166259765625,-0.1220703050494194,-2.105712652206421,-1.1291502714157104,80.0,112770.0,1.0
14583.3514812,292412.875,295645.71875,336938.25,332707.34375,285230.71875,256348.953125,222368.390625,245918.109375,0.027099609375,0.993896484375,0.165771484375,-0.03051757626235485,-1.9836424589157104,-1.0986326932907104,80.0,112771.0,1.0
14583.3514894,292398.5625,295358.375,336740.65625,332710.1875,285092.21875,256293.703125,222314.3125,245912.03125,0.026123046875,0.994140625,0.167236328125,0.0915527269244194,-1.9531248807907104,-1.0681151151657104,80.0,112772.0,1.0
14583.3514914,292426.1875,295244.03125,336727.09375,332755.0,285057.09375,256284.125,222314.3125,245930.625,0.025390625,0.996337890625,0.168212890625,0.03051757626235485,-1.9836424589157104,-1.0375975370407104,80.0,112773.0,1.0
14583.3514933,292446.5625,295450.90625,336897.59375,332770.71875,285159.8125,256337.953125,222367.328125,245947.515625,0.02685546875,0.997314453125,0.16845703125,-0.03051757626235485,-1.9836424589157104,-1.0681151151657104,80.0,112774.0,1.0
14583.3546474,292430.9375,295693.21875,337017.125,332730.5,285257.96875,256382.390625,222394.765625,245922.21875,0.027099609375,0.998779296875,0.168212890625,-0.1220703050494194,-1.9836424589157104,-0.9460448622703552,80.0,112775.0,1.0
14583.3546588,292396.875,295642.59375,336927.1875,332691.96875,285221.875,256351.1875,222364.734375,245910.421875,0.0263671875,0.998291015625,0.171142578125,-0.2746581733226776,-2.014159917831421,-0.9155272841453552,80.0,112776.0,1.0
14583.3546613,292391.0625,295374.21875,336758.375,332709.75,285107.5,256302.8125,222329.0625,245923.734375,0.0244140625,0.998779296875,0.174072265625,-0.2746581733226776,-2.014159917831421,-0.9155272841453552,80.0,112777.0,1.0
14583.3791267,292417.78125,295253.9375,336740.9375,332755.625,285068.25,256297.90625,222333.265625,245933.84375,0.024169921875,0.998046875,0.1728515625,-0.3356933295726776,-1.9836424589157104,-0.7629393935203552,80.0,112778.0,1.0
14583.3791426,292439.96875,295457.625,336907.0625,332766.15625,285166.53125,256343.3125,222367.328125,245931.875,0.0244140625,0.998779296875,0.171630859375,-0.4272460639476776,-1.9836424589157104,-0.7934569716453552,80.0,112779.0,1.0
14583.4040896,292438.96875,295705.625,337033.5625,332738.1875,285272.75,256390.875,222398.4375,245927.578125,0.02392578125,1.000244140625,0.172119140625,-0.5798339247703552,-2.044677495956421,-0.8239745497703552,80.0,112780.0,1.0
14583.4041026,292418.59375,295664.6875,336959.34375,332711.53125,285246.90625,256368.359375,222374.46875,245916.140625,0.024658203125,1.0009765625,0.17041015625,-0.7629393935203552,-2.075195074081421,-0.8239745497703552,80.0,112781.0,1.0
14583.5031575,292398.75,295371.53125,336767.75,332708.3125,285107.6875,256301.390625,222313.140625,245907.28125,0.02294921875,0.999755859375,0.17041015625,-0.8239745497703552,-2.075195074081421,-0.8239745497703552,80.0,112782.0,1.0
14583.5031755,292398.75,295371.53125,336767.75,332708.3125,285107.6875,256301.390625,222313.140625,245907.28125,0.02294921875,0.999755859375,0.17041015625,-0.8239745497703552,-2.075195074081421,-0.8239745497703552,80.0,112783.0,0.0
14583.5031757,292398.75,295371.53125,336767.75,332708.3125,285107.6875,256301.390625,222313.140625,245907.28125,0.02294921875,0.999755859375,0.17041015625,-0.8239745497703552,-2.075195074081421,-0.8239745497703552,80.0,112784.0,0.0
14583.5031759,292398.75,295371.53125,336767.75,332708.3125,285107.6875,256301.390625,222313.140625,245907.28125,0.02294921875,0.999755859375,0.17041015625,-0.8239745497703552,-2.075195074081421,-0.8239745497703552,80.0,112785.0,0.0
14583.5031761,292398.75,295371.53125,336767.75,332708.3125,285107.6875,256301.390625,222313.140625,245907.28125,0.02294921875,0.999755859375,0.17041015625,-0.8239745497703552,-2.075195074081421,-0.8239745497703552,80.0,112786.0,0.0
14583.5031763,292398.75,295371.53125,336767.75,332708.3125,285107.6875,256301.390625,222313.140625,245907.28125,0.02294921875,0.999755859375,0.17041015625,-0.8239745497703552,-2.075195074081421,-0.8239745497703552,80.0,112787.0,0.0
14583.5031765,292398.75,295371.53125,336767.75,332708.3125,285107.6875,256301.390625,222313.140625,245907.28125,0.02294921875,0.999755859375,0.17041015625,-0.8239745497703552,-2.075195074081421,-0.8239745497703552,80.0,112788.0,0.0
14583.5031767,292398.75,295371.53125,336767.75,332708.3125,285107.6875,256301.390625,222313.140625,245907.28125,0.02294921875,0.999755859375,0.17041015625,-0.8239745497703552,-2.075195074081421,-0.8239745497703552,80.0,112789.0,0.0
14583.5031769,292398.75,295371.53125,336767.75,332708.3125,285107.6875,256301.390625,222313.140625,245907.28125,0.02294921875,0.999755859375,0.17041015625,-0.8239745497703552,-2.075195074081421,-0.8239745497703552,80.0,112790.0,0.0
14583.503177,292398.75,295371.53125,336767.75,332708.3125,285107.6875,256301.390625,222313.140625,245907.28125,0.02294921875,0.999755859375,0.17041015625,-0.8239745497703552,-2.075195074081421,-0.8239745497703552,80.0,112791.0,0.0
14583.5031772,292398.75,295371.53125,336767.75,332708.3125,285107.6875,256301.390625,222313.140625,245907.28125,0.02294921875,0.999755859375,0.17041015625,-0.8239745497703552,-2.075195074081421,-0.8239745497703552,80.0,112792.0,0.0
14583.5031774,292398.75,295371.53125,336767.75,332708.3125,285107.6875,256301.390625,222313.140625,245907.28125,0.02294921875,0.999755859375,0.17041015625,-0.8239745497703552,-2.075195074081421,-0.8239745497703552,80.0,112793.0,0.0
14583.5031775,292398.75,295371.53125,336767.75,332708.3125,285107.6875,256301.390625,222313.140625,245907.28125,0.02294921875,0.999755859375,0.17041015625,-0.8239745497703552,-2.075195074081421,-0.8239745497703552,80.0,112794.0,0.0
14583.5031777,292398.75,295371.53125,336767.75,332708.3125,285107.6875,256301.390625,222313.140625,245907.28125,0.02294921875,0.999755859375,0.17041015625,-0.8239745497703552,-2.075195074081421,-0.8239745497703552,80.0,112795.0,0.0
14583.5031779,292398.75,295371.53125,336767.75,332708.3125,285107.6875,256301.390625,222313.140625,245907.28125,0.02294921875,0.999755859375,0.17041015625,-0.8239745497703552,-2.075195074081421,-0.8239745497703552,80.0,112796.0,0.0
14583.5031781,292398.75,295371.53125,336767.75,332708.3125,285107.6875,256301.390625,222313.140625,245907.28125,0.02294921875,0.999755859375,0.17041015625,-0.8239745497703552,-2.075195074081421,-0.8239745497703552,80.0,112797.0,0.0
14583.5031782,292398.75,295371.53125,336767.75,332708.3125,285107.6875,256301.390625,222313.140625,245907.28125,0.02294921875,0.999755859375,0.17041015625,-0.8239745497703552,-2.075195074081421,-0.8239745497703552,80.0,112798.0,0.0
14583.5031784,292398.75,295371.53125,336767.75,332708.3125,285107.6875,256301.390625,222313.140625,245907.28125,0.02294921875,0.999755859375,0.17041015625,-0.8239745497703552,-2.075195074081421,-0.8239745497703552,80.0,112799.0,0.0
14583.5031786,292440.40625,295691.25,337007.90625,332732.8125,285252.0,256390.703125,222396.65625,245936.796875,0.029052734375,0.98876953125,0.173828125,0.3356933295726776,-0.4272460639476776,-0.7934569716453552,80.0,112800.0,1.0
14583.5031799,292405.90625,295642.6875,336932.0,332697.3125,285227.125,256373.984375,222375.453125,245925.34375,0.029052734375,0.991943359375,0.174560546875,0.5493163466453552,-0.3967284858226776,-0.8544921278953552,80.0,112801.0,1.0
14583.5031811,292390.78125,295370.8125,336764.375,332700.46875,285107.34375,256327.765625,222327.71875,245919.8125,0.02685546875,0.99462890625,0.1767578125,0.6408690810203552,-0.3967284858226776,-0.7934569716453552,80.0,112802.0,1.0
14583.5031823,292419.3125,295259.21875,336754.625,332748.90625,285075.59375,256327.046875,222336.484375,245937.0625,0.028076171875,0.995361328125,0.1767578125,0.6408690810203552,-0.4272460639476776,-0.6713866591453552,80.0,112803.0,1.0
14583.5031835,292449.4375,295465.84375,336924.125,332768.59375,285177.6875,256368.171875,222382.515625,245951.546875,0.025390625,0.996337890625,0.17431640625,0.6713866591453552,-0.5187987685203552,-0.7629393935203552,80.0,112804.0,1.0
14583.5031847,292434.5,295685.6875,337012.1875,332732.03125,285256.375,256392.046875,222407.375,245960.21875,0.0244140625,0.99853515625,0.1708984375,0.6408690810203552,-0.4882812201976776,-0.8544921278953552,80.0,112805.0,1.0
14583.5031859,292388.375,295612.03125,336894.09375,332679.53125,285194.9375,256349.125,222361.875,245924.546875,0.02294921875,0.99755859375,0.1708984375,0.7019042372703552,-0.4882812201976776,-0.8850097060203552,80.0,112806.0,1.0
14583.5031871,292387.84375,295359.09375,336747.8125,332695.375,285090.625,256319.53125,222319.140625,245907.640625,0.02294921875,0.999267578125,0.172119140625,0.7324218153953552,-0.5798339247703552,-0.9460448622703552,80.0,112807.0,1.0
14583.5031885,292416.4375,295247.15625,336742.71875,332740.6875,285061.28125,256325.078125,222327.09375,245925.53125,0.023193359375,0.99755859375,0.17236328125,0.7019042372703552,-0.7324218153953552,-0.9155272841453552,80.0,112808.0,1.0
14583.5579835,292451.75,295470.0625,336922.53125,332764.21875,285173.3125,256371.21875,222385.03125,245951.28125,0.022705078125,0.99755859375,0.17529296875,0.5798339247703552,-0.7324218153953552,-0.8239745497703552,80.0,112809.0,1.0
14583.5579939,292451.75,295470.0625,336922.53125,332764.21875,285173.3125,256371.21875,222385.03125,245951.28125,0.022705078125,0.99755859375,0.17529296875,0.5798339247703552,-0.7324218153953552,-0.8239745497703552,80.0,112810.0,0.0
14583.5579941,292451.75,295470.0625,336922.53125,332764.21875,285173.3125,256371.21875,222385.03125,245951.28125,0.022705078125,0.99755859375,0.17529296875,0.5798339247703552,-0.7324218153953552,-0.8239745497703552,80.0,112811.0,0.0
14583.5579943,292451.75,295470.0625,336922.53125,332764.21875,285173.3125,256371.21875,222385.03125,245951.28125,0.022705078125,0.99755859375,0.17529296875,0.5798339247703552,-0.7324218153953552,-0.8239745497703552,80.0,112812.0,0.0
14583.5579945,292451.75,295470.0625,336922.53125,332764.21875,285173.3125,256371.21875,222385.03125,245951.28125,0.022705078125,0.99755859375,0.17529296875,0.5798339247703552,-0.7324218153953552,-0.8239745497703552,80.0,112813.0,0.0
14583.5579947,292451.75,295470.0625,336922.53125,332764.21875,285173.3125,256371.21875,222385.03125,245951.28125,0.022705078125,0.99755859375,0.17529296875,0.5798339247703552,-0.7324218153953552,-0.8239745497703552,80.0,112814.0,0.0
14583.5579948,292451.75,295470.0625,336922.53125,332764.21875,285173.3125,256371.21875,222385.03125,245951.28125,0.022705078125,0.99755859375,0.17529296875,0.5798339247703552,-0.7324218153953552,-0.8239745497703552,80.0,112815.0,0.0
14583.557995,292451.75,295470.0625,336922.53125,332764.21875,285173.3125,256371.21875,222385.03125,245951.28125,0.022705078125,0.99755859375,0.17529296875,0.5798339247703552,-0.7324218153953552,-0.8239745497703552,80.0,112816.0,0.0
14583.5579952,292451.75,295470.0625,336922.53125,332764.21875,285173.3125,256371.21875,222385.03125,245951.28125,0.022705078125,0.99755859375,0.17529296875,0.5798339247703552,-0.7324218153953552,-0.8239745497703552,80.0,112817.0,0.0
14583.5579954,292451.75,295470.0625,336922.53125,332764.21875,285173.3125,256371.21875,222385.03125,245951.28125,0.022705078125,0.99755859375,0.17529296875,0.5798339247703552,-0.7324218153953552,-0.8239745497703552,80.0,112818.0,0.0
14583.5579955,292451.75,295470.0625,336922.53125,332764.21875,285173.3125,256371.21875,222385.03125,245951.28125,0.022705078125,0.99755859375,0.17529296875,0.5798339247703552,-0.7324218153953552,-0.8239745497703552,80.0,112819.0,0.0
14583.5579958,292451.75,295470.0625,336922.53125,332764.21875,285173.3125,256371.21875,222385.03125,245951.28125,0.022705078125,0.99755859375,0.17529296875,0.5798339247703552,-0.7324218153953552,-0.8239745497703552,80.0,112820.0,0.0
14583.5579959,292451.75,295470.0625,336922.53125,332764.21875,285173.3125,256371.21875,222385.03125,245951.28125,0.022705078125,0.99755859375,0.17529296875,0.5798339247703552,-0.7324218153953552,-0.8239745497703552,80.0,112821.0,0.0
14583.5579962,292451.75,295470.0625,336922.53125,332764.21875,285173.3125,256371.21875,222385.03125,245951.28125,0.022705078125,0.99755859375,0.17529296875,0.5798339247703552,-0.7324218153953552,-0.8239745497703552,80.0,112822.0,0.0
14583.5579964,292451.75,295470.0625,336922.53125,332764.21875,285173.3125,256371.21875,222385.03125,245951.28125,0.022705078125,0.99755859375,0.17529296875,0.5798339247703552,-0.7324218153953552,-0.8239745497703552,80.0,112823.0,0.0
14583.5579965,292451.75,295470.0625,336922.53125,332764.21875,285173.3125,256371.21875,222385.03125,245951.28125,0.022705078125,0.99755859375,0.17529296875,0.5798339247703552,-0.7324218153953552,-0.8239745497703552,80.0,112824.0,0.0
14583.5579967,292439.34375,295685.0625,337027.21875,332726.46875,285251.46875,256389.359375,222390.390625,245939.203125,0.028076171875,0.99609375,0.168212890625,0.9155272841453552,-1.6479490995407104,-0.8850097060203552,80.0,112825.0,1.0
14583.557998,292412.78125,295637.96875,336948.375,332695.4375,285226.0625,256376.84375,222374.5625,245930.171875,0.027099609375,0.9990234375,0.17041015625,0.8239745497703552,-1.5563963651657104,-1.0070799589157104,80.0,112826.0,1.0
14583.5579992,292402.0625,295364.71875,336779.21875,332707.875,285106.0,256329.90625,222333.34375,245933.21875,0.025634765625,1.0029296875,0.169189453125,0.7324218153953552,-1.6479490995407104,-1.0375975370407104,80.0,112827.0,1.0
14583.5580019,292418.6875,295232.125,336743.0,332747.40625,285052.78125,256322.21875,222339.25,245956.46875,0.0263671875,1.005615234375,0.166015625,0.5493163466453552,-1.7395018339157104,-1.1901854276657104,80.0,112828.0,1.0
14583.5610111,292446.03125,295441.96875,336896.3125,332762.6875,285148.46875,256391.15625,222390.125,245959.234375,0.028076171875,1.004150390625,0.166259765625,0.3356933295726776,-1.8920897245407104,-1.2512205839157104,80.0,112829.0,1.0
14583.561014,292438.96875,295689.53125,337015.6875,332729.59375,285252.0,256426.828125,222403.265625,245939.46875,0.02734375,1.000244140625,0.16748046875,0.0915527269244194,-1.8005369901657104,-1.4343260526657104,80.0,112830.0,1.0
14583.5610152,292397.3125,295610.15625,336910.90625,332690.0,285199.59375,256344.84375,222351.859375,245941.078125,0.02587890625,0.994873046875,0.161865234375,0.1220703050494194,-1.8920897245407104,-1.5258787870407104,80.0,112831.0,1.0
14583.5848198,292379.4375,295297.6875,336695.34375,332682.65625,285038.3125,256252.5625,222275.328125,245910.15625,0.027099609375,0.994140625,0.1640625,0.1831054538488388,-1.9226073026657104,-1.7089842557907104,80.0,112832.0,1.0
14583.6369156,292410.625,295185.03125,336667.96875,332724.15625,284990.375,256247.828125,222272.109375,245903.265625,0.03125,0.99072265625,0.16552734375,0.1525878757238388,-1.8615721464157104,-1.7395018339157104,80.0,112833.0,1.0
14583.6369245,292443.625,295417.3125,336854.03125,332750.34375,285112.0625,256315.6875,222340.234375,245930.71875,0.033447265625,0.9921875,0.1669921875,0.1831054538488388,-1.8920897245407104,-1.6784666776657104,80.0,112834.0,1.0
14583.6369259,292441.125,295673.09375,336988.9375,332728.4375,285232.59375,256370.40625,222387.34375,245931.15625,0.034912109375,0.987548828125,0.165771484375,0.1831054538488388,-1.8005369901657104,-1.5869139432907104,80.0,112835.0,1.0
14583.6369272,292413.65625,295627.84375,336914.65625,332702.5,285211.59375,256361.203125,222372.78125,245926.0625,0.0322265625,0.987548828125,0.164306640625,0.3356933295726776,-1.5869139432907104,-1.6174315214157104,80.0,112836.0,1.0
14583.6369284,292403.375,295358.28125,336754.0,332712.0,285098.84375,256318.546875,222333.96875,245942.96875,0.03173828125,0.990478515625,0.16845703125,0.4577636420726776,-1.3732908964157104,-1.5563963651657104,80.0,112837.0,1.0
14583.6369296,292419.46875,295231.59375,336725.375,332742.5625,285047.78125,256298.4375,222312.703125,245936.53125,0.02880859375,0.99365234375,0.16796875,0.6103515028953552,-1.3122557401657104,-1.6174315214157104,80.0,112838.0,1.0
14583.6369309,292441.3125,295445.09375,336889.09375,332754.46875,285144.71875,256339.109375,222354.984375,245940.640625,0.0283203125,0.9970703125,0.169677734375,0.6103515028953552,-1.2512205839157104,-1.7089842557907104,80.0,112839.0,1.0
14583.6369336,292433.6875,295681.75,337006.125,332725.9375,285247.25,256381.859375,222391.203125,245945.46875,0.026123046875,0.997802734375,0.174560546875,0.3967284858226776,-1.1901854276657104,-1.5258787870407104,80.0,112840.0,1.0
14583.6369348,292397.5,295610.59375,336912.875,332687.84375,285206.84375,256356.8125,222360.078125,245924.28125,0.0263671875,0.998046875,0.174560546875,0.3356933295726776,-1.1901854276657104,-1.4648436307907104,80.0,112841.0,1.0
14583.6369397,292392.21875,295338.875,336750.9375,332704.46875,285093.46875,256314.703125,222320.828125,245925.265625,0.026611328125,0.99853515625,0.17041015625,0.4577636420726776,-1.1291502714157104,-1.3732908964157104,80.0,112842.0,1.0
14583.6597778,292417.0625,295227.75,336737.09375,332749.8125,285055.46875,256307.109375,222321.1875,245943.3125,0.026123046875,0.99853515625,0.17236328125,0.4272460639476776,-1.0986326932907104,-1.3732908964157104,80.0,112843.0,1.0
14583.6910699,292435.40625,295439.21875,336899.46875,332762.40625,285153.8125,256351.546875,222372.234375,245966.5625,0.0234375,0.998291015625,0.172607421875,0.4272460639476776,-1.0681151151657104,-1.4038084745407104,80.0,112844.0,1.0
14583.7160345,292425.28125,295669.6875,337002.4375,332728.34375,285246.09375,256388.5625,222396.46875,245949.671875,0.025390625,1.00048828125,0.17236328125,0.2746581733226776,-1.0681151151657104,-1.3122557401657104,80.0,112845.0,1.0
14583.7682841,292398.90625,295608.90625,336914.84375,332699.65625,285213.5625,256373.0,222375.90625,245937.234375,0.023193359375,1.000732421875,0.173828125,0.1525878757238388,-1.0375975370407104,-1.2207030057907104,80.0,112846.0,1.0
14583.7682916,292385.15625,295334.0625,336742.8125,332705.5625,285089.625,256318.828125,222323.328125,245929.28125,0.02490234375,1.00146484375,0.172607421875,-0.0610351525247097,-1.0986326932907104,-1.0986326932907104,80.0,112847.0,1.0
14583.7682929,292422.15625,295237.5,336749.0625,332759.5625,285066.125,256319.890625,222331.109375,245958.34375,0.02490234375,1.001220703125,0.174072265625,-0.2136230319738388,-1.0986326932907104,-1.0681151151657104,80.0,112848.0,1.0
14583.7682941,292446.40625,295445.8125,336915.8125,332768.125,285163.3125,256364.5,222370.453125,245953.59375,0.02392578125,1.00048828125,0.177001953125,-0.4577636420726776,-1.1291502714157104,-1.0681151151657104,80.0,112849.0,1.0
14583.7682953,292432.71875,295684.90625,337028.46875,332731.65625,285260.84375,256404.65625,222404.703125,245948.6875,0.02392578125,0.999267578125,0.17041015625,-0.6103515028953552,-1.0681151151657104,-1.0070799589157104,80.0,112850.0,1.0
14583.7709348,292404.28125,295627.59375,336944.15625,332706.96875,285229.65625,256387.578125,222387.4375,245948.234375,0.022216796875,0.99853515625,0.171142578125,-0.6713866591453552,-1.1291502714157104,-1.0986326932907104,80.0,112851.0,1.0
14583.77094,292381.21875,295333.34375,336762.21875,332701.09375,285090.6875,256314.34375,222305.453125,245910.6875,0.020751953125,1.00048828125,0.169921875,-0.6713866591453552,-1.2512205839157104,-1.0070799589157104,80.0,112852.0,1.0
14583.7709413,292404.28125,295198.4375,336725.5625,332738.625,285033.84375,256285.5625,222292.671875,245922.125,0.02099609375,0.997802734375,0.172607421875,-0.7324218153953552,-1.3732908964157104,-0.9765624403953552,80.0,112853.0,1.0
14583.774172,292428.5,295397.1875,336851.53125,332750.25,285109.5625,256321.40625,222332.640625,245933.21875,0.0224609375,0.99560546875,0.1728515625,-0.7934569716453552,-1.4648436307907104,-0.9155272841453552,80.0,112854.0,1.0
14583.7741854,292416.53125,295644.65625,336964.71875,332715.84375,285211.21875,256356.546875,222369.5625,245935.1875,0.02197265625,0.991455078125,0.173828125,-0.7629393935203552,-1.4953612089157104,-0.9155272841453552,80.0,112855.0,1.0
14583.7766539,292386.59375,295585.5625,336879.875,332681.40625,285178.21875,256335.0,222335.140625,245908.0,0.025146484375,0.990234375,0.173583984375,-0.6103515028953552,-1.4038084745407104,-0.9155272841453552,80.0,112856.0,1.0
14583.7766604,292380.40625,295316.71875,336719.75,332696.875,285063.78125,256287.078125,222288.734375,245907.109375,0.025390625,0.988037109375,0.173583984375,-0.4882812201976776,-1.4953612089157104,-1.0070799589157104,80.0,112857.0,1.0
14583.7833746,292405.09375,295208.1875,336713.59375,332739.96875,285031.5,256282.34375,222294.90625,245928.484375,0.02587890625,0.990234375,0.173095703125,-0.2136230319738388,-1.4953612089157104,-0.8850097060203552,80.0,112858.0,1.0
14583.7833931,292433.96875,295419.1875,336878.09375,332755.875,285133.4375,256334.734375,222348.8125,245942.96875,0.0283203125,0.99072265625,0.17529296875,-0.1525878757238388,-1.4343260526657104,-0.8544921278953552,80.0,112859.0,1.0
14583.7833945,292431.09375,295653.25,336987.96875,332732.03125,285235.71875,256383.8125,222389.671875,245947.515625,0.02880859375,0.9912109375,0.171142578125,0.0610351525247097,-1.4038084745407104,-0.8239745497703552,80.0,112860.0,1.0
14583.7833957,292398.75,295596.1875,336900.15625,332698.75,285203.28125,256362.71875,222366.515625,245939.203125,0.02685546875,0.9921875,0.17578125,0.2136230319738388,-1.4038084745407104,-0.9155272841453552,80.0,112861.0,1.0
14583.7833969,292381.46875,295323.875,336734.6875,332700.71875,285081.125,256303.703125,222314.03125,245930.984375,0.025634765625,0.99365234375,0.172607421875,0.3967284858226776,-1.3427733182907104,-0.9460448622703552,80.0,112862.0,1.0
14583.7833981,292406.25,295216.21875,336729.84375,332740.25,285044.21875,256291.546875,222307.328125,245937.59375,0.027587890625,0.99609375,0.172119140625,0.5187987685203552,-1.3732908964157104,-0.9765624403953552,80.0,112863.0,1.0
14583.7834008,292448.09375,295447.78125,336917.4375,332772.875,285164.09375,256356.28125,222372.953125,245968.984375,0.027099609375,0.998291015625,0.172119140625,0.5493163466453552,-1.3427733182907104,-0.9765624403953552,80.0,112864.0,1.0
14583.7834021,292440.3125,295682.5625,337022.84375,332745.96875,285265.6875,256397.859375,222414.0,245984.984375,0.02490234375,0.99755859375,0.172119140625,0.5187987685203552,-1.4343260526657104,-0.9765624403953552,80.0,112865.0,1.0
14583.7872526,292397.21875,295608.09375,336922.78125,332703.3125,285225.625,256373.890625,222379.9375,245962.546875,0.024169921875,0.9970703125,0.1748046875,0.5493163466453552,-1.5563963651657104,-1.0375975370407104,80.0,112866.0,1.0
14583.7872596,292397.21875,295608.09375,336922.78125,332703.3125,285225.625,256373.890625,222379.9375,245962.546875,0.024169921875,0.9970703125,0.1748046875,0.5493163466453552,-1.5563963651657104,-1.0375975370407104,80.0,112867.0,0.0
14583.7872598,292397.21875,295608.09375,336922.78125,332703.3125,285225.625,256373.890625,222379.9375,245962.546875,0.024169921875,0.9970703125,0.1748046875,0.5493163466453552,-1.5563963651657104,-1.0375975370407104,80.0,112868.0,0.0
14583.78726,292397.21875,295608.09375,336922.78125,332703.3125,285225.625,256373.890625,222379.9375,245962.546875,0.024169921875,0.9970703125,0.1748046875,0.5493163466453552,-1.5563963651657104,-1.0375975370407104,80.0,112869.0,0.0
14583.7872602,292397.21875,295608.09375,336922.78125,332703.3125,285225.625,256373.890625,222379.9375,245962.546875,0.024169921875,0.9970703125,0.1748046875,0.5493163466453552,-1.5563963651657104,-1.0375975370407104,80.0,112870.0,0.0
14583.7872605,292397.21875,295608.09375,336922.78125,332703.3125,285225.625,256373.890625,222379.9375,245962.546875,0.024169921875,0.9970703125,0.1748046875,0.5493163466453552,-1.5563963651657104,-1.0375975370407104,80.0,112871.0,0.0
14583.7872606,292397.21875,295608.09375,336922.78125,332703.3125,285225.625,256373.890625,222379.9375,245962.546875,0.024169921875,0.9970703125,0.1748046875,0.5493163466453552,-1.5563963651657104,-1.0375975370407104,80.0,112872.0,0.0
14583.7872608,292397.21875,295608.09375,336922.78125,332703.3125,285225.625,256373.890625,222379.9375,245962.546875,0.024169921875,0.9970703125,0.1748046875,0.5493163466453552,-1.5563963651657104,-1.0375975370407104,80.0,112873.0,0.0
14583.787261,292397.21875,295608.09375,336922.78125,332703.3125,285225.625,256373.890625,222379.9375,245962.546875,0.024169921875,0.9970703125,0.1748046875,0.5493163466453552,-1.5563963651657104,-1.0375975370407104,80.0,112874.0,0.0
14583.7872612,292397.21875,295608.09375,336922.78125,332703.3125,285225.625,256373.890625,222379.9375,245962.546875,0.024169921875,0.9970703125,0.1748046875,0.5493163466453552,-1.5563963651657104,-1.0375975370407104,80.0,112875.0,0.0
14583.7872614,292397.21875,295608.09375,336922.78125,332703.3125,285225.625,256373.890625,222379.9375,245962.546875,0.024169921875,0.9970703125,0.1748046875,0.5493163466453552,-1.5563963651657104,-1.0375975370407104,80.0,112876.0,0.0
14583.7872616,292397.21875,295608.09375,336922.78125,332703.3125,285225.625,256373.890625,222379.9375,245962.546875,0.024169921875,0.9970703125,0.1748046875,0.5493163466453552,-1.5563963651657104,-1.0375975370407104,80.0,112877.0,0.0
14583.7872618,292397.21875,295608.09375,336922.78125,332703.3125,285225.625,256373.890625,222379.9375,245962.546875,0.024169921875,0.9970703125,0.1748046875,0.5493163466453552,-1.5563963651657104,-1.0375975370407104,80.0,112878.0,0.0
14583.787262,292397.21875,295608.09375,336922.78125,332703.3125,285225.625,256373.890625,222379.9375,245962.546875,0.024169921875,0.9970703125,0.1748046875,0.5493163466453552,-1.5563963651657104,-1.0375975370407104,80.0,112879.0,0.0
14583.7872621,292397.21875,295608.09375,336922.78125,332703.3125,285225.625,256373.890625,222379.9375,245962.546875,0.024169921875,0.9970703125,0.1748046875,0.5493163466453552,-1.5563963651657104,-1.0375975370407104,80.0,112880.0,0.0
14583.7872623,292397.21875,295608.09375,336922.78125,332703.3125,285225.625,256373.890625,222379.9375,245962.546875,0.024169921875,0.9970703125,0.1748046875,0.5493163466453552,-1.5563963651657104,-1.0375975370407104,80.0,112881.0,0.0
14583.7872625,292397.21875,295608.09375,336922.78125,332703.3125,285225.625,256373.890625,222379.9375,245962.546875,0.024169921875,0.9970703125,0.1748046875,0.5493163466453552,-1.5563963651657104,-1.0375975370407104,80.0,112882.0,0.0
14583.7872627,292397.21875,295608.09375,336922.78125,332703.3125,285225.625,256373.890625,222379.9375,245962.546875,0.024169921875,0.9970703125,0.1748046875,0.5493163466453552,-1.5563963651657104,-1.0375975370407104,80.0,112883.0,0.0
14583.7872633,292397.21875,295608.09375,336922.78125,332703.3125,285225.625,256373.890625,222379.9375,245962.546875,0.024169921875,0.9970703125,0.1748046875,0.5493163466453552,-1.5563963651657104,-1.0375975370407104,80.0,112884.0,0.0
14583.7872635,292397.21875,295608.09375,336922.78125,332703.3125,285225.625,256373.890625,222379.9375,245962.546875,0.024169921875,0.9970703125,0.1748046875,0.5493163466453552,-1.5563963651657104,-1.0375975370407104,80.0,112885.0,0.0
14583.7872638,292397.21875,295608.09375,336922.78125,332703.3125,285225.625,256373.890625,222379.9375,245962.546875,0.024169921875,0.9970703125,0.1748046875,0.5493163466453552,-1.5563963651657104,-1.0375975370407104,80.0,112886.0,0.0
14583.7872639,292397.21875,295608.09375,336922.78125,332703.3125,285225.625,256373.890625,222379.9375,245962.546875,0.024169921875,0.9970703125,0.1748046875,0.5493163466453552,-1.5563963651657104,-1.0375975370407104,80.0,112887.0,0.0
14583.7872641,292397.21875,295608.09375,336922.78125,332703.3125,285225.625,256373.890625,222379.9375,245962.546875,0.024169921875,0.9970703125,0.1748046875,0.5493163466453552,-1.5563963651657104,-1.0375975370407104,80.0,112888.0,0.0
14583.7872643,292397.21875,295608.09375,336922.78125,332703.3125,285225.625,256373.890625,222379.9375,245962.546875,0.024169921875,0.9970703125,0.1748046875,0.5493163466453552,-1.5563963651657104,-1.0375975370407104,80.0,112889.0,0.0
14583.7872645,292397.21875,295608.09375,336922.78125,332703.3125,285225.625,256373.890625,222379.9375,245962.546875,0.024169921875,0.9970703125,0.1748046875,0.5493163466453552,-1.5563963651657104,-1.0375975370407104,80.0,112890.0,0.0
14583.7872646,292397.21875,295608.09375,336922.78125,332703.3125,285225.625,256373.890625,222379.9375,245962.546875,0.024169921875,0.9970703125,0.1748046875,0.5493163466453552,-1.5563963651657104,-1.0375975370407104,80.0,112891.0,0.0
14583.7872648,292397.21875,295608.09375,336922.78125,332703.3125,285225.625,256373.890625,222379.9375,245962.546875,0.024169921875,0.9970703125,0.1748046875,0.5493163466453552,-1.5563963651657104,-1.0375975370407104,80.0,112892.0,0.0
14583.787265,292397.21875,295608.09375,336922.78125,332703.3125,285225.625,256373.890625,222379.9375,245962.546875,0.024169921875,0.9970703125,0.1748046875,0.5493163466453552,-1.5563963651657104,-1.0375975370407104,80.0,112893.0,0.0
14583.7872652,292397.21875,295608.09375,336922.78125,332703.3125,285225.625,256373.890625,222379.9375,245962.546875,0.024169921875,0.9970703125,0.1748046875,0.5493163466453552,-1.5563963651657104,-1.0375975370407104,80.0,112894.0,0.0
14583.7872654,292397.21875,295608.09375,336922.78125,332703.3125,285225.625,256373.890625,222379.9375,245962.546875,0.024169921875,0.9970703125,0.1748046875,0.5493163466453552,-1.5563963651657104,-1.0375975370407104,80.0,112895.0,0.0
14583.7872656,292397.21875,295608.09375,336922.78125,332703.3125,285225.625,256373.890625,222379.9375,245962.546875,0.024169921875,0.9970703125,0.1748046875,0.5493163466453552,-1.5563963651657104,-1.0375975370407104,80.0,112896.0,0.0
14583.7872658,292397.21875,295608.09375,336922.78125,332703.3125,285225.625,256373.890625,222379.9375,245962.546875,0.024169921875,0.9970703125,0.1748046875,0.5493163466453552,-1.5563963651657104,-1.0375975370407104,80.0,112897.0,0.0
14583.787266,292397.21875,295608.09375,336922.78125,332703.3125,285225.625,256373.890625,222379.9375,245962.546875,0.024169921875,0.9970703125,0.1748046875,0.5493163466453552,-1.5563963651657104,-1.0375975370407104,80.0,112898.0,0.0
14583.7872661,292397.21875,295608.09375,336922.78125,332703.3125,285225.625,256373.890625,222379.9375,245962.546875,0.024169921875,0.9970703125,0.1748046875,0.5493163466453552,-1.5563963651657104,-1.0375975370407104,80.0,112899.0,0.0
14583.7872663,292397.21875,295608.09375,336922.78125,332703.3125,285225.625,256373.890625,222379.9375,245962.546875,0.024169921875,0.9970703125,0.1748046875,0.5493163466453552,-1.5563963651657104,-1.0375975370407104,80.0,112900.0,0.0
14583.7872665,292400.0,295602.09375,336902.125,332691.96875,285212.03125,256360.578125,222352.75,245943.765625,0.027099609375,0.9931640625,0.16845703125,0.4882812201976776,-1.4038084745407104,-0.9155272841453552,80.0,112901.0,1.0
14583.787268,292391.9375,295324.0625,336739.15625,332706.0,285091.40625,256304.421875,222304.5625,245936.796875,0.02734375,0.993408203125,0.170166015625,0.6103515028953552,-1.3122557401657104,-0.9765624403953552,80.0,112902.0,1.0
14583.7897987,292425.03125,295226.78125,336735.84375,332754.28125,285058.875,256301.75,222314.578125,245972.90625,0.02783203125,0.9921875,0.167724609375,0.6408690810203552,-1.1901854276657104,-1.0375975370407104,80.0,112903.0,1.0
14583.8148082,292440.03125,295428.46875,336879.25,332754.1875,285144.15625,256345.203125,222355.875,245969.78125,0.028564453125,0.994873046875,0.166748046875,0.6713866591453552,-1.2207030057907104,-0.9155272841453552,80.0,112904.0,1.0
14583.8404114,292426.1875,295654.84375,336974.28125,332713.5,285235.375,256386.40625,222382.515625,245942.15625,0.029052734375,0.997802734375,0.16748046875,0.5798339247703552,-1.2512205839157104,-0.8544921278953552,80.0,112905.0,1.0
14583.8404298,292392.9375,295592.90625,336882.65625,332679.625,285197.90625,256366.75,222355.96875,245931.25,0.02783203125,0.99853515625,0.17138671875,0.4882812201976776,-1.2512205839157104,-0.8544921278953552,80.0,112906.0,1.0
14583.8760052,292386.3125,295325.125,336727.25,332694.8125,285082.3125,256316.5,222309.65625,245939.5625,0.027587890625,0.995849609375,0.16943359375,0.4577636420726776,-1.1596678495407104,-0.7629393935203552,80.0,112907.0,1.0
14583.8760114,292418.0625,295226.25,336730.65625,332743.1875,285053.0625,256307.28125,222310.109375,245961.109375,0.025634765625,0.995849609375,0.1708984375,0.4577636420726776,-1.0070799589157104,-0.8239745497703552,80.0,112908.0,1.0
14583.8760129,292437.71875,295425.53125,336877.625,332751.59375,285141.9375,256354.21875,222356.59375,245970.859375,0.025390625,0.996337890625,0.169921875,0.4882812201976776,-0.8850097060203552,-0.6713866591453552,80.0,112909.0,1.0
14583.9029182,292432.90625,295655.375,336973.21875,332726.125,285234.8125,256395.984375,222388.15625,245969.25,0.0234375,0.99560546875,0.1728515625,0.5493163466453552,-0.9765624403953552,-0.7324218153953552,80.0,112910.0,1.0
14583.9029423,292415.28125,295605.9375,336898.84375,332709.5,285215.96875,256397.234375,222383.15625,245969.25,0.02587890625,0.997802734375,0.16650390625,0.4272460639476776,-1.0070799589157104,-0.7629393935203552,80.0,112911.0,1.0
14583.9279235,292396.0625,295323.875,336730.3125,332707.34375,285087.75,256329.109375,222318.859375,245951.984375,0.02685546875,0.995849609375,0.166748046875,0.3051757514476776,-1.0375975370407104,-0.7934569716453552,80.0,112912.0,1.0
14583.9279446,292412.59375,295217.75,336726.1875,332738.53125,285047.34375,256299.328125,222303.21875,245958.703125,0.02734375,0.99560546875,0.16552734375,0.3356933295726776,-1.0070799589157104,-0.8544921278953552,80.0,112913.0,1.0
14583.9773125,292432.0,295430.25,336890.875,332745.4375,285141.75,256335.453125,222344.25,245954.859375,0.024658203125,0.997314453125,0.1669921875,0.4272460639476776,-1.0070799589157104,-0.9155272841453552,80.0,112914.0,1.0
14584.006065,292413.65625,295644.21875,336970.34375,332709.40625,285220.4375,256367.640625,222371.890625,245956.46875,0.024658203125,0.996826171875,0.170654296875,0.4272460639476776,-1.0375975370407104,-0.8850097060203552,80.0,112915.0,1.0
14584.031063,292382.1875,295575.375,336871.28125,332680.4375,285182.625,256350.828125,222348.640625,245944.84375,0.02490234375,0.998046875,0.17333984375,0.3662109076976776,-1.0375975370407104,-1.0070799589157104,80.0,112916.0,1.0
14584.0560645,292375.75,295299.90625,336705.71875,332691.25,285061.46875,256304.609375,222300.890625,245933.65625,0.024658203125,0.998779296875,0.170166015625,0.3356933295726776,-1.1901854276657104,-0.9765624403953552,80.0,112917.0,1.0
14584.0810661,292412.15625,295210.0625,336714.125,332742.21875,285040.0,256311.3125,222316.359375,245966.125,0.02490234375,0.997314453125,0.173828125,0.2746581733226776,-1.1596678495407104,-0.9460448622703552,80.0,112918.0,1.0
14584.1035955,292450.40625,295449.3125,336898.75,332763.75,285157.9375,256377.296875,222375.640625,245985.96875,0.0234375,0.9990234375,0.168212890625,0.0,-1.2817381620407104,-0.8239745497703552,80.0,112919.0,1.0
14584.10606,292433.34375,295677.28125,336995.3125,332726.84375,285249.5,256420.75,222401.296875,245968.359375,0.021240234375,0.99755859375,0.1689453125,0.03051757626235485,-1.3122557401657104,-0.7324218153953552,80.0,112920.0,1.0
14584.1085744,292395.0625,295608.4375,336905.28125,332692.6875,285212.75,256384.71875,222361.515625,245951.640625,0.0244140625,0.998779296875,0.1708984375,-0.0915527269244194,-1.3427733182907104,-0.8239745497703552,80.0,112921.0,1.0
14584.1110653,292381.03125,295318.40625,336730.21875,332698.59375,285083.28125,256309.515625,222306.796875,245956.375,0.0244140625,0.99951171875,0.17138671875,0.0,-1.4343260526657104,-0.8239745497703552,80.0,112922.0,1.0
14584.1214968,292402.0625,295209.96875,336715.90625,332731.03125,285039.125,256297.0,222306.4375,245957.890625,0.024169921875,0.998046875,0.17138671875,-0.1525878757238388,-1.4343260526657104,-0.8544921278953552,80.0,112923.0,1.0
14584.1215229,292430.125,295423.75,336879.96875,332750.0,285142.03125,256353.875,222358.65625,245970.859375,0.02685546875,0.998291015625,0.1708984375,-0.1220703050494194,-1.5563963651657104,-0.8239745497703552,80.0,112924.0,1.0
14584.1215243,292423.6875,295663.71875,336989.21875,332718.96875,285241.96875,256399.828125,222384.484375,245951.09375,0.02783203125,0.997802734375,0.17138671875,-0.2441406100988388,-1.7089842557907104,-0.7019042372703552,80.0,112925.0,1.0
14584.1215257,292386.75,295592.09375,336893.90625,332681.40625,285203.1875,256367.28125,222354.53125,245937.953125,0.0263671875,0.99609375,0.173095703125,-0.4272460639476776,-1.6784666776657104,-0.8239745497703552,80.0,112926.0,1.0
14584.121527,292373.0,295305.71875,336720.1875,332687.03125,285080.15625,256313.8125,222314.84375,245957.359375,0.0283203125,0.992431640625,0.171875,-0.5798339247703552,-1.6479490995407104,-0.7934569716453552,80.0,112927.0,1.0
14584.1215284,292398.65625,295200.21875,336705.0,332722.1875,285038.3125,256302.640625,222302.5,245957.625,0.027587890625,0.989990234375,0.16796875,-0.4577636420726776,-1.6174315214157104,-0.7629393935203552,80.0,112928.0,1.0
14584.1215296,292414.46875,295404.34375,336855.375,332724.25,285123.25,256334.640625,222329.140625,245945.015625,0.02490234375,0.992431640625,0.167724609375,-0.3356933295726776,-1.6174315214157104,-0.7019042372703552,80.0,112929.0,1.0
14584.121531,292400.875,295628.9375,336952.46875,332692.15625,285215.875,256375.59375,222362.859375,245944.65625,0.024658203125,0.991943359375,0.17041015625,-0.2746581733226776,-1.5869139432907104,-0.8850097060203552,80.0,112930.0,1.0
14584.1215322,292382.5625,295579.75,336877.71875,332674.71875,285196.75,256366.390625,222352.84375,245946.890625,0.026123046875,0.993408203125,0.172119140625,-0.3051757514476776,-1.7089842557907104,-0.9155272841453552,80.0,112931.0,1.0
14584.1215335,292375.40625,295314.65625,336730.46875,332688.375,285083.375,256307.734375,222294.375,245942.515625,0.025634765625,0.9931640625,0.171630859375,-0.2746581733226776,-1.8310545682907104,-0.9765624403953552,80.0,112932.0,1.0
14584.1215348,292396.25,295207.1875,336722.875,332723.96875,285042.25,256284.484375,222280.953125,245952.703125,0.0263671875,0.99609375,0.17333984375,-0.1831054538488388,-1.7700194120407104,-0.9460448622703552,80.0,112933.0,1.0
14584.1241205,292420.375,295424.4375,336882.375,332736.65625,285141.5625,256336.96875,222333.171875,245964.6875,0.026611328125,0.99609375,0.171630859375,-0.2441406100988388,-1.7089842557907104,-0.9765624403953552,80.0,112934.0,1.0
14584.1241261,292420.375,295424.4375,336882.375,332736.65625,285141.5625,256336.96875,222333.171875,245964.6875,0.026611328125,0.99609375,0.171630859375,-0.2441406100988388,-1.7089842557907104,-0.9765624403953552,80.0,112935.0,0.0
14584.1241264,292420.375,295424.4375,336882.375,332736.65625,285141.5625,256336.96875,222333.171875,245964.6875,0.026611328125,0.99609375,0.171630859375,-0.2441406100988388,-1.7089842557907104,-0.9765624403953552,80.0,112936.0,0.0
14584.1241266,292420.375,295424.4375,336882.375,332736.65625,285141.5625,256336.96875,222333.171875,245964.6875,0.026611328125,0.99609375,0.171630859375,-0.2441406100988388,-1.7089842557907104,-0.9765624403953552,80.0,112937.0,0.0
14584.1241268,292420.375,295424.4375,336882.375,332736.65625,285141.5625,256336.96875,222333.171875,245964.6875,0.026611328125,0.99609375,0.171630859375,-0.2441406100988388,-1.7089842557907104,-0.9765624403953552,80.0,112938.0,0.0
14584.124127,292420.375,295424.4375,336882.375,332736.65625,285141.5625,256336.96875,222333.171875,245964.6875,0.026611328125,0.99609375,0.171630859375,-0.2441406100988388,-1.7089842557907104,-0.9765624403953552,80.0,112939.0,0.0
14584.1241271,292420.375,295424.4375,336882.375,332736.65625,285141.5625,256336.96875,222333.171875,245964.6875,0.026611328125,0.99609375,0.171630859375,-0.2441406100988388,-1.7089842557907104,-0.9765624403953552,80.0,112940.0,0.0
14584.1241273,292420.375,295424.4375,336882.375,332736.65625,285141.5625,256336.96875,222333.171875,245964.6875,0.026611328125,0.99609375,0.171630859375,-0.2441406100988388,-1.7089842557907104,-0.9765624403953552,80.0,112941.0,0.0
14584.1241275,292420.375,295424.4375,336882.375,332736.65625,285141.5625,256336.96875,222333.171875,245964.6875,0.026611328125,0.99609375,0.171630859375,-0.2441406100988388,-1.7089842557907104,-0.9765624403953552,80.0,112942.0,0.0
14584.1241277,292420.375,295424.4375,336882.375,332736.65625,285141.5625,256336.96875,222333.171875,245964.6875,0.026611328125,0.99609375,0.171630859375,-0.2441406100988388,-1.7089842557907104,-0.9765624403953552,80.0,112943.0,0.0
14584.1241278,292420.375,295424.4375,336882.375,332736.65625,285141.5625,256336.96875,222333.171875,245964.6875,0.026611328125,0.99609375,0.171630859375,-0.2441406100988388,-1.7089842557907104,-0.9765624403953552,80.0,112944.0,0.0
14584.124128,292420.375,295424.4375,336882.375,332736.65625,285141.5625,256336.96875,222333.171875,245964.6875,0.026611328125,0.99609375,0.171630859375,-0.2441406100988388,-1.7089842557907104,-0.9765624403953552,80.0,112945.0,0.0
14584.1241282,292420.375,295424.4375,336882.375,332736.65625,285141.5625,256336.96875,222333.171875,245964.6875,0.026611328125,0.99609375,0.171630859375,-0.2441406100988388,-1.7089842557907104,-0.9765624403953552,80.0,112946.0,0.0
14584.1241284,292420.375,295424.4375,336882.375,332736.65625,285141.5625,256336.96875,222333.171875,245964.6875,0.026611328125,0.99609375,0.171630859375,-0.2441406100988388,-1.7089842557907104,-0.9765624403953552,80.0,112947.0,0.0
14584.1241286,292420.375,295424.4375,336882.375,332736.65625,285141.5625,256336.96875,222333.171875,245964.6875,0.026611328125,0.99609375,0.171630859375,-0.2441406100988388,-1.7089842557907104,-0.9765624403953552,80.0,112948.0,0.0
14584.1241288,292420.375,295424.4375,336882.375,332736.65625,285141.5625,256336.96875,222333.171875,245964.6875,0.026611328125,0.99609375,0.171630859375,-0.2441406100988388,-1.7089842557907104,-0.9765624403953552,80.0,112949.0,0.0
14584.124129,292420.375,295424.4375,336882.375,332736.65625,285141.5625,256336.96875,222333.171875,245964.6875,0.026611328125,0.99609375,0.171630859375,-0.2441406100988388,-1.7089842557907104,-0.9765624403953552,80.0,112950.0,0.0
14584.1241291,292420.375,295424.4375,336882.375,332736.65625,285141.5625,256336.96875,222333.171875,245964.6875,0.026611328125,0.99609375,0.171630859375,-0.2441406100988388,-1.7089842557907104,-0.9765624403953552,80.0,112951.0,0.0
14584.1241293,292420.375,295424.4375,336882.375,332736.65625,285141.5625,256336.96875,222333.171875,245964.6875,0.026611328125,0.99609375,0.171630859375,-0.2441406100988388,-1.7089842557907104,-0.9765624403953552,80.0,112952.0,0.0
14584.1241295,292420.375,295424.4375,336882.375,332736.65625,285141.5625,256336.96875,222333.171875,245964.6875,0.026611328125,0.99609375,0.171630859375,-0.2441406100988388,-1.7089842557907104,-0.9765624403953552,80.0,112953.0,0.0
14584.1241296,292420.375,295424.4375,336882.375,332736.65625,285141.5625,256336.96875,222333.171875,245964.6875,0.026611328125,0.99609375,0.171630859375,-0.2441406100988388,-1.7089842557907104,-0.9765624403953552,80.0,112954.0,0.0
14584.1241298,292420.375,295424.4375,336882.375,332736.65625,285141.5625,256336.96875,222333.171875,245964.6875,0.026611328125,0.99609375,0.171630859375,-0.2441406100988388,-1.7089842557907104,-0.9765624403953552,80.0,112955.0,0.0
14584.12413,292392.46875,295581.53125,336875.9375,332679.28125,285200.59375,256379.96875,222347.125,245958.609375,0.026611328125,0.996337890625,0.170654296875,0.3051757514476776,-1.7089842557907104,-0.6713866591453552,80.0,112956.0,1.0
14584.1521778,292379.53125,295299.625,336708.03125,332686.34375,285078.71875,256327.5,222300.359375,245950.46875,0.025634765625,0.99658203125,0.169677734375,0.2746581733226776,-1.6174315214157104,-0.7934569716453552,80.0,112957.0,1.0
14584.1521911,292406.875,295216.84375,336718.6875,332728.8125,285052.34375,256323.734375,222306.265625,245973.453125,0.02587890625,0.9951171875,0.171630859375,0.2746581733226776,-1.7089842557907104,-0.7629393935203552,80.0,112958.0,1.0
14584.1521926,292430.03125,295438.5,336888.09375,332740.59375,285153.09375,256359.234375,222346.046875,245985.25,0.02685546875,0.994384765625,0.168701171875,0.3051757514476776,-1.7089842557907104,-0.7629393935203552,80.0,112959.0,1.0
14584.1521938,292423.40625,295661.375,336975.53125,332711.53125,285240.5625,256399.203125,222375.546875,245978.546875,0.0283203125,0.9970703125,0.1689453125,0.4272460639476776,-1.5563963651657104,-0.8544921278953552,80.0,112960.0,1.0
14584.152195,292389.96875,295571.25,336853.6875,332675.59375,285182.0,256368.359375,222338.625,245953.78125,0.027587890625,1.000732421875,0.16796875,0.4882812201976776,-1.7089842557907104,-1.0070799589157104,80.0,112961.0,1.0
14584.1521962,292378.1875,295294.375,336685.15625,332683.28125,285056.09375,256315.609375,222290.34375,245950.109375,0.026123046875,1.00146484375,0.1689453125,0.3356933295726776,-1.6174315214157104,-1.0070799589157104,80.0,112962.0,1.0
14584.1521974,292412.96875,295208.0,336698.8125,332731.9375,285034.46875,256313.546875,222301.25,245978.015625,0.02490234375,1.004150390625,0.16943359375,0.2136230319738388,-1.6174315214157104,-1.1901854276657104,80.0,112963.0,1.0
14584.1521986,292437.46875,295430.96875,336869.25,332744.1875,285141.9375,256363.875,222352.125,245989.546875,0.028076171875,1.00341796875,0.168701171875,0.2136230319738388,-1.6784666776657104,-1.2817381620407104,80.0,112964.0,1.0
14584.1772898,292417.15625,295652.4375,336967.125,332706.34375,285233.84375,256401.703125,222379.578125,245976.3125,0.02685546875,1.00341796875,0.170654296875,0.2136230319738388,-1.6479490995407104,-1.3427733182907104,80.0,112965.0,1.0
14584.1772948,292385.6875,295580.75,336876.65625,332677.84375,285202.5625,256385.078125,222356.78125,245966.125,0.027587890625,1.0048828125,0.170166015625,0.0915527269244194,-1.7089842557907104,-1.4648436307907104,80.0,112966.0,1.0
14584.177296,292392.84375,295324.59375,336731.375,332701.53125,285099.46875,256353.78125,222324.671875,245984.796875,0.026123046875,1.004638671875,0.170166015625,-0.03051757626235485,-1.7089842557907104,-1.4648436307907104,80.0,112967.0,1.0
14584.2010809,292392.84375,295324.59375,336731.375,332701.53125,285099.46875,256353.78125,222324.671875,245984.796875,0.026123046875,1.004638671875,0.170166015625,-0.03051757626235485,-1.7089842557907104,-1.4648436307907104,80.0,112968.0,0.0
14584.2010841,292392.84375,295324.59375,336731.375,332701.53125,285099.46875,256353.78125,222324.671875,245984.796875,0.026123046875,1.004638671875,0.170166015625,-0.03051757626235485,-1.7089842557907104,-1.4648436307907104,80.0,112969.0,0.0
14584.2010843,292392.84375,295324.59375,336731.375,332701.53125,285099.46875,256353.78125,222324.671875,245984.796875,0.026123046875,1.004638671875,0.170166015625,-0.03051757626235485,-1.7089842557907104,-1.4648436307907104,80.0,112970.0,0.0
14584.2010846,292392.84375,295324.59375,336731.375,332701.53125,285099.46875,256353.78125,222324.671875,245984.796875,0.026123046875,1.004638671875,0.170166015625,-0.03051757626235485,-1.7089842557907104,-1.4648436307907104,80.0,112971.0,0.0
14584.2010848,292392.84375,295324.59375,336731.375,332701.53125,285099.46875,256353.78125,222324.671875,245984.796875,0.026123046875,1.004638671875,0.170166015625,-0.03051757626235485,-1.7089842557907104,-1.4648436307907104,80.0,112972.0,0.0
14584.201085,292392.84375,295324.59375,336731.375,332701.53125,285099.46875,256353.78125,222324.671875,245984.796875,0.026123046875,1.004638671875,0.170166015625,-0.03051757626235485,-1.7089842557907104,-1.4648436307907104,80.0,112973.0,0.0
14584.2010852,292392.84375,295324.59375,336731.375,332701.53125,285099.46875,256353.78125,222324.671875,245984.796875,0.026123046875,1.004638671875,0.170166015625,-0.03051757626235485,-1.7089842557907104,-1.4648436307907104,80.0,112974.0,0.0
14584.2010854,292392.84375,295324.59375,336731.375,332701.53125,285099.46875,256353.78125,222324.671875,245984.796875,0.026123046875,1.004638671875,0.170166015625,-0.03051757626235485,-1.7089842557907104,-1.4648436307907104,80.0,112975.0,0.0
14584.2010855,292392.84375,295324.59375,336731.375,332701.53125,285099.46875,256353.78125,222324.671875,245984.796875,0.026123046875,1.004638671875,0.170166015625,-0.03051757626235485,-1.7089842557907104,-1.4648436307907104,80.0,112976.0,0.0
14584.2010857,292392.84375,295324.59375,336731.375,332701.53125,285099.46875,256353.78125,222324.671875,245984.796875,0.026123046875,1.004638671875,0.170166015625,-0.03051757626235485,-1.7089842557907104,-1.4648436307907104,80.0,112977.0,0.0
14584.2010859,292392.84375,295324.59375,336731.375,332701.53125,285099.46875,256353.78125,222324.671875,245984.796875,0.026123046875,1.004638671875,0.170166015625,-0.03051757626235485,-1.7089842557907104,-1.4648436307907104,80.0,112978.0,0.0
14584.2010861,292392.84375,295324.59375,336731.375,332701.53125,285099.46875,256353.78125,222324.671875,245984.796875,0.026123046875,1.004638671875,0.170166015625,-0.03051757626235485,-1.7089842557907104,-1.4648436307907104,80.0,112979.0,0.0
14584.2010863,292392.84375,295324.59375,336731.375,332701.53125,285099.46875,256353.78125,222324.671875,245984.796875,0.026123046875,1.004638671875,0.170166015625,-0.03051757626235485,-1.7089842557907104,-1.4648436307907104,80.0,112980.0,0.0
14584.2010865,292392.84375,295324.59375,336731.375,332701.53125,285099.46875,256353.78125,222324.671875,245984.796875,0.026123046875,1.004638671875,0.170166015625,-0.03051757626235485,-1.7089842557907104,-1.4648436307907104,80.0,112981.0,0.0
14584.2010866,292392.84375,295324.59375,336731.375,332701.53125,285099.46875,256353.78125,222324.671875,245984.796875,0.026123046875,1.004638671875,0.170166015625,-0.03051757626235485,-1.7089842557907104,-1.4648436307907104,80.0,112982.0,0.0
14584.2010868,292434.25,295275.6875,336733.875,332711.09375,285061.28125,256339.390625,222297.59375,245960.03125,0.02587890625,0.995849609375,0.177734375,-0.1220703050494194,-1.4343260526657104,-0.6408690810203552,80.0,112983.0,1.0
14584.2272832,292467.21875,295516.8125,336922.78125,332734.0,285182.15625,256401.609375,222365.09375,245990.078125,0.025390625,0.994384765625,0.175537109375,-0.03051757626235485,-1.4648436307907104,-0.6408690810203552,80.0,112984.0,1.0
14584.2272918,292453.375,295743.09375,337023.1875,332701.8125,285278.375,256450.34375,222406.125,245994.015625,0.023681640625,0.992431640625,0.17919921875,-0.0610351525247097,-1.4038084745407104,-0.6713866591453552,80.0,112985.0,1.0
14584.2272931,292420.375,295654.84375,336912.78125,332668.71875,285230.09375,256426.015625,222375.375,245975.140625,0.02392578125,0.9931640625,0.1787109375,0.2136230319738388,-1.4343260526657104,-0.6103515028953552,80.0,112986.0,1.0
14584.2547657,292413.03125,295373.3125,336737.8125,332680.0625,285102.0625,256367.375,222321.546875,245967.8125,0.0244140625,0.994140625,0.17529296875,0.3662109076976776,-1.4648436307907104,-0.7324218153953552,80.0,112987.0,1.0
14584.2547811,292442.0,295286.5,336739.78125,332720.75,285072.1875,256366.921875,222328.078125,245992.140625,0.0283203125,0.993896484375,0.177734375,0.3356933295726776,-1.4953612089157104,-0.6408690810203552,80.0,112988.0,1.0
14584.2547832,292471.53125,295520.125,336916.09375,332740.6875,285186.8125,256432.453125,222395.3125,246021.1875,0.028564453125,0.995849609375,0.179931640625,0.4882812201976776,-1.5563963651657104,-0.7019042372703552,80.0,112989.0,1.0
14584.2803853,292454.8125,295744.4375,337015.6875,332698.59375,285280.0625,256463.390625,222413.28125,245988.921875,0.029052734375,0.995849609375,0.177978515625,0.6103515028953552,-1.5563963651657104,-0.7019042372703552,80.0,112990.0,1.0
14584.2803975,292420.375,295656.71875,336914.75,332663.0,285233.03125,256419.046875,222365.171875,245966.921875,0.026611328125,0.994873046875,0.180908203125,0.6713866591453552,-1.4343260526657104,-0.7324218153953552,80.0,112991.0,1.0
14584.2803989,292414.5625,295371.96875,336741.375,332675.34375,285105.375,256371.65625,222314.578125,245965.046875,0.02734375,0.991455078125,0.176513671875,0.6713866591453552,-1.4648436307907104,-0.7629393935203552,80.0,112992.0,1.0
14584.2804001,292442.90625,295280.40625,336734.40625,332715.3125,285067.53125,256363.875,222312.609375,245976.84375,0.029296875,0.990234375,0.17578125,0.7324218153953552,-1.4648436307907104,-0.7934569716453552,80.0,112993.0,1.0
14584.3035832,292472.21875,295516.53125,336911.96875,332732.5625,285179.46875,256410.8125,222368.9375,245994.90625,0.031005859375,0.9892578125,0.170654296875,0.8239745497703552,-1.3732908964157104,-0.7324218153953552,80.0,112994.0,1.0
14584.3291722,292472.21875,295516.53125,336911.96875,332732.5625,285179.46875,256410.8125,222368.9375,245994.90625,0.031005859375,0.9892578125,0.170654296875,0.8239745497703552,-1.3732908964157104,-0.7324218153953552,80.0,112995.0,0.0
14584.3291739,292472.21875,295516.53125,336911.96875,332732.5625,285179.46875,256410.8125,222368.9375,245994.90625,0.031005859375,0.9892578125,0.170654296875,0.8239745497703552,-1.3732908964157104,-0.7324218153953552,80.0,112996.0,0.0
14584.3291741,292472.21875,295516.53125,336911.96875,332732.5625,285179.46875,256410.8125,222368.9375,245994.90625,0.031005859375,0.9892578125,0.170654296875,0.8239745497703552,-1.3732908964157104,-0.7324218153953552,80.0,112997.0,0.0
14584.3291743,292472.21875,295516.53125,336911.96875,332732.5625,285179.46875,256410.8125,222368.9375,245994.90625,0.031005859375,0.9892578125,0.170654296875,0.8239745497703552,-1.3732908964157104,-0.7324218153953552,80.0,112998.0,0.0
14584.3291745,292472.21875,295516.53125,336911.96875,332732.5625,285179.46875,256410.8125,222368.9375,245994.90625,0.031005859375,0.9892578125,0.170654296875,0.8239745497703552,-1.3732908964157104,-0.7324218153953552,80.0,112999.0,0.0
14584.3291747,292472.21875,295516.53125,336911.96875,332732.5625,285179.46875,256410.8125,222368.9375,245994.90625,0.031005859375,0.9892578125,0.170654296875,0.8239745497703552,-1.3732908964157104,-0.7324218153953552,80.0,113000.0,0.0
14584.3291749,292472.21875,295516.53125,336911.96875,332732.5625,285179.46875,256410.8125,222368.9375,245994.90625,0.031005859375,0.9892578125,0.170654296875,0.8239745497703552,-1.3732908964157104,-0.7324218153953552,80.0,113001.0,0.0
14584.3291751,292472.21875,295516.53125,336911.96875,332732.5625,285179.46875,256410.8125,222368.9375,245994.90625,0.031005859375,0.9892578125,0.170654296875,0.8239745497703552,-1.3732908964157104,-0.7324218153953552,80.0,113002.0,0.0
14584.3291753,292472.21875,295516.53125,336911.96875,332732.5625,285179.46875,256410.8125,222368.9375,245994.90625,0.031005859375,0.9892578125,0.170654296875,0.8239745497703552,-1.3732908964157104,-0.7324218153953552,80.0,113003.0,0.0
14584.3291755,292472.21875,295516.53125,336911.96875,332732.5625,285179.46875,256410.8125,222368.9375,245994.90625,0.031005859375,0.9892578125,0.170654296875,0.8239745497703552,-1.3732908964157104,-0.7324218153953552,80.0,113004.0,0.0
14584.3291757,292472.21875,295516.53125,336911.96875,332732.5625,285179.46875,256410.8125,222368.9375,245994.90625,0.031005859375,0.9892578125,0.170654296875,0.8239745497703552,-1.3732908964157104,-0.7324218153953552,80.0,113005.0,0.0
14584.3291759,292472.21875,295516.53125,336911.96875,332732.5625,285179.46875,256410.8125,222368.9375,245994.90625,0.031005859375,0.9892578125,0.170654296875,0.8239745497703552,-1.3732908964157104,-0.7324218153953552,80.0,113006.0,0.0
14584.329176,292472.21875,295516.53125,336911.96875,332732.5625,285179.46875,256410.8125,222368.9375,245994.90625,0.031005859375,0.9892578125,0.170654296875,0.8239745497703552,-1.3732908964157104,-0.7324218153953552,80.0,113007.0,0.0
14584.3291762,292472.21875,295516.53125,336911.96875,332732.5625,285179.46875,256410.8125,222368.9375,245994.90625,0.031005859375,0.9892578125,0.170654296875,0.8239745497703552,-1.3732908964157104,-0.7324218153953552,80.0,113008.0,0.0
14584.3291764,292472.21875,295516.53125,336911.96875,332732.5625,285179.46875,256410.8125,222368.9375,245994.90625,0.031005859375,0.9892578125,0.170654296875,0.8239745497703552,-1.3732908964157104,-0.7324218153953552,80.0,113009.0,0.0
14584.3291766,292450.0625,295727.375,336992.34375,332693.9375,285269.4375,256441.75,222378.328125,245993.5625,0.025390625,0.999267578125,0.169677734375,1.0986326932907104,-0.7019042372703552,-1.0986326932907104,80.0,113010.0,1.0
14584.3291811,292423.78125,295649.21875,336892.65625,332670.3125,285232.40625,256427.984375,222355.96875,245986.6875,0.027587890625,1.0,0.16650390625,1.1596678495407104,-0.7934569716453552,-1.1291502714157104,80.0,113011.0,1.0
14584.3673322,292418.15625,295378.9375,336737.09375,332685.71875,285117.875,256373.0,222306.96875,245984.359375,0.027587890625,1.001220703125,0.168212890625,1.0375975370407104,-0.8239745497703552,-1.0986326932907104,80.0,113012.0,1.0
14584.3698597,292451.03125,295300.34375,336752.65625,332725.75,285092.40625,256370.765625,222310.109375,245996.875,0.025634765625,1.000244140625,0.1708984375,1.0070799589157104,-0.8850097060203552,-1.1901854276657104,80.0,113013.0,1.0
14584.3722867,292478.3125,295531.5625,336920.65625,332740.15625,285201.21875,256425.75,222370.1875,246017.703125,0.02685546875,0.9970703125,0.170654296875,1.0070799589157104,-0.9155272841453552,-1.0681151151657104,80.0,113014.0,1.0
14584.3972946,292459.28125,295752.03125,337008.4375,332700.0,285289.46875,256445.515625,222393.078125,246000.453125,0.0283203125,0.992919921875,0.169921875,1.0375975370407104,-0.9460448622703552,-1.0070799589157104,80.0,113015.0,1.0
14584.4223243,292424.75,295661.1875,336904.46875,332667.5625,285242.96875,256419.140625,222360.34375,245981.765625,0.031005859375,0.991943359375,0.172607421875,0.9460448622703552,-0.8850097060203552,-0.9765624403953552,80.0,113016.0,1.0
14584.4474049,292418.84375,295384.03125,336744.96875,332677.65625,285118.0625,256370.859375,222305.0,245973.71875,0.0322265625,0.995849609375,0.168701171875,1.0375975370407104,-0.8239745497703552,-0.9155272841453552,80.0,113017.0,1.0
14584.5044165,292447.75,295296.59375,336752.125,332717.1875,285084.90625,256357.171875,222300.625,245992.40625,0.032470703125,0.99755859375,0.169677734375,0.9460448622703552,-0.7629393935203552,-0.8544921278953552,80.0,113018.0,1.0
14584.5044388,292476.4375,295530.65625,336924.75,332734.96875,285197.53125,256409.296875,222358.734375,246016.546875,0.031005859375,0.998046875,0.1708984375,0.9460448622703552,-0.6103515028953552,-0.7019042372703552,80.0,113019.0,1.0
14584.5044401,292458.1875,295748.71875,337012.5625,332700.0,285290.875,256443.71875,222391.640625,246014.578125,0.029541015625,0.998779296875,0.167236328125,0.8544921278953552,-0.4882812201976776,-0.7629393935203552,80.0,113020.0,1.0
14584.5044414,292423.3125,295659.875,336905.28125,332662.1875,285244.3125,256414.21875,222354.8125,245985.34375,0.029541015625,0.99951171875,0.16748046875,0.6103515028953552,-0.4577636420726776,-0.6713866591453552,80.0,113021.0,1.0
14584.5044426,292424.65625,295392.96875,336751.5625,332678.375,285128.96875,256372.28125,222304.5625,245977.734375,0.030029296875,0.995849609375,0.16796875,0.5187987685203552,-0.4272460639476776,-0.6713866591453552,80.0,113022.0,1.0
14584.5044437,292461.6875,295315.09375,336770.71875,332720.21875,285106.15625,256372.46875,222310.734375,245987.75,0.028564453125,0.996337890625,0.168701171875,0.5187987685203552,-0.4577636420726776,-0.6408690810203552,80.0,113023.0,1.0
14584.5044449,292484.03125,295541.84375,336937.375,332728.96875,285210.25,256412.34375,222354.359375,246002.328125,0.027587890625,0.99609375,0.17138671875,0.5493163466453552,-0.3662109076976776,-0.7934569716453552,80.0,113024.0,1.0
14584.5288587,292461.25,295753.5625,337017.65625,332691.34375,285298.21875,256443.546875,222378.859375,246003.9375,0.02783203125,0.995849609375,0.16943359375,0.5187987685203552,-0.2441406100988388,-0.7934569716453552,80.0,113025.0,1.0
14584.5288772,292461.25,295753.5625,337017.65625,332691.34375,285298.21875,256443.546875,222378.859375,246003.9375,0.02783203125,0.995849609375,0.16943359375,0.5187987685203552,-0.2441406100988388,-0.7934569716453552,80.0,113026.0,0.0
14584.5288774,292461.25,295753.5625,337017.65625,332691.34375,285298.21875,256443.546875,222378.859375,246003.9375,0.02783203125,0.995849609375,0.16943359375,0.5187987685203552,-0.2441406100988388,-0.7934569716453552,80.0,113027.0,0.0
14584.5288776,292461.25,295753.5625,337017.65625,332691.34375,285298.21875,256443.546875,222378.859375,246003.9375,0.02783203125,0.995849609375,0.16943359375,0.5187987685203552,-0.2441406100988388,-0.7934569716453552,80.0,113028.0,0.0
14584.5288778,292461.25,295753.5625,337017.65625,332691.34375,285298.21875,256443.546875,222378.859375,246003.9375,0.02783203125,0.995849609375,0.16943359375,0.5187987685203552,-0.2441406100988388,-0.7934569716453552,80.0,113029.0,0.0
14584.5288781,292461.25,295753.5625,337017.65625,332691.34375,285298.21875,256443.546875,222378.859375,246003.9375,0.02783203125,0.995849609375,0.16943359375,0.5187987685203552,-0.2441406100988388,-0.7934569716453552,80.0,113030.0,0.0
14584.5288782,292461.25,295753.5625,337017.65625,332691.34375,285298.21875,256443.546875,222378.859375,246003.9375,0.02783203125,0.995849609375,0.16943359375,0.5187987685203552,-0.2441406100988388,-0.7934569716453552,80.0,113031.0,0.0
14584.5288784,292461.25,295753.5625,337017.65625,332691.34375,285298.21875,256443.546875,222378.859375,246003.9375,0.02783203125,0.995849609375,0.16943359375,0.5187987685203552,-0.2441406100988388,-0.7934569716453552,80.0,113032.0,0.0
14584.5288786,292461.25,295753.5625,337017.65625,332691.34375,285298.21875,256443.546875,222378.859375,246003.9375,0.02783203125,0.995849609375,0.16943359375,0.5187987685203552,-0.2441406100988388,-0.7934569716453552,80.0,113033.0,0.0
14584.5288787,292461.25,295753.5625,337017.65625,332691.34375,285298.21875,256443.546875,222378.859375,246003.9375,0.02783203125,0.995849609375,0.16943359375,0.5187987685203552,-0.2441406100988388,-0.7934569716453552,80.0,113034.0,0.0
14584.5288789,292461.25,295753.5625,337017.65625,332691.34375,285298.21875,256443.546875,222378.859375,246003.9375,0.02783203125,0.995849609375,0.16943359375,0.5187987685203552,-0.2441406100988388,-0.7934569716453552,80.0,113035.0,0.0
14584.5288791,292461.25,295753.5625,337017.65625,332691.34375,285298.21875,256443.546875,222378.859375,246003.9375,0.02783203125,0.995849609375,0.16943359375,0.5187987685203552,-0.2441406100988388,-0.7934569716453552,80.0,113036.0,0.0
14584.5288792,292461.25,295753.5625,337017.65625,332691.34375,285298.21875,256443.546875,222378.859375,246003.9375,0.02783203125,0.995849609375,0.16943359375,0.5187987685203552,-0.2441406100988388,-0.7934569716453552,80.0,113037.0,0.0
14584.5288794,292461.25,295753.5625,337017.65625,332691.34375,285298.21875,256443.546875,222378.859375,246003.9375,0.02783203125,0.995849609375,0.16943359375,0.5187987685203552,-0.2441406100988388,-0.7934569716453552,80.0,113038.0,0.0
14584.5288796,292461.25,295753.5625,337017.65625,332691.34375,285298.21875,256443.546875,222378.859375,246003.9375,0.02783203125,0.995849609375,0.16943359375,0.5187987685203552,-0.2441406100988388,-0.7934569716453552,80.0,113039.0,0.0
14584.5288798,292461.25,295753.5625,337017.65625,332691.34375,285298.21875,256443.546875,222378.859375,246003.9375,0.02783203125,0.995849609375,0.16943359375,0.5187987685203552,-0.2441406100988388,-0.7934569716453552,80.0,113040.0,0.0
14584.52888,292461.25,295753.5625,337017.65625,332691.34375,285298.21875,256443.546875,222378.859375,246003.9375,0.02783203125,0.995849609375,0.16943359375,0.5187987685203552,-0.2441406100988388,-0.7934569716453552,80.0,113041.0,0.0
14584.5288802,292461.25,295753.5625,337017.65625,332691.34375,285298.21875,256443.546875,222378.859375,246003.9375,0.02783203125,0.995849609375,0.16943359375,0.5187987685203552,-0.2441406100988388,-0.7934569716453552,80.0,113042.0,0.0
14584.5288803,292461.25,295753.5625,337017.65625,332691.34375,285298.21875,256443.546875,222378.859375,246003.9375,0.02783203125,0.995849609375,0.16943359375,0.5187987685203552,-0.2441406100988388,-0.7934569716453552,80.0,113043.0,0.0
14584.5288805,292461.25,295753.5625,337017.65625,332691.34375,285298.21875,256443.546875,222378.859375,246003.9375,0.02783203125,0.995849609375,0.16943359375,0.5187987685203552,-0.2441406100988388,-0.7934569716453552,80.0,113044.0,0.0
14584.5288808,292461.25,295753.5625,337017.65625,332691.34375,285298.21875,256443.546875,222378.859375,246003.9375,0.02783203125,0.995849609375,0.16943359375,0.5187987685203552,-0.2441406100988388,-0.7934569716453552,80.0,113045.0,0.0
14584.528881,292461.25,295753.5625,337017.65625,332691.34375,285298.21875,256443.546875,222378.859375,246003.9375,0.02783203125,0.995849609375,0.16943359375,0.5187987685203552,-0.2441406100988388,-0.7934569716453552,80.0,113046.0,0.0
14584.5288812,292461.25,295753.5625,337017.65625,332691.34375,285298.21875,256443.546875,222378.859375,246003.9375,0.02783203125,0.995849609375,0.16943359375,0.5187987685203552,-0.2441406100988388,-0.7934569716453552,80.0,113047.0,0.0
14584.5288814,292461.25,295753.5625,337017.65625,332691.34375,285298.21875,256443.546875,222378.859375,246003.9375,0.02783203125,0.995849609375,0.16943359375,0.5187987685203552,-0.2441406100988388,-0.7934569716453552,80.0,113048.0,0.0
14584.5288815,292461.25,295753.5625,337017.65625,332691.34375,285298.21875,256443.546875,222378.859375,246003.9375,0.02783203125,0.995849609375,0.16943359375,0.5187987685203552,-0.2441406100988388,-0.7934569716453552,80.0,113049.0,0.0
14584.5288817,292461.25,295753.5625,337017.65625,332691.34375,285298.21875,256443.546875,222378.859375,246003.9375,0.02783203125,0.995849609375,0.16943359375,0.5187987685203552,-0.2441406100988388,-0.7934569716453552,80.0,113050.0,0.0
14584.5288819,292461.25,295753.5625,337017.65625,332691.34375,285298.21875,256443.546875,222378.859375,246003.9375,0.02783203125,0.995849609375,0.16943359375,0.5187987685203552,-0.2441406100988388,-0.7934569716453552,80.0,113051.0,0.0
14584.5288821,292461.25,295753.5625,337017.65625,332691.34375,285298.21875,256443.546875,222378.859375,246003.9375,0.02783203125,0.995849609375,0.16943359375,0.5187987685203552,-0.2441406100988388,-0.7934569716453552,80.0,113052.0,0.0
14584.5288822,292461.25,295753.5625,337017.65625,332691.34375,285298.21875,256443.546875,222378.859375,246003.9375,0.02783203125,0.995849609375,0.16943359375,0.5187987685203552,-0.2441406100988388,-0.7934569716453552,80.0,113053.0,0.0
14584.5288824,292461.25,295753.5625,337017.65625,332691.34375,285298.21875,256443.546875,222378.859375,246003.9375,0.02783203125,0.995849609375,0.16943359375,0.5187987685203552,-0.2441406100988388,-0.7934569716453552,80.0,113054.0,0.0
14584.5288826,292461.25,295753.5625,337017.65625,332691.34375,285298.21875,256443.546875,222378.859375,246003.9375,0.02783203125,0.995849609375,0.16943359375,0.5187987685203552,-0.2441406100988388,-0.7934569716453552,80.0,113055.0,0.0
14584.5288828,292461.25,295753.5625,337017.65625,332691.34375,285298.21875,256443.546875,222378.859375,246003.9375,0.02783203125,0.995849609375,0.16943359375,0.5187987685203552,-0.2441406100988388,-0.7934569716453552,80.0,113056.0,0.0
14584.5288829,292461.25,295753.5625,337017.65625,332691.34375,285298.21875,256443.546875,222378.859375,246003.9375,0.02783203125,0.995849609375,0.16943359375,0.5187987685203552,-0.2441406100988388,-0.7934569716453552,80.0,113057.0,0.0
14584.5288831,292461.25,295753.5625,337017.65625,332691.34375,285298.21875,256443.546875,222378.859375,246003.9375,0.02783203125,0.995849609375,0.16943359375,0.5187987685203552,-0.2441406100988388,-0.7934569716453552,80.0,113058.0,0.0
14584.5288833,292461.25,295753.5625,337017.65625,332691.34375,285298.21875,256443.546875,222378.859375,246003.9375,0.02783203125,0.995849609375,0.16943359375,0.5187987685203552,-0.2441406100988388,-0.7934569716453552,80.0,113059.0,0.0
14584.5288835,292461.25,295753.5625,337017.65625,332691.34375,285298.21875,256443.546875,222378.859375,246003.9375,0.02783203125,0.995849609375,0.16943359375,0.5187987685203552,-0.2441406100988388,-0.7934569716453552,80.0,113060.0,0.0
14584.5288836,292461.25,295753.5625,337017.65625,332691.34375,285298.21875,256443.546875,222378.859375,246003.9375,0.02783203125,0.995849609375,0.16943359375,0.5187987685203552,-0.2441406100988388,-0.7934569716453552,80.0,113061.0,0.0
14584.5288838,292461.25,295753.5625,337017.65625,332691.34375,285298.21875,256443.546875,222378.859375,246003.9375,0.02783203125,0.995849609375,0.16943359375,0.5187987685203552,-0.2441406100988388,-0.7934569716453552,80.0,113062.0,0.0
14584.528884,292461.25,295753.5625,337017.65625,332691.34375,285298.21875,256443.546875,222378.859375,246003.9375,0.02783203125,0.995849609375,0.16943359375,0.5187987685203552,-0.2441406100988388,-0.7934569716453552,80.0,113063.0,0.0
14584.5288841,292461.25,295753.5625,337017.65625,332691.34375,285298.21875,256443.546875,222378.859375,246003.9375,0.02783203125,0.995849609375,0.16943359375,0.5187987685203552,-0.2441406100988388,-0.7934569716453552,80.0,113064.0,0.0
14584.5288843,292461.25,295753.5625,337017.65625,332691.34375,285298.21875,256443.546875,222378.859375,246003.9375,0.02783203125,0.995849609375,0.16943359375,0.5187987685203552,-0.2441406100988388,-0.7934569716453552,80.0,113065.0,0.0
14584.5288845,292461.25,295753.5625,337017.65625,332691.34375,285298.21875,256443.546875,222378.859375,246003.9375,0.02783203125,0.995849609375,0.16943359375,0.5187987685203552,-0.2441406100988388,-0.7934569716453552,80.0,113066.0,0.0
14584.5288847,292461.25,295753.5625,337017.65625,332691.34375,285298.21875,256443.546875,222378.859375,246003.9375,0.02783203125,0.995849609375,0.16943359375,0.5187987685203552,-0.2441406100988388,-0.7934569716453552,80.0,113067.0,0.0
14584.5288848,292493.34375,295335.125,336795.125,332727.90625,285122.09375,256395.4375,222317.34375,246031.03125,0.025390625,0.995361328125,0.174560546875,0.6103515028953552,-1.6479490995407104,-1.2817381620407104,80.0,113068.0,1.0
14584.5648583,292519.34375,295580.75,336979.28125,332739.09375,285236.09375,256457.046875,222363.84375,246038.359375,0.024658203125,0.995361328125,0.175048828125,0.5493163466453552,-1.7089842557907104,-1.1901854276657104,80.0,113069.0,1.0
14584.5898557,292498.4375,295783.59375,337051.625,332696.15625,285313.15625,256481.359375,222383.328125,246014.9375,0.024658203125,0.993896484375,0.176513671875,0.5493163466453552,-1.7395018339157104,-1.1596678495407104,80.0,113070.0,1.0
14584.6403906,292465.4375,295668.71875,336917.78125,332660.9375,285248.59375,256440.0625,222338.625,245986.234375,0.02392578125,0.993408203125,0.173828125,0.6713866591453552,-1.7700194120407104,-1.1901854276657104,80.0,113071.0,1.0
14584.6403984,292459.0,295387.625,336747.65625,332672.5625,285117.34375,256368.53125,222276.84375,245979.796875,0.0244140625,0.992431640625,0.17333984375,0.7324218153953552,-1.7089842557907104,-1.1596678495407104,80.0,113072.0,1.0
14584.697156,292494.75,295329.6875,336781.96875,332720.5625,285104.84375,256370.765625,222288.828125,246009.390625,0.0263671875,0.99169921875,0.171875,0.8544921278953552,-1.8005369901657104,-1.1291502714157104,80.0,113073.0,1.0
14584.6971679,292516.9375,295569.46875,336962.84375,332735.78125,285219.53125,256429.421875,222348.8125,246036.578125,0.025146484375,0.992431640625,0.171142578125,0.9460448622703552,-1.8005369901657104,-1.1596678495407104,80.0,113074.0,1.0
14584.6971692,292502.625,295771.625,337035.90625,332699.84375,285300.4375,256474.03125,222381.71875,246018.875,0.025634765625,0.994384765625,0.172119140625,1.0681151151657104,-1.6784666776657104,-1.1596678495407104,80.0,113075.0,1.0
14584.6971705,292470.8125,295661.375,336906.34375,332668.53125,285240.28125,256440.953125,222342.828125,246000.453125,0.025390625,0.99658203125,0.1748046875,1.1596678495407104,-1.8005369901657104,-1.1901854276657104,80.0,113076.0,1.0
14584.6971717,292462.40625,295381.96875,336743.1875,332678.375,285117.78125,256385.875,222283.546875,245992.046875,0.027099609375,0.995361328125,0.17236328125,1.2512205839157104,-1.8310545682907104,-1.1901854276657104,80.0,113077.0,1.0
14584.6971729,292496.46875,295322.25,336781.53125,332717.71875,285103.65625,256371.296875,222274.875,245994.375,0.0263671875,0.995849609375,0.175537109375,1.1596678495407104,-1.8310545682907104,-1.1291502714157104,80.0,113078.0,1.0
14584.6971741,292518.28125,295554.53125,336955.34375,332728.96875,285213.09375,256417.890625,222332.71875,246020.5625,0.025146484375,0.998779296875,0.173583984375,1.1596678495407104,-1.8920897245407104,-1.0681151151657104,80.0,113079.0,1.0
14584.6971753,292502.90625,295763.46875,337032.75,332694.75,285300.53125,256458.921875,222368.671875,246013.859375,0.026123046875,0.99755859375,0.17138671875,1.0070799589157104,-1.8005369901657104,-1.1291502714157104,80.0,113080.0,1.0
14584.7227342,292469.8125,295660.03125,336909.5625,332666.125,285246.625,256434.421875,222337.734375,246005.09375,0.025634765625,0.996337890625,0.17431640625,1.0681151151657104,-1.8310545682907104,-1.0681151151657104,80.0,113081.0,1.0
14584.7227415,292471.34375,295398.25,336758.71875,332687.3125,285133.53125,256391.328125,222293.46875,246006.890625,0.02490234375,0.996337890625,0.17236328125,1.1291502714157104,-1.9531248807907104,-1.0375975370407104,80.0,113082.0,1.0
14584.7227428,292501.375,295337.71875,336797.0,332734.875,285123.6875,256398.296875,222303.125,246029.953125,0.025390625,0.998046875,0.169921875,1.0986326932907104,-1.9836424589157104,-0.9765624403953552,80.0,113083.0,1.0
14584.7227443,292519.15625,295573.9375,336973.03125,332737.84375,285234.125,256448.640625,222351.5,246023.34375,0.025634765625,0.998046875,0.171875,1.0986326932907104,-2.014159917831421,-0.9155272841453552,80.0,113084.0,1.0
14584.7460122,292494.125,295763.3125,337030.25,332691.4375,285303.21875,256462.859375,222365.984375,246009.03125,0.026123046875,0.999267578125,0.1708984375,1.0681151151657104,-2.044677495956421,-0.9460448622703552,80.0,113085.0,1.0
14584.7460221,292494.125,295763.3125,337030.25,332691.4375,285303.21875,256462.859375,222365.984375,246009.03125,0.026123046875,0.999267578125,0.1708984375,1.0681151151657104,-2.044677495956421,-0.9460448622703552,80.0,113086.0,0.0
14584.7460224,292494.125,295763.3125,337030.25,332691.4375,285303.21875,256462.859375,222365.984375,246009.03125,0.026123046875,0.999267578125,0.1708984375,1.0681151151657104,-2.044677495956421,-0.9460448622703552,80.0,113087.0,0.0
14584.7460227,292494.125,295763.3125,337030.25,332691.4375,285303.21875,256462.859375,222365.984375,246009.03125,0.026123046875,0.999267578125,0.1708984375,1.0681151151657104,-2.044677495956421,-0.9460448622703552,80.0,113088.0,0.0
14584.746023,292494.125,295763.3125,337030.25,332691.4375,285303.21875,256462.859375,222365.984375,246009.03125,0.026123046875,0.999267578125,0.1708984375,1.0681151151657104,-2.044677495956421,-0.9460448622703552,80.0,113089.0,0.0
14584.7460233,292494.125,295763.3125,337030.25,332691.4375,285303.21875,256462.859375,222365.984375,246009.03125,0.026123046875,0.999267578125,0.1708984375,1.0681151151657104,-2.044677495956421,-0.9460448622703552,80.0,113090.0,0.0
14584.7460235,292494.125,295763.3125,337030.25,332691.4375,285303.21875,256462.859375,222365.984375,246009.03125,0.026123046875,0.999267578125,0.1708984375,1.0681151151657104,-2.044677495956421,-0.9460448622703552,80.0,113091.0,0.0
14584.7460238,292494.125,295763.3125,337030.25,332691.4375,285303.21875,256462.859375,222365.984375,246009.03125,0.026123046875,0.999267578125,0.1708984375,1.0681151151657104,-2.044677495956421,-0.9460448622703552,80.0,113092.0,0.0
14584.7460241,292489.40625,295322.15625,336785.65625,332716.28125,285120.125,256378.90625,222283.28125,246016.625,0.028076171875,0.994873046875,0.164306640625,0.9155272841453552,-1.8310545682907104,-1.1291502714157104,80.0,113093.0,1.0
14584.7460264,292512.8125,295559.71875,336963.03125,332725.65625,285228.46875,256437.375,222337.46875,246034.328125,0.02783203125,0.994873046875,0.16650390625,0.9765624403953552,-1.8005369901657104,-1.0681151151657104,80.0,113094.0,1.0
14584.7485163,292490.375,295752.21875,337021.0625,332688.125,285301.96875,256466.96875,222371.171875,246043.640625,0.02783203125,0.998291015625,0.16845703125,0.9460448622703552,-1.8005369901657104,-1.0681151151657104,80.0,113095.0,1.0
14584.7510258,292449.875,295633.40625,336875.0625,332652.53125,285233.21875,256440.140625,222347.828125,246032.1875,0.02880859375,0.998291015625,0.167236328125,0.8850097060203552,-1.9226073026657104,-1.0681151151657104,80.0,113096.0,1.0
14584.7535334,292450.0625,295375.625,336727.34375,332669.625,285119.59375,256396.515625,222295.796875,246006.984375,0.028564453125,0.998779296875,0.1669921875,1.0070799589157104,-1.8615721464157104,-0.9460448622703552,80.0,113097.0,1.0
14584.7560215,292481.53125,295312.96875,336756.9375,332712.09375,285098.3125,256381.578125,222289.359375,246019.3125,0.029052734375,0.99609375,0.1650390625,0.7934569716453552,-1.6784666776657104,-0.9765624403953552,80.0,113098.0,1.0
14584.7585,292510.5,295548.8125,336926.28125,332719.5,285202.5625,256436.75,222342.921875,246025.75,0.03076171875,0.9951171875,0.165283203125,0.5798339247703552,-1.5869139432907104,-1.0070799589157104,80.0,113099.0,1.0
14584.761011,292489.65625,295757.84375,337000.9375,332674.71875,285285.875,256468.125,222357.046875,246007.328125,0.029296875,0.993408203125,0.165771484375,0.5187987685203552,-1.6174315214157104,-1.0070799589157104,80.0,113100.0,1.0
14584.7635157,292456.84375,295653.59375,336888.625,332645.5625,285241.4375,256431.5625,222328.25,246000.890625,0.030029296875,0.992919921875,0.168212890625,0.5493163466453552,-1.4648436307907104,-1.0375975370407104,80.0,113101.0,1.0
14584.7706501,292453.375,295384.21875,336739.15625,332667.09375,285130.125,256384.984375,222286.234375,246012.609375,0.02880859375,0.9912109375,0.16650390625,0.5187987685203552,-1.3732908964157104,-0.9155272841453552,80.0,113102.0,1.0
14584.7706572,292486.71875,295328.0625,336777.25,332706.625,285115.375,256391.859375,222285.515625,246008.046875,0.02783203125,0.992919921875,0.166748046875,0.5493163466453552,-1.2207030057907104,-1.0070799589157104,80.0,113103.0,1.0
14584.7706764,292498.875,295547.9375,336933.59375,332703.3125,285207.1875,256435.140625,222324.140625,246008.140625,0.026611328125,0.993408203125,0.168212890625,0.4882812201976776,-1.2207030057907104,-1.1596678495407104,80.0,113104.0,1.0
14584.7706777,292481.0,295743.1875,336997.34375,332669.34375,285285.53125,256456.234375,222356.234375,246022.796875,0.025634765625,0.994140625,0.16357421875,0.4882812201976776,-1.2207030057907104,-1.1901854276657104,80.0,113105.0,1.0
14584.770679,292436.8125,295629.625,336868.25,332627.21875,285221.15625,256409.296875,222307.953125,245990.609375,0.02587890625,0.993896484375,0.165771484375,0.5187987685203552,-1.2512205839157104,-1.2207030057907104,80.0,113106.0,1.0
14584.7706803,292443.8125,295372.9375,336729.5,332652.4375,285117.625,256380.15625,222267.1875,245985.96875,0.0283203125,0.997802734375,0.16845703125,0.4577636420726776,-1.1901854276657104,-1.1291502714157104,80.0,113107.0,1.0
14584.7706816,292479.21875,295318.3125,336764.0,332699.75,285105.90625,256386.40625,222286.953125,246015.03125,0.030029296875,0.9951171875,0.16796875,0.3662109076976776,-1.0986326932907104,-1.1291502714157104,80.0,113108.0,1.0
14584.7947909,292503.25,295554.71875,336938.625,332710.46875,285214.4375,256435.140625,222342.296875,246030.40625,0.02783203125,0.99755859375,0.167236328125,0.3356933295726776,-1.0681151151657104,-1.0681151151657104,80.0,113109.0,1.0
14584.8448391,292485.375,295753.1875,337002.53125,332680.0625,285297.9375,256470.71875,222373.3125,246042.375,0.029052734375,0.997802734375,0.167724609375,0.3356933295726776,-1.0070799589157104,-1.0681151151657104,80.0,113110.0,1.0
14584.8957233,292454.53125,295641.0,336874.96875,332650.9375,285243.78125,256438.984375,222334.953125,246017.703125,0.029052734375,0.998046875,0.164306640625,0.3967284858226776,-0.9155272841453552,-1.0986326932907104,80.0,113111.0,1.0
14584.8957353,292448.90625,295375.0,336721.4375,332661.125,285122.71875,256382.921875,222278.8125,246001.25,0.028076171875,0.998046875,0.1669921875,0.3051757514476776,-1.0070799589157104,-1.1596678495407104,80.0,113112.0,1.0
14584.8957373,292479.84375,295322.71875,336762.9375,332705.375,285111.34375,256389.984375,222290.171875,246021.109375,0.027587890625,0.99609375,0.1689453125,0.2746581733226776,-0.9460448622703552,-1.1291502714157104,80.0,113113.0,1.0
14584.8957395,292504.0625,295561.6875,336938.78125,332717.4375,285221.59375,256442.203125,222348.015625,246046.765625,0.026611328125,0.997314453125,0.167236328125,0.1831054538488388,-0.9765624403953552,-1.0070799589157104,80.0,113114.0,1.0
14584.8957427,292483.59375,295762.84375,337007.1875,332675.15625,285301.0625,256478.140625,222377.515625,246033.0,0.02783203125,0.998779296875,0.169189453125,0.2441406100988388,-1.0070799589157104,-1.1291502714157104,80.0,113115.0,1.0
14584.8957445,292446.03125,295642.875,336869.5,332639.03125,285236.625,256449.359375,222345.0625,246018.59375,0.0263671875,0.997802734375,0.16796875,0.2136230319738388,-0.9460448622703552,-1.0986326932907104,80.0,113116.0,1.0
14584.8957463,292441.375,295375.09375,336722.15625,332653.53125,285123.15625,256398.125,222301.34375,246010.546875,0.026123046875,0.99755859375,0.16748046875,0.1525878757238388,-0.9765624403953552,-0.9460448622703552,80.0,113117.0,1.0
14584.9200638,292478.84375,295319.40625,336759.09375,332695.53125,285106.09375,256385.78125,222294.015625,246010.828125,0.0224609375,0.997314453125,0.167724609375,0.2441406100988388,-1.0375975370407104,-1.0986326932907104,80.0,113118.0,1.0
14584.9200737,292500.40625,295551.6875,336926.8125,332706.0,285212.21875,256432.546875,222341.84375,246033.703125,0.024658203125,0.994140625,0.167724609375,0.0915527269244194,-0.9765624403953552,-1.0070799589157104,80.0,113119.0,1.0
14584.9454002,292478.84375,295747.125,336987.25,332671.3125,285293.3125,256471.34375,222379.484375,246042.109375,0.0244140625,0.994140625,0.170166015625,0.0915527269244194,-1.0070799589157104,-1.0070799589157104,80.0,113120.0,1.0
14584.945413,292454.8125,295655.21875,336878.28125,332648.15625,285252.4375,256460.984375,222358.390625,246021.015625,0.02587890625,0.994384765625,0.170166015625,0.1525878757238388,-1.1291502714157104,-0.9460448622703552,80.0,113121.0,1.0
14584.9616226,292454.8125,295655.21875,336878.28125,332648.15625,285252.4375,256460.984375,222358.390625,246021.015625,0.02587890625,0.994384765625,0.170166015625,0.1525878757238388,-1.1291502714157104,-0.9460448622703552,80.0,113122.0,0.0
14584.9616253,292454.8125,295655.21875,336878.28125,332648.15625,285252.4375,256460.984375,222358.390625,246021.015625,0.02587890625,0.994384765625,0.170166015625,0.1525878757238388,-1.1291502714157104,-0.9460448622703552,80.0,113123.0,0.0
14584.9616256,292454.8125,295655.21875,336878.28125,332648.15625,285252.4375,256460.984375,222358.390625,246021.015625,0.02587890625,0.994384765625,0.170166015625,0.1525878757238388,-1.1291502714157104,-0.9460448622703552,80.0,113124.0,0.0
14584.9616258,292454.8125,295655.21875,336878.28125,332648.15625,285252.4375,256460.984375,222358.390625,246021.015625,0.02587890625,0.994384765625,0.170166015625,0.1525878757238388,-1.1291502714157104,-0.9460448622703552,80.0,113125.0,0.0
14584.9616261,292454.8125,295655.21875,336878.28125,332648.15625,285252.4375,256460.984375,222358.390625,246021.015625,0.02587890625,0.994384765625,0.170166015625,0.1525878757238388,-1.1291502714157104,-0.9460448622703552,80.0,113126.0,0.0
14584.9616263,292454.8125,295655.21875,336878.28125,332648.15625,285252.4375,256460.984375,222358.390625,246021.015625,0.02587890625,0.994384765625,0.170166015625,0.1525878757238388,-1.1291502714157104,-0.9460448622703552,80.0,113127.0,0.0
14584.9616266,292454.8125,295655.21875,336878.28125,332648.15625,285252.4375,256460.984375,222358.390625,246021.015625,0.02587890625,0.994384765625,0.170166015625,0.1525878757238388,-1.1291502714157104,-0.9460448622703552,80.0,113128.0,0.0
14584.9616268,292454.8125,295655.21875,336878.28125,332648.15625,285252.4375,256460.984375,222358.390625,246021.015625,0.02587890625,0.994384765625,0.170166015625,0.1525878757238388,-1.1291502714157104,-0.9460448622703552,80.0,113129.0,0.0
14584.9616271,292454.8125,295655.21875,336878.28125,332648.15625,285252.4375,256460.984375,222358.390625,246021.015625,0.02587890625,0.994384765625,0.170166015625,0.1525878757238388,-1.1291502714157104,-0.9460448622703552,80.0,113130.0,0.0
14584.9616274,292454.8125,295655.21875,336878.28125,332648.15625,285252.4375,256460.984375,222358.390625,246021.015625,0.02587890625,0.994384765625,0.170166015625,0.1525878757238388,-1.1291502714157104,-0.9460448622703552,80.0,113131.0,0.0
14584.9616276,292454.8125,295655.21875,336878.28125,332648.15625,285252.4375,256460.984375,222358.390625,246021.015625,0.02587890625,0.994384765625,0.170166015625,0.1525878757238388,-1.1291502714157104,-0.9460448622703552,80.0,113132.0,0.0
14584.961628,292454.8125,295655.21875,336878.28125,332648.15625,285252.4375,256460.984375,222358.390625,246021.015625,0.02587890625,0.994384765625,0.170166015625,0.1525878757238388,-1.1291502714157104,-0.9460448622703552,80.0,113133.0,0.0
14584.9616283,292454.8125,295655.21875,336878.28125,332648.15625,285252.4375,256460.984375,222358.390625,246021.015625,0.02587890625,0.994384765625,0.170166015625,0.1525878757238388,-1.1291502714157104,-0.9460448622703552,80.0,113134.0,0.0
14584.9616286,292454.8125,295655.21875,336878.28125,332648.15625,285252.4375,256460.984375,222358.390625,246021.015625,0.02587890625,0.994384765625,0.170166015625,0.1525878757238388,-1.1291502714157104,-0.9460448622703552,80.0,113135.0,0.0
14584.9616289,292454.8125,295655.21875,336878.28125,332648.15625,285252.4375,256460.984375,222358.390625,246021.015625,0.02587890625,0.994384765625,0.170166015625,0.1525878757238388,-1.1291502714157104,-0.9460448622703552,80.0,113136.0,0.0
14584.9616292,292454.8125,295655.21875,336878.28125,332648.15625,285252.4375,256460.984375,222358.390625,246021.015625,0.02587890625,0.994384765625,0.170166015625,0.1525878757238388,-1.1291502714157104,-0.9460448622703552,80.0,113137.0,0.0
14584.9616295,292454.8125,295655.21875,336878.28125,332648.15625,285252.4375,256460.984375,222358.390625,246021.015625,0.02587890625,0.994384765625,0.170166015625,0.1525878757238388,-1.1291502714157104,-0.9460448622703552,80.0,113138.0,0.0
14584.9616298,292454.8125,295655.21875,336878.28125,332648.15625,285252.4375,256460.984375,222358.390625,246021.015625,0.02587890625,0.994384765625,0.170166015625,0.1525878757238388,-1.1291502714157104,-0.9460448622703552,80.0,113139.0,0.0
14584.9616302,292454.8125,295655.21875,336878.28125,332648.15625,285252.4375,256460.984375,222358.390625,246021.015625,0.02587890625,0.994384765625,0.170166015625,0.1525878757238388,-1.1291502714157104,-0.9460448622703552,80.0,113140.0,0.0
14584.9616305,292454.8125,295655.21875,336878.28125,332648.15625,285252.4375,256460.984375,222358.390625,246021.015625,0.02587890625,0.994384765625,0.170166015625,0.1525878757238388,-1.1291502714157104,-0.9460448622703552,80.0,113141.0,0.0
14584.9616308,292454.8125,295655.21875,336878.28125,332648.15625,285252.4375,256460.984375,222358.390625,246021.015625,0.02587890625,0.994384765625,0.170166015625,0.1525878757238388,-1.1291502714157104,-0.9460448622703552,80.0,113142.0,0.0
14584.9616312,292495.21875,295332.1875,336763.5625,332705.28125,285114.21875,256396.78125,222294.71875,246020.03125,0.025146484375,0.9970703125,0.16943359375,0.2746581733226776,-1.8310545682907104,-1.3122557401657104,80.0,113143.0,1.0
14584.9616406,292512.90625,295572.40625,336938.4375,332709.21875,285221.3125,256433.265625,222342.375,246043.359375,0.02490234375,0.9970703125,0.17138671875,0.2441406100988388,-1.8615721464157104,-1.2207030057907104,80.0,113144.0,1.0
14584.9682574,292489.5,295759.5625,336991.09375,332666.21875,285288.5625,256453.5625,222361.515625,246037.203125,0.026611328125,0.99658203125,0.17138671875,0.2746581733226776,-1.8310545682907104,-1.0986326932907104,80.0,113145.0,1.0
14584.9682653,292454.1875,295634.5625,336842.40625,332632.6875,285219.625,256422.71875,222324.59375,246016.8125,0.02880859375,0.997802734375,0.168212890625,0.3051757514476776,-1.7089842557907104,-0.9155272841453552,80.0,113146.0,1.0
14584.9682674,292449.53125,295368.21875,336693.65625,332651.71875,285107.78125,256370.59375,222285.875,246025.75,0.031494140625,0.99658203125,0.170166015625,0.3051757514476776,-1.6174315214157104,-0.9460448622703552,80.0,113147.0,1.0
14584.9682693,292492.15625,295335.9375,336759.53125,332704.03125,285114.5,256382.828125,222303.578125,246031.5625,0.032958984375,0.99609375,0.16650390625,0.2136230319738388,-1.5563963651657104,-0.7934569716453552,80.0,113148.0,1.0
14584.9682712,292509.34375,295561.875,336924.03125,332704.3125,285214.1875,256439.15625,222345.234375,246023.15625,0.031005859375,0.9951171875,0.16943359375,0.1220703050494194,-1.4343260526657104,-0.7324218153953552,80.0,113149.0,1.0
14584.9682733,292475.4375,295744.25,336968.375,332649.0625,285273.8125,256466.703125,222356.859375,246005.546875,0.030029296875,0.9931640625,0.171630859375,0.0,-1.3122557401657104,-0.6103515028953552,80.0,113150.0,1.0
14584.9682752,292454.1875,295637.5,336845.8125,332629.375,285221.5,256442.828125,222325.84375,246003.671875,0.0302734375,0.98974609375,0.1669921875,-0.03051757626235485,-1.3122557401657104,-0.5187987685203552,80.0,113151.0,1.0
14584.9693574,292456.59375,295372.875,336701.59375,332654.9375,285113.0625,256381.3125,222281.046875,246017.078125,0.02880859375,0.989990234375,0.164794921875,0.1220703050494194,-1.0681151151657104,-0.4272460639476776,80.0,113152.0,1.0
14584.9752578,292456.59375,295372.875,336701.59375,332654.9375,285113.0625,256381.3125,222281.046875,246017.078125,0.02880859375,0.989990234375,0.164794921875,0.1220703050494194,-1.0681151151657104,-0.4272460639476776,80.0,113153.0,0.0
14584.9752596,292456.59375,295372.875,336701.59375,332654.9375,285113.0625,256381.3125,222281.046875,246017.078125,0.02880859375,0.989990234375,0.164794921875,0.1220703050494194,-1.0681151151657104,-0.4272460639476776,80.0,113154.0,0.0
14584.97526,292456.59375,295372.875,336701.59375,332654.9375,285113.0625,256381.3125,222281.046875,246017.078125,0.02880859375,0.989990234375,0.164794921875,0.1220703050494194,-1.0681151151657104,-0.4272460639476776,80.0,113155.0,0.0
14584.9752603,292456.59375,295372.875,336701.59375,332654.9375,285113.0625,256381.3125,222281.046875,246017.078125,0.02880859375,0.989990234375,0.164794921875,0.1220703050494194,-1.0681151151657104,-0.4272460639476776,80.0,113156.0,0.0
14584.9752606,292456.59375,295372.875,336701.59375,332654.9375,285113.0625,256381.3125,222281.046875,246017.078125,0.02880859375,0.989990234375,0.164794921875,0.1220703050494194,-1.0681151151657104,-0.4272460639476776,80.0,113157.0,0.0
14584.9752609,292456.59375,295372.875,336701.59375,332654.9375,285113.0625,256381.3125,222281.046875,246017.078125,0.02880859375,0.989990234375,0.164794921875,0.1220703050494194,-1.0681151151657104,-0.4272460639476776,80.0,113158.0,0.0
14584.9752611,292456.59375,295372.875,336701.59375,332654.9375,285113.0625,256381.3125,222281.046875,246017.078125,0.02880859375,0.989990234375,0.164794921875,0.1220703050494194,-1.0681151151657104,-0.4272460639476776,80.0,113159.0,0.0
14584.9752614,292456.59375,295372.875,336701.59375,332654.9375,285113.0625,256381.3125,222281.046875,246017.078125,0.02880859375,0.989990234375,0.164794921875,0.1220703050494194,-1.0681151151657104,-0.4272460639476776,80.0,113160.0,0.0
14584.9752617,292456.59375,295372.875,336701.59375,332654.9375,285113.0625,256381.3125,222281.046875,246017.078125,0.02880859375,0.989990234375,0.164794921875,0.1220703050494194,-1.0681151151657104,-0.4272460639476776,80.0,113161.0,0.0
14584.9752621,292456.59375,295372.875,336701.59375,332654.9375,285113.0625,256381.3125,222281.046875,246017.078125,0.02880859375,0.989990234375,0.164794921875,0.1220703050494194,-1.0681151151657104,-0.4272460639476776,80.0,113162.0,0.0
14584.9752624,292456.59375,295372.875,336701.59375,332654.9375,285113.0625,256381.3125,222281.046875,246017.078125,0.02880859375,0.989990234375,0.164794921875,0.1220703050494194,-1.0681151151657104,-0.4272460639476776,80.0,113163.0,0.0
14584.9752627,292456.59375,295372.875,336701.59375,332654.9375,285113.0625,256381.3125,222281.046875,246017.078125,0.02880859375,0.989990234375,0.164794921875,0.1220703050494194,-1.0681151151657104,-0.4272460639476776,80.0,113164.0,0.0
14584.975263,292456.59375,295372.875,336701.59375,332654.9375,285113.0625,256381.3125,222281.046875,246017.078125,0.02880859375,0.989990234375,0.164794921875,0.1220703050494194,-1.0681151151657104,-0.4272460639476776,80.0,113165.0,0.0
14584.9752633,292456.59375,295372.875,336701.59375,332654.9375,285113.0625,256381.3125,222281.046875,246017.078125,0.02880859375,0.989990234375,0.164794921875,0.1220703050494194,-1.0681151151657104,-0.4272460639476776,80.0,113166.0,0.0
14584.9752637,292456.59375,295372.875,336701.59375,332654.9375,285113.0625,256381.3125,222281.046875,246017.078125,0.02880859375,0.989990234375,0.164794921875,0.1220703050494194,-1.0681151151657104,-0.4272460639476776,80.0,113167.0,0.0
14584.975264,292456.59375,295372.875,336701.59375,332654.9375,285113.0625,256381.3125,222281.046875,246017.078125,0.02880859375,0.989990234375,0.164794921875,0.1220703050494194,-1.0681151151657104,-0.4272460639476776,80.0,113168.0,0.0
14584.9752643,292456.59375,295372.875,336701.59375,332654.9375,285113.0625,256381.3125,222281.046875,246017.078125,0.02880859375,0.989990234375,0.164794921875,0.1220703050494194,-1.0681151151657104,-0.4272460639476776,80.0,113169.0,0.0
14584.9752646,292456.59375,295372.875,336701.59375,332654.9375,285113.0625,256381.3125,222281.046875,246017.078125,0.02880859375,0.989990234375,0.164794921875,0.1220703050494194,-1.0681151151657104,-0.4272460639476776,80.0,113170.0,0.0
14584.9752649,292456.59375,295372.875,336701.59375,332654.9375,285113.0625,256381.3125,222281.046875,246017.078125,0.02880859375,0.989990234375,0.164794921875,0.1220703050494194,-1.0681151151657104,-0.4272460639476776,80.0,113171.0,0.0
14584.9752652,292456.59375,295372.875,336701.59375,332654.9375,285113.0625,256381.3125,222281.046875,246017.078125,0.02880859375,0.989990234375,0.164794921875,0.1220703050494194,-1.0681151151657104,-0.4272460639476776,80.0,113172.0,0.0
14584.9752655,292456.59375,295372.875,336701.59375,332654.9375,285113.0625,256381.3125,222281.046875,246017.078125,0.02880859375,0.989990234375,0.164794921875,0.1220703050494194,-1.0681151151657104,-0.4272460639476776,80.0,113173.0,0.0
14584.9752658,292456.59375,295372.875,336701.59375,332654.9375,285113.0625,256381.3125,222281.046875,246017.078125,0.02880859375,0.989990234375,0.164794921875,0.1220703050494194,-1.0681151151657104,-0.4272460639476776,80.0,113174.0,0.0
14584.9752662,292456.59375,295372.875,336701.59375,332654.9375,285113.0625,256381.3125,222281.046875,246017.078125,0.02880859375,0.989990234375,0.164794921875,0.1220703050494194,-1.0681151151657104,-0.4272460639476776,80.0,113175.0,0.0
14584.9752666,292456.59375,295372.875,336701.59375,332654.9375,285113.0625,256381.3125,222281.046875,246017.078125,0.02880859375,0.989990234375,0.164794921875,0.1220703050494194,-1.0681151151657104,-0.4272460639476776,80.0,113176.0,0.0
14584.9752669,292456.59375,295372.875,336701.59375,332654.9375,285113.0625,256381.3125,222281.046875,246017.078125,0.02880859375,0.989990234375,0.164794921875,0.1220703050494194,-1.0681151151657104,-0.4272460639476776,80.0,113177.0,0.0
14584.9752672,292494.84375,295364.71875,336751.84375,332701.875,285141.125,256402.328125,222303.578125,246039.609375,0.0205078125,0.99560546875,0.17138671875,-0.5187987685203552,-1.4648436307907104,-0.8239745497703552,80.0,113178.0,1.0
14584.9752741,292506.65625,295581.53125,336905.0,332698.65625,285231.4375,256437.640625,222334.59375,246040.953125,0.01953125,0.99609375,0.171630859375,-0.5187987685203552,-1.5258787870407104,-0.8544921278953552,80.0,113179.0,1.0
14584.9752762,292482.34375,295751.84375,336943.71875,332653.0625,285286.59375,256457.9375,222350.15625,246032.640625,0.02001953125,0.994873046875,0.173583984375,-0.5798339247703552,-1.5258787870407104,-0.9155272841453552,80.0,113180.0,1.0
14584.9752781,292458.5625,295641.09375,336822.5625,332632.0625,285232.21875,256437.90625,222322.53125,246030.84375,0.020751953125,0.99560546875,0.174072265625,-0.5798339247703552,-1.7089842557907104,-0.8544921278953552,80.0,113181.0,1.0
14584.9790254,292464.1875,295387.34375,336687.03125,332660.21875,285127.0,256385.15625,222287.21875,246036.125,0.020751953125,0.99462890625,0.16796875,-0.5493163466453552,-1.8310545682907104,-0.8544921278953552,80.0,113182.0,1.0
14584.9790306,292505.21875,295368.03125,336758.5625,332712.09375,285140.78125,256401.25,222310.1875,246048.734375,0.0205078125,0.99609375,0.17041015625,-0.5493163466453552,-2.014159917831421,-0.7934569716453552,80.0,113183.0,1.0
14584.979032,292516.03125,295593.15625,336922.0625,332701.96875,285237.15625,256439.609375,222336.65625,246038.453125,0.0224609375,0.99609375,0.17333984375,-0.5798339247703552,-2.044677495956421,-0.7934569716453552,80.0,113184.0,1.0
14584.9790334,292489.5,295760.0,336960.34375,332651.0,285290.4375,256459.8125,222347.125,246028.171875,0.023681640625,0.99609375,0.176025390625,-0.4882812201976776,-2.075195074081421,-0.7934569716453552,80.0,113185.0,1.0
14584.9810242,292460.96875,295631.59375,336819.15625,332627.5,285221.25,256435.9375,222320.46875,246027.890625,0.02734375,0.99462890625,0.1767578125,-0.4577636420726776,-2.166747808456421,-0.7934569716453552,80.0,113186.0,1.0
14585.0060826,292464.53125,295375.71875,336669.5,332655.9375,285113.59375,256400.09375,222286.234375,246032.375,0.027587890625,0.995361328125,0.1748046875,-0.3356933295726776,-2.044677495956421,-0.8544921278953552,80.0,113187.0,1.0
14585.031202,292502.1875,295363.375,336742.71875,332708.3125,285128.53125,256407.78125,222307.875,246050.609375,0.027099609375,0.995361328125,0.176025390625,-0.0915527269244194,-2.075195074081421,-0.9155272841453552,80.0,113188.0,1.0
14585.0562038,292509.5,295585.65625,336910.1875,332703.0625,285225.96875,256451.765625,222347.390625,246051.953125,0.0283203125,0.996337890625,0.17333984375,-0.1220703050494194,-1.9836424589157104,-0.8850097060203552,80.0,113189.0,1.0
14585.0810677,292491.0,295761.34375,336954.1875,332661.21875,285287.9375,256479.84375,222368.671875,246049.09375,0.027099609375,0.995849609375,0.172119140625,-0.0915527269244194,-1.9836424589157104,-0.9155272841453552,80.0,113190.0,1.0
14585.1098486,292467.40625,295646.625,336826.6875,332642.625,285232.6875,256458.921875,222345.515625,246058.390625,0.029052734375,0.99560546875,0.173828125,0.03051757626235485,-1.8310545682907104,-0.9460448622703552,80.0,113191.0,1.0
14585.1605109,292470.4375,295389.3125,336683.28125,332665.78125,285124.84375,256418.859375,222305.640625,246063.125,0.02978515625,0.995361328125,0.176025390625,0.03051757626235485,-1.7395018339157104,-1.0986326932907104,80.0,113192.0,1.0
14585.1605192,292506.46875,295365.34375,336751.65625,332708.0625,285137.65625,256421.734375,222315.203125,246053.46875,0.0302734375,0.99462890625,0.173828125,0.0610351525247097,-1.6784666776657104,-1.0070799589157104,80.0,113193.0,1.0
14585.1605224,292506.46875,295365.34375,336751.65625,332708.0625,285137.65625,256421.734375,222315.203125,246053.46875,0.0302734375,0.99462890625,0.173828125,0.0610351525247097,-1.6784666776657104,-1.0070799589157104,80.0,113194.0,0.0
14585.1605226,292506.46875,295365.34375,336751.65625,332708.0625,285137.65625,256421.734375,222315.203125,246053.46875,0.0302734375,0.99462890625,0.173828125,0.0610351525247097,-1.6784666776657104,-1.0070799589157104,80.0,113195.0,0.0
14585.1605228,292506.46875,295365.34375,336751.65625,332708.0625,285137.65625,256421.734375,222315.203125,246053.46875,0.0302734375,0.99462890625,0.173828125,0.0610351525247097,-1.6784666776657104,-1.0070799589157104,80.0,113196.0,0.0
14585.160523,292506.46875,295365.34375,336751.65625,332708.0625,285137.65625,256421.734375,222315.203125,246053.46875,0.0302734375,0.99462890625,0.173828125,0.0610351525247097,-1.6784666776657104,-1.0070799589157104,80.0,113197.0,0.0
14585.1605232,292506.46875,295365.34375,336751.65625,332708.0625,285137.65625,256421.734375,222315.203125,246053.46875,0.0302734375,0.99462890625,0.173828125,0.0610351525247097,-1.6784666776657104,-1.0070799589157104,80.0,113198.0,0.0
14585.1605234,292506.46875,295365.34375,336751.65625,332708.0625,285137.65625,256421.734375,222315.203125,246053.46875,0.0302734375,0.99462890625,0.173828125,0.0610351525247097,-1.6784666776657104,-1.0070799589157104,80.0,113199.0,0.0
14585.1605236,292506.46875,295365.34375,336751.65625,332708.0625,285137.65625,256421.734375,222315.203125,246053.46875,0.0302734375,0.99462890625,0.173828125,0.0610351525247097,-1.6784666776657104,-1.0070799589157104,80.0,113200.0,0.0
14585.1605237,292506.46875,295365.34375,336751.65625,332708.0625,285137.65625,256421.734375,222315.203125,246053.46875,0.0302734375,0.99462890625,0.173828125,0.0610351525247097,-1.6784666776657104,-1.0070799589157104,80.0,113201.0,0.0
14585.1605239,292506.46875,295365.34375,336751.65625,332708.0625,285137.65625,256421.734375,222315.203125,246053.46875,0.0302734375,0.99462890625,0.173828125,0.0610351525247097,-1.6784666776657104,-1.0070799589157104,80.0,113202.0,0.0
14585.1605241,292506.46875,295365.34375,336751.65625,332708.0625,285137.65625,256421.734375,222315.203125,246053.46875,0.0302734375,0.99462890625,0.173828125,0.0610351525247097,-1.6784666776657104,-1.0070799589157104,80.0,113203.0,0.0
14585.1605243,292506.46875,295365.34375,336751.65625,332708.0625,285137.65625,256421.734375,222315.203125,246053.46875,0.0302734375,0.99462890625,0.173828125,0.0610351525247097,-1.6784666776657104,-1.0070799589157104,80.0,113204.0,0.0
14585.1605245,292506.46875,295365.34375,336751.65625,332708.0625,285137.65625,256421.734375,222315.203125,246053.46875,0.0302734375,0.99462890625,0.173828125,0.0610351525247097,-1.6784666776657104,-1.0070799589157104,80.0,113205.0,0.0
14585.1605247,292506.46875,295365.34375,336751.65625,332708.0625,285137.65625,256421.734375,222315.203125,246053.46875,0.0302734375,0.99462890625,0.173828125,0.0610351525247097,-1.6784666776657104,-1.0070799589157104,80.0,113206.0,0.0
14585.1605248,292506.46875,295365.34375,336751.65625,332708.0625,285137.65625,256421.734375,222315.203125,246053.46875,0.0302734375,0.99462890625,0.173828125,0.0610351525247097,-1.6784666776657104,-1.0070799589157104,80.0,113207.0,0.0
14585.160525,292506.46875,295365.34375,336751.65625,332708.0625,285137.65625,256421.734375,222315.203125,246053.46875,0.0302734375,0.99462890625,0.173828125,0.0610351525247097,-1.6784666776657104,-1.0070799589157104,80.0,113208.0,0.0
14585.1605252,292506.46875,295365.34375,336751.65625,332708.0625,285137.65625,256421.734375,222315.203125,246053.46875,0.0302734375,0.99462890625,0.173828125,0.0610351525247097,-1.6784666776657104,-1.0070799589157104,80.0,113209.0,0.0
14585.1605254,292506.46875,295365.34375,336751.65625,332708.0625,285137.65625,256421.734375,222315.203125,246053.46875,0.0302734375,0.99462890625,0.173828125,0.0610351525247097,-1.6784666776657104,-1.0070799589157104,80.0,113210.0,0.0
14585.1605255,292506.46875,295365.34375,336751.65625,332708.0625,285137.65625,256421.734375,222315.203125,246053.46875,0.0302734375,0.99462890625,0.173828125,0.0610351525247097,-1.6784666776657104,-1.0070799589157104,80.0,113211.0,0.0
14585.1605257,292506.46875,295365.34375,336751.65625,332708.0625,285137.65625,256421.734375,222315.203125,246053.46875,0.0302734375,0.99462890625,0.173828125,0.0610351525247097,-1.6784666776657104,-1.0070799589157104,80.0,113212.0,0.0
14585.1605259,292506.46875,295365.34375,336751.65625,332708.0625,285137.65625,256421.734375,222315.203125,246053.46875,0.0302734375,0.99462890625,0.173828125,0.0610351525247097,-1.6784666776657104,-1.0070799589157104,80.0,113213.0,0.0
14585.1605261,292506.46875,295365.34375,336751.65625,332708.0625,285137.65625,256421.734375,222315.203125,246053.46875,0.0302734375,0.99462890625,0.173828125,0.0610351525247097,-1.6784666776657104,-1.0070799589157104,80.0,113214.0,0.0
14585.1605263,292506.46875,295365.34375,336751.65625,332708.0625,285137.65625,256421.734375,222315.203125,246053.46875,0.0302734375,0.99462890625,0.173828125,0.0610351525247097,-1.6784666776657104,-1.0070799589157104,80.0,113215.0,0.0
14585.1605264,292506.46875,295365.34375,336751.65625,332708.0625,285137.65625,256421.734375,222315.203125,246053.46875,0.0302734375,0.99462890625,0.173828125,0.0610351525247097,-1.6784666776657104,-1.0070799589157104,80.0,113216.0,0.0
14585.1605266,292506.46875,295365.34375,336751.65625,332708.0625,285137.65625,256421.734375,222315.203125,246053.46875,0.0302734375,0.99462890625,0.173828125,0.0610351525247097,-1.6784666776657104,-1.0070799589157104,80.0,113217.0,0.0
14585.1605268,292506.46875,295365.34375,336751.65625,332708.0625,285137.65625,256421.734375,222315.203125,246053.46875,0.0302734375,0.99462890625,0.173828125,0.0610351525247097,-1.6784666776657104,-1.0070799589157104,80.0,113218.0,0.0
14585.1605269,292506.46875,295365.34375,336751.65625,332708.0625,285137.65625,256421.734375,222315.203125,246053.46875,0.0302734375,0.99462890625,0.173828125,0.0610351525247097,-1.6784666776657104,-1.0070799589157104,80.0,113219.0,0.0
14585.1605271,292506.46875,295365.34375,336751.65625,332708.0625,285137.65625,256421.734375,222315.203125,246053.46875,0.0302734375,0.99462890625,0.173828125,0.0610351525247097,-1.6784666776657104,-1.0070799589157104,80.0,113220.0,0.0
14585.1605273,292506.46875,295365.34375,336751.65625,332708.0625,285137.65625,256421.734375,222315.203125,246053.46875,0.0302734375,0.99462890625,0.173828125,0.0610351525247097,-1.6784666776657104,-1.0070799589157104,80.0,113221.0,0.0
14585.1605275,292506.46875,295365.34375,336751.65625,332708.0625,285137.65625,256421.734375,222315.203125,246053.46875,0.0302734375,0.99462890625,0.173828125,0.0610351525247097,-1.6784666776657104,-1.0070799589157104,80.0,113222.0,0.0
14585.1605277,292506.46875,295365.34375,336751.65625,332708.0625,285137.65625,256421.734375,222315.203125,246053.46875,0.0302734375,0.99462890625,0.173828125,0.0610351525247097,-1.6784666776657104,-1.0070799589157104,80.0,113223.0,0.0
14585.1605278,292506.46875,295365.34375,336751.65625,332708.0625,285137.65625,256421.734375,222315.203125,246053.46875,0.0302734375,0.99462890625,0.173828125,0.0610351525247097,-1.6784666776657104,-1.0070799589157104,80.0,113224.0,0.0
14585.160528,292506.46875,295365.34375,336751.65625,332708.0625,285137.65625,256421.734375,222315.203125,246053.46875,0.0302734375,0.99462890625,0.173828125,0.0610351525247097,-1.6784666776657104,-1.0070799589157104,80.0,113225.0,0.0
14585.1605282,292506.46875,295365.34375,336751.65625,332708.0625,285137.65625,256421.734375,222315.203125,246053.46875,0.0302734375,0.99462890625,0.173828125,0.0610351525247097,-1.6784666776657104,-1.0070799589157104,80.0,113226.0,0.0
14585.1605283,292506.46875,295365.34375,336751.65625,332708.0625,285137.65625,256421.734375,222315.203125,246053.46875,0.0302734375,0.99462890625,0.173828125,0.0610351525247097,-1.6784666776657104,-1.0070799589157104,80.0,113227.0,0.0
14585.1605285,292506.46875,295365.34375,336751.65625,332708.0625,285137.65625,256421.734375,222315.203125,246053.46875,0.0302734375,0.99462890625,0.173828125,0.0610351525247097,-1.6784666776657104,-1.0070799589157104,80.0,113228.0,0.0
14585.1605287,292506.46875,295365.34375,336751.65625,332708.0625,285137.65625,256421.734375,222315.203125,246053.46875,0.0302734375,0.99462890625,0.173828125,0.0610351525247097,-1.6784666776657104,-1.0070799589157104,80.0,113229.0,0.0
14585.1605289,292506.46875,295365.34375,336751.65625,332708.0625,285137.65625,256421.734375,222315.203125,246053.46875,0.0302734375,0.99462890625,0.173828125,0.0610351525247097,-1.6784666776657104,-1.0070799589157104,80.0,113230.0,0.0
14585.1605291,292506.46875,295365.34375,336751.65625,332708.0625,285137.65625,256421.734375,222315.203125,246053.46875,0.0302734375,0.99462890625,0.173828125,0.0610351525247097,-1.6784666776657104,-1.0070799589157104,80.0,113231.0,0.0
14585.1605292,292491.8125,295397.1875,336702.3125,332666.9375,285133.15625,256410.109375,222305.90625,246055.96875,0.029052734375,0.993408203125,0.167236328125,0.6103515028953552,-1.1291502714157104,-1.0070799589157104,80.0,113232.0,1.0
14585.1605306,292514.0,295362.75,336763.03125,332707.625,285138.625,256410.28125,222316.359375,246063.578125,0.028076171875,0.9951171875,0.1708984375,0.6408690810203552,-1.1901854276657104,-1.0375975370407104,80.0,113233.0,1.0
14585.1605318,292523.8125,295582.875,336911.09375,332698.75,285224.90625,256444.96875,222349.890625,246059.015625,0.02880859375,0.9951171875,0.1728515625,0.7019042372703552,-1.0681151151657104,-1.0070799589157104,80.0,113234.0,1.0
14585.1605331,292503.25,295740.6875,336933.59375,332651.375,285267.625,256472.25,222361.953125,246037.640625,0.028564453125,0.99658203125,0.1728515625,0.7019042372703552,-1.0375975370407104,-1.0375975370407104,80.0,113235.0,1.0
14585.1605343,292472.84375,295603.71875,336778.75,332625.625,285190.9375,256429.859375,222324.234375,246026.015625,0.02685546875,0.99658203125,0.173095703125,0.7934569716453552,-1.0375975370407104,-0.9765624403953552,80.0,113236.0,1.0
14585.1854453,292474.90625,295367.21875,336657.78125,332657.53125,285102.0625,256392.484375,222297.40625,246046.046875,0.02783203125,0.998779296875,0.17333984375,0.7629393935203552,-1.0375975370407104,-1.0375975370407104,80.0,113237.0,1.0
14585.1854623,292512.5625,295364.71875,336754.53125,332712.34375,285137.28125,256409.84375,222325.296875,246073.3125,0.026123046875,0.998291015625,0.172119140625,0.7019042372703552,-1.0681151151657104,-0.9765624403953552,80.0,113238.0,1.0
14585.2114758,292531.15625,295595.03125,336930.40625,332711.1875,285243.21875,256453.015625,222358.65625,246073.3125,0.025634765625,0.998291015625,0.170654296875,0.7019042372703552,-1.1291502714157104,-1.0375975370407104,80.0,113239.0,1.0
14585.211481,292506.46875,295747.46875,336955.96875,332662.09375,285288.1875,256475.28125,222367.328125,246057.484375,0.027099609375,0.997314453125,0.169677734375,0.6713866591453552,-1.1596678495407104,-0.8544921278953552,80.0,113240.0,1.0
14585.2114823,292470.1875,295612.84375,336811.65625,332630.71875,285217.9375,256453.46875,222339.703125,246045.25,0.025634765625,0.998291015625,0.16748046875,0.5798339247703552,-1.0681151151657104,-0.8544921278953552,80.0,113241.0,1.0
14585.2114845,292470.1875,295612.84375,336811.65625,332630.71875,285217.9375,256453.46875,222339.703125,246045.25,0.025634765625,0.998291015625,0.16748046875,0.5798339247703552,-1.0681151151657104,-0.8544921278953552,80.0,113242.0,0.0
14585.2114847,292470.1875,295612.84375,336811.65625,332630.71875,285217.9375,256453.46875,222339.703125,246045.25,0.025634765625,0.998291015625,0.16748046875,0.5798339247703552,-1.0681151151657104,-0.8544921278953552,80.0,113243.0,0.0
14585.2114849,292470.1875,295612.84375,336811.65625,332630.71875,285217.9375,256453.46875,222339.703125,246045.25,0.025634765625,0.998291015625,0.16748046875,0.5798339247703552,-1.0681151151657104,-0.8544921278953552,80.0,113244.0,0.0
14585.2114851,292470.1875,295612.84375,336811.65625,332630.71875,285217.9375,256453.46875,222339.703125,246045.25,0.025634765625,0.998291015625,0.16748046875,0.5798339247703552,-1.0681151151657104,-0.8544921278953552,80.0,113245.0,0.0
14585.2114855,292470.1875,295612.84375,336811.65625,332630.71875,285217.9375,256453.46875,222339.703125,246045.25,0.025634765625,0.998291015625,0.16748046875,0.5798339247703552,-1.0681151151657104,-0.8544921278953552,80.0,113246.0,0.0
14585.2114856,292470.1875,295612.84375,336811.65625,332630.71875,285217.9375,256453.46875,222339.703125,246045.25,0.025634765625,0.998291015625,0.16748046875,0.5798339247703552,-1.0681151151657104,-0.8544921278953552,80.0,113247.0,0.0
14585.2114858,292470.1875,295612.84375,336811.65625,332630.71875,285217.9375,256453.46875,222339.703125,246045.25,0.025634765625,0.998291015625,0.16748046875,0.5798339247703552,-1.0681151151657104,-0.8544921278953552,80.0,113248.0,0.0
14585.211486,292470.1875,295612.84375,336811.65625,332630.71875,285217.9375,256453.46875,222339.703125,246045.25,0.025634765625,0.998291015625,0.16748046875,0.5798339247703552,-1.0681151151657104,-0.8544921278953552,80.0,113249.0,0.0
14585.2114862,292470.1875,295612.84375,336811.65625,332630.71875,285217.9375,256453.46875,222339.703125,246045.25,0.025634765625,0.998291015625,0.16748046875,0.5798339247703552,-1.0681151151657104,-0.8544921278953552,80.0,113250.0,0.0
