Time,FZ,C3,CZ,C4,PZ,PO7,OZ,PO8,AccX,AccY,AccZ,Gyro1,Gyro2,Gyro3,Battery,Counter,Validation
14605.5746782,292818.0625,295416.5,335933.875,331762.40625,285272.03125,256515.609375,222504.296875,246346.09375,0.01806640625,0.99658203125,0.180908203125,0.8239745497703552,-1.4648436307907104,-0.9155272841453552,80.0,118224.0,1.0
14605.5746803,292838.8125,295605.78125,336116.875,331781.25,285375.5625,256552.890625,222542.734375,246357.453125,0.01904296875,0.993896484375,0.180908203125,0.8239745497703552,-1.5563963651657104,-1.0681151151657104,80.0,118225.0,1.0
14605.5746843,292838.8125,295605.78125,336116.875,331781.25,285375.5625,256552.890625,222542.734375,246357.453125,0.01904296875,0.993896484375,0.180908203125,0.8239745497703552,-1.5563963651657104,-1.0681151151657104,80.0,118226.0,0.0
14605.5746846,292838.8125,295605.78125,336116.875,331781.25,285375.5625,256552.890625,222542.734375,246357.453125,0.01904296875,0.993896484375,0.180908203125,0.8239745497703552,-1.5563963651657104,-1.0681151151657104,80.0,118227.0,0.0
14605.5746849,292838.8125,295605.78125,336116.875,331781.25,285375.5625,256552.890625,222542.734375,246357.453125,0.01904296875,0.993896484375,0.180908203125,0.8239745497703552,-1.5563963651657104,-1.0681151151657104,80.0,118228.0,0.0
14605.5746852,292838.8125,295605.78125,336116.875,331781.25,285375.5625,256552.890625,222542.734375,246357.453125,0.01904296875,0.993896484375,0.180908203125,0.8239745497703552,-1.5563963651657104,-1.0681151151657104,80.0,118229.0,0.0
14605.5746856,292838.8125,295605.78125,336116.875,331781.25,285375.5625,256552.890625,222542.734375,246357.453125,0.01904296875,0.993896484375,0.180908203125,0.8239745497703552,-1.5563963651657104,-1.0681151151657104,80.0,118230.0,0.0
14605.574686,292838.8125,295605.78125,336116.875,331781.25,285375.5625,256552.890625,222542.734375,246357.453125,0.01904296875,0.993896484375,0.180908203125,0.8239745497703552,-1.5563963651657104,-1.0681151151657104,80.0,118231.0,0.0
14605.5746863,292838.8125,295605.78125,336116.875,331781.25,285375.5625,256552.890625,222542.734375,246357.453125,0.01904296875,0.993896484375,0.180908203125,0.8239745497703552,-1.5563963651657104,-1.0681151151657104,80.0,118232.0,0.0
14605.5746866,292838.8125,295605.78125,336116.875,331781.25,285375.5625,256552.890625,222542.734375,246357.453125,0.01904296875,0.993896484375,0.180908203125,0.8239745497703552,-1.5563963651657104,-1.0681151151657104,80.0,118233.0,0.0
14605.5746869,292838.8125,295605.78125,336116.875,331781.25,285375.5625,256552.890625,222542.734375,246357.453125,0.01904296875,0.993896484375,0.180908203125,0.8239745497703552,-1.5563963651657104,-1.0681151151657104,80.0,118234.0,0.0
14605.5746872,292838.8125,295605.78125,336116.875,331781.25,285375.5625,256552.890625,222542.734375,246357.453125,0.01904296875,0.993896484375,0.180908203125,0.8239745497703552,-1.5563963651657104,-1.0681151151657104,80.0,118235.0,0.0
14605.5746875,292838.8125,295605.78125,336116.875,331781.25,285375.5625,256552.890625,222542.734375,246357.453125,0.01904296875,0.993896484375,0.180908203125,0.8239745497703552,-1.5563963651657104,-1.0681151151657104,80.0,118236.0,0.0
14605.5746878,292838.8125,295605.78125,336116.875,331781.25,285375.5625,256552.890625,222542.734375,246357.453125,0.01904296875,0.993896484375,0.180908203125,0.8239745497703552,-1.5563963651657104,-1.0681151151657104,80.0,118237.0,0.0
14605.574688,292838.8125,295605.78125,336116.875,331781.25,285375.5625,256552.890625,222542.734375,246357.453125,0.01904296875,0.993896484375,0.180908203125,0.8239745497703552,-1.5563963651657104,-1.0681151151657104,80.0,118238.0,0.0
14605.5746884,292838.8125,295605.78125,336116.875,331781.25,285375.5625,256552.890625,222542.734375,246357.453125,0.01904296875,0.993896484375,0.180908203125,0.8239745497703552,-1.5563963651657104,-1.0681151151657104,80.0,118239.0,0.0
14605.5746887,292838.8125,295605.78125,336116.875,331781.25,285375.5625,256552.890625,222542.734375,246357.453125,0.01904296875,0.993896484375,0.180908203125,0.8239745497703552,-1.5563963651657104,-1.0681151151657104,80.0,118240.0,0.0
14605.5746889,292838.8125,295605.78125,336116.875,331781.25,285375.5625,256552.890625,222542.734375,246357.453125,0.01904296875,0.993896484375,0.180908203125,0.8239745497703552,-1.5563963651657104,-1.0681151151657104,80.0,118241.0,0.0
14605.5746892,292838.8125,295605.78125,336116.875,331781.25,285375.5625,256552.890625,222542.734375,246357.453125,0.01904296875,0.993896484375,0.180908203125,0.8239745497703552,-1.5563963651657104,-1.0681151151657104,80.0,118242.0,0.0
14605.5746895,292838.8125,295605.78125,336116.875,331781.25,285375.5625,256552.890625,222542.734375,246357.453125,0.01904296875,0.993896484375,0.180908203125,0.8239745497703552,-1.5563963651657104,-1.0681151151657104,80.0,118243.0,0.0
14605.5746898,292838.8125,295605.78125,336116.875,331781.25,285375.5625,256552.890625,222542.734375,246357.453125,0.01904296875,0.993896484375,0.180908203125,0.8239745497703552,-1.5563963651657104,-1.0681151151657104,80.0,118244.0,0.0
14605.5746901,292838.8125,295605.78125,336116.875,331781.25,285375.5625,256552.890625,222542.734375,246357.453125,0.01904296875,0.993896484375,0.180908203125,0.8239745497703552,-1.5563963651657104,-1.0681151151657104,80.0,118245.0,0.0
14605.5746904,292838.8125,295605.78125,336116.875,331781.25,285375.5625,256552.890625,222542.734375,246357.453125,0.01904296875,0.993896484375,0.180908203125,0.8239745497703552,-1.5563963651657104,-1.0681151151657104,80.0,118246.0,0.0
14605.5746906,292838.8125,295605.78125,336116.875,331781.25,285375.5625,256552.890625,222542.734375,246357.453125,0.01904296875,0.993896484375,0.180908203125,0.8239745497703552,-1.5563963651657104,-1.0681151151657104,80.0,118247.0,0.0
14605.5746909,292838.8125,295605.78125,336116.875,331781.25,285375.5625,256552.890625,222542.734375,246357.453125,0.01904296875,0.993896484375,0.180908203125,0.8239745497703552,-1.5563963651657104,-1.0681151151657104,80.0,118248.0,0.0
14605.5746912,292838.8125,295605.78125,336116.875,331781.25,285375.5625,256552.890625,222542.734375,246357.453125,0.01904296875,0.993896484375,0.180908203125,0.8239745497703552,-1.5563963651657104,-1.0681151151657104,80.0,118249.0,0.0
14605.5746915,292845.78125,295618.71875,336125.0,331774.8125,285384.59375,256569.96875,222555.25,246359.953125,0.021240234375,0.996826171875,0.182373046875,0.03051757626235485,-1.5869139432907104,-1.1596678495407104,80.0,118250.0,1.0
14605.5746934,292824.40625,295829.8125,336212.1875,331729.40625,285465.125,256595.453125,222572.328125,246346.640625,0.020751953125,0.9970703125,0.18212890625,0.0,-1.6479490995407104,-1.1596678495407104,80.0,118251.0,1.0
14605.574695,292794.09375,295769.375,336082.90625,331689.1875,285413.5625,256565.765625,222542.46875,246342.609375,0.020751953125,0.998779296875,0.183349609375,0.03051757626235485,-1.6174315214157104,-1.1291502714157104,80.0,118252.0,1.0
14605.5746969,292788.46875,295509.03125,335910.34375,331702.5,285292.40625,256519.09375,222494.109375,246339.390625,0.021484375,0.99755859375,0.182373046875,-0.03051757626235485,-1.6174315214157104,-1.1901854276657104,80.0,118253.0,1.0
14605.5746987,292809.84375,295382.875,335897.46875,331749.4375,285247.0625,256501.203125,222485.4375,246348.515625,0.021240234375,0.99853515625,0.18701171875,-0.0915527269244194,-1.5258787870407104,-1.1901854276657104,80.0,118254.0,1.0
14605.5747004,292845.875,295603.71875,336097.9375,331775.71875,285372.25,256571.3125,222554.90625,246365.5,0.02294921875,0.998779296875,0.185791015625,-0.0915527269244194,-1.4953612089157104,-1.1596678495407104,80.0,118255.0,1.0
14605.5747023,292828.15625,295825.71875,336197.4375,331728.78125,285459.875,256596.078125,222571.34375,246332.859375,0.0224609375,0.997314453125,0.18408203125,-0.2441406100988388,-1.5563963651657104,-1.1596678495407104,80.0,118256.0,1.0
14605.5997123,292783.8125,295749.90625,336065.125,331677.90625,285400.3125,256555.921875,222526.921875,246306.9375,0.0205078125,0.997314453125,0.185546875,-0.3051757514476776,-1.5258787870407104,-0.9460448622703552,80.0,118257.0,1.0
14605.5997313,292779.875,295501.25,335902.03125,331696.5,285290.25,256517.296875,222494.8125,246319.453125,0.0205078125,0.99560546875,0.18505859375,-0.3051757514476776,-1.4343260526657104,-1.0986326932907104,80.0,118258.0,1.0
14605.6250605,292814.21875,295402.8125,335923.84375,331757.40625,285272.03125,256520.609375,222502.5,246348.0625,0.020751953125,0.994873046875,0.184814453125,-0.2746581733226776,-1.4953612089157104,-1.0681151151657104,80.0,118259.0,1.0
14605.6250774,292838.96875,295601.75,336106.9375,331771.25,285372.6875,256564.59375,222541.9375,246347.703125,0.02294921875,0.99560546875,0.18505859375,-0.2441406100988388,-1.5258787870407104,-0.9460448622703552,80.0,118260.0,1.0
14605.6497375,292838.96875,295601.75,336106.9375,331771.25,285372.6875,256564.59375,222541.9375,246347.703125,0.02294921875,0.99560546875,0.18505859375,-0.2441406100988388,-1.5258787870407104,-0.9460448622703552,80.0,118261.0,0.0
14605.6497387,292838.96875,295601.75,336106.9375,331771.25,285372.6875,256564.59375,222541.9375,246347.703125,0.02294921875,0.99560546875,0.18505859375,-0.2441406100988388,-1.5258787870407104,-0.9460448622703552,80.0,118262.0,0.0
14605.6497389,292838.96875,295601.75,336106.9375,331771.25,285372.6875,256564.59375,222541.9375,246347.703125,0.02294921875,0.99560546875,0.18505859375,-0.2441406100988388,-1.5258787870407104,-0.9460448622703552,80.0,118263.0,0.0
14605.6497391,292838.96875,295601.75,336106.9375,331771.25,285372.6875,256564.59375,222541.9375,246347.703125,0.02294921875,0.99560546875,0.18505859375,-0.2441406100988388,-1.5258787870407104,-0.9460448622703552,80.0,118264.0,0.0
14605.6497393,292838.96875,295601.75,336106.9375,331771.25,285372.6875,256564.59375,222541.9375,246347.703125,0.02294921875,0.99560546875,0.18505859375,-0.2441406100988388,-1.5258787870407104,-0.9460448622703552,80.0,118265.0,0.0
14605.6497395,292838.96875,295601.75,336106.9375,331771.25,285372.6875,256564.59375,222541.9375,246347.703125,0.02294921875,0.99560546875,0.18505859375,-0.2441406100988388,-1.5258787870407104,-0.9460448622703552,80.0,118266.0,0.0
14605.6497397,292838.96875,295601.75,336106.9375,331771.25,285372.6875,256564.59375,222541.9375,246347.703125,0.02294921875,0.99560546875,0.18505859375,-0.2441406100988388,-1.5258787870407104,-0.9460448622703552,80.0,118267.0,0.0
14605.6497399,292838.96875,295601.75,336106.9375,331771.25,285372.6875,256564.59375,222541.9375,246347.703125,0.02294921875,0.99560546875,0.18505859375,-0.2441406100988388,-1.5258787870407104,-0.9460448622703552,80.0,118268.0,0.0
14605.6497401,292838.96875,295601.75,336106.9375,331771.25,285372.6875,256564.59375,222541.9375,246347.703125,0.02294921875,0.99560546875,0.18505859375,-0.2441406100988388,-1.5258787870407104,-0.9460448622703552,80.0,118269.0,0.0
14605.6497403,292838.96875,295601.75,336106.9375,331771.25,285372.6875,256564.59375,222541.9375,246347.703125,0.02294921875,0.99560546875,0.18505859375,-0.2441406100988388,-1.5258787870407104,-0.9460448622703552,80.0,118270.0,0.0
14605.6497405,292838.96875,295601.75,336106.9375,331771.25,285372.6875,256564.59375,222541.9375,246347.703125,0.02294921875,0.99560546875,0.18505859375,-0.2441406100988388,-1.5258787870407104,-0.9460448622703552,80.0,118271.0,0.0
14605.6497406,292838.96875,295601.75,336106.9375,331771.25,285372.6875,256564.59375,222541.9375,246347.703125,0.02294921875,0.99560546875,0.18505859375,-0.2441406100988388,-1.5258787870407104,-0.9460448622703552,80.0,118272.0,0.0
14605.6497408,292838.96875,295601.75,336106.9375,331771.25,285372.6875,256564.59375,222541.9375,246347.703125,0.02294921875,0.99560546875,0.18505859375,-0.2441406100988388,-1.5258787870407104,-0.9460448622703552,80.0,118273.0,0.0
14605.649741,292838.96875,295601.75,336106.9375,331771.25,285372.6875,256564.59375,222541.9375,246347.703125,0.02294921875,0.99560546875,0.18505859375,-0.2441406100988388,-1.5258787870407104,-0.9460448622703552,80.0,118274.0,0.0
14605.6497412,292838.96875,295601.75,336106.9375,331771.25,285372.6875,256564.59375,222541.9375,246347.703125,0.02294921875,0.99560546875,0.18505859375,-0.2441406100988388,-1.5258787870407104,-0.9460448622703552,80.0,118275.0,0.0
14605.6497414,292838.96875,295601.75,336106.9375,331771.25,285372.6875,256564.59375,222541.9375,246347.703125,0.02294921875,0.99560546875,0.18505859375,-0.2441406100988388,-1.5258787870407104,-0.9460448622703552,80.0,118276.0,0.0
14605.6497415,292838.96875,295601.75,336106.9375,331771.25,285372.6875,256564.59375,222541.9375,246347.703125,0.02294921875,0.99560546875,0.18505859375,-0.2441406100988388,-1.5258787870407104,-0.9460448622703552,80.0,118277.0,0.0
14605.6497417,292838.96875,295601.75,336106.9375,331771.25,285372.6875,256564.59375,222541.9375,246347.703125,0.02294921875,0.99560546875,0.18505859375,-0.2441406100988388,-1.5258787870407104,-0.9460448622703552,80.0,118278.0,0.0
14605.6497419,292838.96875,295601.75,336106.9375,331771.25,285372.6875,256564.59375,222541.9375,246347.703125,0.02294921875,0.99560546875,0.18505859375,-0.2441406100988388,-1.5258787870407104,-0.9460448622703552,80.0,118279.0,0.0
14605.649742,292844.0,295613.8125,336111.5,331765.71875,285376.71875,256568.625,222547.03125,246348.0625,0.02099609375,0.9921875,0.190185546875,-0.1525878757238388,-0.7019042372703552,-0.8544921278953552,80.0,118280.0,1.0
14605.6497468,292823.0625,295821.15625,336188.03125,331717.6875,285450.9375,256596.34375,222557.5,246330.1875,0.020263671875,0.9921875,0.18505859375,-0.0915527269244194,-0.6408690810203552,-0.8850097060203552,80.0,118281.0,1.0
14605.6497481,292784.96875,295753.5625,336055.28125,331668.15625,285392.0,256575.6875,222528.078125,246314.359375,0.022216796875,0.990234375,0.187255859375,-0.0610351525247097,-0.6713866591453552,-0.9155272841453552,80.0,118282.0,1.0
14605.6547451,292771.125,295491.25,335885.125,331674.6875,285271.03125,256512.125,222474.078125,246302.203125,0.02001953125,0.990234375,0.188232421875,0.0,-0.7629393935203552,-0.8850097060203552,80.0,118283.0,1.0
14605.6547507,292811.09375,295402.90625,335917.3125,331740.9375,285264.78125,256517.21875,222494.734375,246345.109375,0.018798828125,0.990234375,0.189208984375,0.0915527269244194,-0.7934569716453552,-0.9460448622703552,80.0,118284.0,1.0
14605.654752,292835.125,295602.90625,336098.8125,331759.1875,285368.3125,256556.015625,222539.703125,246355.21875,0.02001953125,0.9921875,0.187255859375,0.1220703050494194,-0.7934569716453552,-0.8850097060203552,80.0,118285.0,1.0
14605.6547533,292820.90625,295814.90625,336186.53125,331712.96875,285447.25,256579.53125,222549.09375,246317.046875,0.018310546875,0.9951171875,0.1875,0.2441406100988388,-0.9155272841453552,-0.8239745497703552,80.0,118286.0,1.0
14605.6921093,292789.1875,295747.5625,336060.8125,331676.03125,285394.34375,256554.9375,222524.765625,246315.078125,0.018310546875,0.996826171875,0.186279296875,0.2441406100988388,-0.9155272841453552,-0.7934569716453552,80.0,118287.0,1.0
14605.692126,292788.09375,295498.21875,335898.53125,331692.84375,285282.5625,256519.984375,222490.609375,246322.21875,0.017578125,0.995849609375,0.1884765625,0.3356933295726776,-1.0375975370407104,-0.7934569716453552,80.0,118288.0,1.0
14605.7663832,292824.0625,295407.90625,335924.5625,331751.03125,285268.96875,256524.453125,222500.09375,246350.921875,0.018798828125,0.995849609375,0.186279296875,0.3662109076976776,-1.0681151151657104,-0.8544921278953552,80.0,118289.0,1.0
14605.7664002,292856.25,295620.4375,336112.84375,331773.3125,285380.90625,256570.140625,222552.84375,246370.140625,0.017822265625,0.9951171875,0.1884765625,0.5187987685203552,-1.1901854276657104,-0.7934569716453552,80.0,118290.0,1.0
14605.7664016,292836.75,295834.375,336191.1875,331726.8125,285459.59375,256603.671875,222574.484375,246346.28125,0.017822265625,0.994140625,0.18701171875,0.5798339247703552,-1.3427733182907104,-0.8239745497703552,80.0,118291.0,1.0
14605.7664056,292836.75,295834.375,336191.1875,331726.8125,285459.59375,256603.671875,222574.484375,246346.28125,0.017822265625,0.994140625,0.18701171875,0.5798339247703552,-1.3427733182907104,-0.8239745497703552,80.0,118292.0,0.0
14605.7664058,292836.75,295834.375,336191.1875,331726.8125,285459.59375,256603.671875,222574.484375,246346.28125,0.017822265625,0.994140625,0.18701171875,0.5798339247703552,-1.3427733182907104,-0.8239745497703552,80.0,118293.0,0.0
14605.766406,292836.75,295834.375,336191.1875,331726.8125,285459.59375,256603.671875,222574.484375,246346.28125,0.017822265625,0.994140625,0.18701171875,0.5798339247703552,-1.3427733182907104,-0.8239745497703552,80.0,118294.0,0.0
14605.7664062,292836.75,295834.375,336191.1875,331726.8125,285459.59375,256603.671875,222574.484375,246346.28125,0.017822265625,0.994140625,0.18701171875,0.5798339247703552,-1.3427733182907104,-0.8239745497703552,80.0,118295.0,0.0
14605.7664064,292836.75,295834.375,336191.1875,331726.8125,285459.59375,256603.671875,222574.484375,246346.28125,0.017822265625,0.994140625,0.18701171875,0.5798339247703552,-1.3427733182907104,-0.8239745497703552,80.0,118296.0,0.0
14605.7664066,292836.75,295834.375,336191.1875,331726.8125,285459.59375,256603.671875,222574.484375,246346.28125,0.017822265625,0.994140625,0.18701171875,0.5798339247703552,-1.3427733182907104,-0.8239745497703552,80.0,118297.0,0.0
14605.7664068,292836.75,295834.375,336191.1875,331726.8125,285459.59375,256603.671875,222574.484375,246346.28125,0.017822265625,0.994140625,0.18701171875,0.5798339247703552,-1.3427733182907104,-0.8239745497703552,80.0,118298.0,0.0
14605.766407,292836.75,295834.375,336191.1875,331726.8125,285459.59375,256603.671875,222574.484375,246346.28125,0.017822265625,0.994140625,0.18701171875,0.5798339247703552,-1.3427733182907104,-0.8239745497703552,80.0,118299.0,0.0
14605.7664072,292836.75,295834.375,336191.1875,331726.8125,285459.59375,256603.671875,222574.484375,246346.28125,0.017822265625,0.994140625,0.18701171875,0.5798339247703552,-1.3427733182907104,-0.8239745497703552,80.0,118300.0,0.0
14605.7664074,292836.75,295834.375,336191.1875,331726.8125,285459.59375,256603.671875,222574.484375,246346.28125,0.017822265625,0.994140625,0.18701171875,0.5798339247703552,-1.3427733182907104,-0.8239745497703552,80.0,118301.0,0.0
14605.7664077,292836.75,295834.375,336191.1875,331726.8125,285459.59375,256603.671875,222574.484375,246346.28125,0.017822265625,0.994140625,0.18701171875,0.5798339247703552,-1.3427733182907104,-0.8239745497703552,80.0,118302.0,0.0
14605.7664079,292836.75,295834.375,336191.1875,331726.8125,285459.59375,256603.671875,222574.484375,246346.28125,0.017822265625,0.994140625,0.18701171875,0.5798339247703552,-1.3427733182907104,-0.8239745497703552,80.0,118303.0,0.0
14605.766408,292836.75,295834.375,336191.1875,331726.8125,285459.59375,256603.671875,222574.484375,246346.28125,0.017822265625,0.994140625,0.18701171875,0.5798339247703552,-1.3427733182907104,-0.8239745497703552,80.0,118304.0,0.0
14605.7664082,292836.75,295834.375,336191.1875,331726.8125,285459.59375,256603.671875,222574.484375,246346.28125,0.017822265625,0.994140625,0.18701171875,0.5798339247703552,-1.3427733182907104,-0.8239745497703552,80.0,118305.0,0.0
14605.7664084,292836.75,295834.375,336191.1875,331726.8125,285459.59375,256603.671875,222574.484375,246346.28125,0.017822265625,0.994140625,0.18701171875,0.5798339247703552,-1.3427733182907104,-0.8239745497703552,80.0,118306.0,0.0
14605.7664085,292836.75,295834.375,336191.1875,331726.8125,285459.59375,256603.671875,222574.484375,246346.28125,0.017822265625,0.994140625,0.18701171875,0.5798339247703552,-1.3427733182907104,-0.8239745497703552,80.0,118307.0,0.0
14605.7664087,292836.75,295834.375,336191.1875,331726.8125,285459.59375,256603.671875,222574.484375,246346.28125,0.017822265625,0.994140625,0.18701171875,0.5798339247703552,-1.3427733182907104,-0.8239745497703552,80.0,118308.0,0.0
14605.7664089,292836.75,295834.375,336191.1875,331726.8125,285459.59375,256603.671875,222574.484375,246346.28125,0.017822265625,0.994140625,0.18701171875,0.5798339247703552,-1.3427733182907104,-0.8239745497703552,80.0,118309.0,0.0
14605.7664091,292836.75,295834.375,336191.1875,331726.8125,285459.59375,256603.671875,222574.484375,246346.28125,0.017822265625,0.994140625,0.18701171875,0.5798339247703552,-1.3427733182907104,-0.8239745497703552,80.0,118310.0,0.0
14605.7664093,292836.75,295834.375,336191.1875,331726.8125,285459.59375,256603.671875,222574.484375,246346.28125,0.017822265625,0.994140625,0.18701171875,0.5798339247703552,-1.3427733182907104,-0.8239745497703552,80.0,118311.0,0.0
14605.7664095,292836.75,295834.375,336191.1875,331726.8125,285459.59375,256603.671875,222574.484375,246346.28125,0.017822265625,0.994140625,0.18701171875,0.5798339247703552,-1.3427733182907104,-0.8239745497703552,80.0,118312.0,0.0
14605.7664096,292836.75,295834.375,336191.1875,331726.8125,285459.59375,256603.671875,222574.484375,246346.28125,0.017822265625,0.994140625,0.18701171875,0.5798339247703552,-1.3427733182907104,-0.8239745497703552,80.0,118313.0,0.0
14605.7664098,292836.75,295834.375,336191.1875,331726.8125,285459.59375,256603.671875,222574.484375,246346.28125,0.017822265625,0.994140625,0.18701171875,0.5798339247703552,-1.3427733182907104,-0.8239745497703552,80.0,118314.0,0.0
14605.76641,292836.75,295834.375,336191.1875,331726.8125,285459.59375,256603.671875,222574.484375,246346.28125,0.017822265625,0.994140625,0.18701171875,0.5798339247703552,-1.3427733182907104,-0.8239745497703552,80.0,118315.0,0.0
14605.7664102,292836.75,295834.375,336191.1875,331726.8125,285459.59375,256603.671875,222574.484375,246346.28125,0.017822265625,0.994140625,0.18701171875,0.5798339247703552,-1.3427733182907104,-0.8239745497703552,80.0,118316.0,0.0
14605.7664103,292836.75,295834.375,336191.1875,331726.8125,285459.59375,256603.671875,222574.484375,246346.28125,0.017822265625,0.994140625,0.18701171875,0.5798339247703552,-1.3427733182907104,-0.8239745497703552,80.0,118317.0,0.0
14605.7664105,292793.5625,295490.0,335876.8125,331684.09375,285282.5625,256539.75,222509.65625,246344.75,0.026123046875,0.998779296875,0.185791015625,0.03051757626235485,-1.5258787870407104,-1.3427733182907104,80.0,118318.0,1.0
14605.7664118,292835.40625,295420.6875,335921.0625,331739.0625,285274.96875,256539.65625,222515.828125,246346.359375,0.024169921875,0.99951171875,0.18798828125,0.03051757626235485,-1.3732908964157104,-1.3427733182907104,80.0,118319.0,1.0
14605.766413,292862.6875,295636.0625,336113.375,331754.34375,285385.5625,256575.78125,222556.421875,246348.59375,0.022705078125,0.998779296875,0.188232421875,-0.1525878757238388,-1.3427733182907104,-1.2512205839157104,80.0,118320.0,1.0
14605.7664142,292845.0625,295843.6875,336192.4375,331709.8125,285461.5625,256600.0,222564.828125,246329.734375,0.02197265625,0.997314453125,0.18701171875,-0.1525878757238388,-1.4038084745407104,-1.0681151151657104,80.0,118321.0,1.0
14605.7664154,292809.375,295762.6875,336055.0,331669.59375,285401.5625,256574.703125,222537.203125,246324.375,0.02001953125,0.995849609375,0.185791015625,-0.2441406100988388,-1.4343260526657104,-1.0986326932907104,80.0,118322.0,1.0
14605.7664167,292795.71875,295495.34375,335878.6875,331681.21875,285277.5625,256517.390625,222483.828125,246324.1875,0.018798828125,0.997314453125,0.1845703125,-0.3051757514476776,-1.4343260526657104,-0.9765624403953552,80.0,118323.0,1.0
14605.7664179,292828.0625,295418.5625,335911.96875,331737.8125,285264.25,256518.375,222490.890625,246338.046875,0.0205078125,0.99560546875,0.190185546875,-0.3967284858226776,-1.5258787870407104,-0.9155272841453552,80.0,118324.0,1.0
14605.7913408,292853.09375,295642.59375,336107.59375,331757.65625,285379.84375,256575.859375,222544.171875,246353.875,0.021728515625,0.99658203125,0.19091796875,-0.4272460639476776,-1.4953612089157104,-0.8544921278953552,80.0,118325.0,1.0
14605.8425768,292833.4375,295846.09375,336184.1875,331716.53125,285458.15625,256599.921875,222563.9375,246343.765625,0.02001953125,0.995849609375,0.185791015625,-0.3967284858226776,-1.5869139432907104,-0.7324218153953552,80.0,118326.0,1.0
14605.8425955,292800.8125,295768.5,336052.875,331678.96875,285402.90625,256574.4375,222533.0,246333.046875,0.01953125,0.996826171875,0.186767578125,-0.4882812201976776,-1.6174315214157104,-0.6713866591453552,80.0,118327.0,1.0
14605.8425972,292800.8125,295768.5,336052.875,331678.96875,285402.90625,256574.4375,222533.0,246333.046875,0.01953125,0.996826171875,0.186767578125,-0.4882812201976776,-1.6174315214157104,-0.6713866591453552,80.0,118328.0,0.0
14605.8425974,292800.8125,295768.5,336052.875,331678.96875,285402.90625,256574.4375,222533.0,246333.046875,0.01953125,0.996826171875,0.186767578125,-0.4882812201976776,-1.6174315214157104,-0.6713866591453552,80.0,118329.0,0.0
14605.8425976,292800.8125,295768.5,336052.875,331678.96875,285402.90625,256574.4375,222533.0,246333.046875,0.01953125,0.996826171875,0.186767578125,-0.4882812201976776,-1.6174315214157104,-0.6713866591453552,80.0,118330.0,0.0
14605.8425978,292800.8125,295768.5,336052.875,331678.96875,285402.90625,256574.4375,222533.0,246333.046875,0.01953125,0.996826171875,0.186767578125,-0.4882812201976776,-1.6174315214157104,-0.6713866591453552,80.0,118331.0,0.0
14605.8425984,292800.8125,295768.5,336052.875,331678.96875,285402.90625,256574.4375,222533.0,246333.046875,0.01953125,0.996826171875,0.186767578125,-0.4882812201976776,-1.6174315214157104,-0.6713866591453552,80.0,118332.0,0.0
14605.8425986,292785.4375,295499.90625,335897.46875,331686.9375,285287.75,256522.578125,222489.453125,246328.390625,0.020751953125,0.99365234375,0.187744140625,-0.1525878757238388,-1.7700194120407104,-0.6408690810203552,80.0,118333.0,1.0
14605.8425999,292812.6875,295414.875,335922.875,331735.5625,285268.34375,256516.328125,222491.875,246341.625,0.023193359375,0.99462890625,0.1884765625,-0.0915527269244194,-1.7700194120407104,-0.7019042372703552,80.0,118334.0,1.0
14605.8426012,292835.65625,295614.96875,336080.5,331747.375,285359.46875,256561.203125,222532.734375,246349.234375,0.023681640625,0.993408203125,0.188720703125,-0.1220703050494194,-1.8310545682907104,-0.6713866591453552,80.0,118335.0,1.0
14605.8442591,292819.40625,295818.1875,336144.15625,331705.34375,285433.21875,256604.65625,222562.953125,246342.4375,0.025390625,0.994140625,0.188720703125,-0.0915527269244194,-1.8310545682907104,-0.7019042372703552,80.0,118336.0,1.0
14605.8697774,292787.40625,295743.625,336017.46875,331666.28125,285382.875,256584.359375,222540.59375,246329.203125,0.025390625,0.992919921875,0.187255859375,0.03051757626235485,-1.7395018339157104,-0.7629393935203552,80.0,118337.0,1.0
14605.8697949,292785.875,295496.875,335872.78125,331683.4375,285280.4375,256537.234375,222492.578125,246319.8125,0.0263671875,0.99267578125,0.188720703125,0.0915527269244194,-1.7395018339157104,-0.9155272841453552,80.0,118338.0,1.0
14605.8766954,292820.28125,295419.53125,335915.09375,331736.03125,285273.1875,256523.65625,222493.390625,246344.21875,0.026611328125,0.990478515625,0.188720703125,0.1220703050494194,-1.6174315214157104,-0.8850097060203552,80.0,118339.0,1.0
14605.8807199,292841.9375,295632.78125,336095.5,331747.28125,285377.15625,256565.21875,222538.625,246354.140625,0.02685546875,0.9873046875,0.18701171875,0.1525878757238388,-1.5563963651657104,-0.9765624403953552,80.0,118340.0,1.0
14605.888667,292819.65625,295828.75,336160.5,331701.6875,285445.125,256595.453125,222562.40625,246349.671875,0.028564453125,0.98876953125,0.1884765625,0.3662109076976776,-1.4343260526657104,-0.9765624403953552,80.0,118341.0,1.0
14605.8886743,292799.375,295760.875,336045.53125,331668.34375,285399.96875,256582.21875,222536.03125,246324.46875,0.02783203125,0.9921875,0.190185546875,0.5187987685203552,-1.4038084745407104,-1.0986326932907104,80.0,118342.0,1.0
14605.8886756,292803.21875,295511.4375,335900.34375,331690.6875,285295.34375,256547.53125,222498.578125,246326.421875,0.02734375,0.994384765625,0.190185546875,0.5798339247703552,-1.3122557401657104,-1.0986326932907104,80.0,118343.0,1.0
14605.888679,292803.21875,295511.4375,335900.34375,331690.6875,285295.34375,256547.53125,222498.578125,246326.421875,0.02734375,0.994384765625,0.190185546875,0.5798339247703552,-1.3122557401657104,-1.0986326932907104,80.0,118344.0,0.0
14605.8886791,292803.21875,295511.4375,335900.34375,331690.6875,285295.34375,256547.53125,222498.578125,246326.421875,0.02734375,0.994384765625,0.190185546875,0.5798339247703552,-1.3122557401657104,-1.0986326932907104,80.0,118345.0,0.0
14605.8886793,292803.21875,295511.4375,335900.34375,331690.6875,285295.34375,256547.53125,222498.578125,246326.421875,0.02734375,0.994384765625,0.190185546875,0.5798339247703552,-1.3122557401657104,-1.0986326932907104,80.0,118346.0,0.0
14605.8886795,292803.21875,295511.4375,335900.34375,331690.6875,285295.34375,256547.53125,222498.578125,246326.421875,0.02734375,0.994384765625,0.190185546875,0.5798339247703552,-1.3122557401657104,-1.0986326932907104,80.0,118347.0,0.0
14605.8886797,292803.21875,295511.4375,335900.34375,331690.6875,285295.34375,256547.53125,222498.578125,246326.421875,0.02734375,0.994384765625,0.190185546875,0.5798339247703552,-1.3122557401657104,-1.0986326932907104,80.0,118348.0,0.0
14605.8886798,292803.21875,295511.4375,335900.34375,331690.6875,285295.34375,256547.53125,222498.578125,246326.421875,0.02734375,0.994384765625,0.190185546875,0.5798339247703552,-1.3122557401657104,-1.0986326932907104,80.0,118349.0,0.0
14605.88868,292803.21875,295511.4375,335900.34375,331690.6875,285295.34375,256547.53125,222498.578125,246326.421875,0.02734375,0.994384765625,0.190185546875,0.5798339247703552,-1.3122557401657104,-1.0986326932907104,80.0,118350.0,0.0
14605.8886802,292803.21875,295511.4375,335900.34375,331690.6875,285295.34375,256547.53125,222498.578125,246326.421875,0.02734375,0.994384765625,0.190185546875,0.5798339247703552,-1.3122557401657104,-1.0986326932907104,80.0,118351.0,0.0
14605.8886804,292803.21875,295511.4375,335900.34375,331690.6875,285295.34375,256547.53125,222498.578125,246326.421875,0.02734375,0.994384765625,0.190185546875,0.5798339247703552,-1.3122557401657104,-1.0986326932907104,80.0,118352.0,0.0
14605.8886805,292803.21875,295511.4375,335900.34375,331690.6875,285295.34375,256547.53125,222498.578125,246326.421875,0.02734375,0.994384765625,0.190185546875,0.5798339247703552,-1.3122557401657104,-1.0986326932907104,80.0,118353.0,0.0
14605.8886807,292803.21875,295511.4375,335900.34375,331690.6875,285295.34375,256547.53125,222498.578125,246326.421875,0.02734375,0.994384765625,0.190185546875,0.5798339247703552,-1.3122557401657104,-1.0986326932907104,80.0,118354.0,0.0
14605.8886809,292803.21875,295511.4375,335900.34375,331690.6875,285295.34375,256547.53125,222498.578125,246326.421875,0.02734375,0.994384765625,0.190185546875,0.5798339247703552,-1.3122557401657104,-1.0986326932907104,80.0,118355.0,0.0
14605.888681,292803.21875,295511.4375,335900.34375,331690.6875,285295.34375,256547.53125,222498.578125,246326.421875,0.02734375,0.994384765625,0.190185546875,0.5798339247703552,-1.3122557401657104,-1.0986326932907104,80.0,118356.0,0.0
14605.8886812,292803.21875,295511.4375,335900.34375,331690.6875,285295.34375,256547.53125,222498.578125,246326.421875,0.02734375,0.994384765625,0.190185546875,0.5798339247703552,-1.3122557401657104,-1.0986326932907104,80.0,118357.0,0.0
14605.8886814,292803.21875,295511.4375,335900.34375,331690.6875,285295.34375,256547.53125,222498.578125,246326.421875,0.02734375,0.994384765625,0.190185546875,0.5798339247703552,-1.3122557401657104,-1.0986326932907104,80.0,118358.0,0.0
14605.8886816,292803.21875,295511.4375,335900.34375,331690.6875,285295.34375,256547.53125,222498.578125,246326.421875,0.02734375,0.994384765625,0.190185546875,0.5798339247703552,-1.3122557401657104,-1.0986326932907104,80.0,118359.0,0.0
14605.8886817,292803.21875,295511.4375,335900.34375,331690.6875,285295.34375,256547.53125,222498.578125,246326.421875,0.02734375,0.994384765625,0.190185546875,0.5798339247703552,-1.3122557401657104,-1.0986326932907104,80.0,118360.0,0.0
14605.8886819,292803.21875,295511.4375,335900.34375,331690.6875,285295.34375,256547.53125,222498.578125,246326.421875,0.02734375,0.994384765625,0.190185546875,0.5798339247703552,-1.3122557401657104,-1.0986326932907104,80.0,118361.0,0.0
14605.8886821,292803.21875,295511.4375,335900.34375,331690.6875,285295.34375,256547.53125,222498.578125,246326.421875,0.02734375,0.994384765625,0.190185546875,0.5798339247703552,-1.3122557401657104,-1.0986326932907104,80.0,118362.0,0.0
14605.8886822,292803.21875,295511.4375,335900.34375,331690.6875,285295.34375,256547.53125,222498.578125,246326.421875,0.02734375,0.994384765625,0.190185546875,0.5798339247703552,-1.3122557401657104,-1.0986326932907104,80.0,118363.0,0.0
14605.8886825,292803.21875,295511.4375,335900.34375,331690.6875,285295.34375,256547.53125,222498.578125,246326.421875,0.02734375,0.994384765625,0.190185546875,0.5798339247703552,-1.3122557401657104,-1.0986326932907104,80.0,118364.0,0.0
14605.8886828,292803.21875,295511.4375,335900.34375,331690.6875,285295.34375,256547.53125,222498.578125,246326.421875,0.02734375,0.994384765625,0.190185546875,0.5798339247703552,-1.3122557401657104,-1.0986326932907104,80.0,118365.0,0.0
14605.888683,292803.21875,295511.4375,335900.34375,331690.6875,285295.34375,256547.53125,222498.578125,246326.421875,0.02734375,0.994384765625,0.190185546875,0.5798339247703552,-1.3122557401657104,-1.0986326932907104,80.0,118366.0,0.0
14605.8886831,292803.21875,295511.4375,335900.34375,331690.6875,285295.34375,256547.53125,222498.578125,246326.421875,0.02734375,0.994384765625,0.190185546875,0.5798339247703552,-1.3122557401657104,-1.0986326932907104,80.0,118367.0,0.0
14605.8886833,292803.21875,295511.4375,335900.34375,331690.6875,285295.34375,256547.53125,222498.578125,246326.421875,0.02734375,0.994384765625,0.190185546875,0.5798339247703552,-1.3122557401657104,-1.0986326932907104,80.0,118368.0,0.0
14605.8886835,292803.21875,295511.4375,335900.34375,331690.6875,285295.34375,256547.53125,222498.578125,246326.421875,0.02734375,0.994384765625,0.190185546875,0.5798339247703552,-1.3122557401657104,-1.0986326932907104,80.0,118369.0,0.0
14605.8886836,292803.21875,295511.4375,335900.34375,331690.6875,285295.34375,256547.53125,222498.578125,246326.421875,0.02734375,0.994384765625,0.190185546875,0.5798339247703552,-1.3122557401657104,-1.0986326932907104,80.0,118370.0,0.0
14605.8886838,292803.21875,295511.4375,335900.34375,331690.6875,285295.34375,256547.53125,222498.578125,246326.421875,0.02734375,0.994384765625,0.190185546875,0.5798339247703552,-1.3122557401657104,-1.0986326932907104,80.0,118371.0,0.0
14605.888684,292803.21875,295511.4375,335900.34375,331690.6875,285295.34375,256547.53125,222498.578125,246326.421875,0.02734375,0.994384765625,0.190185546875,0.5798339247703552,-1.3122557401657104,-1.0986326932907104,80.0,118372.0,0.0
14605.8886842,292803.21875,295511.4375,335900.34375,331690.6875,285295.34375,256547.53125,222498.578125,246326.421875,0.02734375,0.994384765625,0.190185546875,0.5798339247703552,-1.3122557401657104,-1.0986326932907104,80.0,118373.0,0.0
14605.8886843,292803.21875,295511.4375,335900.34375,331690.6875,285295.34375,256547.53125,222498.578125,246326.421875,0.02734375,0.994384765625,0.190185546875,0.5798339247703552,-1.3122557401657104,-1.0986326932907104,80.0,118374.0,0.0
14605.8886845,292803.21875,295511.4375,335900.34375,331690.6875,285295.34375,256547.53125,222498.578125,246326.421875,0.02734375,0.994384765625,0.190185546875,0.5798339247703552,-1.3122557401657104,-1.0986326932907104,80.0,118375.0,0.0
14605.8886847,292803.21875,295511.4375,335900.34375,331690.6875,285295.34375,256547.53125,222498.578125,246326.421875,0.02734375,0.994384765625,0.190185546875,0.5798339247703552,-1.3122557401657104,-1.0986326932907104,80.0,118376.0,0.0
14605.8886848,292803.21875,295511.4375,335900.34375,331690.6875,285295.34375,256547.53125,222498.578125,246326.421875,0.02734375,0.994384765625,0.190185546875,0.5798339247703552,-1.3122557401657104,-1.0986326932907104,80.0,118377.0,0.0
14605.888685,292803.21875,295511.4375,335900.34375,331690.6875,285295.34375,256547.53125,222498.578125,246326.421875,0.02734375,0.994384765625,0.190185546875,0.5798339247703552,-1.3122557401657104,-1.0986326932907104,80.0,118378.0,0.0
14605.8886852,292803.21875,295511.4375,335900.34375,331690.6875,285295.34375,256547.53125,222498.578125,246326.421875,0.02734375,0.994384765625,0.190185546875,0.5798339247703552,-1.3122557401657104,-1.0986326932907104,80.0,118379.0,0.0
14605.8886853,292803.21875,295511.4375,335900.34375,331690.6875,285295.34375,256547.53125,222498.578125,246326.421875,0.02734375,0.994384765625,0.190185546875,0.5798339247703552,-1.3122557401657104,-1.0986326932907104,80.0,118380.0,0.0
14605.8886855,292803.21875,295511.4375,335900.34375,331690.6875,285295.34375,256547.53125,222498.578125,246326.421875,0.02734375,0.994384765625,0.190185546875,0.5798339247703552,-1.3122557401657104,-1.0986326932907104,80.0,118381.0,0.0
14605.8886857,292788.71875,295730.125,336030.0625,331658.25,285385.65625,256566.65625,222529.421875,246315.515625,0.026611328125,0.996337890625,0.18603515625,0.5493163466453552,-0.5493163466453552,-0.9765624403953552,80.0,118382.0,1.0
14605.888687,292787.65625,295460.84375,335864.9375,331676.125,285266.46875,256519.8125,222489.0,246320.96875,0.027587890625,0.996337890625,0.184814453125,0.6103515028953552,-0.5187987685203552,-0.9765624403953552,80.0,118383.0,1.0
14605.8886882,292825.84375,295409.0625,335921.53125,331734.40625,285273.90625,256526.421875,222511.71875,246358.703125,0.026611328125,0.994873046875,0.185302734375,0.6408690810203552,-0.5187987685203552,-0.9460448622703552,80.0,118384.0,1.0
14605.8886894,292849.53125,295644.125,336122.875,331753.625,285397.0,256583.203125,222572.0625,246376.046875,0.024658203125,0.996337890625,0.188720703125,0.5798339247703552,-0.4272460639476776,-0.8239745497703552,80.0,118385.0,1.0
14605.8886907,292827.4375,295840.90625,336194.03125,331703.125,285467.1875,256605.453125,222582.890625,246343.859375,0.021728515625,0.998046875,0.18896484375,0.5798339247703552,-0.5187987685203552,-0.7934569716453552,80.0,118386.0,1.0
14605.8886919,292793.21875,295741.75,336047.0625,331661.5625,285397.71875,256583.640625,222542.203125,246320.53125,0.022705078125,1.0,0.188232421875,0.5187987685203552,-0.4882812201976776,-0.7934569716453552,80.0,118387.0,1.0
14605.8886931,292785.15625,295470.3125,335869.5,331669.15625,285266.84375,256531.15625,222484.453125,246309.4375,0.023681640625,1.0,0.191162109375,0.3967284858226776,-0.5187987685203552,-0.6408690810203552,80.0,118388.0,1.0
14605.891005,292818.0625,295410.15625,335925.8125,331720.46875,285266.3125,256515.25,222487.125,246332.6875,0.019287109375,0.999755859375,0.1845703125,0.2746581733226776,-0.6713866591453552,-0.7019042372703552,80.0,118389.0,1.0
14605.8910113,292818.0625,295410.15625,335925.8125,331720.46875,285266.3125,256515.25,222487.125,246332.6875,0.019287109375,0.999755859375,0.1845703125,0.2746581733226776,-0.6713866591453552,-0.7019042372703552,80.0,118390.0,0.0
14605.8910115,292818.0625,295410.15625,335925.8125,331720.46875,285266.3125,256515.25,222487.125,246332.6875,0.019287109375,0.999755859375,0.1845703125,0.2746581733226776,-0.6713866591453552,-0.7019042372703552,80.0,118391.0,0.0
14605.8910117,292818.0625,295410.15625,335925.8125,331720.46875,285266.3125,256515.25,222487.125,246332.6875,0.019287109375,0.999755859375,0.1845703125,0.2746581733226776,-0.6713866591453552,-0.7019042372703552,80.0,118392.0,0.0
14605.8910119,292818.0625,295410.15625,335925.8125,331720.46875,285266.3125,256515.25,222487.125,246332.6875,0.019287109375,0.999755859375,0.1845703125,0.2746581733226776,-0.6713866591453552,-0.7019042372703552,80.0,118393.0,0.0
14605.8910121,292818.0625,295410.15625,335925.8125,331720.46875,285266.3125,256515.25,222487.125,246332.6875,0.019287109375,0.999755859375,0.1845703125,0.2746581733226776,-0.6713866591453552,-0.7019042372703552,80.0,118394.0,0.0
14605.8910123,292818.0625,295410.15625,335925.8125,331720.46875,285266.3125,256515.25,222487.125,246332.6875,0.019287109375,0.999755859375,0.1845703125,0.2746581733226776,-0.6713866591453552,-0.7019042372703552,80.0,118395.0,0.0
14605.8910124,292818.0625,295410.15625,335925.8125,331720.46875,285266.3125,256515.25,222487.125,246332.6875,0.019287109375,0.999755859375,0.1845703125,0.2746581733226776,-0.6713866591453552,-0.7019042372703552,80.0,118396.0,0.0
14605.8910126,292818.0625,295410.15625,335925.8125,331720.46875,285266.3125,256515.25,222487.125,246332.6875,0.019287109375,0.999755859375,0.1845703125,0.2746581733226776,-0.6713866591453552,-0.7019042372703552,80.0,118397.0,0.0
14605.8910128,292818.0625,295410.15625,335925.8125,331720.46875,285266.3125,256515.25,222487.125,246332.6875,0.019287109375,0.999755859375,0.1845703125,0.2746581733226776,-0.6713866591453552,-0.7019042372703552,80.0,118398.0,0.0
14605.891013,292818.0625,295410.15625,335925.8125,331720.46875,285266.3125,256515.25,222487.125,246332.6875,0.019287109375,0.999755859375,0.1845703125,0.2746581733226776,-0.6713866591453552,-0.7019042372703552,80.0,118399.0,0.0
14605.8910132,292818.0625,295410.15625,335925.8125,331720.46875,285266.3125,256515.25,222487.125,246332.6875,0.019287109375,0.999755859375,0.1845703125,0.2746581733226776,-0.6713866591453552,-0.7019042372703552,80.0,118400.0,0.0
14605.8910133,292818.0625,295410.15625,335925.8125,331720.46875,285266.3125,256515.25,222487.125,246332.6875,0.019287109375,0.999755859375,0.1845703125,0.2746581733226776,-0.6713866591453552,-0.7019042372703552,80.0,118401.0,0.0
14605.8910135,292818.0625,295410.15625,335925.8125,331720.46875,285266.3125,256515.25,222487.125,246332.6875,0.019287109375,0.999755859375,0.1845703125,0.2746581733226776,-0.6713866591453552,-0.7019042372703552,80.0,118402.0,0.0
14605.8910137,292818.0625,295410.15625,335925.8125,331720.46875,285266.3125,256515.25,222487.125,246332.6875,0.019287109375,0.999755859375,0.1845703125,0.2746581733226776,-0.6713866591453552,-0.7019042372703552,80.0,118403.0,0.0
14605.8910139,292818.0625,295410.15625,335925.8125,331720.46875,285266.3125,256515.25,222487.125,246332.6875,0.019287109375,0.999755859375,0.1845703125,0.2746581733226776,-0.6713866591453552,-0.7019042372703552,80.0,118404.0,0.0
14605.8910141,292818.0625,295410.15625,335925.8125,331720.46875,285266.3125,256515.25,222487.125,246332.6875,0.019287109375,0.999755859375,0.1845703125,0.2746581733226776,-0.6713866591453552,-0.7019042372703552,80.0,118405.0,0.0
14605.8910143,292818.0625,295410.15625,335925.8125,331720.46875,285266.3125,256515.25,222487.125,246332.6875,0.019287109375,0.999755859375,0.1845703125,0.2746581733226776,-0.6713866591453552,-0.7019042372703552,80.0,118406.0,0.0
14605.8910145,292818.0625,295410.15625,335925.8125,331720.46875,285266.3125,256515.25,222487.125,246332.6875,0.019287109375,0.999755859375,0.1845703125,0.2746581733226776,-0.6713866591453552,-0.7019042372703552,80.0,118407.0,0.0
14605.8910146,292818.0625,295410.15625,335925.8125,331720.46875,285266.3125,256515.25,222487.125,246332.6875,0.019287109375,0.999755859375,0.1845703125,0.2746581733226776,-0.6713866591453552,-0.7019042372703552,80.0,118408.0,0.0
14605.8910148,292818.0625,295410.15625,335925.8125,331720.46875,285266.3125,256515.25,222487.125,246332.6875,0.019287109375,0.999755859375,0.1845703125,0.2746581733226776,-0.6713866591453552,-0.7019042372703552,80.0,118409.0,0.0
14605.891015,292844.6875,295638.40625,336108.21875,331731.8125,285377.78125,256568.0,222551.328125,246351.015625,0.0224609375,0.994384765625,0.183837890625,0.7934569716453552,-1.4953612089157104,-1.0375975370407104,80.0,118410.0,1.0
14605.8936099,292818.40625,295825.53125,336161.40625,331676.9375,285439.75,256592.9375,222569.734375,246328.125,0.025146484375,0.994384765625,0.18408203125,0.8544921278953552,-1.5258787870407104,-1.1291502714157104,80.0,118411.0,1.0
14605.8936126,292782.90625,295717.15625,336016.125,331637.84375,285371.71875,256562.09375,222531.125,246317.125,0.02197265625,0.99560546875,0.187255859375,0.8850097060203552,-1.6479490995407104,-1.1291502714157104,80.0,118412.0,1.0
14605.8965967,292782.21875,295461.1875,335870.75,331652.6875,285262.53125,256511.140625,222478.375,246299.34375,0.021484375,0.99609375,0.18505859375,0.7629393935203552,-1.6174315214157104,-1.0070799589157104,80.0,118413.0,1.0
14605.8965991,292820.125,295410.3125,335926.09375,331713.84375,285267.5625,256520.078125,222497.40625,246329.5625,0.021240234375,0.996337890625,0.186767578125,0.8239745497703552,-1.6174315214157104,-0.9460448622703552,80.0,118414.0,1.0
14605.8966004,292844.625,295639.03125,336110.875,331727.875,285379.75,256572.921875,222548.734375,246339.296875,0.02001953125,0.99609375,0.181884765625,0.9460448622703552,-1.6479490995407104,-1.0681151151657104,80.0,118415.0,1.0
14605.9259881,292825.84375,295834.5625,336169.71875,331680.78125,285445.125,256598.75,222567.859375,246330.0,0.02001953125,0.9970703125,0.186767578125,0.9765624403953552,-1.7700194120407104,-1.0375975370407104,80.0,118416.0,1.0
14605.9259943,292795.96875,295734.0625,336033.375,331650.625,285382.875,256575.515625,222540.5,246322.046875,0.016845703125,0.995361328125,0.184814453125,0.9460448622703552,-1.8615721464157104,-0.9765624403953552,80.0,118417.0,1.0
14605.9259956,292784.96875,295467.625,335875.21875,331668.4375,285266.84375,256524.359375,222492.578125,246325.984375,0.017822265625,0.994140625,0.18505859375,1.0070799589157104,-1.8920897245407104,-1.0375975370407104,80.0,118418.0,1.0
14605.9259968,292818.5,295414.625,335929.3125,331722.15625,285268.4375,256522.40625,222501.25,246347.171875,0.02099609375,0.995849609375,0.18603515625,0.9460448622703552,-1.9836424589157104,-1.0375975370407104,80.0,118419.0,1.0
14605.9496376,292836.65625,295640.625,336111.59375,331728.78125,285377.34375,256568.984375,222550.34375,246348.953125,0.019775390625,0.99658203125,0.1845703125,0.9155272841453552,-2.075195074081421,-0.9460448622703552,80.0,118420.0,1.0
14605.949658,292812.0625,295820.53125,336159.0625,331682.75,285441.53125,256602.59375,222573.40625,246339.484375,0.021484375,0.995849609375,0.1865234375,0.9460448622703552,-2.136230230331421,-0.9765624403953552,80.0,118421.0,1.0
14606.0020496,292778.28125,295709.03125,336007.4375,331643.84375,285369.125,256563.078125,222536.125,246324.546875,0.022216796875,0.99560546875,0.186279296875,0.9155272841453552,-2.227782964706421,-0.9155272841453552,80.0,118422.0,1.0
14606.0020617,292774.59375,295451.53125,335857.15625,331658.40625,285257.34375,256507.640625,222489.359375,246318.296875,0.02099609375,0.99609375,0.1884765625,0.9460448622703552,-2.288818120956421,-0.9765624403953552,80.0,118423.0,1.0
14606.0020631,292807.34375,295395.3125,335910.78125,331709.75,285258.875,256509.890625,222500.09375,246336.703125,0.021484375,0.99853515625,0.18701171875,0.8239745497703552,-2.349853277206421,-0.9155272841453552,80.0,118424.0,1.0
14606.0020644,292830.9375,295621.9375,336092.375,331725.90625,285375.09375,256558.078125,222553.109375,246353.078125,0.021728515625,0.997802734375,0.1845703125,0.7019042372703552,-2.441406011581421,-0.8239745497703552,80.0,118425.0,1.0
14606.0020668,292830.9375,295621.9375,336092.375,331725.90625,285375.09375,256558.078125,222553.109375,246353.078125,0.021728515625,0.997802734375,0.1845703125,0.7019042372703552,-2.441406011581421,-0.8239745497703552,80.0,118426.0,0.0
14606.002067,292830.9375,295621.9375,336092.375,331725.90625,285375.09375,256558.078125,222553.109375,246353.078125,0.021728515625,0.997802734375,0.1845703125,0.7019042372703552,-2.441406011581421,-0.8239745497703552,80.0,118427.0,0.0
14606.0020672,292830.9375,295621.9375,336092.375,331725.90625,285375.09375,256558.078125,222553.109375,246353.078125,0.021728515625,0.997802734375,0.1845703125,0.7019042372703552,-2.441406011581421,-0.8239745497703552,80.0,118428.0,0.0
14606.0020674,292830.9375,295621.9375,336092.375,331725.90625,285375.09375,256558.078125,222553.109375,246353.078125,0.021728515625,0.997802734375,0.1845703125,0.7019042372703552,-2.441406011581421,-0.8239745497703552,80.0,118429.0,0.0
14606.0020676,292830.9375,295621.9375,336092.375,331725.90625,285375.09375,256558.078125,222553.109375,246353.078125,0.021728515625,0.997802734375,0.1845703125,0.7019042372703552,-2.441406011581421,-0.8239745497703552,80.0,118430.0,0.0
14606.0020678,292830.9375,295621.9375,336092.375,331725.90625,285375.09375,256558.078125,222553.109375,246353.078125,0.021728515625,0.997802734375,0.1845703125,0.7019042372703552,-2.441406011581421,-0.8239745497703552,80.0,118431.0,0.0
14606.002068,292830.9375,295621.9375,336092.375,331725.90625,285375.09375,256558.078125,222553.109375,246353.078125,0.021728515625,0.997802734375,0.1845703125,0.7019042372703552,-2.441406011581421,-0.8239745497703552,80.0,118432.0,0.0
14606.0020681,292830.9375,295621.9375,336092.375,331725.90625,285375.09375,256558.078125,222553.109375,246353.078125,0.021728515625,0.997802734375,0.1845703125,0.7019042372703552,-2.441406011581421,-0.8239745497703552,80.0,118433.0,0.0
14606.0020683,292830.9375,295621.9375,336092.375,331725.90625,285375.09375,256558.078125,222553.109375,246353.078125,0.021728515625,0.997802734375,0.1845703125,0.7019042372703552,-2.441406011581421,-0.8239745497703552,80.0,118434.0,0.0
14606.0020685,292830.9375,295621.9375,336092.375,331725.90625,285375.09375,256558.078125,222553.109375,246353.078125,0.021728515625,0.997802734375,0.1845703125,0.7019042372703552,-2.441406011581421,-0.8239745497703552,80.0,118435.0,0.0
14606.0020687,292830.9375,295621.9375,336092.375,331725.90625,285375.09375,256558.078125,222553.109375,246353.078125,0.021728515625,0.997802734375,0.1845703125,0.7019042372703552,-2.441406011581421,-0.8239745497703552,80.0,118436.0,0.0
14606.0020689,292830.9375,295621.9375,336092.375,331725.90625,285375.09375,256558.078125,222553.109375,246353.078125,0.021728515625,0.997802734375,0.1845703125,0.7019042372703552,-2.441406011581421,-0.8239745497703552,80.0,118437.0,0.0
14606.0020691,292830.9375,295621.9375,336092.375,331725.90625,285375.09375,256558.078125,222553.109375,246353.078125,0.021728515625,0.997802734375,0.1845703125,0.7019042372703552,-2.441406011581421,-0.8239745497703552,80.0,118438.0,0.0
14606.0020692,292830.9375,295621.9375,336092.375,331725.90625,285375.09375,256558.078125,222553.109375,246353.078125,0.021728515625,0.997802734375,0.1845703125,0.7019042372703552,-2.441406011581421,-0.8239745497703552,80.0,118439.0,0.0
14606.0020694,292830.9375,295621.9375,336092.375,331725.90625,285375.09375,256558.078125,222553.109375,246353.078125,0.021728515625,0.997802734375,0.1845703125,0.7019042372703552,-2.441406011581421,-0.8239745497703552,80.0,118440.0,0.0
14606.0020696,292830.9375,295621.9375,336092.375,331725.90625,285375.09375,256558.078125,222553.109375,246353.078125,0.021728515625,0.997802734375,0.1845703125,0.7019042372703552,-2.441406011581421,-0.8239745497703552,80.0,118441.0,0.0
14606.0020697,292830.9375,295621.9375,336092.375,331725.90625,285375.09375,256558.078125,222553.109375,246353.078125,0.021728515625,0.997802734375,0.1845703125,0.7019042372703552,-2.441406011581421,-0.8239745497703552,80.0,118442.0,0.0
14606.0020699,292830.9375,295621.9375,336092.375,331725.90625,285375.09375,256558.078125,222553.109375,246353.078125,0.021728515625,0.997802734375,0.1845703125,0.7019042372703552,-2.441406011581421,-0.8239745497703552,80.0,118443.0,0.0
14606.0020701,292830.9375,295621.9375,336092.375,331725.90625,285375.09375,256558.078125,222553.109375,246353.078125,0.021728515625,0.997802734375,0.1845703125,0.7019042372703552,-2.441406011581421,-0.8239745497703552,80.0,118444.0,0.0
14606.0020702,292830.9375,295621.9375,336092.375,331725.90625,285375.09375,256558.078125,222553.109375,246353.078125,0.021728515625,0.997802734375,0.1845703125,0.7019042372703552,-2.441406011581421,-0.8239745497703552,80.0,118445.0,0.0
14606.0020704,292830.9375,295621.9375,336092.375,331725.90625,285375.09375,256558.078125,222553.109375,246353.078125,0.021728515625,0.997802734375,0.1845703125,0.7019042372703552,-2.441406011581421,-0.8239745497703552,80.0,118446.0,0.0
14606.0020706,292790.34375,295700.1875,335998.9375,331650.0,285388.6875,256575.953125,222535.3125,246329.203125,0.0244140625,0.992431640625,0.186767578125,0.0610351525247097,-1.6479490995407104,-1.1596678495407104,80.0,118447.0,1.0
14606.0020719,292792.21875,295454.40625,335855.8125,331673.34375,285280.15625,256523.390625,222488.296875,246327.234375,0.02294921875,0.990966796875,0.185791015625,0.0610351525247097,-1.6174315214157104,-1.1596678495407104,80.0,118448.0,1.0
14606.0020731,292830.75,295413.53125,335918.84375,331725.75,285286.40625,256509.609375,222495.359375,246337.6875,0.02001953125,0.9931640625,0.18408203125,0.0915527269244194,-1.5563963651657104,-1.1901854276657104,80.0,118449.0,1.0
14606.0020743,292847.125,295639.03125,336100.34375,331727.0,285395.9375,256554.9375,222543.453125,246340.015625,0.021728515625,0.9912109375,0.181640625,0.0915527269244194,-1.5869139432907104,-1.1596678495407104,80.0,118450.0,1.0
14606.0020757,292823.0625,295816.84375,336145.125,331675.84375,285453.875,256584.890625,222555.25,246323.296875,0.023193359375,0.99560546875,0.1845703125,0.1220703050494194,-1.6784666776657104,-1.2207030057907104,80.0,118451.0,1.0
14606.0254705,292794.375,295707.4375,336001.375,331643.5,285385.5625,256558.875,222528.609375,246319.09375,0.0244140625,0.993408203125,0.1845703125,0.1525878757238388,-1.5869139432907104,-1.1596678495407104,80.0,118452.0,1.0
14606.0750757,292797.6875,295450.90625,335860.53125,331667.1875,285279.96875,256516.953125,222491.875,246326.78125,0.0234375,0.99462890625,0.183837890625,0.1831054538488388,-1.6784666776657104,-1.2817381620407104,80.0,118453.0,1.0
14606.1263478,292833.4375,295404.4375,335920.90625,331719.21875,285282.125,256519.890625,222508.5,246353.609375,0.0224609375,0.99462890625,0.18408203125,0.2746581733226776,-1.6174315214157104,-1.1596678495407104,80.0,118454.0,1.0
14606.1263567,292853.71875,295636.875,336103.8125,331725.46875,285392.28125,256572.46875,222564.203125,246360.765625,0.023681640625,0.99755859375,0.1826171875,0.2136230319738388,-1.6479490995407104,-1.0070799589157104,80.0,118455.0,1.0
14606.126358,292824.0625,295810.40625,336142.4375,331674.25,285445.75,256599.203125,222575.46875,246352.359375,0.024658203125,0.996826171875,0.18212890625,0.2441406100988388,-1.7395018339157104,-1.0681151151657104,80.0,118456.0,1.0
14606.1263595,292797.40625,295709.65625,336012.8125,331643.84375,285387.625,256574.4375,222542.296875,246323.921875,0.023681640625,0.998779296875,0.186279296875,0.2441406100988388,-1.8310545682907104,-0.9765624403953552,80.0,118457.0,1.0
14606.1263607,292796.5,295448.3125,335857.0625,331664.5,285272.46875,256523.921875,222496.34375,246319.453125,0.024658203125,0.99755859375,0.18603515625,0.1525878757238388,-1.8615721464157104,-0.8850097060203552,80.0,118458.0,1.0
14606.1279419,292827.1875,295400.03125,335912.84375,331716.09375,285272.90625,256516.328125,222494.734375,246336.0,0.026123046875,0.993896484375,0.185302734375,0.1220703050494194,-1.9226073026657104,-0.9155272841453552,80.0,118459.0,1.0
14606.1540695,292848.0,295639.28125,336105.34375,331731.375,285393.875,256565.9375,222545.6875,246352.796875,0.026123046875,0.995361328125,0.18115234375,0.1525878757238388,-1.9226073026657104,-0.8544921278953552,80.0,118460.0,1.0
14606.1540769,292827.09375,295831.4375,336167.84375,331688.5625,285466.40625,256606.265625,222576.171875,246345.734375,0.02392578125,0.992919921875,0.182373046875,0.0915527269244194,-1.8005369901657104,-0.8850097060203552,80.0,118461.0,1.0
14606.1540782,292787.21875,295698.21875,336003.6875,331644.1875,285379.65625,256567.546875,222537.734375,246332.59375,0.025146484375,0.992919921875,0.18359375,0.1525878757238388,-1.7395018339157104,-0.9460448622703552,80.0,118462.0,1.0
14606.1794656,292783.09375,295427.59375,335834.8125,331661.8125,285256.8125,256522.21875,222498.03125,246328.65625,0.024169921875,0.992431640625,0.182861328125,0.1831054538488388,-1.7089842557907104,-1.0375975370407104,80.0,118463.0,1.0
14606.2313004,292816.28125,295388.96875,335895.78125,331716.34375,285266.03125,256534.65625,222523.25,246356.5625,0.02392578125,0.993408203125,0.18359375,0.3051757514476776,-1.7395018339157104,-1.0681151151657104,80.0,118464.0,1.0
14606.2313193,292831.8125,295624.375,336087.71875,331722.78125,285382.96875,256577.75,222565.1875,246364.421875,0.0244140625,0.9931640625,0.184814453125,0.3356933295726776,-1.8005369901657104,-1.0681151151657104,80.0,118465.0,1.0
14606.2313207,292798.3125,295789.3125,336120.1875,331659.65625,285425.875,256575.0625,222550.703125,246320.703125,0.025146484375,0.994384765625,0.183349609375,0.3356933295726776,-1.7395018339157104,-1.1901854276657104,80.0,118466.0,1.0
14606.2313226,292798.3125,295789.3125,336120.1875,331659.65625,285425.875,256575.0625,222550.703125,246320.703125,0.025146484375,0.994384765625,0.183349609375,0.3356933295726776,-1.7395018339157104,-1.1901854276657104,80.0,118467.0,0.0
14606.2313228,292798.3125,295789.3125,336120.1875,331659.65625,285425.875,256575.0625,222550.703125,246320.703125,0.025146484375,0.994384765625,0.183349609375,0.3356933295726776,-1.7395018339157104,-1.1901854276657104,80.0,118468.0,0.0
14606.2313229,292798.3125,295789.3125,336120.1875,331659.65625,285425.875,256575.0625,222550.703125,246320.703125,0.025146484375,0.994384765625,0.183349609375,0.3356933295726776,-1.7395018339157104,-1.1901854276657104,80.0,118469.0,0.0
14606.2313231,292798.3125,295789.3125,336120.1875,331659.65625,285425.875,256575.0625,222550.703125,246320.703125,0.025146484375,0.994384765625,0.183349609375,0.3356933295726776,-1.7395018339157104,-1.1901854276657104,80.0,118470.0,0.0
14606.2313233,292798.3125,295789.3125,336120.1875,331659.65625,285425.875,256575.0625,222550.703125,246320.703125,0.025146484375,0.994384765625,0.183349609375,0.3356933295726776,-1.7395018339157104,-1.1901854276657104,80.0,118471.0,0.0
14606.2313235,292798.3125,295789.3125,336120.1875,331659.65625,285425.875,256575.0625,222550.703125,246320.703125,0.025146484375,0.994384765625,0.183349609375,0.3356933295726776,-1.7395018339157104,-1.1901854276657104,80.0,118472.0,0.0
14606.2313236,292798.3125,295789.3125,336120.1875,331659.65625,285425.875,256575.0625,222550.703125,246320.703125,0.025146484375,0.994384765625,0.183349609375,0.3356933295726776,-1.7395018339157104,-1.1901854276657104,80.0,118473.0,0.0
14606.2313238,292798.3125,295789.3125,336120.1875,331659.65625,285425.875,256575.0625,222550.703125,246320.703125,0.025146484375,0.994384765625,0.183349609375,0.3356933295726776,-1.7395018339157104,-1.1901854276657104,80.0,118474.0,0.0
14606.231324,292798.3125,295789.3125,336120.1875,331659.65625,285425.875,256575.0625,222550.703125,246320.703125,0.025146484375,0.994384765625,0.183349609375,0.3356933295726776,-1.7395018339157104,-1.1901854276657104,80.0,118475.0,0.0
14606.2313242,292798.3125,295789.3125,336120.1875,331659.65625,285425.875,256575.0625,222550.703125,246320.703125,0.025146484375,0.994384765625,0.183349609375,0.3356933295726776,-1.7395018339157104,-1.1901854276657104,80.0,118476.0,0.0
14606.2313243,292798.3125,295789.3125,336120.1875,331659.65625,285425.875,256575.0625,222550.703125,246320.703125,0.025146484375,0.994384765625,0.183349609375,0.3356933295726776,-1.7395018339157104,-1.1901854276657104,80.0,118477.0,0.0
14606.2313245,292798.3125,295789.3125,336120.1875,331659.65625,285425.875,256575.0625,222550.703125,246320.703125,0.025146484375,0.994384765625,0.183349609375,0.3356933295726776,-1.7395018339157104,-1.1901854276657104,80.0,118478.0,0.0
14606.2313247,292798.3125,295789.3125,336120.1875,331659.65625,285425.875,256575.0625,222550.703125,246320.703125,0.025146484375,0.994384765625,0.183349609375,0.3356933295726776,-1.7395018339157104,-1.1901854276657104,80.0,118479.0,0.0
14606.2313248,292845.59375,295643.3125,336104.09375,331716.53125,285391.1875,256583.375,222563.484375,246345.65625,0.021240234375,0.998779296875,0.186279296875,0.3356933295726776,-1.3427733182907104,-1.3122557401657104,80.0,118480.0,1.0
14606.2313261,292818.6875,295815.875,336141.5625,331669.0625,285446.4375,256605.453125,222579.21875,246331.25,0.021728515625,0.9970703125,0.1826171875,0.3662109076976776,-1.3427733182907104,-1.2817381620407104,80.0,118481.0,1.0
14606.2313273,292787.9375,295697.6875,335991.53125,331636.6875,285375.8125,256580.515625,222547.296875,246319.0,0.021728515625,0.99560546875,0.18505859375,0.4272460639476776,-1.4038084745407104,-1.1596678495407104,80.0,118482.0,1.0
14606.2313285,292782.21875,295434.90625,335842.5,331653.40625,285259.9375,256513.8125,222487.578125,246311.140625,0.023193359375,0.996826171875,0.1845703125,0.4272460639476776,-1.3732908964157104,-1.1291502714157104,80.0,118483.0,1.0
14606.2313297,292810.90625,295386.90625,335896.84375,331701.34375,285259.9375,256502.640625,222493.5625,246336.625,0.02490234375,0.995849609375,0.185791015625,0.6103515028953552,-1.2817381620407104,-1.0070799589157104,80.0,118484.0,1.0
14606.2313308,292826.71875,295618.28125,336071.375,331708.9375,285371.09375,256566.828125,222567.953125,246375.515625,0.025146484375,0.994873046875,0.184326171875,0.4882812201976776,-1.3122557401657104,-0.9460448622703552,80.0,118485.0,1.0
14606.231332,292806.78125,295805.78125,336128.5,331659.5,285434.75,256588.734375,222566.703125,246337.78125,0.026611328125,0.996337890625,0.1875,0.4272460639476776,-1.2207030057907104,-0.7629393935203552,80.0,118486.0,1.0
14606.2560533,292776.84375,295686.875,335988.3125,331627.03125,285362.3125,256543.40625,222516.546875,246311.046875,0.025634765625,0.99658203125,0.18896484375,0.3967284858226776,-1.0986326932907104,-0.6713866591453552,80.0,118487.0,1.0
14606.2560654,292776.84375,295686.875,335988.3125,331627.03125,285362.3125,256543.40625,222516.546875,246311.046875,0.025634765625,0.99658203125,0.18896484375,0.3967284858226776,-1.0986326932907104,-0.6713866591453552,80.0,118488.0,0.0
14606.2560659,292776.84375,295686.875,335988.3125,331627.03125,285362.3125,256543.40625,222516.546875,246311.046875,0.025634765625,0.99658203125,0.18896484375,0.3967284858226776,-1.0986326932907104,-0.6713866591453552,80.0,118489.0,0.0
14606.2560661,292776.84375,295686.875,335988.3125,331627.03125,285362.3125,256543.40625,222516.546875,246311.046875,0.025634765625,0.99658203125,0.18896484375,0.3967284858226776,-1.0986326932907104,-0.6713866591453552,80.0,118490.0,0.0
14606.2560664,292776.84375,295686.875,335988.3125,331627.03125,285362.3125,256543.40625,222516.546875,246311.046875,0.025634765625,0.99658203125,0.18896484375,0.3967284858226776,-1.0986326932907104,-0.6713866591453552,80.0,118491.0,0.0
14606.2560668,292776.84375,295686.875,335988.3125,331627.03125,285362.3125,256543.40625,222516.546875,246311.046875,0.025634765625,0.99658203125,0.18896484375,0.3967284858226776,-1.0986326932907104,-0.6713866591453552,80.0,118492.0,0.0
14606.2560671,292776.84375,295686.875,335988.3125,331627.03125,285362.3125,256543.40625,222516.546875,246311.046875,0.025634765625,0.99658203125,0.18896484375,0.3967284858226776,-1.0986326932907104,-0.6713866591453552,80.0,118493.0,0.0
14606.2560675,292776.84375,295686.875,335988.3125,331627.03125,285362.3125,256543.40625,222516.546875,246311.046875,0.025634765625,0.99658203125,0.18896484375,0.3967284858226776,-1.0986326932907104,-0.6713866591453552,80.0,118494.0,0.0
14606.2560678,292776.84375,295686.875,335988.3125,331627.03125,285362.3125,256543.40625,222516.546875,246311.046875,0.025634765625,0.99658203125,0.18896484375,0.3967284858226776,-1.0986326932907104,-0.6713866591453552,80.0,118495.0,0.0
14606.2560683,292776.84375,295686.875,335988.3125,331627.03125,285362.3125,256543.40625,222516.546875,246311.046875,0.025634765625,0.99658203125,0.18896484375,0.3967284858226776,-1.0986326932907104,-0.6713866591453552,80.0,118496.0,0.0
14606.2560685,292776.84375,295686.875,335988.3125,331627.03125,285362.3125,256543.40625,222516.546875,246311.046875,0.025634765625,0.99658203125,0.18896484375,0.3967284858226776,-1.0986326932907104,-0.6713866591453552,80.0,118497.0,0.0
14606.2560689,292776.84375,295686.875,335988.3125,331627.03125,285362.3125,256543.40625,222516.546875,246311.046875,0.025634765625,0.99658203125,0.18896484375,0.3967284858226776,-1.0986326932907104,-0.6713866591453552,80.0,118498.0,0.0
14606.2560692,292776.84375,295686.875,335988.3125,331627.03125,285362.3125,256543.40625,222516.546875,246311.046875,0.025634765625,0.99658203125,0.18896484375,0.3967284858226776,-1.0986326932907104,-0.6713866591453552,80.0,118499.0,0.0
14606.2560694,292776.84375,295686.875,335988.3125,331627.03125,285362.3125,256543.40625,222516.546875,246311.046875,0.025634765625,0.99658203125,0.18896484375,0.3967284858226776,-1.0986326932907104,-0.6713866591453552,80.0,118500.0,0.0
14606.2560698,292776.84375,295686.875,335988.3125,331627.03125,285362.3125,256543.40625,222516.546875,246311.046875,0.025634765625,0.99658203125,0.18896484375,0.3967284858226776,-1.0986326932907104,-0.6713866591453552,80.0,118501.0,0.0
14606.2560701,292776.84375,295686.875,335988.3125,331627.03125,285362.3125,256543.40625,222516.546875,246311.046875,0.025634765625,0.99658203125,0.18896484375,0.3967284858226776,-1.0986326932907104,-0.6713866591453552,80.0,118502.0,0.0
14606.2560704,292776.84375,295686.875,335988.3125,331627.03125,285362.3125,256543.40625,222516.546875,246311.046875,0.025634765625,0.99658203125,0.18896484375,0.3967284858226776,-1.0986326932907104,-0.6713866591453552,80.0,118503.0,0.0
14606.2560707,292776.84375,295686.875,335988.3125,331627.03125,285362.3125,256543.40625,222516.546875,246311.046875,0.025634765625,0.99658203125,0.18896484375,0.3967284858226776,-1.0986326932907104,-0.6713866591453552,80.0,118504.0,0.0
14606.256071,292776.84375,295686.875,335988.3125,331627.03125,285362.3125,256543.40625,222516.546875,246311.046875,0.025634765625,0.99658203125,0.18896484375,0.3967284858226776,-1.0986326932907104,-0.6713866591453552,80.0,118505.0,0.0
14606.2560712,292776.84375,295686.875,335988.3125,331627.03125,285362.3125,256543.40625,222516.546875,246311.046875,0.025634765625,0.99658203125,0.18896484375,0.3967284858226776,-1.0986326932907104,-0.6713866591453552,80.0,118506.0,0.0
14606.2560716,292776.84375,295686.875,335988.3125,331627.03125,285362.3125,256543.40625,222516.546875,246311.046875,0.025634765625,0.99658203125,0.18896484375,0.3967284858226776,-1.0986326932907104,-0.6713866591453552,80.0,118507.0,0.0
14606.2560719,292776.84375,295686.875,335988.3125,331627.03125,285362.3125,256543.40625,222516.546875,246311.046875,0.025634765625,0.99658203125,0.18896484375,0.3967284858226776,-1.0986326932907104,-0.6713866591453552,80.0,118508.0,0.0
14606.2560722,292776.84375,295686.875,335988.3125,331627.03125,285362.3125,256543.40625,222516.546875,246311.046875,0.025634765625,0.99658203125,0.18896484375,0.3967284858226776,-1.0986326932907104,-0.6713866591453552,80.0,118509.0,0.0
14606.2560725,292776.84375,295686.875,335988.3125,331627.03125,285362.3125,256543.40625,222516.546875,246311.046875,0.025634765625,0.99658203125,0.18896484375,0.3967284858226776,-1.0986326932907104,-0.6713866591453552,80.0,118510.0,0.0
14606.2560728,292776.84375,295686.875,335988.3125,331627.03125,285362.3125,256543.40625,222516.546875,246311.046875,0.025634765625,0.99658203125,0.18896484375,0.3967284858226776,-1.0986326932907104,-0.6713866591453552,80.0,118511.0,0.0
14606.256073,292776.84375,295686.875,335988.3125,331627.03125,285362.3125,256543.40625,222516.546875,246311.046875,0.025634765625,0.99658203125,0.18896484375,0.3967284858226776,-1.0986326932907104,-0.6713866591453552,80.0,118512.0,0.0
14606.2560733,292776.84375,295686.875,335988.3125,331627.03125,285362.3125,256543.40625,222516.546875,246311.046875,0.025634765625,0.99658203125,0.18896484375,0.3967284858226776,-1.0986326932907104,-0.6713866591453552,80.0,118513.0,0.0
14606.2560736,292776.84375,295686.875,335988.3125,331627.03125,285362.3125,256543.40625,222516.546875,246311.046875,0.025634765625,0.99658203125,0.18896484375,0.3967284858226776,-1.0986326932907104,-0.6713866591453552,80.0,118514.0,0.0
14606.2560738,292848.8125,295672.46875,336110.625,331712.6875,285396.84375,256571.390625,222551.0625,246342.875,0.02197265625,0.9970703125,0.18896484375,-0.5187987685203552,-1.5563963651657104,-0.7324218153953552,80.0,118515.0,1.0
14606.2560759,292823.34375,295840.625,336149.15625,331660.21875,285451.09375,256593.65625,222563.125,246331.796875,0.02197265625,0.9970703125,0.189453125,-0.4577636420726776,-1.6479490995407104,-0.7324218153953552,80.0,118516.0,1.0
14606.2560778,292794.09375,295708.3125,335991.0,331623.46875,285369.03125,256560.125,222523.078125,246308.90625,0.021484375,0.9990234375,0.187744140625,-0.5187987685203552,-1.7395018339157104,-0.6408690810203552,80.0,118517.0,1.0
14606.2804544,292798.3125,295453.5,335843.75,331641.96875,285256.8125,256522.578125,222480.78125,246297.8125,0.022705078125,0.996337890625,0.187744140625,-0.6103515028953552,-1.6784666776657104,-0.6103515028953552,80.0,118518.0,1.0
14606.2804641,292834.5,295429.1875,335907.3125,331693.75,285266.03125,256534.109375,222503.140625,246325.359375,0.0234375,0.9970703125,0.187744140625,-0.5187987685203552,-1.6784666776657104,-0.4577636420726776,80.0,118519.0,1.0
14606.2804655,292849.34375,295661.5625,336082.28125,331698.90625,285375.8125,256571.9375,222547.75,246334.390625,0.0224609375,0.996337890625,0.1865234375,-0.5187987685203552,-1.7395018339157104,-0.4882812201976776,80.0,118520.0,1.0
14606.3247476,292820.21875,295825.625,336110.625,331643.40625,285425.34375,256584.8125,222551.859375,246313.734375,0.022705078125,0.99658203125,0.18896484375,-0.5187987685203552,-1.8005369901657104,-0.4577636420726776,80.0,118521.0,1.0
14606.3247658,292790.34375,295703.9375,335960.78125,331611.75,285349.8125,256554.9375,222512.609375,246302.109375,0.024169921875,0.997314453125,0.19140625,-0.5187987685203552,-1.8920897245407104,-0.4272460639476776,80.0,118522.0,1.0
14606.3247672,292797.40625,295460.125,335833.28125,331644.03125,285251.90625,256517.75,222483.90625,246319.8125,0.024169921875,0.99609375,0.187255859375,-0.5493163466453552,-1.8005369901657104,-0.5187987685203552,80.0,118523.0,1.0
14606.3247684,292833.15625,295438.84375,335910.34375,331695.96875,285268.4375,256521.234375,222511.53125,246342.609375,0.0234375,0.998291015625,0.18798828125,-0.4882812201976776,-1.8005369901657104,-0.5187987685203552,80.0,118524.0,1.0
14606.356311,292846.59375,295677.90625,336095.875,331696.9375,285386.09375,256565.765625,222553.46875,246347.796875,0.0244140625,0.997802734375,0.189208984375,-0.4882812201976776,-1.8310545682907104,-0.6408690810203552,80.0,118525.0,1.0
14606.3563164,292820.21875,295846.1875,336137.625,331646.0,285441.53125,256586.6875,222550.609375,246317.3125,0.02587890625,0.996337890625,0.1904296875,-0.4882812201976776,-1.6784666776657104,-0.7019042372703552,80.0,118526.0,1.0
14606.3563177,292788.28125,295712.34375,335982.125,331617.46875,285363.65625,256559.0625,222519.9375,246316.5,0.0263671875,0.996337890625,0.18896484375,-0.4577636420726776,-1.7089842557907104,-0.8239745497703552,80.0,118527.0,1.0
14606.3563191,292782.28125,295452.875,335833.90625,331634.71875,285250.21875,256521.953125,222486.234375,246315.875,0.025146484375,0.9951171875,0.188720703125,-0.4577636420726776,-1.7089842557907104,-0.9460448622703552,80.0,118528.0,1.0
14606.3563203,292817.15625,295432.78125,335907.65625,331685.875,285265.03125,256535.546875,222503.046875,246332.15625,0.026611328125,0.99560546875,0.187255859375,-0.4272460639476776,-1.6479490995407104,-0.9155272841453552,80.0,118529.0,1.0
14606.3563215,292839.6875,295678.8125,336098.8125,331695.625,285384.6875,256578.90625,222545.25,246343.421875,0.0263671875,0.994873046875,0.1875,-0.3051757514476776,-1.5869139432907104,-0.8544921278953552,80.0,118530.0,1.0
14606.3563228,292814.65625,295845.375,336136.46875,331642.78125,285443.5,256599.640625,222562.671875,246336.0,0.02490234375,0.99462890625,0.183837890625,-0.2746581733226776,-1.5258787870407104,-0.9765624403953552,80.0,118531.0,1.0
14606.3805001,292786.0625,295707.59375,335976.40625,331611.65625,285360.8125,256563.4375,222516.1875,246317.671875,0.02587890625,0.991455078125,0.185546875,-0.1831054538488388,-1.5258787870407104,-1.0070799589157104,80.0,118532.0,1.0
14606.380518,292786.0625,295707.59375,335976.40625,331611.65625,285360.8125,256563.4375,222516.1875,246317.671875,0.02587890625,0.991455078125,0.185546875,-0.1831054538488388,-1.5258787870407104,-1.0070799589157104,80.0,118533.0,0.0
14606.3805183,292786.0625,295707.59375,335976.40625,331611.65625,285360.8125,256563.4375,222516.1875,246317.671875,0.02587890625,0.991455078125,0.185546875,-0.1831054538488388,-1.5258787870407104,-1.0070799589157104,80.0,118534.0,0.0
14606.3805185,292786.0625,295707.59375,335976.40625,331611.65625,285360.8125,256563.4375,222516.1875,246317.671875,0.02587890625,0.991455078125,0.185546875,-0.1831054538488388,-1.5258787870407104,-1.0070799589157104,80.0,118535.0,0.0
14606.3805187,292811.96875,295836.875,336126.34375,331641.875,285438.6875,256583.015625,222547.75,246321.0625,0.027099609375,0.99169921875,0.189453125,0.03051757626235485,-1.2817381620407104,-0.9460448622703552,80.0,118536.0,1.0
14606.4054611,292786.6875,295710.90625,335983.65625,331615.78125,285367.6875,256561.375,222518.78125,246306.3125,0.026123046875,0.98974609375,0.192138671875,0.0915527269244194,-1.1901854276657104,-1.0070799589157104,80.0,118537.0,1.0
14606.4329505,292786.6875,295451.71875,335839.53125,331635.8125,285253.6875,256512.125,222475.59375,246305.78125,0.02392578125,0.992919921875,0.18701171875,0.0915527269244194,-1.0681151151657104,-1.0375975370407104,80.0,118538.0,1.0
14606.4579673,292816.1875,295415.25,335887.625,331679.96875,285251.46875,256515.15625,222487.75,246335.71875,0.023681640625,0.9921875,0.187744140625,0.2746581733226776,-1.0986326932907104,-1.0681151151657104,80.0,118539.0,1.0
14606.4829732,292839.15625,295666.125,336071.375,331686.03125,285373.0625,256576.9375,222548.1875,246348.25,0.023681640625,0.9931640625,0.185546875,0.3356933295726776,-1.0070799589157104,-0.9460448622703552,80.0,118540.0,1.0
14606.5079434,292811.0,295844.5,336119.8125,331633.375,285435.53125,256595.796875,222556.234375,246314.984375,0.023193359375,0.9951171875,0.18994140625,0.4882812201976776,-1.0070799589157104,-0.9765624403953552,80.0,118541.0,1.0
14606.5529402,292785.78125,295716.1875,335980.625,331608.1875,285366.34375,256562.640625,222520.75,246303.09375,0.0234375,0.9951171875,0.18896484375,0.6103515028953552,-1.1291502714157104,-0.9765624403953552,80.0,118542.0,1.0
14606.5779365,292786.3125,295453.875,335834.09375,331631.34375,285252.34375,256519.984375,222482.21875,246307.109375,0.024169921875,0.99560546875,0.193603515625,0.5187987685203552,-1.1901854276657104,-1.0375975370407104,80.0,118543.0,1.0
14606.6029414,292818.25,295431.59375,335909.0,331682.375,285266.21875,256520.796875,222499.015625,246330.09375,0.0234375,0.99609375,0.19384765625,0.4272460639476776,-1.0986326932907104,-1.0070799589157104,80.0,118544.0,1.0
14606.6279738,292833.71875,295672.8125,336091.5,331687.3125,285383.875,256570.6875,222549.53125,246344.046875,0.022705078125,0.997802734375,0.192138671875,0.4577636420726776,-1.1901854276657104,-0.8850097060203552,80.0,118545.0,1.0
14606.6529632,292815.28125,295845.75,336135.21875,331644.5625,285447.71875,256601.703125,222567.234375,246333.484375,0.022216796875,0.99755859375,0.1943359375,0.5187987685203552,-1.1291502714157104,-0.9155272841453552,80.0,118546.0,1.0
14606.6797784,292783.1875,295705.71875,335985.625,331613.09375,285371.71875,256568.796875,222524.765625,246314.984375,0.020263671875,0.99755859375,0.189697265625,0.5187987685203552,-1.0681151151657104,-0.8544921278953552,80.0,118547.0,1.0
14606.6797957,292784.09375,295451.09375,335845.34375,331636.25,285257.71875,256515.96875,222483.640625,246321.421875,0.019775390625,0.999267578125,0.186767578125,0.6103515028953552,-1.1901854276657104,-0.9460448622703552,80.0,118548.0,1.0
14606.6797976,292825.65625,295442.34375,335929.84375,331689.96875,285280.59375,256532.40625,222509.390625,246339.03125,0.021728515625,0.997314453125,0.187255859375,0.6713866591453552,-1.3732908964157104,-0.9765624403953552,80.0,118549.0,1.0
14606.7045379,292841.03125,295679.4375,336102.03125,331688.625,285389.84375,256578.734375,222557.21875,246344.484375,0.02001953125,0.99658203125,0.189208984375,0.6103515028953552,-1.4953612089157104,-0.9765624403953552,80.0,118550.0,1.0
14606.7384669,292813.59375,295833.9375,336116.6875,331638.21875,285432.9375,256602.421875,222572.0625,246332.59375,0.021728515625,0.99267578125,0.184814453125,0.5493163466453552,-1.6174315214157104,-0.8850097060203552,80.0,118551.0,1.0
14606.7384809,292785.34375,295691.6875,335955.6875,331609.0625,285354.46875,256576.578125,222539.703125,246324.546875,0.025146484375,0.990234375,0.18603515625,0.6103515028953552,-1.5563963651657104,-0.9155272841453552,80.0,118552.0,1.0
14606.7384824,292787.03125,295432.59375,335816.125,331639.5625,285250.21875,256526.953125,222508.765625,246347.96875,0.02490234375,0.994384765625,0.187255859375,0.7019042372703552,-1.6174315214157104,-0.7934569716453552,80.0,118553.0,1.0
14606.7384837,292831.75,295439.65625,335913.9375,331697.9375,285283.46875,256548.5,222527.546875,246348.0625,0.02734375,0.99755859375,0.1865234375,0.6103515028953552,-1.5258787870407104,-0.7934569716453552,80.0,118554.0,1.0
14606.738485,292844.0,295690.875,336108.90625,331690.78125,285404.625,256589.28125,222555.171875,246331.171875,0.02587890625,1.0,0.18603515625,0.4577636420726776,-1.3732908964157104,-0.7324218153953552,80.0,118555.0,1.0
14606.7384862,292815.375,295844.65625,336136.53125,331631.78125,285450.03125,256596.421875,222554.453125,246313.015625,0.02783203125,0.99951171875,0.188232421875,0.2136230319738388,-1.4648436307907104,-0.7629393935203552,80.0,118556.0,1.0
14606.7384875,292783.625,295701.25,335978.375,331596.8125,285366.96875,256562.1875,222519.859375,246305.15625,0.0283203125,0.99609375,0.1826171875,0.0915527269244194,-1.4038084745407104,-0.6103515028953552,80.0,118557.0,1.0
14606.7384887,292786.59375,295445.28125,335838.09375,331620.15625,285258.59375,256520.796875,222485.703125,246310.609375,0.02734375,0.99169921875,0.18310546875,0.2136230319738388,-1.3732908964157104,-0.4882812201976776,80.0,118558.0,1.0
14606.7384899,292824.6875,295432.6875,335917.40625,331675.21875,285280.875,256528.21875,222517.171875,246345.65625,0.02685546875,0.989990234375,0.187744140625,0.2441406100988388,-1.2207030057907104,-0.4882812201976776,80.0,118559.0,1.0
14606.7384912,292833.875,295663.0,336086.03125,331669.78125,285386.90625,256568.890625,222563.296875,246349.234375,0.025634765625,0.990478515625,0.184814453125,0.3051757514476776,-1.2512205839157104,-0.4882812201976776,80.0,118560.0,1.0
14606.7710933,292816.0,295840.0,336122.6875,331615.59375,285441.96875,256591.515625,222569.109375,246310.515625,0.024658203125,0.993408203125,0.185791015625,0.3356933295726776,-1.1291502714157104,-0.6103515028953552,80.0,118561.0,1.0
14606.7711016,292789.8125,295707.4375,335978.46875,331585.375,285369.03125,256557.890625,222525.84375,246287.171875,0.02392578125,0.996337890625,0.18359375,0.2441406100988388,-1.1291502714157104,-0.7934569716453552,80.0,118562.0,1.0
14606.771105,292789.8125,295707.4375,335978.46875,331585.375,285369.03125,256557.890625,222525.84375,246287.171875,0.02392578125,0.996337890625,0.18359375,0.2441406100988388,-1.1291502714157104,-0.7934569716453552,80.0,118563.0,0.0
14606.7711053,292789.8125,295707.4375,335978.46875,331585.375,285369.03125,256557.890625,222525.84375,246287.171875,0.02392578125,0.996337890625,0.18359375,0.2441406100988388,-1.1291502714157104,-0.7934569716453552,80.0,118564.0,0.0
14606.7711056,292789.8125,295707.4375,335978.46875,331585.375,285369.03125,256557.890625,222525.84375,246287.171875,0.02392578125,0.996337890625,0.18359375,0.2441406100988388,-1.1291502714157104,-0.7934569716453552,80.0,118565.0,0.0
14606.7711059,292789.8125,295707.4375,335978.46875,331585.375,285369.03125,256557.890625,222525.84375,246287.171875,0.02392578125,0.996337890625,0.18359375,0.2441406100988388,-1.1291502714157104,-0.7934569716453552,80.0,118566.0,0.0
14606.7711062,292789.8125,295707.4375,335978.46875,331585.375,285369.03125,256557.890625,222525.84375,246287.171875,0.02392578125,0.996337890625,0.18359375,0.2441406100988388,-1.1291502714157104,-0.7934569716453552,80.0,118567.0,0.0
14606.7711065,292789.8125,295707.4375,335978.46875,331585.375,285369.03125,256557.890625,222525.84375,246287.171875,0.02392578125,0.996337890625,0.18359375,0.2441406100988388,-1.1291502714157104,-0.7934569716453552,80.0,118568.0,0.0
14606.7711069,292789.8125,295707.4375,335978.46875,331585.375,285369.03125,256557.890625,222525.84375,246287.171875,0.02392578125,0.996337890625,0.18359375,0.2441406100988388,-1.1291502714157104,-0.7934569716453552,80.0,118569.0,0.0
14606.7711072,292789.8125,295707.4375,335978.46875,331585.375,285369.03125,256557.890625,222525.84375,246287.171875,0.02392578125,0.996337890625,0.18359375,0.2441406100988388,-1.1291502714157104,-0.7934569716453552,80.0,118570.0,0.0
14606.7711075,292789.8125,295707.4375,335978.46875,331585.375,285369.03125,256557.890625,222525.84375,246287.171875,0.02392578125,0.996337890625,0.18359375,0.2441406100988388,-1.1291502714157104,-0.7934569716453552,80.0,118571.0,0.0
14606.7711078,292789.8125,295707.4375,335978.46875,331585.375,285369.03125,256557.890625,222525.84375,246287.171875,0.02392578125,0.996337890625,0.18359375,0.2441406100988388,-1.1291502714157104,-0.7934569716453552,80.0,118572.0,0.0
14606.7711081,292789.8125,295707.4375,335978.46875,331585.375,285369.03125,256557.890625,222525.84375,246287.171875,0.02392578125,0.996337890625,0.18359375,0.2441406100988388,-1.1291502714157104,-0.7934569716453552,80.0,118573.0,0.0
14606.7711084,292789.8125,295707.4375,335978.46875,331585.375,285369.03125,256557.890625,222525.84375,246287.171875,0.02392578125,0.996337890625,0.18359375,0.2441406100988388,-1.1291502714157104,-0.7934569716453552,80.0,118574.0,0.0
14606.7711087,292789.8125,295707.4375,335978.46875,331585.375,285369.03125,256557.890625,222525.84375,246287.171875,0.02392578125,0.996337890625,0.18359375,0.2441406100988388,-1.1291502714157104,-0.7934569716453552,80.0,118575.0,0.0
14606.7711089,292789.8125,295707.4375,335978.46875,331585.375,285369.03125,256557.890625,222525.84375,246287.171875,0.02392578125,0.996337890625,0.18359375,0.2441406100988388,-1.1291502714157104,-0.7934569716453552,80.0,118576.0,0.0
14606.7711093,292789.8125,295707.4375,335978.46875,331585.375,285369.03125,256557.890625,222525.84375,246287.171875,0.02392578125,0.996337890625,0.18359375,0.2441406100988388,-1.1291502714157104,-0.7934569716453552,80.0,118577.0,0.0
14606.7711096,292802.875,295467.0,335848.75,331631.15625,285267.8125,256527.671875,222506.53125,246314.625,0.0263671875,0.99609375,0.192138671875,0.0610351525247097,-0.8544921278953552,-1.0375975370407104,80.0,118578.0,1.0
14606.7711114,292839.25,295460.125,335932.78125,331679.25,285287.9375,256535.09375,222522.265625,246329.921875,0.023681640625,0.99365234375,0.188720703125,0.2746581733226776,-0.9155272841453552,-0.8850097060203552,80.0,118579.0,1.0
14606.7948279,292850.59375,295694.1875,336098.1875,331673.4375,285393.0,256576.046875,222567.859375,246336.078125,0.021484375,0.9951171875,0.186767578125,0.2746581733226776,-0.9460448622703552,-0.7629393935203552,80.0,118580.0,1.0
14606.7948534,292816.28125,295835.71875,336102.84375,331615.5,285429.09375,256595.890625,222576.796875,246325.171875,0.02001953125,0.995849609375,0.190185546875,0.3662109076976776,-1.0681151151657104,-0.7019042372703552,80.0,118581.0,1.0
14606.7948553,292788.03125,295692.21875,335943.6875,331589.3125,285347.65625,256570.40625,222539.796875,246313.46875,0.018798828125,0.994873046875,0.19091796875,0.3967284858226776,-1.2207030057907104,-0.6713866591453552,80.0,118582.0,1.0
14606.8209441,292800.0,295451.53125,335815.75,331620.78125,285249.21875,256527.3125,222509.21875,246321.515625,0.01953125,0.994873046875,0.187255859375,0.5493163466453552,-1.3427733182907104,-0.7019042372703552,80.0,118583.0,1.0
14606.8209498,292839.4375,295456.90625,335911.96875,331673.625,285279.34375,256538.140625,222531.390625,246339.296875,0.01953125,0.995361328125,0.192138671875,0.5187987685203552,-1.4648436307907104,-0.7629393935203552,80.0,118584.0,1.0
14606.8209513,292853.5625,295702.3125,336097.375,331673.78125,285400.5,256595.0,222583.15625,246353.875,0.02099609375,0.997314453125,0.188720703125,0.6408690810203552,-1.6174315214157104,-0.7019042372703552,80.0,118585.0,1.0
14606.8209525,292823.875,295854.9375,336117.9375,331615.5,285444.03125,256612.4375,222582.34375,246317.484375,0.020263671875,0.99853515625,0.18896484375,0.4577636420726776,-1.5869139432907104,-0.8544921278953552,80.0,118586.0,1.0
14606.8465051,292800.625,295714.9375,335967.65625,331593.875,285368.125,256584.71875,222551.5,246310.328125,0.02001953125,0.99755859375,0.19091796875,0.2746581733226776,-1.8005369901657104,-0.7934569716453552,80.0,118587.0,1.0
14606.846522,292802.875,295460.46875,335834.53125,331626.78125,285261.1875,256534.203125,222511.0,246325.71875,0.020751953125,0.997802734375,0.190185546875,0.2136230319738388,-1.8310545682907104,-0.8239745497703552,80.0,118588.0,1.0
14606.8465232,292839.53125,295462.4375,335922.25,331676.375,285280.59375,256532.140625,222509.75,246320.53125,0.021728515625,0.99560546875,0.188720703125,0.2441406100988388,-1.8615721464157104,-0.7629393935203552,80.0,118589.0,1.0
14606.8465245,292856.6875,295712.625,336105.6875,331681.21875,285400.6875,256588.296875,222559.734375,246328.03125,0.02392578125,0.995361328125,0.18603515625,0.2441406100988388,-1.9531248807907104,-0.8239745497703552,80.0,118590.0,1.0
14606.8465257,292823.96875,295853.34375,336121.0,331629.375,285445.90625,256603.046875,222572.0625,246321.515625,0.024169921875,0.993408203125,0.185791015625,0.3356933295726776,-2.105712652206421,-0.7629393935203552,80.0,118591.0,1.0
14606.8465269,292795.71875,295709.40625,335965.875,331602.09375,285364.375,256560.75,222531.390625,246311.40625,0.0263671875,0.994384765625,0.187744140625,0.2136230319738388,-2.166747808456421,-0.8544921278953552,80.0,118592.0,1.0
14606.8465281,292808.03125,295467.53125,335839.53125,331638.5625,285267.09375,256539.828125,222510.546875,246332.0625,0.0283203125,0.993896484375,0.184814453125,0.2136230319738388,-2.197265386581421,-0.9765624403953552,80.0,118593.0,1.0
14606.8465294,292838.09375,295452.34375,335911.15625,331679.875,285276.9375,256534.65625,222515.375,246332.953125,0.029052734375,0.992919921875,0.184326171875,0.4882812201976776,-2.136230230331421,-1.1291502714157104,80.0,118594.0,1.0
14606.8692547,292851.6875,295701.6875,336097.125,331680.59375,285394.96875,256567.546875,222556.59375,246334.390625,0.030029296875,0.99365234375,0.18310546875,0.4577636420726776,-2.166747808456421,-1.0375975370407104,80.0,118595.0,1.0
14606.8954591,292851.6875,295701.6875,336097.125,331680.59375,285394.96875,256567.546875,222556.59375,246334.390625,0.030029296875,0.99365234375,0.18310546875,0.4577636420726776,-2.166747808456421,-1.0375975370407104,80.0,118596.0,0.0
14606.8954601,292851.6875,295701.6875,336097.125,331680.59375,285394.96875,256567.546875,222556.59375,246334.390625,0.030029296875,0.99365234375,0.18310546875,0.4577636420726776,-2.166747808456421,-1.0375975370407104,80.0,118597.0,0.0
14606.8954603,292851.6875,295701.6875,336097.125,331680.59375,285394.96875,256567.546875,222556.59375,246334.390625,0.030029296875,0.99365234375,0.18310546875,0.4577636420726776,-2.166747808456421,-1.0375975370407104,80.0,118598.0,0.0
14606.8954605,292851.6875,295701.6875,336097.125,331680.59375,285394.96875,256567.546875,222556.59375,246334.390625,0.030029296875,0.99365234375,0.18310546875,0.4577636420726776,-2.166747808456421,-1.0375975370407104,80.0,118599.0,0.0
14606.8954607,292851.6875,295701.6875,336097.125,331680.59375,285394.96875,256567.546875,222556.59375,246334.390625,0.030029296875,0.99365234375,0.18310546875,0.4577636420726776,-2.166747808456421,-1.0375975370407104,80.0,118600.0,0.0
14606.8954609,292851.6875,295701.6875,336097.125,331680.59375,285394.96875,256567.546875,222556.59375,246334.390625,0.030029296875,0.99365234375,0.18310546875,0.4577636420726776,-2.166747808456421,-1.0375975370407104,80.0,118601.0,0.0
14606.8954611,292851.6875,295701.6875,336097.125,331680.59375,285394.96875,256567.546875,222556.59375,246334.390625,0.030029296875,0.99365234375,0.18310546875,0.4577636420726776,-2.166747808456421,-1.0375975370407104,80.0,118602.0,0.0
14606.8954613,292851.6875,295701.6875,336097.125,331680.59375,285394.96875,256567.546875,222556.59375,246334.390625,0.030029296875,0.99365234375,0.18310546875,0.4577636420726776,-2.166747808456421,-1.0375975370407104,80.0,118603.0,0.0
14606.8954615,292851.6875,295701.6875,336097.125,331680.59375,285394.96875,256567.546875,222556.59375,246334.390625,0.030029296875,0.99365234375,0.18310546875,0.4577636420726776,-2.166747808456421,-1.0375975370407104,80.0,118604.0,0.0
14606.8954616,292851.6875,295701.6875,336097.125,331680.59375,285394.96875,256567.546875,222556.59375,246334.390625,0.030029296875,0.99365234375,0.18310546875,0.4577636420726776,-2.166747808456421,-1.0375975370407104,80.0,118605.0,0.0
14606.8954618,292851.6875,295701.6875,336097.125,331680.59375,285394.96875,256567.546875,222556.59375,246334.390625,0.030029296875,0.99365234375,0.18310546875,0.4577636420726776,-2.166747808456421,-1.0375975370407104,80.0,118606.0,0.0
14606.895462,292851.6875,295701.6875,336097.125,331680.59375,285394.96875,256567.546875,222556.59375,246334.390625,0.030029296875,0.99365234375,0.18310546875,0.4577636420726776,-2.166747808456421,-1.0375975370407104,80.0,118607.0,0.0
14606.8954621,292851.6875,295701.6875,336097.125,331680.59375,285394.96875,256567.546875,222556.59375,246334.390625,0.030029296875,0.99365234375,0.18310546875,0.4577636420726776,-2.166747808456421,-1.0375975370407104,80.0,118608.0,0.0
14606.8954623,292851.6875,295701.6875,336097.125,331680.59375,285394.96875,256567.546875,222556.59375,246334.390625,0.030029296875,0.99365234375,0.18310546875,0.4577636420726776,-2.166747808456421,-1.0375975370407104,80.0,118609.0,0.0
14606.8954625,292851.6875,295701.6875,336097.125,331680.59375,285394.96875,256567.546875,222556.59375,246334.390625,0.030029296875,0.99365234375,0.18310546875,0.4577636420726776,-2.166747808456421,-1.0375975370407104,80.0,118610.0,0.0
14606.8954627,292841.40625,295867.46875,336135.21875,331635.09375,285459.15625,256630.5,222595.484375,246327.953125,0.021728515625,0.994873046875,0.185791015625,0.9155272841453552,-1.5869139432907104,-1.1596678495407104,80.0,118611.0,1.0
14606.9210417,292809.5625,295709.9375,335972.5625,331603.96875,285368.03125,256558.875,222539.34375,246314.8125,0.0205078125,0.995361328125,0.18359375,0.9460448622703552,-1.6479490995407104,-1.0070799589157104,80.0,118612.0,1.0
14606.9210476,292810.8125,295452.0625,335841.15625,331625.0625,285257.96875,256504.515625,222489.90625,246303.546875,0.0185546875,0.9970703125,0.1845703125,0.9155272841453552,-1.6784666776657104,-0.9765624403953552,80.0,118613.0,1.0
14606.945431,292838.96875,295446.1875,335917.40625,331668.25,285271.5625,256510.515625,222505.375,246322.40625,0.01953125,0.99755859375,0.18505859375,0.7629393935203552,-1.8310545682907104,-0.9460448622703552,80.0,118614.0,1.0
14606.9910692,292855.25,295701.34375,336099.25,331669.15625,285391.03125,256572.921875,222563.75,246325.984375,0.01953125,0.995849609375,0.186767578125,0.8544921278953552,-1.8920897245407104,-0.9765624403953552,80.0,118615.0,1.0
14606.9910869,292823.5,295851.09375,336121.53125,331620.6875,285441.90625,256591.59375,222575.734375,246315.609375,0.020263671875,0.99462890625,0.18310546875,1.0070799589157104,-1.9836424589157104,-0.8850097060203552,80.0,118616.0,1.0
14607.0154695,292790.625,295683.28125,335956.40625,331590.28125,285352.5625,256554.234375,222530.765625,246303.265625,0.021240234375,0.99658203125,0.1806640625,1.0070799589157104,-1.9836424589157104,-0.8544921278953552,80.0,118617.0,1.0
14607.041054,292798.5625,295438.21875,335821.46875,331619.875,285246.375,256520.171875,222494.640625,246304.078125,0.0224609375,0.995849609375,0.180908203125,1.0070799589157104,-1.9531248807907104,-0.9155272841453552,80.0,118618.0,1.0
14607.0410608,292832.53125,295443.40625,335906.59375,331672.90625,285266.75,256529.109375,222515.921875,246332.328125,0.022216796875,0.99560546875,0.178955078125,1.0375975370407104,-2.044677495956421,-0.7934569716453552,80.0,118619.0,1.0
14607.0654554,292840.78125,295688.46875,336086.46875,331666.375,285382.53125,256565.3125,222561.6875,246337.328125,0.0224609375,0.995849609375,0.18017578125,0.9765624403953552,-2.014159917831421,-0.7324218153953552,80.0,118620.0,1.0
14607.0922932,292811.96875,295836.15625,336108.65625,331616.9375,285432.875,256586.0625,222576.265625,246328.84375,0.022216796875,0.99365234375,0.181884765625,1.1291502714157104,-1.9836424589157104,-0.8239745497703552,80.0,118621.0,1.0
14607.0922991,292784.71875,295681.6875,335948.53125,331588.6875,285344.09375,256550.296875,222530.765625,246300.859375,0.0224609375,0.9951171875,0.179443359375,1.2207030057907104,-2.014159917831421,-0.8544921278953552,80.0,118622.0,1.0
14607.0923004,292792.65625,295430.25,335817.4375,331618.71875,285239.3125,256506.125,222495.4375,246302.734375,0.0244140625,0.99560546875,0.1826171875,1.2207030057907104,-1.9836424589157104,-0.8239745497703552,80.0,118623.0,1.0
14607.1170868,292834.15625,295441.53125,335902.75,331671.375,285265.75,256520.078125,222525.03125,246335.375,0.02490234375,0.99658203125,0.1845703125,1.1291502714157104,-2.105712652206421,-0.8239745497703552,80.0,118624.0,1.0
14607.1689535,292834.15625,295441.53125,335902.75,331671.375,285265.75,256520.078125,222525.03125,246335.375,0.02490234375,0.99658203125,0.1845703125,1.1291502714157104,-2.105712652206421,-0.8239745497703552,80.0,118625.0,0.0
14607.1689545,292834.15625,295441.53125,335902.75,331671.375,285265.75,256520.078125,222525.03125,246335.375,0.02490234375,0.99658203125,0.1845703125,1.1291502714157104,-2.105712652206421,-0.8239745497703552,80.0,118626.0,0.0
14607.1689547,292834.15625,295441.53125,335902.75,331671.375,285265.75,256520.078125,222525.03125,246335.375,0.02490234375,0.99658203125,0.1845703125,1.1291502714157104,-2.105712652206421,-0.8239745497703552,80.0,118627.0,0.0
14607.1689549,292834.15625,295441.53125,335902.75,331671.375,285265.75,256520.078125,222525.03125,246335.375,0.02490234375,0.99658203125,0.1845703125,1.1291502714157104,-2.105712652206421,-0.8239745497703552,80.0,118628.0,0.0
14607.1689551,292834.15625,295441.53125,335902.75,331671.375,285265.75,256520.078125,222525.03125,246335.375,0.02490234375,0.99658203125,0.1845703125,1.1291502714157104,-2.105712652206421,-0.8239745497703552,80.0,118629.0,0.0
14607.1689553,292834.15625,295441.53125,335902.75,331671.375,285265.75,256520.078125,222525.03125,246335.375,0.02490234375,0.99658203125,0.1845703125,1.1291502714157104,-2.105712652206421,-0.8239745497703552,80.0,118630.0,0.0
14607.1689555,292834.15625,295441.53125,335902.75,331671.375,285265.75,256520.078125,222525.03125,246335.375,0.02490234375,0.99658203125,0.1845703125,1.1291502714157104,-2.105712652206421,-0.8239745497703552,80.0,118631.0,0.0
14607.1689556,292834.15625,295441.53125,335902.75,331671.375,285265.75,256520.078125,222525.03125,246335.375,0.02490234375,0.99658203125,0.1845703125,1.1291502714157104,-2.105712652206421,-0.8239745497703552,80.0,118632.0,0.0
14607.1689558,292834.15625,295441.53125,335902.75,331671.375,285265.75,256520.078125,222525.03125,246335.375,0.02490234375,0.99658203125,0.1845703125,1.1291502714157104,-2.105712652206421,-0.8239745497703552,80.0,118633.0,0.0
14607.168956,292834.15625,295441.53125,335902.75,331671.375,285265.75,256520.078125,222525.03125,246335.375,0.02490234375,0.99658203125,0.1845703125,1.1291502714157104,-2.105712652206421,-0.8239745497703552,80.0,118634.0,0.0
14607.1689562,292834.15625,295441.53125,335902.75,331671.375,285265.75,256520.078125,222525.03125,246335.375,0.02490234375,0.99658203125,0.1845703125,1.1291502714157104,-2.105712652206421,-0.8239745497703552,80.0,118635.0,0.0
14607.1689564,292834.15625,295441.53125,335902.75,331671.375,285265.75,256520.078125,222525.03125,246335.375,0.02490234375,0.99658203125,0.1845703125,1.1291502714157104,-2.105712652206421,-0.8239745497703552,80.0,118636.0,0.0
14607.1689565,292834.15625,295441.53125,335902.75,331671.375,285265.75,256520.078125,222525.03125,246335.375,0.02490234375,0.99658203125,0.1845703125,1.1291502714157104,-2.105712652206421,-0.8239745497703552,80.0,118637.0,0.0
14607.1689567,292834.15625,295441.53125,335902.75,331671.375,285265.75,256520.078125,222525.03125,246335.375,0.02490234375,0.99658203125,0.1845703125,1.1291502714157104,-2.105712652206421,-0.8239745497703552,80.0,118638.0,0.0
14607.1689569,292834.15625,295441.53125,335902.75,331671.375,285265.75,256520.078125,222525.03125,246335.375,0.02490234375,0.99658203125,0.1845703125,1.1291502714157104,-2.105712652206421,-0.8239745497703552,80.0,118639.0,0.0
14607.168957,292834.15625,295441.53125,335902.75,331671.375,285265.75,256520.078125,222525.03125,246335.375,0.02490234375,0.99658203125,0.1845703125,1.1291502714157104,-2.105712652206421,-0.8239745497703552,80.0,118640.0,0.0
14607.1689572,292834.15625,295441.53125,335902.75,331671.375,285265.75,256520.078125,222525.03125,246335.375,0.02490234375,0.99658203125,0.1845703125,1.1291502714157104,-2.105712652206421,-0.8239745497703552,80.0,118641.0,0.0
14607.1689574,292834.15625,295441.53125,335902.75,331671.375,285265.75,256520.078125,222525.03125,246335.375,0.02490234375,0.99658203125,0.1845703125,1.1291502714157104,-2.105712652206421,-0.8239745497703552,80.0,118642.0,0.0
14607.1689575,292834.15625,295441.53125,335902.75,331671.375,285265.75,256520.078125,222525.03125,246335.375,0.02490234375,0.99658203125,0.1845703125,1.1291502714157104,-2.105712652206421,-0.8239745497703552,80.0,118643.0,0.0
14607.1689577,292834.15625,295441.53125,335902.75,331671.375,285265.75,256520.078125,222525.03125,246335.375,0.02490234375,0.99658203125,0.1845703125,1.1291502714157104,-2.105712652206421,-0.8239745497703552,80.0,118644.0,0.0
14607.1689579,292834.15625,295441.53125,335902.75,331671.375,285265.75,256520.078125,222525.03125,246335.375,0.02490234375,0.99658203125,0.1845703125,1.1291502714157104,-2.105712652206421,-0.8239745497703552,80.0,118645.0,0.0
14607.168958,292834.15625,295441.53125,335902.75,331671.375,285265.75,256520.078125,222525.03125,246335.375,0.02490234375,0.99658203125,0.1845703125,1.1291502714157104,-2.105712652206421,-0.8239745497703552,80.0,118646.0,0.0
14607.1689582,292834.15625,295441.53125,335902.75,331671.375,285265.75,256520.078125,222525.03125,246335.375,0.02490234375,0.99658203125,0.1845703125,1.1291502714157104,-2.105712652206421,-0.8239745497703552,80.0,118647.0,0.0
14607.1689584,292834.15625,295441.53125,335902.75,331671.375,285265.75,256520.078125,222525.03125,246335.375,0.02490234375,0.99658203125,0.1845703125,1.1291502714157104,-2.105712652206421,-0.8239745497703552,80.0,118648.0,0.0
14607.1689585,292834.15625,295441.53125,335902.75,331671.375,285265.75,256520.078125,222525.03125,246335.375,0.02490234375,0.99658203125,0.1845703125,1.1291502714157104,-2.105712652206421,-0.8239745497703552,80.0,118649.0,0.0
14607.1689587,292834.15625,295441.53125,335902.75,331671.375,285265.75,256520.078125,222525.03125,246335.375,0.02490234375,0.99658203125,0.1845703125,1.1291502714157104,-2.105712652206421,-0.8239745497703552,80.0,118650.0,0.0
14607.1689589,292834.15625,295441.53125,335902.75,331671.375,285265.75,256520.078125,222525.03125,246335.375,0.02490234375,0.99658203125,0.1845703125,1.1291502714157104,-2.105712652206421,-0.8239745497703552,80.0,118651.0,0.0
14607.1689591,292834.15625,295441.53125,335902.75,331671.375,285265.75,256520.078125,222525.03125,246335.375,0.02490234375,0.99658203125,0.1845703125,1.1291502714157104,-2.105712652206421,-0.8239745497703552,80.0,118652.0,0.0
14607.1689595,292834.15625,295441.53125,335902.75,331671.375,285265.75,256520.078125,222525.03125,246335.375,0.02490234375,0.99658203125,0.1845703125,1.1291502714157104,-2.105712652206421,-0.8239745497703552,80.0,118653.0,0.0
14607.1689597,292834.15625,295441.53125,335902.75,331671.375,285265.75,256520.078125,222525.03125,246335.375,0.02490234375,0.99658203125,0.1845703125,1.1291502714157104,-2.105712652206421,-0.8239745497703552,80.0,118654.0,0.0
14607.1689599,292834.15625,295441.53125,335902.75,331671.375,285265.75,256520.078125,222525.03125,246335.375,0.02490234375,0.99658203125,0.1845703125,1.1291502714157104,-2.105712652206421,-0.8239745497703552,80.0,118655.0,0.0
14607.1689601,292834.15625,295441.53125,335902.75,331671.375,285265.75,256520.078125,222525.03125,246335.375,0.02490234375,0.99658203125,0.1845703125,1.1291502714157104,-2.105712652206421,-0.8239745497703552,80.0,118656.0,0.0
14607.1689602,292834.15625,295441.53125,335902.75,331671.375,285265.75,256520.078125,222525.03125,246335.375,0.02490234375,0.99658203125,0.1845703125,1.1291502714157104,-2.105712652206421,-0.8239745497703552,80.0,118657.0,0.0
14607.1689604,292834.15625,295441.53125,335902.75,331671.375,285265.75,256520.078125,222525.03125,246335.375,0.02490234375,0.99658203125,0.1845703125,1.1291502714157104,-2.105712652206421,-0.8239745497703552,80.0,118658.0,0.0
14607.1689606,292834.15625,295441.53125,335902.75,331671.375,285265.75,256520.078125,222525.03125,246335.375,0.02490234375,0.99658203125,0.1845703125,1.1291502714157104,-2.105712652206421,-0.8239745497703552,80.0,118659.0,0.0
14607.1689608,292834.15625,295441.53125,335902.75,331671.375,285265.75,256520.078125,222525.03125,246335.375,0.02490234375,0.99658203125,0.1845703125,1.1291502714157104,-2.105712652206421,-0.8239745497703552,80.0,118660.0,0.0
14607.1689609,292834.15625,295441.53125,335902.75,331671.375,285265.75,256520.078125,222525.03125,246335.375,0.02490234375,0.99658203125,0.1845703125,1.1291502714157104,-2.105712652206421,-0.8239745497703552,80.0,118661.0,0.0
14607.1689611,292834.15625,295441.53125,335902.75,331671.375,285265.75,256520.078125,222525.03125,246335.375,0.02490234375,0.99658203125,0.1845703125,1.1291502714157104,-2.105712652206421,-0.8239745497703552,80.0,118662.0,0.0
14607.1689613,292834.15625,295441.53125,335902.75,331671.375,285265.75,256520.078125,222525.03125,246335.375,0.02490234375,0.99658203125,0.1845703125,1.1291502714157104,-2.105712652206421,-0.8239745497703552,80.0,118663.0,0.0
14607.1689614,292834.15625,295441.53125,335902.75,331671.375,285265.75,256520.078125,222525.03125,246335.375,0.02490234375,0.99658203125,0.1845703125,1.1291502714157104,-2.105712652206421,-0.8239745497703552,80.0,118664.0,0.0
14607.1689616,292834.15625,295441.53125,335902.75,331671.375,285265.75,256520.078125,222525.03125,246335.375,0.02490234375,0.99658203125,0.1845703125,1.1291502714157104,-2.105712652206421,-0.8239745497703552,80.0,118665.0,0.0
14607.1689618,292834.15625,295441.53125,335902.75,331671.375,285265.75,256520.078125,222525.03125,246335.375,0.02490234375,0.99658203125,0.1845703125,1.1291502714157104,-2.105712652206421,-0.8239745497703552,80.0,118666.0,0.0
14607.1689619,292834.15625,295441.53125,335902.75,331671.375,285265.75,256520.078125,222525.03125,246335.375,0.02490234375,0.99658203125,0.1845703125,1.1291502714157104,-2.105712652206421,-0.8239745497703552,80.0,118667.0,0.0
14607.1689621,292834.15625,295441.53125,335902.75,331671.375,285265.75,256520.078125,222525.03125,246335.375,0.02490234375,0.99658203125,0.1845703125,1.1291502714157104,-2.105712652206421,-0.8239745497703552,80.0,118668.0,0.0
14607.1689623,292834.15625,295441.53125,335902.75,331671.375,285265.75,256520.078125,222525.03125,246335.375,0.02490234375,0.99658203125,0.1845703125,1.1291502714157104,-2.105712652206421,-0.8239745497703552,80.0,118669.0,0.0
14607.1689624,292834.15625,295441.53125,335902.75,331671.375,285265.75,256520.078125,222525.03125,246335.375,0.02490234375,0.99658203125,0.1845703125,1.1291502714157104,-2.105712652206421,-0.8239745497703552,80.0,118670.0,0.0
14607.1689626,292834.15625,295441.53125,335902.75,331671.375,285265.75,256520.078125,222525.03125,246335.375,0.02490234375,0.99658203125,0.1845703125,1.1291502714157104,-2.105712652206421,-0.8239745497703552,80.0,118671.0,0.0
14607.1689628,292834.15625,295441.53125,335902.75,331671.375,285265.75,256520.078125,222525.03125,246335.375,0.02490234375,0.99658203125,0.1845703125,1.1291502714157104,-2.105712652206421,-0.8239745497703552,80.0,118672.0,0.0
14607.1689629,292809.375,295430.25,335807.34375,331613.28125,285255.46875,256527.5,222512.609375,246313.109375,0.02197265625,0.995361328125,0.188232421875,-0.4577636420726776,-1.8615721464157104,-1.2512205839157104,80.0,118673.0,1.0
14607.1689682,292839.78125,295451.4375,335908.65625,331654.84375,285284.96875,256531.96875,222520.484375,246313.640625,0.02294921875,0.995361328125,0.187255859375,-0.4882812201976776,-1.8920897245407104,-1.3122557401657104,80.0,118674.0,1.0
14607.1689696,292852.40625,295703.84375,336083.875,331647.5,285398.1875,256573.453125,222564.90625,246319.28125,0.023681640625,0.9970703125,0.189453125,-0.6103515028953552,-1.8920897245407104,-1.3122557401657104,80.0,118675.0,1.0
14607.1689709,292822.25,295830.1875,336087.1875,331589.75,285431.34375,256581.859375,222560.53125,246291.5625,0.02294921875,0.998291015625,0.189697265625,-0.6408690810203552,-1.8005369901657104,-1.3427733182907104,80.0,118676.0,1.0
14607.1689721,292795.625,295650.46875,335910.34375,331568.46875,285333.25,256536.703125,222515.296875,246282.171875,0.022216796875,0.99658203125,0.1865234375,-0.7324218153953552,-1.8310545682907104,-1.2512205839157104,80.0,118677.0,1.0
14607.1689733,292802.78125,295403.25,335781.15625,331603.0625,285232.0625,256498.4375,222491.15625,246305.0625,0.021728515625,0.99755859375,0.188720703125,-0.7019042372703552,-1.8005369901657104,-1.2207030057907104,80.0,118678.0,1.0
14607.1689745,292847.46875,295446.28125,335899.15625,331661.8125,285286.3125,256530.71875,222535.671875,246341.984375,0.023193359375,0.995849609375,0.19140625,-0.6713866591453552,-1.8920897245407104,-1.1901854276657104,80.0,118679.0,1.0
14607.1689759,292858.65625,295702.6875,336079.3125,331651.4375,285404.0,256577.921875,222576.984375,246333.21875,0.0205078125,0.994873046875,0.18896484375,-0.5493163466453552,-1.9226073026657104,-1.3427733182907104,80.0,118680.0,1.0
14607.1704186,292816.4375,295825.25,336072.34375,331593.6875,285435.28125,256591.0625,222584.765625,246326.609375,0.0205078125,0.995361328125,0.191650390625,-0.3051757514476776,-1.9836424589157104,-1.3122557401657104,80.0,118681.0,1.0
14607.1729353,292816.4375,295825.25,336072.34375,331593.6875,285435.28125,256591.0625,222584.765625,246326.609375,0.0205078125,0.995361328125,0.191650390625,-0.3051757514476776,-1.9836424589157104,-1.3122557401657104,80.0,118682.0,0.0
14607.1729361,292816.4375,295825.25,336072.34375,331593.6875,285435.28125,256591.0625,222584.765625,246326.609375,0.0205078125,0.995361328125,0.191650390625,-0.3051757514476776,-1.9836424589157104,-1.3122557401657104,80.0,118683.0,0.0
14607.1729363,292816.4375,295825.25,336072.34375,331593.6875,285435.28125,256591.0625,222584.765625,246326.609375,0.0205078125,0.995361328125,0.191650390625,-0.3051757514476776,-1.9836424589157104,-1.3122557401657104,80.0,118684.0,0.0
14607.1729365,292816.4375,295825.25,336072.34375,331593.6875,285435.28125,256591.0625,222584.765625,246326.609375,0.0205078125,0.995361328125,0.191650390625,-0.3051757514476776,-1.9836424589157104,-1.3122557401657104,80.0,118685.0,0.0
14607.1729367,292816.4375,295825.25,336072.34375,331593.6875,285435.28125,256591.0625,222584.765625,246326.609375,0.0205078125,0.995361328125,0.191650390625,-0.3051757514476776,-1.9836424589157104,-1.3122557401657104,80.0,118686.0,0.0
14607.1729369,292816.4375,295825.25,336072.34375,331593.6875,285435.28125,256591.0625,222584.765625,246326.609375,0.0205078125,0.995361328125,0.191650390625,-0.3051757514476776,-1.9836424589157104,-1.3122557401657104,80.0,118687.0,0.0
14607.172937,292816.4375,295825.25,336072.34375,331593.6875,285435.28125,256591.0625,222584.765625,246326.609375,0.0205078125,0.995361328125,0.191650390625,-0.3051757514476776,-1.9836424589157104,-1.3122557401657104,80.0,118688.0,0.0
14607.1729372,292816.4375,295825.25,336072.34375,331593.6875,285435.28125,256591.0625,222584.765625,246326.609375,0.0205078125,0.995361328125,0.191650390625,-0.3051757514476776,-1.9836424589157104,-1.3122557401657104,80.0,118689.0,0.0
14607.1729374,292816.4375,295825.25,336072.34375,331593.6875,285435.28125,256591.0625,222584.765625,246326.609375,0.0205078125,0.995361328125,0.191650390625,-0.3051757514476776,-1.9836424589157104,-1.3122557401657104,80.0,118690.0,0.0
14607.1729376,292816.4375,295825.25,336072.34375,331593.6875,285435.28125,256591.0625,222584.765625,246326.609375,0.0205078125,0.995361328125,0.191650390625,-0.3051757514476776,-1.9836424589157104,-1.3122557401657104,80.0,118691.0,0.0
14607.1729378,292816.4375,295825.25,336072.34375,331593.6875,285435.28125,256591.0625,222584.765625,246326.609375,0.0205078125,0.995361328125,0.191650390625,-0.3051757514476776,-1.9836424589157104,-1.3122557401657104,80.0,118692.0,0.0
14607.1729379,292816.4375,295825.25,336072.34375,331593.6875,285435.28125,256591.0625,222584.765625,246326.609375,0.0205078125,0.995361328125,0.191650390625,-0.3051757514476776,-1.9836424589157104,-1.3122557401657104,80.0,118693.0,0.0
14607.1729381,292816.4375,295825.25,336072.34375,331593.6875,285435.28125,256591.0625,222584.765625,246326.609375,0.0205078125,0.995361328125,0.191650390625,-0.3051757514476776,-1.9836424589157104,-1.3122557401657104,80.0,118694.0,0.0
14607.1729383,292816.4375,295825.25,336072.34375,331593.6875,285435.28125,256591.0625,222584.765625,246326.609375,0.0205078125,0.995361328125,0.191650390625,-0.3051757514476776,-1.9836424589157104,-1.3122557401657104,80.0,118695.0,0.0
14607.1729385,292816.4375,295825.25,336072.34375,331593.6875,285435.28125,256591.0625,222584.765625,246326.609375,0.0205078125,0.995361328125,0.191650390625,-0.3051757514476776,-1.9836424589157104,-1.3122557401657104,80.0,118696.0,0.0
14607.1729386,292816.4375,295825.25,336072.34375,331593.6875,285435.28125,256591.0625,222584.765625,246326.609375,0.0205078125,0.995361328125,0.191650390625,-0.3051757514476776,-1.9836424589157104,-1.3122557401657104,80.0,118697.0,0.0
14607.1729388,292816.4375,295825.25,336072.34375,331593.6875,285435.28125,256591.0625,222584.765625,246326.609375,0.0205078125,0.995361328125,0.191650390625,-0.3051757514476776,-1.9836424589157104,-1.3122557401657104,80.0,118698.0,0.0
14607.172939,292816.4375,295825.25,336072.34375,331593.6875,285435.28125,256591.0625,222584.765625,246326.609375,0.0205078125,0.995361328125,0.191650390625,-0.3051757514476776,-1.9836424589157104,-1.3122557401657104,80.0,118699.0,0.0
14607.1729391,292816.4375,295825.25,336072.34375,331593.6875,285435.28125,256591.0625,222584.765625,246326.609375,0.0205078125,0.995361328125,0.191650390625,-0.3051757514476776,-1.9836424589157104,-1.3122557401657104,80.0,118700.0,0.0
14607.1729393,292816.4375,295825.25,336072.34375,331593.6875,285435.28125,256591.0625,222584.765625,246326.609375,0.0205078125,0.995361328125,0.191650390625,-0.3051757514476776,-1.9836424589157104,-1.3122557401657104,80.0,118701.0,0.0
14607.1729395,292816.4375,295825.25,336072.34375,331593.6875,285435.28125,256591.0625,222584.765625,246326.609375,0.0205078125,0.995361328125,0.191650390625,-0.3051757514476776,-1.9836424589157104,-1.3122557401657104,80.0,118702.0,0.0
14607.1729397,292816.4375,295825.25,336072.34375,331593.6875,285435.28125,256591.0625,222584.765625,246326.609375,0.0205078125,0.995361328125,0.191650390625,-0.3051757514476776,-1.9836424589157104,-1.3122557401657104,80.0,118703.0,0.0
14607.1729398,292831.65625,295446.625,335880.84375,331641.78125,285280.0625,256526.953125,222523.875,246325.265625,0.0224609375,0.998779296875,0.189697265625,0.0610351525247097,-1.2207030057907104,-1.3122557401657104,80.0,118704.0,1.0
14607.2013663,292844.875,295706.4375,336061.71875,331633.375,285399.5,256563.96875,222562.046875,246317.84375,0.02392578125,0.997314453125,0.189453125,0.0610351525247097,-1.2512205839157104,-1.3732908964157104,80.0,118705.0,1.0
14607.2013933,292812.6875,295827.125,336059.125,331578.5,285432.78125,256581.765625,222569.109375,246296.484375,0.02490234375,0.995849609375,0.19140625,0.1220703050494194,-1.3427733182907104,-1.5258787870407104,80.0,118706.0,1.0
14607.2013973,292788.90625,295651.625,335894.0625,331561.84375,285340.25,256541.890625,222533.4375,246293.609375,0.024169921875,0.99462890625,0.191162109375,0.0915527269244194,-1.4648436307907104,-1.4038084745407104,80.0,118707.0,1.0
14607.2013986,292800.625,295415.25,335780.96875,331597.09375,285241.8125,256504.96875,222496.703125,246303.359375,0.0234375,0.996337890625,0.19091796875,0.1220703050494194,-1.4953612089157104,-1.2207030057907104,80.0,118708.0,1.0
14607.2527221,292830.84375,295449.03125,335881.375,331643.5,285274.875,256521.421875,222524.953125,246326.515625,0.02294921875,0.997802734375,0.190673828125,0.1831054538488388,-1.4343260526657104,-1.2817381620407104,80.0,118709.0,1.0
14607.2527449,292840.15625,295706.96875,336056.15625,331637.40625,285394.875,256574.4375,222584.3125,246338.859375,0.02392578125,0.998779296875,0.19384765625,0.1831054538488388,-1.4343260526657104,-1.4038084745407104,80.0,118710.0,1.0
14607.2527485,292811.96875,295835.09375,336053.65625,331580.625,285430.09375,256590.53125,222588.421875,246319.8125,0.023681640625,1.000244140625,0.194091796875,0.1831054538488388,-1.5258787870407104,-1.2817381620407104,80.0,118711.0,1.0
14607.2527497,292785.6875,295655.84375,335883.625,331558.5625,285337.90625,256545.5625,222541.75,246311.59375,0.022705078125,0.997314453125,0.1923828125,0.1525878757238388,-1.6174315214157104,-1.0986326932907104,80.0,118712.0,1.0
14607.252751,292791.5,295417.9375,335768.46875,331585.09375,285236.34375,256490.65625,222484.890625,246288.609375,0.023193359375,0.997802734375,0.19287109375,0.03051757626235485,-1.7089842557907104,-0.9460448622703552,80.0,118713.0,1.0
14607.2527522,292832.375,295465.3125,335888.625,331639.28125,285283.03125,256516.5,222511.53125,246302.640625,0.0234375,0.99755859375,0.189697265625,-0.03051757626235485,-1.6479490995407104,-0.9765624403953552,80.0,118714.0,1.0
14607.2527534,292842.46875,295717.25,336060.28125,331636.15625,285401.65625,256571.75,222566.515625,246322.3125,0.021484375,0.996337890625,0.191162109375,-0.1220703050494194,-1.6174315214157104,-0.8239745497703552,80.0,118715.0,1.0
14607.3003095,292816.0,295837.34375,336052.875,331585.1875,285432.59375,256595.984375,222578.765625,246310.25,0.0205078125,0.995361328125,0.192626953125,-0.1220703050494194,-1.6174315214157104,-0.8850097060203552,80.0,118716.0,1.0
14607.3003253,292793.28125,295662.0,335884.25,331564.625,285336.84375,256555.390625,222533.4375,246294.234375,0.021484375,0.994384765625,0.189453125,-0.1220703050494194,-1.6479490995407104,-0.7019042372703552,80.0,118717.0,1.0
14607.3003266,292803.75,295435.34375,335782.0625,331606.375,285250.46875,256514.265625,222508.9375,246320.96875,0.0224609375,0.99609375,0.192138671875,-0.0915527269244194,-1.7395018339157104,-0.7629393935203552,80.0,118718.0,1.0
14607.3003278,292839.96875,295480.0625,335898.28125,331654.5625,285297.59375,256527.765625,222533.890625,246342.25,0.021240234375,0.9970703125,0.192138671875,-0.1220703050494194,-1.7700194120407104,-0.7324218153953552,80.0,118719.0,1.0
14607.300329,292850.59375,295737.71875,336077.34375,331643.84375,285419.375,256577.296875,222575.1875,246332.15625,0.0224609375,0.996826171875,0.192626953125,-0.1525878757238388,-1.8310545682907104,-0.6713866591453552,80.0,118720.0,1.0
14607.3003302,292814.03125,295845.28125,336063.0625,331582.59375,285440.71875,256584.265625,222565.890625,246299.25,0.02197265625,0.997802734375,0.192626953125,-0.3967284858226776,-1.8920897245407104,-0.6103515028953552,80.0,118721.0,1.0
14607.3003314,292783.71875,295655.375,335881.46875,331559.09375,285336.9375,256538.5,222522.625,246294.328125,0.022216796875,1.000244140625,0.195556640625,-0.4577636420726776,-1.8615721464157104,-0.6713866591453552,80.0,118722.0,1.0
14607.3003325,292798.375,295422.84375,335767.46875,331594.40625,285239.84375,256502.1875,222486.234375,246296.390625,0.024169921875,0.996826171875,0.194580078125,-0.4272460639476776,-1.8005369901657104,-0.5798339247703552,80.0,118723.0,1.0
14607.3003338,292837.625,295480.34375,335895.0625,331643.40625,285291.0625,256531.34375,222523.515625,246319.359375,0.02294921875,0.99609375,0.19482421875,-0.3356933295726776,-1.7395018339157104,-0.6408690810203552,80.0,118724.0,1.0
14607.3517436,292843.90625,295735.0625,336070.375,331635.625,285408.625,256575.78125,222573.859375,246325.71875,0.021484375,0.9970703125,0.191162109375,-0.3356933295726776,-1.8310545682907104,-0.6103515028953552,80.0,118725.0,1.0
14607.3772077,292807.96875,295843.0625,336054.5625,331580.90625,285436.625,256593.75,222590.65625,246325.09375,0.021728515625,0.995849609375,0.1904296875,-0.3051757514476776,-1.8310545682907104,-0.7019042372703552,80.0,118726.0,1.0
14607.3772127,292782.90625,295664.25,335885.3125,331558.09375,285342.75,256554.59375,222535.40625,246306.3125,0.022705078125,0.995849609375,0.1923828125,-0.3356933295726776,-1.9226073026657104,-0.6713866591453552,80.0,118727.0,1.0
14607.4204118,292798.9375,295431.96875,335777.65625,331589.75,285246.0,256512.5625,222489.1875,246286.109375,0.024169921875,0.993896484375,0.189453125,-0.3356933295726776,-1.8310545682907104,-0.8544921278953552,80.0,118728.0,1.0
14607.45221,292831.125,295471.5625,335892.46875,331637.75,285286.15625,256516.671875,222515.375,246311.671875,0.023681640625,0.992919921875,0.19287109375,-0.2746581733226776,-1.8310545682907104,-0.9765624403953552,80.0,118729.0,1.0
14607.4522161,292831.125,295471.5625,335892.46875,331637.75,285286.15625,256516.671875,222515.375,246311.671875,0.023681640625,0.992919921875,0.19287109375,-0.2746581733226776,-1.8310545682907104,-0.9765624403953552,80.0,118730.0,0.0
14607.4522164,292831.125,295471.5625,335892.46875,331637.75,285286.15625,256516.671875,222515.375,246311.671875,0.023681640625,0.992919921875,0.19287109375,-0.2746581733226776,-1.8310545682907104,-0.9765624403953552,80.0,118731.0,0.0
14607.4522165,292831.125,295471.5625,335892.46875,331637.75,285286.15625,256516.671875,222515.375,246311.671875,0.023681640625,0.992919921875,0.19287109375,-0.2746581733226776,-1.8310545682907104,-0.9765624403953552,80.0,118732.0,0.0
14607.4522167,292831.125,295471.5625,335892.46875,331637.75,285286.15625,256516.671875,222515.375,246311.671875,0.023681640625,0.992919921875,0.19287109375,-0.2746581733226776,-1.8310545682907104,-0.9765624403953552,80.0,118733.0,0.0
14607.4522169,292831.125,295471.5625,335892.46875,331637.75,285286.15625,256516.671875,222515.375,246311.671875,0.023681640625,0.992919921875,0.19287109375,-0.2746581733226776,-1.8310545682907104,-0.9765624403953552,80.0,118734.0,0.0
14607.4522171,292831.125,295471.5625,335892.46875,331637.75,285286.15625,256516.671875,222515.375,246311.671875,0.023681640625,0.992919921875,0.19287109375,-0.2746581733226776,-1.8310545682907104,-0.9765624403953552,80.0,118735.0,0.0
14607.4522173,292831.125,295471.5625,335892.46875,331637.75,285286.15625,256516.671875,222515.375,246311.671875,0.023681640625,0.992919921875,0.19287109375,-0.2746581733226776,-1.8310545682907104,-0.9765624403953552,80.0,118736.0,0.0
14607.4522175,292831.125,295471.5625,335892.46875,331637.75,285286.15625,256516.671875,222515.375,246311.671875,0.023681640625,0.992919921875,0.19287109375,-0.2746581733226776,-1.8310545682907104,-0.9765624403953552,80.0,118737.0,0.0
14607.4522176,292831.125,295471.5625,335892.46875,331637.75,285286.15625,256516.671875,222515.375,246311.671875,0.023681640625,0.992919921875,0.19287109375,-0.2746581733226776,-1.8310545682907104,-0.9765624403953552,80.0,118738.0,0.0
