Time,FZ,C3,CZ,C4,PZ,PO7,OZ,PO8,AccX,AccY,AccZ,Gyro1,Gyro2,Gyro3,Battery,Counter,Validation
14638.91573,293058.5625,295454.84375,334476.96875,329984.90625,285269.34375,255981.578125,222471.03125,244502.96875,0.026123046875,0.9970703125,0.199951171875,-0.03051757626235485,-1.5258787870407104,-0.9155272841453552,80.0,126667.0,1.0
14638.9402206,293088.25,295297.40625,334445.6875,330038.625,285221.3125,255975.140625,222470.765625,244533.546875,0.02490234375,0.99462890625,0.2001953125,-0.03051757626235485,-1.5258787870407104,-0.7934569716453552,80.0,126668.0,1.0
14638.9651721,293116.40625,295447.0625,334615.28125,330067.6875,285308.9375,255995.25,222507.875,244556.796875,0.025146484375,0.99462890625,0.19677734375,0.0,-1.5563963651657104,-0.7324218153953552,80.0,126669.0,1.0
14639.0001078,293105.875,295677.46875,334732.9375,330025.21875,285397.46875,256012.953125,222521.90625,244516.203125,0.023193359375,0.99462890625,0.19970703125,-0.0610351525247097,-1.4343260526657104,-0.6713866591453552,80.0,126670.0,1.0
14639.0806757,293071.0,295676.59375,334636.21875,329975.25,285369.21875,256013.140625,222505.09375,244498.953125,0.025634765625,0.99609375,0.197265625,0.0610351525247097,-1.4038084745407104,-0.6408690810203552,80.0,126671.0,1.0
14639.0806882,293061.15625,295453.59375,334475.09375,329982.3125,285271.84375,255982.203125,222473.1875,244503.59375,0.025146484375,0.99365234375,0.196044921875,-0.0610351525247097,-1.4648436307907104,-0.6713866591453552,80.0,126672.0,1.0
14639.0806895,293088.96875,295298.375,334449.4375,330035.25,285226.96875,255963.515625,222469.875,244527.296875,0.026611328125,0.994140625,0.19921875,-0.0915527269244194,-1.4038084745407104,-0.5798339247703552,80.0,126673.0,1.0
14639.0806907,293113.71875,295434.28125,334608.3125,330061.625,285306.96875,255984.34375,222496.515625,244526.125,0.02587890625,0.99658203125,0.198974609375,-0.03051757626235485,-1.3122557401657104,-0.6103515028953552,80.0,126674.0,1.0
14639.0806919,293104.6875,295675.25,334732.0625,330030.125,285402.8125,256017.703125,222524.328125,244524.15625,0.025634765625,0.995849609375,0.195556640625,0.0,-1.2207030057907104,-0.6408690810203552,80.0,126675.0,1.0
14639.0806931,293073.125,295691.34375,334657.21875,329983.125,285387.90625,256023.78125,222512.25,244504.40625,0.0263671875,0.994140625,0.193359375,-0.03051757626235485,-1.2817381620407104,-0.5798339247703552,80.0,126676.0,1.0
14639.0806943,293058.84375,295457.25,334484.9375,329984.71875,285276.75,255981.40625,222469.0625,244500.015625,0.025634765625,0.9931640625,0.1982421875,-0.0610351525247097,-1.2817381620407104,-0.7019042372703552,80.0,126677.0,1.0
14639.1449767,293085.28125,295297.75,334451.21875,330036.3125,285222.40625,255957.53125,222463.078125,244530.59375,0.025390625,0.9931640625,0.200927734375,-0.03051757626235485,-1.3732908964157104,-0.7629393935203552,80.0,126678.0,1.0
14639.1449945,293117.21875,295446.34375,334619.5625,330063.5,285309.84375,256000.625,222501.171875,244534.359375,0.02490234375,0.994873046875,0.197998046875,0.03051757626235485,-1.2817381620407104,-0.9155272841453552,80.0,126679.0,1.0
14639.144998,293117.21875,295446.34375,334619.5625,330063.5,285309.84375,256000.625,222501.171875,244534.359375,0.02490234375,0.994873046875,0.197998046875,0.03051757626235485,-1.2817381620407104,-0.9155272841453552,80.0,126680.0,0.0
14639.1449982,293117.21875,295446.34375,334619.5625,330063.5,285309.84375,256000.625,222501.171875,244534.359375,0.02490234375,0.994873046875,0.197998046875,0.03051757626235485,-1.2817381620407104,-0.9155272841453552,80.0,126681.0,0.0
14639.1449987,293117.21875,295446.34375,334619.5625,330063.5,285309.84375,256000.625,222501.171875,244534.359375,0.02490234375,0.994873046875,0.197998046875,0.03051757626235485,-1.2817381620407104,-0.9155272841453552,80.0,126682.0,0.0
14639.1449989,293117.21875,295446.34375,334619.5625,330063.5,285309.84375,256000.625,222501.171875,244534.359375,0.02490234375,0.994873046875,0.197998046875,0.03051757626235485,-1.2817381620407104,-0.9155272841453552,80.0,126683.0,0.0
14639.144999,293117.21875,295446.34375,334619.5625,330063.5,285309.84375,256000.625,222501.171875,244534.359375,0.02490234375,0.994873046875,0.197998046875,0.03051757626235485,-1.2817381620407104,-0.9155272841453552,80.0,126684.0,0.0
14639.1449992,293117.21875,295446.34375,334619.5625,330063.5,285309.84375,256000.625,222501.171875,244534.359375,0.02490234375,0.994873046875,0.197998046875,0.03051757626235485,-1.2817381620407104,-0.9155272841453552,80.0,126685.0,0.0
14639.1449994,293117.21875,295446.34375,334619.5625,330063.5,285309.84375,256000.625,222501.171875,244534.359375,0.02490234375,0.994873046875,0.197998046875,0.03051757626235485,-1.2817381620407104,-0.9155272841453552,80.0,126686.0,0.0
14639.1449996,293117.21875,295446.34375,334619.5625,330063.5,285309.84375,256000.625,222501.171875,244534.359375,0.02490234375,0.994873046875,0.197998046875,0.03051757626235485,-1.2817381620407104,-0.9155272841453552,80.0,126687.0,0.0
14639.1449998,293117.21875,295446.34375,334619.5625,330063.5,285309.84375,256000.625,222501.171875,244534.359375,0.02490234375,0.994873046875,0.197998046875,0.03051757626235485,-1.2817381620407104,-0.9155272841453552,80.0,126688.0,0.0
14639.1449999,293117.21875,295446.34375,334619.5625,330063.5,285309.84375,256000.625,222501.171875,244534.359375,0.02490234375,0.994873046875,0.197998046875,0.03051757626235485,-1.2817381620407104,-0.9155272841453552,80.0,126689.0,0.0
14639.1450001,293117.21875,295446.34375,334619.5625,330063.5,285309.84375,256000.625,222501.171875,244534.359375,0.02490234375,0.994873046875,0.197998046875,0.03051757626235485,-1.2817381620407104,-0.9155272841453552,80.0,126690.0,0.0
14639.1450003,293117.21875,295446.34375,334619.5625,330063.5,285309.84375,256000.625,222501.171875,244534.359375,0.02490234375,0.994873046875,0.197998046875,0.03051757626235485,-1.2817381620407104,-0.9155272841453552,80.0,126691.0,0.0
14639.1450005,293117.21875,295446.34375,334619.5625,330063.5,285309.84375,256000.625,222501.171875,244534.359375,0.02490234375,0.994873046875,0.197998046875,0.03051757626235485,-1.2817381620407104,-0.9155272841453552,80.0,126692.0,0.0
14639.1450007,293117.21875,295446.34375,334619.5625,330063.5,285309.84375,256000.625,222501.171875,244534.359375,0.02490234375,0.994873046875,0.197998046875,0.03051757626235485,-1.2817381620407104,-0.9155272841453552,80.0,126693.0,0.0
14639.1450009,293117.21875,295446.34375,334619.5625,330063.5,285309.84375,256000.625,222501.171875,244534.359375,0.02490234375,0.994873046875,0.197998046875,0.03051757626235485,-1.2817381620407104,-0.9155272841453552,80.0,126694.0,0.0
14639.1450011,293117.21875,295446.34375,334619.5625,330063.5,285309.84375,256000.625,222501.171875,244534.359375,0.02490234375,0.994873046875,0.197998046875,0.03051757626235485,-1.2817381620407104,-0.9155272841453552,80.0,126695.0,0.0
14639.1450012,293117.21875,295446.34375,334619.5625,330063.5,285309.84375,256000.625,222501.171875,244534.359375,0.02490234375,0.994873046875,0.197998046875,0.03051757626235485,-1.2817381620407104,-0.9155272841453552,80.0,126696.0,0.0
14639.1450014,293117.21875,295446.34375,334619.5625,330063.5,285309.84375,256000.625,222501.171875,244534.359375,0.02490234375,0.994873046875,0.197998046875,0.03051757626235485,-1.2817381620407104,-0.9155272841453552,80.0,126697.0,0.0
14639.1450017,293117.21875,295446.34375,334619.5625,330063.5,285309.84375,256000.625,222501.171875,244534.359375,0.02490234375,0.994873046875,0.197998046875,0.03051757626235485,-1.2817381620407104,-0.9155272841453552,80.0,126698.0,0.0
14639.1450019,293117.21875,295446.34375,334619.5625,330063.5,285309.84375,256000.625,222501.171875,244534.359375,0.02490234375,0.994873046875,0.197998046875,0.03051757626235485,-1.2817381620407104,-0.9155272841453552,80.0,126699.0,0.0
14639.1450022,293117.21875,295446.34375,334619.5625,330063.5,285309.84375,256000.625,222501.171875,244534.359375,0.02490234375,0.994873046875,0.197998046875,0.03051757626235485,-1.2817381620407104,-0.9155272841453552,80.0,126700.0,0.0
14639.1450023,293117.21875,295446.34375,334619.5625,330063.5,285309.84375,256000.625,222501.171875,244534.359375,0.02490234375,0.994873046875,0.197998046875,0.03051757626235485,-1.2817381620407104,-0.9155272841453552,80.0,126701.0,0.0
14639.1450025,293117.21875,295446.34375,334619.5625,330063.5,285309.84375,256000.625,222501.171875,244534.359375,0.02490234375,0.994873046875,0.197998046875,0.03051757626235485,-1.2817381620407104,-0.9155272841453552,80.0,126702.0,0.0
14639.1450027,293117.21875,295446.34375,334619.5625,330063.5,285309.84375,256000.625,222501.171875,244534.359375,0.02490234375,0.994873046875,0.197998046875,0.03051757626235485,-1.2817381620407104,-0.9155272841453552,80.0,126703.0,0.0
14639.1450029,293117.21875,295446.34375,334619.5625,330063.5,285309.84375,256000.625,222501.171875,244534.359375,0.02490234375,0.994873046875,0.197998046875,0.03051757626235485,-1.2817381620407104,-0.9155272841453552,80.0,126704.0,0.0
14639.145003,293117.21875,295446.34375,334619.5625,330063.5,285309.84375,256000.625,222501.171875,244534.359375,0.02490234375,0.994873046875,0.197998046875,0.03051757626235485,-1.2817381620407104,-0.9155272841453552,80.0,126705.0,0.0
14639.1450032,293117.21875,295446.34375,334619.5625,330063.5,285309.84375,256000.625,222501.171875,244534.359375,0.02490234375,0.994873046875,0.197998046875,0.03051757626235485,-1.2817381620407104,-0.9155272841453552,80.0,126706.0,0.0
14639.1450034,293117.21875,295446.34375,334619.5625,330063.5,285309.84375,256000.625,222501.171875,244534.359375,0.02490234375,0.994873046875,0.197998046875,0.03051757626235485,-1.2817381620407104,-0.9155272841453552,80.0,126707.0,0.0
14639.1450036,293117.21875,295446.34375,334619.5625,330063.5,285309.84375,256000.625,222501.171875,244534.359375,0.02490234375,0.994873046875,0.197998046875,0.03051757626235485,-1.2817381620407104,-0.9155272841453552,80.0,126708.0,0.0
14639.1450037,293117.21875,295446.34375,334619.5625,330063.5,285309.84375,256000.625,222501.171875,244534.359375,0.02490234375,0.994873046875,0.197998046875,0.03051757626235485,-1.2817381620407104,-0.9155272841453552,80.0,126709.0,0.0
14639.1450039,293117.21875,295446.34375,334619.5625,330063.5,285309.84375,256000.625,222501.171875,244534.359375,0.02490234375,0.994873046875,0.197998046875,0.03051757626235485,-1.2817381620407104,-0.9155272841453552,80.0,126710.0,0.0
14639.1450041,293117.21875,295446.34375,334619.5625,330063.5,285309.84375,256000.625,222501.171875,244534.359375,0.02490234375,0.994873046875,0.197998046875,0.03051757626235485,-1.2817381620407104,-0.9155272841453552,80.0,126711.0,0.0
14639.1450043,293117.21875,295446.34375,334619.5625,330063.5,285309.84375,256000.625,222501.171875,244534.359375,0.02490234375,0.994873046875,0.197998046875,0.03051757626235485,-1.2817381620407104,-0.9155272841453552,80.0,126712.0,0.0
14639.1450044,293117.21875,295446.34375,334619.5625,330063.5,285309.84375,256000.625,222501.171875,244534.359375,0.02490234375,0.994873046875,0.197998046875,0.03051757626235485,-1.2817381620407104,-0.9155272841453552,80.0,126713.0,0.0
14639.1450046,293117.21875,295446.34375,334619.5625,330063.5,285309.84375,256000.625,222501.171875,244534.359375,0.02490234375,0.994873046875,0.197998046875,0.03051757626235485,-1.2817381620407104,-0.9155272841453552,80.0,126714.0,0.0
14639.1450048,293117.21875,295446.34375,334619.5625,330063.5,285309.84375,256000.625,222501.171875,244534.359375,0.02490234375,0.994873046875,0.197998046875,0.03051757626235485,-1.2817381620407104,-0.9155272841453552,80.0,126715.0,0.0
14639.145005,293117.21875,295446.34375,334619.5625,330063.5,285309.84375,256000.625,222501.171875,244534.359375,0.02490234375,0.994873046875,0.197998046875,0.03051757626235485,-1.2817381620407104,-0.9155272841453552,80.0,126716.0,0.0
14639.1450051,293117.21875,295446.34375,334619.5625,330063.5,285309.84375,256000.625,222501.171875,244534.359375,0.02490234375,0.994873046875,0.197998046875,0.03051757626235485,-1.2817381620407104,-0.9155272841453552,80.0,126717.0,0.0
14639.1450053,293117.21875,295446.34375,334619.5625,330063.5,285309.84375,256000.625,222501.171875,244534.359375,0.02490234375,0.994873046875,0.197998046875,0.03051757626235485,-1.2817381620407104,-0.9155272841453552,80.0,126718.0,0.0
14639.1450055,293117.21875,295446.34375,334619.5625,330063.5,285309.84375,256000.625,222501.171875,244534.359375,0.02490234375,0.994873046875,0.197998046875,0.03051757626235485,-1.2817381620407104,-0.9155272841453552,80.0,126719.0,0.0
14639.1450057,293117.21875,295446.34375,334619.5625,330063.5,285309.84375,256000.625,222501.171875,244534.359375,0.02490234375,0.994873046875,0.197998046875,0.03051757626235485,-1.2817381620407104,-0.9155272841453552,80.0,126720.0,0.0
14639.1450058,293117.21875,295446.34375,334619.5625,330063.5,285309.84375,256000.625,222501.171875,244534.359375,0.02490234375,0.994873046875,0.197998046875,0.03051757626235485,-1.2817381620407104,-0.9155272841453552,80.0,126721.0,0.0
14639.145006,293039.6875,295442.6875,334456.84375,329959.34375,285253.78125,255982.203125,222472.203125,244461.390625,0.029052734375,0.99267578125,0.197021484375,0.6713866591453552,-0.5187987685203552,-0.4577636420726776,80.0,126722.0,1.0
14639.1450072,293065.09375,295289.96875,334430.84375,330010.8125,285210.0625,255978.0,222475.78125,244483.921875,0.027099609375,0.99365234375,0.201171875,0.8544921278953552,-0.4882812201976776,-0.4882812201976776,80.0,126723.0,1.0
14639.1450084,293090.3125,295442.78125,334595.4375,330034.0625,285290.4375,255989.09375,222499.5625,244485.09375,0.025634765625,0.993896484375,0.201416015625,0.8850097060203552,-0.3662109076976776,-0.5493163466453552,80.0,126724.0,1.0
14639.1450096,293074.75,295672.375,334705.59375,329997.6875,285378.78125,256010.359375,222522.890625,244487.140625,0.02490234375,0.99658203125,0.203125,0.9460448622703552,-0.2746581733226776,-0.6408690810203552,80.0,126725.0,1.0
14639.1450107,293047.3125,295679.09375,334622.625,329952.34375,285358.125,256016.984375,222502.59375,244450.578125,0.023193359375,0.996826171875,0.2021484375,0.8850097060203552,-0.3356933295726776,-0.7629393935203552,80.0,126726.0,1.0
14639.1450121,293032.71875,295445.625,334455.0625,329954.78125,285251.71875,255972.28125,222462.359375,244447.1875,0.02294921875,0.998291015625,0.20166015625,0.8850097060203552,-0.3051757514476776,-0.7629393935203552,80.0,126727.0,1.0
14639.1689052,293060.25,295296.25,334436.125,330009.75,285210.34375,255957.34375,222459.0625,244474.359375,0.022705078125,0.99609375,0.201416015625,0.7934569716453552,-0.3662109076976776,-0.7934569716453552,80.0,126728.0,1.0
14639.1938942,293096.03125,295463.53125,334613.6875,330041.84375,285301.6875,255995.796875,222502.859375,244483.21875,0.021484375,0.9990234375,0.19873046875,0.8239745497703552,-0.3051757514476776,-0.7629393935203552,80.0,126729.0,1.0
14639.2023002,293086.1875,295692.84375,334727.125,330009.5625,285397.28125,256040.671875,222543.28125,244482.046875,0.021728515625,0.99755859375,0.19873046875,0.8544921278953552,-0.4272460639476776,-0.8544921278953552,80.0,126730.0,1.0
14639.2023039,293048.71875,295680.34375,334625.75,329955.21875,285364.46875,256020.109375,222510.015625,244451.03125,0.020263671875,0.99609375,0.196533203125,0.9765624403953552,-0.5493163466453552,-0.8239745497703552,80.0,126731.0,1.0
14639.2023053,293039.78125,295447.25,334454.4375,329962.8125,285258.875,255990.34375,222475.78125,244462.296875,0.019287109375,0.99609375,0.198974609375,0.8850097060203552,-0.7019042372703552,-0.8850097060203552,80.0,126732.0,1.0
14639.2023066,293062.125,295296.78125,334428.25,330004.125,285209.34375,255960.921875,222456.109375,244458.625,0.02197265625,0.99462890625,0.20068359375,0.8850097060203552,-0.8544921278953552,-0.8850097060203552,80.0,126733.0,1.0
14639.2023081,293088.15625,295445.71875,334593.03125,330028.8125,285291.0625,255973.4375,222479.4375,244465.59375,0.02490234375,0.990966796875,0.19921875,0.7629393935203552,-0.9460448622703552,-0.8544921278953552,80.0,126734.0,1.0
14639.2109579,293081.53125,295681.21875,334710.5,329998.03125,285387.8125,256015.015625,222516.09375,244461.3125,0.026611328125,0.989990234375,0.19921875,0.7934569716453552,-0.9155272841453552,-0.7934569716453552,80.0,126735.0,1.0
14639.2109741,293042.8125,295669.25,334608.84375,329944.3125,285355.09375,256006.515625,222490.265625,244434.578125,0.027099609375,0.9931640625,0.198486328125,0.9765624403953552,-0.9155272841453552,-0.7324218153953552,80.0,126736.0,1.0
14639.2109755,293034.5,295435.4375,334441.46875,329951.625,285247.15625,255973.0,222453.0625,244435.46875,0.025634765625,0.9951171875,0.196044921875,0.9460448622703552,-0.8544921278953552,-0.4882812201976776,80.0,126737.0,1.0
14639.2109767,293060.8125,295292.75,334427.96875,330006.0,285205.21875,255950.640625,222447.078125,244460.5,0.024658203125,0.99658203125,0.195068359375,0.9765624403953552,-0.9460448622703552,-0.5493163466453552,80.0,126738.0,1.0
14639.2109779,293086.1875,295442.78125,334591.3125,330031.03125,285287.21875,255985.0625,222484.625,244465.15625,0.02392578125,0.99609375,0.195068359375,0.9460448622703552,-1.0070799589157104,-0.4272460639476776,80.0,126739.0,1.0
14639.2109791,293071.78125,295667.375,334696.46875,329994.5625,285374.03125,256027.890625,222520.03125,244452.375,0.02392578125,0.994873046875,0.193115234375,0.9765624403953552,-1.0681151151657104,-0.4577636420726776,80.0,126740.0,1.0
14639.2109803,293042.46875,295667.375,334605.375,329945.28125,285349.8125,256026.109375,222505.71875,244431.171875,0.027099609375,0.9921875,0.191650390625,0.8850097060203552,-1.1901854276657104,-0.5493163466453552,80.0,126741.0,1.0
14639.2109815,293030.75,295435.28125,334436.21875,329944.84375,285242.78125,255978.0,222460.3125,244429.921875,0.027099609375,0.99169921875,0.193603515625,0.8239745497703552,-1.2207030057907104,-0.4882812201976776,80.0,126742.0,1.0
14639.2109826,293062.9375,295296.40625,334427.96875,330005.46875,285210.5,255957.890625,222461.828125,244463.1875,0.0263671875,0.994384765625,0.197998046875,0.8239745497703552,-1.3122557401657104,-0.5493163466453552,80.0,126743.0,1.0
14639.2109838,293092.625,295455.125,334603.65625,330034.875,285302.5,256005.265625,222500.8125,244469.4375,0.025146484375,0.996337890625,0.197509765625,0.7934569716453552,-1.2207030057907104,-0.6103515028953552,80.0,126744.0,1.0
14639.217235,293087.96875,295687.5625,334721.9375,330003.3125,285395.59375,256041.75,222519.046875,244450.84375,0.023193359375,0.9990234375,0.19775390625,0.7629393935203552,-1.2207030057907104,-0.5798339247703552,80.0,126745.0,1.0
14639.2172493,293047.46875,295669.5,334615.1875,329945.8125,285356.5,256016.09375,222492.21875,244428.765625,0.0224609375,1.00146484375,0.193359375,0.7324218153953552,-1.2817381620407104,-0.7019042372703552,80.0,126746.0,1.0
14639.2172523,293028.34375,295419.1875,334431.375,329940.8125,285237.25,255967.546875,222449.578125,244431.265625,0.02392578125,1.000732421875,0.194580078125,0.6713866591453552,-1.4038084745407104,-0.8544921278953552,80.0,126747.0,1.0
14639.2172539,293028.34375,295419.1875,334431.375,329940.8125,285237.25,255967.546875,222449.578125,244431.265625,0.02392578125,1.000732421875,0.194580078125,0.6713866591453552,-1.4038084745407104,-0.8544921278953552,80.0,126748.0,0.0
14639.2172541,293028.34375,295419.1875,334431.375,329940.8125,285237.25,255967.546875,222449.578125,244431.265625,0.02392578125,1.000732421875,0.194580078125,0.6713866591453552,-1.4038084745407104,-0.8544921278953552,80.0,126749.0,0.0
14639.2172543,293028.34375,295419.1875,334431.375,329940.8125,285237.25,255967.546875,222449.578125,244431.265625,0.02392578125,1.000732421875,0.194580078125,0.6713866591453552,-1.4038084745407104,-0.8544921278953552,80.0,126750.0,0.0
14639.2172545,293028.34375,295419.1875,334431.375,329940.8125,285237.25,255967.546875,222449.578125,244431.265625,0.02392578125,1.000732421875,0.194580078125,0.6713866591453552,-1.4038084745407104,-0.8544921278953552,80.0,126751.0,0.0
14639.2172547,293028.34375,295419.1875,334431.375,329940.8125,285237.25,255967.546875,222449.578125,244431.265625,0.02392578125,1.000732421875,0.194580078125,0.6713866591453552,-1.4038084745407104,-0.8544921278953552,80.0,126752.0,0.0
14639.2172548,293028.34375,295419.1875,334431.375,329940.8125,285237.25,255967.546875,222449.578125,244431.265625,0.02392578125,1.000732421875,0.194580078125,0.6713866591453552,-1.4038084745407104,-0.8544921278953552,80.0,126753.0,0.0
14639.217255,293085.46875,295427.65625,334578.71875,330020.84375,285270.78125,255968.4375,222469.25,244438.328125,0.027587890625,0.994384765625,0.193603515625,0.6103515028953552,-1.6479490995407104,-1.2817381620407104,80.0,126754.0,1.0
14639.2172563,293076.0,295658.96875,334684.5,329986.15625,285361.0625,256012.25,222504.109375,244437.96875,0.027587890625,0.993896484375,0.195556640625,0.6713866591453552,-1.6174315214157104,-1.2207030057907104,80.0,126755.0,1.0
14639.2172575,293049.96875,295676.3125,334614.5625,329941.34375,285353.46875,256012.328125,222485.4375,244408.5625,0.0263671875,0.99462890625,0.196533203125,0.6713866591453552,-1.5563963651657104,-1.3732908964157104,80.0,126756.0,1.0
14639.2172587,293039.0625,295439.125,334447.46875,329946.46875,285247.53125,255971.390625,222447.078125,244408.640625,0.027587890625,0.994384765625,0.197265625,0.6103515028953552,-1.5563963651657104,-1.3732908964157104,80.0,126757.0,1.0
14639.2419507,293066.34375,295289.09375,334422.0625,329998.125,285199.40625,255956.640625,222443.765625,244430.015625,0.02734375,0.995361328125,0.195556640625,0.5798339247703552,-1.4953612089157104,-1.2817381620407104,80.0,126758.0,1.0
14639.2419571,293101.03125,295450.75,334590.6875,330031.75,285286.78125,255993.734375,222481.9375,244436.28125,0.027099609375,0.996337890625,0.19580078125,0.7934569716453552,-1.4648436307907104,-1.2817381620407104,80.0,126759.0,1.0
14639.2664897,293092.8125,295688.375,334709.6875,329999.21875,285386.1875,256032.625,222509.75,244424.65625,0.0244140625,0.997314453125,0.1953125,0.7019042372703552,-1.5258787870407104,-1.1291502714157104,80.0,126760.0,1.0
14639.2919571,293049.1875,295669.15625,334601.6875,329941.28125,285347.84375,256006.078125,222480.6875,244399.796875,0.024169921875,0.9970703125,0.195556640625,0.6408690810203552,-1.4343260526657104,-1.1901854276657104,80.0,126761.0,1.0
14639.2919783,293043.1875,295437.875,334434.9375,329956.125,285243.5,255962.4375,222443.953125,244409.359375,0.024658203125,0.996826171875,0.193603515625,0.6713866591453552,-1.5258787870407104,-1.1596678495407104,80.0,126762.0,1.0
14639.3023561,293065.4375,295288.1875,334411.96875,330002.15625,285195.5625,255941.875,222435.1875,244424.734375,0.02197265625,0.996826171875,0.1943359375,0.7019042372703552,-1.4953612089157104,-1.0681151151657104,80.0,126763.0,1.0
14639.3023764,293065.4375,295288.1875,334411.96875,330002.15625,285195.5625,255941.875,222435.1875,244424.734375,0.02197265625,0.996826171875,0.1943359375,0.7019042372703552,-1.4953612089157104,-1.0681151151657104,80.0,126764.0,0.0
14639.3023766,293065.4375,295288.1875,334411.96875,330002.15625,285195.5625,255941.875,222435.1875,244424.734375,0.02197265625,0.996826171875,0.1943359375,0.7019042372703552,-1.4953612089157104,-1.0681151151657104,80.0,126765.0,0.0
14639.3023768,293065.4375,295288.1875,334411.96875,330002.15625,285195.5625,255941.875,222435.1875,244424.734375,0.02197265625,0.996826171875,0.1943359375,0.7019042372703552,-1.4953612089157104,-1.0681151151657104,80.0,126766.0,0.0
14639.3023771,293065.4375,295288.1875,334411.96875,330002.15625,285195.5625,255941.875,222435.1875,244424.734375,0.02197265625,0.996826171875,0.1943359375,0.7019042372703552,-1.4953612089157104,-1.0681151151657104,80.0,126767.0,0.0
14639.3023773,293065.4375,295288.1875,334411.96875,330002.15625,285195.5625,255941.875,222435.1875,244424.734375,0.02197265625,0.996826171875,0.1943359375,0.7019042372703552,-1.4953612089157104,-1.0681151151657104,80.0,126768.0,0.0
14639.3023775,293065.4375,295288.1875,334411.96875,330002.15625,285195.5625,255941.875,222435.1875,244424.734375,0.02197265625,0.996826171875,0.1943359375,0.7019042372703552,-1.4953612089157104,-1.0681151151657104,80.0,126769.0,0.0
14639.3023776,293065.4375,295288.1875,334411.96875,330002.15625,285195.5625,255941.875,222435.1875,244424.734375,0.02197265625,0.996826171875,0.1943359375,0.7019042372703552,-1.4953612089157104,-1.0681151151657104,80.0,126770.0,0.0
14639.3023778,293065.4375,295288.1875,334411.96875,330002.15625,285195.5625,255941.875,222435.1875,244424.734375,0.02197265625,0.996826171875,0.1943359375,0.7019042372703552,-1.4953612089157104,-1.0681151151657104,80.0,126771.0,0.0
14639.302378,293065.4375,295288.1875,334411.96875,330002.15625,285195.5625,255941.875,222435.1875,244424.734375,0.02197265625,0.996826171875,0.1943359375,0.7019042372703552,-1.4953612089157104,-1.0681151151657104,80.0,126772.0,0.0
14639.3023782,293065.4375,295288.1875,334411.96875,330002.15625,285195.5625,255941.875,222435.1875,244424.734375,0.02197265625,0.996826171875,0.1943359375,0.7019042372703552,-1.4953612089157104,-1.0681151151657104,80.0,126773.0,0.0
14639.3023784,293065.4375,295288.1875,334411.96875,330002.15625,285195.5625,255941.875,222435.1875,244424.734375,0.02197265625,0.996826171875,0.1943359375,0.7019042372703552,-1.4953612089157104,-1.0681151151657104,80.0,126774.0,0.0
14639.3023785,293065.4375,295288.1875,334411.96875,330002.15625,285195.5625,255941.875,222435.1875,244424.734375,0.02197265625,0.996826171875,0.1943359375,0.7019042372703552,-1.4953612089157104,-1.0681151151657104,80.0,126775.0,0.0
14639.3023787,293065.4375,295288.1875,334411.96875,330002.15625,285195.5625,255941.875,222435.1875,244424.734375,0.02197265625,0.996826171875,0.1943359375,0.7019042372703552,-1.4953612089157104,-1.0681151151657104,80.0,126776.0,0.0
14639.3023789,293065.4375,295288.1875,334411.96875,330002.15625,285195.5625,255941.875,222435.1875,244424.734375,0.02197265625,0.996826171875,0.1943359375,0.7019042372703552,-1.4953612089157104,-1.0681151151657104,80.0,126777.0,0.0
14639.302379,293065.4375,295288.1875,334411.96875,330002.15625,285195.5625,255941.875,222435.1875,244424.734375,0.02197265625,0.996826171875,0.1943359375,0.7019042372703552,-1.4953612089157104,-1.0681151151657104,80.0,126778.0,0.0
14639.3023792,293065.4375,295288.1875,334411.96875,330002.15625,285195.5625,255941.875,222435.1875,244424.734375,0.02197265625,0.996826171875,0.1943359375,0.7019042372703552,-1.4953612089157104,-1.0681151151657104,80.0,126779.0,0.0
14639.3023794,293065.4375,295288.1875,334411.96875,330002.15625,285195.5625,255941.875,222435.1875,244424.734375,0.02197265625,0.996826171875,0.1943359375,0.7019042372703552,-1.4953612089157104,-1.0681151151657104,80.0,126780.0,0.0
14639.3023795,293038.0,295646.8125,334605.0,329938.3125,285345.34375,255998.203125,222468.265625,244368.765625,0.027099609375,0.99755859375,0.19140625,0.3356933295726776,-1.6479490995407104,-1.1901854276657104,80.0,126781.0,1.0
14639.3023823,293021.0,295398.25,334429.78125,329936.71875,285224.625,255941.609375,222406.9375,244355.890625,0.025634765625,0.99658203125,0.194091796875,0.2441406100988388,-1.6784666776657104,-1.1291502714157104,80.0,126782.0,1.0
14639.3051363,293048.1875,295250.8125,334406.15625,329987.9375,285178.3125,255926.234375,222408.359375,244382.453125,0.02587890625,0.994140625,0.19189453125,0.2746581733226776,-1.6174315214157104,-1.0986326932907104,80.0,126783.0,1.0
14639.3075706,293075.09375,295411.21875,334570.6875,330012.78125,285266.3125,255956.09375,222451.1875,244393.265625,0.023681640625,0.99365234375,0.189697265625,0.2441406100988388,-1.5869139432907104,-1.1901854276657104,80.0,126784.0,1.0
14639.3100307,293066.15625,295642.5,334677.5,329977.3125,285357.9375,256000.890625,222483.109375,244378.875,0.025390625,0.994873046875,0.189208984375,0.1831054538488388,-1.5563963651657104,-1.1291502714157104,80.0,126785.0,1.0
14639.3125807,293042.8125,295646.4375,334597.6875,329943.15625,285346.5,256012.0625,222485.25,244381.109375,0.025634765625,0.996826171875,0.190185546875,0.2746581733226776,-1.5563963651657104,-1.0986326932907104,80.0,126786.0,1.0
14639.3150853,293030.84375,295414.34375,334436.03125,329948.875,285241.25,255969.328125,222446.1875,244384.6875,0.027099609375,0.9990234375,0.191650390625,0.2441406100988388,-1.4953612089157104,-1.0375975370407104,80.0,126787.0,1.0
14639.3175678,293051.59375,295267.09375,334415.0,329983.03125,285186.8125,255942.59375,222412.03125,244355.359375,0.0263671875,0.99755859375,0.19140625,0.2136230319738388,-1.5869139432907104,-0.9155272841453552,80.0,126788.0,1.0
14639.3650873,293073.3125,295423.125,334584.09375,330005.375,285273.4375,255959.3125,222443.765625,244361.890625,0.0263671875,0.996337890625,0.192138671875,0.0915527269244194,-1.5563963651657104,-1.0375975370407104,80.0,126789.0,1.0
14639.3675624,293057.125,295638.84375,334681.71875,329967.71875,285353.46875,255975.140625,222463.890625,244357.859375,0.0244140625,0.99609375,0.194580078125,0.0,-1.4953612089157104,-1.0070799589157104,80.0,126790.0,1.0
14639.37061,293031.90625,295624.53125,334573.09375,329927.21875,285321.5625,255979.875,222451.71875,244353.390625,0.02490234375,0.99609375,0.193359375,0.03051757626235485,-1.4038084745407104,-0.9765624403953552,80.0,126791.0,1.0
14639.3706164,293019.65625,295390.84375,334410.53125,329932.5,285217.75,255935.796875,222416.5,244349.640625,0.022705078125,0.9951171875,0.19287109375,0.0915527269244194,-1.4343260526657104,-0.9460448622703552,80.0,126792.0,1.0
14639.3725689,293044.625,295248.3125,334399.46875,329979.8125,285175.09375,255920.515625,222411.21875,244346.515625,0.0205078125,0.99365234375,0.19140625,0.1525878757238388,-1.5563963651657104,-0.9460448622703552,80.0,126793.0,1.0
14639.3750681,293077.96875,295424.71875,334579.25,330012.875,285276.03125,255972.375,222466.125,244366.1875,0.022705078125,0.99560546875,0.192138671875,0.1220703050494194,-1.4648436307907104,-0.9765624403953552,80.0,126794.0,1.0
14639.3775644,293071.53125,295659.6875,334692.34375,329984.4375,285373.5,256011.625,222497.953125,244365.375,0.023193359375,0.99560546875,0.190185546875,0.2441406100988388,-1.4648436307907104,-1.0070799589157104,80.0,126795.0,1.0
14639.3800605,293038.1875,295642.0625,334590.53125,329936.625,285341.65625,255989.53125,222470.765625,244355.890625,0.0234375,0.99609375,0.188720703125,0.1831054538488388,-1.4953612089157104,-1.0681151151657104,80.0,126796.0,1.0
14639.3896727,293025.21875,295396.90625,334416.90625,329937.59375,285227.84375,255937.40625,222428.484375,244354.46875,0.02392578125,0.997314453125,0.19140625,0.2136230319738388,-1.5258787870407104,-1.0375975370407104,80.0,126797.0,1.0
14639.3896775,293059.8125,295262.0,334409.46875,329993.65625,285191.375,255926.140625,222421.328125,244363.046875,0.024658203125,0.998779296875,0.190673828125,0.1831054538488388,-1.6479490995407104,-1.0375975370407104,80.0,126798.0,1.0
14639.3896791,293089.84375,295428.90625,334587.9375,330019.5,285286.15625,255970.765625,222455.5625,244360.71875,0.023681640625,0.998779296875,0.193115234375,-0.03051757626235485,-1.6174315214157104,-1.0681151151657104,80.0,126799.0,1.0
14639.3896804,293074.84375,295654.125,334689.5,329981.3125,285374.3125,256010.546875,222489.09375,244357.59375,0.0244140625,0.995849609375,0.189453125,-0.0915527269244194,-1.6784666776657104,-0.9765624403953552,80.0,126800.0,1.0
14639.3896818,293044.0,295642.59375,334592.03125,329938.5,285346.21875,256001.515625,222472.015625,244341.6875,0.024169921875,0.99755859375,0.18994140625,-0.1525878757238388,-1.6784666776657104,-0.9460448622703552,80.0,126801.0,1.0
14639.3983793,293027.375,295396.8125,334415.90625,329937.34375,285229.1875,255950.375,222427.671875,244336.5,0.025634765625,0.994873046875,0.189453125,-0.1525878757238388,-1.6784666776657104,-1.0375975370407104,80.0,126802.0,1.0
14639.3983861,293048.46875,295257.4375,334399.8125,329980.25,285183.96875,255929.0,222413.546875,244341.59375,0.021728515625,0.9951171875,0.188720703125,-0.0915527269244194,-1.6784666776657104,-0.9765624403953552,80.0,126803.0,1.0
14639.3983882,293077.4375,295424.71875,334574.25,330013.78125,285281.40625,255968.53125,222464.859375,244377.984375,0.0224609375,0.995849609375,0.1943359375,-0.1525878757238388,-1.7700194120407104,-0.9765624403953552,80.0,126804.0,1.0
14639.3983902,293073.59375,295657.53125,334691.5625,329985.78125,285382.4375,256019.9375,222504.75,244375.125,0.022705078125,0.997314453125,0.1953125,-0.3967284858226776,-1.7700194120407104,-0.8850097060203552,80.0,126805.0,1.0
14639.3983922,293035.9375,295640.8125,334591.59375,329929.09375,285348.03125,256006.078125,222464.953125,244316.203125,0.023193359375,0.99951171875,0.192138671875,-0.4272460639476776,-1.8005369901657104,-0.8239745497703552,80.0,126806.0,1.0
14639.398394,293020.75,295399.78125,334419.84375,329933.03125,285237.0625,255955.46875,222421.6875,244317.359375,0.02392578125,0.99951171875,0.1943359375,-0.6103515028953552,-1.7700194120407104,-0.7324218153953552,80.0,126807.0,1.0
14639.3983957,293038.71875,295251.0,334397.5,329979.53125,285189.59375,255931.859375,222417.75,244341.140625,0.0234375,0.997314453125,0.192626953125,-0.7934569716453552,-1.7700194120407104,-0.8544921278953552,80.0,126808.0,1.0
14639.3983976,293067.25,295418.71875,334570.84375,330009.125,285284.625,255980.140625,222469.0625,244362.328125,0.02294921875,0.99658203125,0.19482421875,-0.8544921278953552,-1.7395018339157104,-0.7324218153953552,80.0,126809.0,1.0
14639.3983993,293059.375,295651.09375,334682.34375,329979.1875,285383.875,256037.90625,222515.109375,244366.09375,0.0244140625,0.999755859375,0.19580078125,-0.9155272841453552,-1.7089842557907104,-0.7629393935203552,80.0,126810.0,1.0
14639.3984012,293027.4375,295636.96875,334581.75,329931.6875,285355.625,256036.65625,222500.0,244333.015625,0.024658203125,0.998779296875,0.193359375,-1.0375975370407104,-1.7089842557907104,-0.7934569716453552,80.0,126811.0,1.0
14639.404613,293015.90625,295392.25,334413.40625,329927.78125,285236.78125,255945.546875,222414.890625,244296.984375,0.026123046875,0.997802734375,0.194580078125,-1.1291502714157104,-1.5869139432907104,-0.7324218153953552,80.0,126812.0,1.0
14639.4046197,293035.21875,295242.15625,334398.125,329968.53125,285185.5625,255892.96875,222386.09375,244306.1875,0.02783203125,0.99609375,0.196044921875,-1.1596678495407104,-1.4343260526657104,-0.7324218153953552,80.0,126813.0,1.0
14639.4046225,293035.21875,295242.15625,334398.125,329968.53125,285185.5625,255892.96875,222386.09375,244306.1875,0.02783203125,0.99609375,0.196044921875,-1.1596678495407104,-1.4343260526657104,-0.7324218153953552,80.0,126814.0,0.0
14639.4046228,293035.21875,295242.15625,334398.125,329968.53125,285185.5625,255892.96875,222386.09375,244306.1875,0.02783203125,0.99609375,0.196044921875,-1.1596678495407104,-1.4343260526657104,-0.7324218153953552,80.0,126815.0,0.0
14639.4046231,293035.21875,295242.15625,334398.125,329968.53125,285185.5625,255892.96875,222386.09375,244306.1875,0.02783203125,0.99609375,0.196044921875,-1.1596678495407104,-1.4343260526657104,-0.7324218153953552,80.0,126816.0,0.0
14639.4046234,293035.21875,295242.15625,334398.125,329968.53125,285185.5625,255892.96875,222386.09375,244306.1875,0.02783203125,0.99609375,0.196044921875,-1.1596678495407104,-1.4343260526657104,-0.7324218153953552,80.0,126817.0,0.0
14639.4046237,293035.21875,295242.15625,334398.125,329968.53125,285185.5625,255892.96875,222386.09375,244306.1875,0.02783203125,0.99609375,0.196044921875,-1.1596678495407104,-1.4343260526657104,-0.7324218153953552,80.0,126818.0,0.0
14639.404624,293035.21875,295242.15625,334398.125,329968.53125,285185.5625,255892.96875,222386.09375,244306.1875,0.02783203125,0.99609375,0.196044921875,-1.1596678495407104,-1.4343260526657104,-0.7324218153953552,80.0,126819.0,0.0
14639.4046243,293035.21875,295242.15625,334398.125,329968.53125,285185.5625,255892.96875,222386.09375,244306.1875,0.02783203125,0.99609375,0.196044921875,-1.1596678495407104,-1.4343260526657104,-0.7324218153953552,80.0,126820.0,0.0
14639.4046246,293028.96875,295618.09375,334573.625,329926.34375,285336.3125,255975.140625,222451.984375,244308.609375,0.02685546875,0.992431640625,0.196533203125,-0.8239745497703552,-0.4577636420726776,-0.5493163466453552,80.0,126821.0,1.0
14639.4046267,293023.15625,295386.0,334408.40625,329936.4375,285229.65625,255934.90625,222408.71875,244302.4375,0.02734375,0.993896484375,0.199462890625,-0.7019042372703552,-0.4577636420726776,-0.4882812201976776,80.0,126822.0,1.0
14639.4046285,293049.8125,295244.5625,334382.84375,329981.0625,285178.3125,255917.921875,222395.75,244296.796875,0.02685546875,0.992431640625,0.196044921875,-0.7019042372703552,-0.3356933295726776,-0.4882812201976776,80.0,126823.0,1.0
14639.4046304,293070.375,295405.40625,334538.84375,330002.59375,285262.28125,255955.734375,222442.25,244314.6875,0.025634765625,0.994384765625,0.193359375,-0.6408690810203552,-0.2441406100988388,-0.5187987685203552,80.0,126824.0,1.0
14639.4046321,293058.125,295645.90625,334664.0,329968.4375,285366.53125,256004.734375,222482.5625,244306.640625,0.026611328125,0.99609375,0.196533203125,-0.6103515028953552,-0.2441406100988388,-0.4577636420726776,80.0,126825.0,1.0
14639.4075922,293031.65625,295631.25,334571.75,329929.1875,285341.84375,256005.53125,222471.03125,244298.671875,0.0263671875,0.993896484375,0.197509765625,-0.4272460639476776,-0.1525878757238388,-0.4577636420726776,80.0,126826.0,1.0
14639.4075986,293016.8125,295375.46875,334392.40625,329928.21875,285219.71875,255939.734375,222404.703125,244272.21875,0.02783203125,0.99462890625,0.199462890625,-0.3662109076976776,-0.1831054538488388,-0.5798339247703552,80.0,126827.0,1.0
14639.4076007,293046.5,295241.0,334385.15625,329981.59375,285183.6875,255918.71875,222399.234375,244293.84375,0.025634765625,0.99365234375,0.197509765625,-0.3356933295726776,-0.1525878757238388,-0.5798339247703552,80.0,126828.0,1.0
14639.4106775,293080.65625,295426.6875,334572.09375,330017.4375,285291.0625,255970.40625,222460.578125,244322.453125,0.02587890625,0.9931640625,0.199462890625,-0.2441406100988388,-0.0610351525247097,-0.7019042372703552,80.0,126829.0,1.0
14639.4106838,293070.1875,295656.90625,334685.90625,329981.78125,285387.34375,256019.9375,222496.703125,244306.1875,0.027587890625,0.99365234375,0.198974609375,-0.1220703050494194,-0.0610351525247097,-0.7629393935203552,80.0,126830.0,1.0
14639.4141778,293029.0625,295630.34375,334580.40625,329924.1875,285349.96875,255996.59375,222460.75,244271.671875,0.0263671875,0.992919921875,0.2021484375,-0.03051757626235485,-0.03051757626235485,-0.8544921278953552,80.0,126831.0,1.0
14639.4141869,293029.0625,295630.34375,334580.40625,329924.1875,285349.96875,255996.59375,222460.75,244271.671875,0.0263671875,0.992919921875,0.2021484375,-0.03051757626235485,-0.03051757626235485,-0.8544921278953552,80.0,126832.0,0.0
14639.4141873,293029.0625,295630.34375,334580.40625,329924.1875,285349.96875,255996.59375,222460.75,244271.671875,0.0263671875,0.992919921875,0.2021484375,-0.03051757626235485,-0.03051757626235485,-0.8544921278953552,80.0,126833.0,0.0
14639.4141876,293029.0625,295630.34375,334580.40625,329924.1875,285349.96875,255996.59375,222460.75,244271.671875,0.0263671875,0.992919921875,0.2021484375,-0.03051757626235485,-0.03051757626235485,-0.8544921278953552,80.0,126834.0,0.0
14639.4141879,293029.0625,295630.34375,334580.40625,329924.1875,285349.96875,255996.59375,222460.75,244271.671875,0.0263671875,0.992919921875,0.2021484375,-0.03051757626235485,-0.03051757626235485,-0.8544921278953552,80.0,126835.0,0.0
14639.4141882,293029.0625,295630.34375,334580.40625,329924.1875,285349.96875,255996.59375,222460.75,244271.671875,0.0263671875,0.992919921875,0.2021484375,-0.03051757626235485,-0.03051757626235485,-0.8544921278953552,80.0,126836.0,0.0
14639.4141885,293029.0625,295630.34375,334580.40625,329924.1875,285349.96875,255996.59375,222460.75,244271.671875,0.0263671875,0.992919921875,0.2021484375,-0.03051757626235485,-0.03051757626235485,-0.8544921278953552,80.0,126837.0,0.0
14639.4141888,293029.0625,295630.34375,334580.40625,329924.1875,285349.96875,255996.59375,222460.75,244271.671875,0.0263671875,0.992919921875,0.2021484375,-0.03051757626235485,-0.03051757626235485,-0.8544921278953552,80.0,126838.0,0.0
14639.4141891,293029.0625,295630.34375,334580.40625,329924.1875,285349.96875,255996.59375,222460.75,244271.671875,0.0263671875,0.992919921875,0.2021484375,-0.03051757626235485,-0.03051757626235485,-0.8544921278953552,80.0,126839.0,0.0
14639.4141894,293029.0625,295630.34375,334580.40625,329924.1875,285349.96875,255996.59375,222460.75,244271.671875,0.0263671875,0.992919921875,0.2021484375,-0.03051757626235485,-0.03051757626235485,-0.8544921278953552,80.0,126840.0,0.0
14639.4141897,293029.0625,295630.34375,334580.40625,329924.1875,285349.96875,255996.59375,222460.75,244271.671875,0.0263671875,0.992919921875,0.2021484375,-0.03051757626235485,-0.03051757626235485,-0.8544921278953552,80.0,126841.0,0.0
14639.4141901,293029.0625,295630.34375,334580.40625,329924.1875,285349.96875,255996.59375,222460.75,244271.671875,0.0263671875,0.992919921875,0.2021484375,-0.03051757626235485,-0.03051757626235485,-0.8544921278953552,80.0,126842.0,0.0
14639.4141904,293029.0625,295630.34375,334580.40625,329924.1875,285349.96875,255996.59375,222460.75,244271.671875,0.0263671875,0.992919921875,0.2021484375,-0.03051757626235485,-0.03051757626235485,-0.8544921278953552,80.0,126843.0,0.0
14639.4141907,293029.0625,295630.34375,334580.40625,329924.1875,285349.96875,255996.59375,222460.75,244271.671875,0.0263671875,0.992919921875,0.2021484375,-0.03051757626235485,-0.03051757626235485,-0.8544921278953552,80.0,126844.0,0.0
14639.414191,293029.0625,295630.34375,334580.40625,329924.1875,285349.96875,255996.59375,222460.75,244271.671875,0.0263671875,0.992919921875,0.2021484375,-0.03051757626235485,-0.03051757626235485,-0.8544921278953552,80.0,126845.0,0.0
14639.4141913,293029.0625,295630.34375,334580.40625,329924.1875,285349.96875,255996.59375,222460.75,244271.671875,0.0263671875,0.992919921875,0.2021484375,-0.03051757626235485,-0.03051757626235485,-0.8544921278953552,80.0,126846.0,0.0
14639.4141916,293029.0625,295630.34375,334580.40625,329924.1875,285349.96875,255996.59375,222460.75,244271.671875,0.0263671875,0.992919921875,0.2021484375,-0.03051757626235485,-0.03051757626235485,-0.8544921278953552,80.0,126847.0,0.0
14639.4141919,293029.0625,295630.34375,334580.40625,329924.1875,285349.96875,255996.59375,222460.75,244271.671875,0.0263671875,0.992919921875,0.2021484375,-0.03051757626235485,-0.03051757626235485,-0.8544921278953552,80.0,126848.0,0.0
14639.4141923,293029.0625,295630.34375,334580.40625,329924.1875,285349.96875,255996.59375,222460.75,244271.671875,0.0263671875,0.992919921875,0.2021484375,-0.03051757626235485,-0.03051757626235485,-0.8544921278953552,80.0,126849.0,0.0
14639.4141926,293029.0625,295630.34375,334580.40625,329924.1875,285349.96875,255996.59375,222460.75,244271.671875,0.0263671875,0.992919921875,0.2021484375,-0.03051757626235485,-0.03051757626235485,-0.8544921278953552,80.0,126850.0,0.0
14639.4141929,293029.0625,295630.34375,334580.40625,329924.1875,285349.96875,255996.59375,222460.75,244271.671875,0.0263671875,0.992919921875,0.2021484375,-0.03051757626235485,-0.03051757626235485,-0.8544921278953552,80.0,126851.0,0.0
14639.4141932,293029.0625,295630.34375,334580.40625,329924.1875,285349.96875,255996.59375,222460.75,244271.671875,0.0263671875,0.992919921875,0.2021484375,-0.03051757626235485,-0.03051757626235485,-0.8544921278953552,80.0,126852.0,0.0
14639.4141936,293029.0625,295630.34375,334580.40625,329924.1875,285349.96875,255996.59375,222460.75,244271.671875,0.0263671875,0.992919921875,0.2021484375,-0.03051757626235485,-0.03051757626235485,-0.8544921278953552,80.0,126853.0,0.0
14639.4141939,293029.0625,295630.34375,334580.40625,329924.1875,285349.96875,255996.59375,222460.75,244271.671875,0.0263671875,0.992919921875,0.2021484375,-0.03051757626235485,-0.03051757626235485,-0.8544921278953552,80.0,126854.0,0.0
14639.4141942,293029.0625,295630.34375,334580.40625,329924.1875,285349.96875,255996.59375,222460.75,244271.671875,0.0263671875,0.992919921875,0.2021484375,-0.03051757626235485,-0.03051757626235485,-0.8544921278953552,80.0,126855.0,0.0
14639.4141945,293046.84375,295642.4375,334574.0625,329893.34375,285342.375,255976.65625,222442.6875,244213.203125,0.0244140625,0.993408203125,0.1962890625,-0.0610351525247097,-2.166747808456421,-0.9765624403953552,80.0,126856.0,1.0
14639.414197,293039.78125,295391.8125,334393.90625,329902.65625,285222.21875,255929.546875,222403.796875,244226.171875,0.026123046875,0.994140625,0.197265625,0.0610351525247097,-2.258300542831421,-0.9460448622703552,80.0,126857.0,1.0
14639.414199,293077.34375,295278.4375,334404.1875,329962.1875,285200.84375,255930.171875,222416.3125,244246.640625,0.02587890625,0.993896484375,0.19873046875,0.0915527269244194,-2.258300542831421,-1.0375975370407104,80.0,126858.0,1.0
14639.4163121,293105.59375,295457.53125,334583.625,329988.9375,285298.21875,255976.921875,222465.21875,244250.578125,0.025634765625,0.993896484375,0.202392578125,0.0915527269244194,-2.227782964706421,-1.0375975370407104,80.0,126859.0,1.0
14639.4194513,293095.21875,295685.53125,334686.28125,329955.75,285388.78125,256019.671875,222499.28125,244244.140625,0.024169921875,0.993408203125,0.203125,0.2441406100988388,-2.319335699081421,-1.0375975370407104,80.0,126860.0,1.0
14639.4194578,293056.34375,295655.5625,334579.625,329905.15625,285351.9375,255997.578125,222458.96875,244220.53125,0.02392578125,0.994384765625,0.203369140625,0.3051757514476776,-2.227782964706421,-1.0986326932907104,80.0,126861.0,1.0
14639.4219313,293043.09375,295405.84375,334405.625,329909.875,285238.65625,255946.984375,222413.546875,244224.375,0.025390625,0.9951171875,0.199951171875,0.2746581733226776,-2.197265386581421,-1.1596678495407104,80.0,126862.0,1.0
14639.4219379,293075.0,295271.03125,334396.25,329962.46875,285201.125,255928.65625,222408.890625,244240.296875,0.025390625,0.994140625,0.20068359375,0.3051757514476776,-2.227782964706421,-1.0986326932907104,80.0,126863.0,1.0
14639.4238676,293108.0,295453.34375,334580.0625,329991.875,285301.78125,255977.640625,222454.234375,244240.390625,0.024658203125,0.998046875,0.203125,0.2746581733226776,-2.258300542831421,-1.0986326932907104,80.0,126864.0,1.0
14639.4263621,293096.5625,295685.96875,334693.53125,329958.15625,285399.15625,256022.796875,222491.875,244236.09375,0.02587890625,0.997314453125,0.199951171875,0.2136230319738388,-2.227782964706421,-1.1291502714157104,80.0,126865.0,1.0
14639.4294605,293056.78125,295658.4375,334583.71875,329904.53125,285356.875,256003.65625,222453.875,244201.40625,0.028564453125,0.99755859375,0.202392578125,0.1525878757238388,-2.136230230331421,-1.0375975370407104,80.0,126866.0,1.0
14639.4294666,293041.9375,295407.8125,334408.21875,329907.21875,285238.03125,255939.28125,222403.53125,244201.578125,0.029052734375,0.995849609375,0.203369140625,0.2441406100988388,-2.075195074081421,-1.0681151151657104,80.0,126867.0,1.0
14639.4313613,293069.65625,295276.3125,334399.375,329960.40625,285204.78125,255933.03125,222417.296875,244238.6875,0.029052734375,0.996337890625,0.199462890625,0.2136230319738388,-1.9226073026657104,-1.1291502714157104,80.0,126868.0,1.0
14639.4377535,293099.59375,295463.875,334580.96875,329983.28125,285306.1875,255982.734375,222461.828125,244241.8125,0.027587890625,0.99609375,0.203125,0.3051757514476776,-1.9531248807907104,-1.0375975370407104,80.0,126869.0,1.0
14639.4377588,293083.0625,295682.5625,334677.78125,329938.6875,285387.34375,256009.46875,222475.6875,244212.671875,0.029052734375,0.99560546875,0.203125,0.2746581733226776,-1.8310545682907104,-1.0375975370407104,80.0,126870.0,1.0
14639.4377601,293049.1875,295645.46875,334559.40625,329894.40625,285345.0625,255994.1875,222453.25,244208.015625,0.02685546875,0.9951171875,0.197021484375,0.3662109076976776,-1.7395018339157104,-0.9765624403953552,80.0,126871.0,1.0
14639.4434227,293036.75,295402.46875,334389.8125,329901.5625,285234.90625,255952.609375,222410.0625,244198.0,0.027587890625,0.99365234375,0.197509765625,0.3967284858226776,-1.6784666776657104,-0.8544921278953552,80.0,126872.0,1.0
14639.4434306,293067.5,295281.65625,334393.125,329956.28125,285204.25,255948.046875,222407.828125,244210.34375,0.026123046875,0.99365234375,0.200439453125,0.4272460639476776,-1.5563963651657104,-0.7629393935203552,80.0,126873.0,1.0
14639.4434327,293101.03125,295469.0625,334585.78125,329991.59375,285312.0,255983.984375,222454.046875,244228.671875,0.023193359375,0.991455078125,0.202880859375,0.3967284858226776,-1.4953612089157104,-0.6408690810203552,80.0,126874.0,1.0
14639.4434362,293101.03125,295469.0625,334585.78125,329991.59375,285312.0,255983.984375,222454.046875,244228.671875,0.023193359375,0.991455078125,0.202880859375,0.3967284858226776,-1.4953612089157104,-0.6408690810203552,80.0,126875.0,0.0
14639.4434365,293101.03125,295469.0625,334585.78125,329991.59375,285312.0,255983.984375,222454.046875,244228.671875,0.023193359375,0.991455078125,0.202880859375,0.3967284858226776,-1.4953612089157104,-0.6408690810203552,80.0,126876.0,0.0
14639.4434368,293101.03125,295469.0625,334585.78125,329991.59375,285312.0,255983.984375,222454.046875,244228.671875,0.023193359375,0.991455078125,0.202880859375,0.3967284858226776,-1.4953612089157104,-0.6408690810203552,80.0,126877.0,0.0
14639.4434371,293101.03125,295469.0625,334585.78125,329991.59375,285312.0,255983.984375,222454.046875,244228.671875,0.023193359375,0.991455078125,0.202880859375,0.3967284858226776,-1.4953612089157104,-0.6408690810203552,80.0,126878.0,0.0
14639.4434374,293101.03125,295469.0625,334585.78125,329991.59375,285312.0,255983.984375,222454.046875,244228.671875,0.023193359375,0.991455078125,0.202880859375,0.3967284858226776,-1.4953612089157104,-0.6408690810203552,80.0,126879.0,0.0
14639.4434377,293101.03125,295469.0625,334585.78125,329991.59375,285312.0,255983.984375,222454.046875,244228.671875,0.023193359375,0.991455078125,0.202880859375,0.3967284858226776,-1.4953612089157104,-0.6408690810203552,80.0,126880.0,0.0
14639.443438,293101.03125,295469.0625,334585.78125,329991.59375,285312.0,255983.984375,222454.046875,244228.671875,0.023193359375,0.991455078125,0.202880859375,0.3967284858226776,-1.4953612089157104,-0.6408690810203552,80.0,126881.0,0.0
14639.4434384,293101.03125,295469.0625,334585.78125,329991.59375,285312.0,255983.984375,222454.046875,244228.671875,0.023193359375,0.991455078125,0.202880859375,0.3967284858226776,-1.4953612089157104,-0.6408690810203552,80.0,126882.0,0.0
14639.4434387,293101.03125,295469.0625,334585.78125,329991.59375,285312.0,255983.984375,222454.046875,244228.671875,0.023193359375,0.991455078125,0.202880859375,0.3967284858226776,-1.4953612089157104,-0.6408690810203552,80.0,126883.0,0.0
14639.443439,293101.03125,295469.0625,334585.78125,329991.59375,285312.0,255983.984375,222454.046875,244228.671875,0.023193359375,0.991455078125,0.202880859375,0.3967284858226776,-1.4953612089157104,-0.6408690810203552,80.0,126884.0,0.0
14639.4434393,293101.03125,295469.0625,334585.78125,329991.59375,285312.0,255983.984375,222454.046875,244228.671875,0.023193359375,0.991455078125,0.202880859375,0.3967284858226776,-1.4953612089157104,-0.6408690810203552,80.0,126885.0,0.0
14639.4434397,293101.03125,295469.0625,334585.78125,329991.59375,285312.0,255983.984375,222454.046875,244228.671875,0.023193359375,0.991455078125,0.202880859375,0.3967284858226776,-1.4953612089157104,-0.6408690810203552,80.0,126886.0,0.0
14639.44344,293101.03125,295469.0625,334585.78125,329991.59375,285312.0,255983.984375,222454.046875,244228.671875,0.023193359375,0.991455078125,0.202880859375,0.3967284858226776,-1.4953612089157104,-0.6408690810203552,80.0,126887.0,0.0
14639.4434403,293101.03125,295469.0625,334585.78125,329991.59375,285312.0,255983.984375,222454.046875,244228.671875,0.023193359375,0.991455078125,0.202880859375,0.3967284858226776,-1.4953612089157104,-0.6408690810203552,80.0,126888.0,0.0
14639.4434406,293101.03125,295469.0625,334585.78125,329991.59375,285312.0,255983.984375,222454.046875,244228.671875,0.023193359375,0.991455078125,0.202880859375,0.3967284858226776,-1.4953612089157104,-0.6408690810203552,80.0,126889.0,0.0
14639.443441,293101.03125,295469.0625,334585.78125,329991.59375,285312.0,255983.984375,222454.046875,244228.671875,0.023193359375,0.991455078125,0.202880859375,0.3967284858226776,-1.4953612089157104,-0.6408690810203552,80.0,126890.0,0.0
14639.4434413,293101.03125,295469.0625,334585.78125,329991.59375,285312.0,255983.984375,222454.046875,244228.671875,0.023193359375,0.991455078125,0.202880859375,0.3967284858226776,-1.4953612089157104,-0.6408690810203552,80.0,126891.0,0.0
14639.4434416,293036.21875,295402.375,334384.78125,329901.5625,285223.84375,255934.453125,222396.828125,244177.265625,0.02783203125,0.994873046875,0.20166015625,0.4272460639476776,-1.4038084745407104,-1.2207030057907104,80.0,126892.0,1.0
14639.4434435,293068.75,295283.0,334385.6875,329958.15625,285194.0625,255936.25,222403.359375,244195.859375,0.027099609375,0.99609375,0.19921875,0.4272460639476776,-1.2817381620407104,-1.2512205839157104,80.0,126893.0,1.0
14639.4494374,293100.0625,295473.90625,334570.21875,329983.8125,285297.0625,255981.125,222445.5625,244210.796875,0.026611328125,0.998291015625,0.2001953125,0.4882812201976776,-1.1596678495407104,-1.1291502714157104,80.0,126894.0,1.0
14639.4494443,293085.375,295703.40625,334683.5,329944.75,285388.78125,255999.28125,222463.171875,244196.21875,0.02490234375,0.9990234375,0.201171875,0.3662109076976776,-1.1901854276657104,-1.1291502714157104,80.0,126895.0,1.0
14639.4494465,293048.71875,295666.125,334578.4375,329897.1875,285348.28125,255978.0,222429.28125,244178.515625,0.02392578125,0.996337890625,0.204345703125,0.2441406100988388,-1.2207030057907104,-1.1291502714157104,80.0,126896.0,1.0
14639.4494483,293034.59375,295415.59375,334402.59375,329901.3125,285229.0,255938.484375,222388.515625,244177.0,0.024658203125,0.99560546875,0.201904296875,0.3662109076976776,-1.1596678495407104,-1.0375975370407104,80.0,126897.0,1.0
14639.4494503,293057.59375,295282.5625,334383.1875,329950.46875,285181.375,255918.71875,222383.859375,244200.515625,0.023193359375,0.99560546875,0.199951171875,0.3356933295726776,-1.0681151151657104,-0.9460448622703552,80.0,126898.0,1.0
14639.449452,293083.0625,295468.0,334566.5625,329973.625,285279.53125,255955.296875,222415.515625,244195.140625,0.023193359375,0.99560546875,0.201416015625,0.3967284858226776,-1.0681151151657104,-0.7629393935203552,80.0,126899.0,1.0
14639.4494538,293068.9375,295690.15625,334668.125,329936.71875,285367.6875,255997.578125,222447.4375,244184.140625,0.02294921875,0.994873046875,0.202880859375,0.3967284858226776,-1.0681151151657104,-0.6408690810203552,80.0,126900.0,1.0
14639.4531947,293035.5,295656.71875,334551.90625,329891.5625,285327.90625,255992.578125,222440.09375,244182.625,0.023193359375,0.99658203125,0.202880859375,0.4272460639476776,-1.1596678495407104,-0.6408690810203552,80.0,126901.0,1.0
14639.4532019,293035.5,295656.71875,334551.90625,329891.5625,285327.90625,255992.578125,222440.09375,244182.625,0.023193359375,0.99658203125,0.202880859375,0.4272460639476776,-1.1596678495407104,-0.6408690810203552,80.0,126902.0,0.0
14639.4532024,293035.5,295656.71875,334551.90625,329891.5625,285327.90625,255992.578125,222440.09375,244182.625,0.023193359375,0.99658203125,0.202880859375,0.4272460639476776,-1.1596678495407104,-0.6408690810203552,80.0,126903.0,0.0
14639.4532027,293035.5,295656.71875,334551.90625,329891.5625,285327.90625,255992.578125,222440.09375,244182.625,0.023193359375,0.99658203125,0.202880859375,0.4272460639476776,-1.1596678495407104,-0.6408690810203552,80.0,126904.0,0.0
14639.4532031,293035.5,295656.71875,334551.90625,329891.5625,285327.90625,255992.578125,222440.09375,244182.625,0.023193359375,0.99658203125,0.202880859375,0.4272460639476776,-1.1596678495407104,-0.6408690810203552,80.0,126905.0,0.0
14639.4532034,293035.5,295656.71875,334551.90625,329891.5625,285327.90625,255992.578125,222440.09375,244182.625,0.023193359375,0.99658203125,0.202880859375,0.4272460639476776,-1.1596678495407104,-0.6408690810203552,80.0,126906.0,0.0
14639.4532038,293026.09375,295419.4375,334396.25,329898.4375,285222.5625,255936.34375,222390.125,244172.796875,0.020751953125,0.993896484375,0.202392578125,0.5493163466453552,-1.1901854276657104,-0.6713866591453552,80.0,126907.0,1.0
14639.453206,293049.53125,295287.46875,334380.78125,329943.15625,285179.3125,255913.53125,222381.0,244192.90625,0.0224609375,0.995849609375,0.20556640625,0.6103515028953552,-1.2817381620407104,-0.7019042372703552,80.0,126908.0,1.0
14639.453208,293080.46875,295471.84375,334559.59375,329969.78125,285283.46875,255963.515625,222432.140625,244208.28125,0.02392578125,0.995849609375,0.20361328125,0.6103515028953552,-1.3122557401657104,-0.7934569716453552,80.0,126909.0,1.0
14639.4551068,293070.46875,295697.78125,334660.625,329936.4375,285374.5625,256017.078125,222466.75,244199.609375,0.026123046875,0.9951171875,0.20458984375,0.7324218153953552,-1.2512205839157104,-0.7324218153953552,80.0,126910.0,1.0
14639.4576181,293029.78125,295657.09375,334551.625,329891.65625,285335.78125,256000.265625,222445.5625,244190.234375,0.027587890625,0.995849609375,0.202392578125,0.7019042372703552,-1.1596678495407104,-0.7629393935203552,80.0,126911.0,1.0
14639.4601121,293016.09375,295404.0625,334377.46875,329890.125,285217.46875,255933.46875,222390.03125,244184.140625,0.026611328125,0.993896484375,0.2041015625,0.8239745497703552,-1.1901854276657104,-0.7324218153953552,80.0,126912.0,1.0
14639.4625431,293050.875,295284.15625,334379.25,329944.5,285188.25,255919.703125,222390.84375,244205.609375,0.02880859375,0.991943359375,0.2041015625,0.8544921278953552,-1.0986326932907104,-0.9155272841453552,80.0,126913.0,1.0
14639.4651126,293074.65625,295467.625,334562.1875,329964.6875,285284.96875,255948.3125,222422.75,244203.453125,0.029541015625,0.994384765625,0.201416015625,0.9155272841453552,-1.0681151151657104,-0.8544921278953552,80.0,126914.0,1.0
14639.4676283,293057.21875,295683.5625,334662.5,329921.0625,285370.46875,255987.828125,222449.125,244191.921875,0.02978515625,0.993896484375,0.202392578125,1.0375975370407104,-0.9460448622703552,-0.7629393935203552,80.0,126915.0,1.0
14639.4700719,293027.28125,295651.625,334555.125,329882.15625,285337.03125,255986.40625,222448.6875,244204.703125,0.02880859375,0.993408203125,0.20166015625,1.0375975370407104,-0.8544921278953552,-0.6408690810203552,80.0,126916.0,1.0
14639.4732805,293021.0,295408.34375,334390.53125,329891.28125,285223.90625,255940.265625,222404.96875,244198.8125,0.02685546875,0.99462890625,0.2041015625,1.0986326932907104,-0.8544921278953552,-0.6408690810203552,80.0,126917.0,1.0
14639.4732866,293052.75,295291.59375,334393.8125,329939.125,285187.1875,255924.0,222386.015625,244188.4375,0.028564453125,0.99462890625,0.202392578125,1.0375975370407104,-0.7934569716453552,-0.5493163466453552,80.0,126918.0,1.0
14639.4781975,293073.21875,295468.71875,334563.78125,329951.8125,285276.03125,255961.8125,222418.828125,244177.171875,0.028564453125,0.995849609375,0.203369140625,0.9460448622703552,-0.8239745497703552,-0.4882812201976776,80.0,126919.0,1.0
14639.4782039,293071.53125,295702.25,334676.96875,329925.71875,285375.46875,256012.78125,222461.203125,244182.890625,0.0263671875,0.992431640625,0.1982421875,0.9155272841453552,-0.7934569716453552,-0.6103515028953552,80.0,126920.0,1.0
14639.4800972,293041.9375,295671.84375,334575.9375,329886.0,285342.84375,255995.796875,222441.265625,244179.234375,0.0283203125,0.989501953125,0.198486328125,1.0070799589157104,-0.6713866591453552,-0.6713866591453552,80.0,126921.0,1.0
14639.4826118,293031.28125,295421.15625,334402.0625,329895.59375,285230.625,255949.296875,222405.328125,244192.734375,0.0263671875,0.99072265625,0.1962890625,1.1291502714157104,-0.7324218153953552,-0.7934569716453552,80.0,126922.0,1.0
14639.4851307,293058.46875,295295.53125,334393.65625,329943.9375,285191.1875,255931.421875,222395.3125,244193.09375,0.02392578125,0.9912109375,0.196044921875,1.1901854276657104,-0.7019042372703552,-0.8239745497703552,80.0,126923.0,1.0
14639.48757,293082.53125,295465.03125,334552.875,329963.4375,285276.59375,255960.484375,222428.03125,244202.296875,0.021240234375,0.99365234375,0.201904296875,1.2512205839157104,-0.7934569716453552,-0.8239745497703552,80.0,126924.0,1.0
14639.4900998,293072.40625,295694.1875,334657.65625,329925.0,285369.125,255999.734375,222458.25,244196.21875,0.023681640625,0.994873046875,0.2001953125,1.1901854276657104,-0.9155272841453552,-0.7629393935203552,80.0,126925.0,1.0
14639.4943728,293041.03125,295665.125,334559.125,329884.75,285337.90625,255991.40625,222443.140625,244185.578125,0.0224609375,0.996337890625,0.20166015625,1.1901854276657104,-0.8544921278953552,-0.8544921278953552,80.0,126926.0,1.0
14639.494379,293033.71875,295420.96875,334402.0625,329896.9375,285232.40625,255946.625,222399.59375,244185.3125,0.021728515625,0.998046875,0.19873046875,1.0986326932907104,-0.9460448622703552,-0.7324218153953552,80.0,126927.0,1.0
14639.4943811,293056.5,295295.96875,334398.125,329939.03125,285195.40625,255926.5,222392.71875,244197.5625,0.021240234375,0.996826171875,0.19580078125,1.0375975370407104,-1.0986326932907104,-0.7629393935203552,80.0,126928.0,1.0
14639.4943831,293087.34375,295489.375,334587.125,329972.125,285304.46875,255972.09375,222445.203125,244227.78125,0.021240234375,0.99658203125,0.1962890625,1.0375975370407104,-1.1596678495407104,-0.8239745497703552,80.0,126929.0,1.0
14639.4963469,293075.90625,295715.1875,334693.15625,329932.6875,285394.15625,256007.140625,222469.6875,244208.109375,0.019775390625,0.9951171875,0.1943359375,1.0070799589157104,-1.1901854276657104,-0.9460448622703552,80.0,126930.0,1.0
14639.4988587,293034.15625,295662.53125,334566.28125,329876.90625,285340.5,255989.796875,222440.015625,244185.578125,0.02099609375,0.9970703125,0.195556640625,1.0070799589157104,-1.1291502714157104,-0.8544921278953552,80.0,126931.0,1.0
14639.501903,293025.21875,295403.25,334380.3125,329885.46875,285215.875,255945.546875,222394.140625,244185.046875,0.019775390625,0.996337890625,0.19482421875,1.0681151151657104,-1.3732908964157104,-0.9155272841453552,80.0,126932.0,1.0
14639.5019096,293058.28125,295289.71875,334387.9375,329941.8125,285191.03125,255943.765625,222400.3125,244204.890625,0.021728515625,0.99755859375,0.196533203125,1.0375975370407104,-1.5563963651657104,-0.9155272841453552,80.0,126933.0,1.0
14639.5037996,293082.875,295480.34375,334578.0,329963.09375,285295.09375,255968.875,222438.140625,244216.6875,0.02490234375,0.994873046875,0.196044921875,1.0375975370407104,-1.6479490995407104,-0.9765624403953552,80.0,126934.0,1.0
14639.5063047,293073.6875,295706.96875,334678.84375,329928.40625,285386.28125,256007.328125,222472.28125,244217.671875,0.028076171875,0.99462890625,0.197509765625,1.0681151151657104,-1.8005369901657104,-0.8239745497703552,80.0,126935.0,1.0
14639.5087874,293037.1875,295658.4375,334557.625,329881.90625,285339.0625,255979.25,222449.578125,244215.796875,0.0283203125,0.99462890625,0.194580078125,0.9460448622703552,-1.7395018339157104,-0.8239745497703552,80.0,126936.0,1.0
14639.5113193,293030.03125,295411.84375,334392.5625,329887.28125,285226.25,255939.90625,222401.65625,244192.46875,0.02880859375,0.997314453125,0.196044921875,1.0375975370407104,-1.7089842557907104,-0.7019042372703552,80.0,126937.0,1.0
14639.5144244,293057.75,295293.28125,334390.6875,329936.96875,285193.15625,255929.90625,222402.640625,244205.25,0.02783203125,0.99755859375,0.1953125,0.9765624403953552,-1.6784666776657104,-0.4577636420726776,80.0,126938.0,1.0
14639.5144308,293077.96875,295476.84375,334565.21875,329961.28125,285291.40625,255962.265625,222441.265625,244230.453125,0.029052734375,0.99853515625,0.192626953125,0.8544921278953552,-1.8005369901657104,-0.4272460639476776,80.0,126939.0,1.0
14639.5238953,293064.28125,295688.8125,334654.71875,329916.78125,285368.65625,256003.296875,222454.9375,244190.671875,0.030517578125,0.999755859375,0.192138671875,0.7019042372703552,-1.7700194120407104,-0.4272460639476776,80.0,126940.0,1.0
14639.5281943,293047.84375,295665.125,334553.59375,329883.5,285339.34375,256010.015625,222452.265625,244186.46875,0.029541015625,0.995361328125,0.19140625,0.5798339247703552,-1.6784666776657104,-0.3967284858226776,80.0,126941.0,1.0
14639.5282008,293040.40625,295421.0625,334394.71875,329892.1875,285231.59375,255959.140625,222410.59375,244188.625,0.03076171875,0.99267578125,0.194580078125,0.6408690810203552,-1.6784666776657104,-0.3051757514476776,80.0,126942.0,1.0
14639.5393882,293070.09375,295306.6875,334400.25,329946.0,285206.40625,255950.90625,222414.890625,244226.4375,0.030029296875,0.990966796875,0.1943359375,0.6713866591453552,-1.6174315214157104,-0.3051757514476776,80.0,126943.0,1.0
14639.5393957,293097.53125,295497.0625,334582.5625,329967.90625,285308.125,255982.5625,222455.5625,244232.515625,0.030029296875,0.991943359375,0.19482421875,0.6713866591453552,-1.5258787870407104,-0.5493163466453552,80.0,126944.0,1.0
14639.5669154,293082.875,295719.21875,334689.0625,329929.5625,285398.71875,256021.359375,222478.375,244206.234375,0.026611328125,0.993408203125,0.1923828125,0.7629393935203552,-1.4648436307907104,-0.5798339247703552,80.0,126945.0,1.0
14639.5669272,293050.53125,295677.90625,334577.375,329885.65625,285358.21875,256011.890625,222456.015625,244196.84375,0.024658203125,0.99755859375,0.19287109375,0.7324218153953552,-1.3732908964157104,-0.7324218153953552,80.0,126946.0,1.0
14639.5700249,293041.9375,295430.0,334406.34375,329892.90625,285241.96875,255953.953125,222406.21875,244198.359375,0.0263671875,0.996826171875,0.190673828125,0.8850097060203552,-1.4038084745407104,-0.9155272841453552,80.0,126947.0,1.0
14639.570036,293070.1875,295311.8125,334409.03125,329945.65625,285210.15625,255930.609375,222404.515625,244220.453125,0.025390625,0.998779296875,0.195556640625,0.7324218153953552,-1.4038084745407104,-1.0070799589157104,80.0,126948.0,1.0
14639.5700375,293098.09375,295496.5,334587.5625,329969.625,285308.5,255974.78125,222453.328125,244232.0625,0.027099609375,0.996826171875,0.195068359375,0.7324218153953552,-1.4953612089157104,-1.1596678495407104,80.0,126949.0,1.0
14639.5737311,293076.96875,295707.25,334672.40625,329925.53125,285384.9375,256006.4375,222473.890625,244224.828125,0.02978515625,0.997314453125,0.196533203125,0.7324218153953552,-1.4648436307907104,-1.1901854276657104,80.0,126950.0,1.0
14639.5737355,293048.46875,295667.8125,334560.21875,329884.59375,285344.15625,255995.96875,222444.484375,244197.828125,0.029296875,0.998779296875,0.1923828125,0.6103515028953552,-1.4038084745407104,-1.1596678495407104,80.0,126951.0,1.0
14639.573737,293042.46875,295426.40625,334399.1875,329893.96875,285236.53125,255961.375,222407.734375,244195.6875,0.031005859375,0.9970703125,0.190185546875,0.5187987685203552,-1.3427733182907104,-1.2512205839157104,80.0,126952.0,1.0
14639.5769043,293067.3125,295311.96875,334408.75,329940.90625,285208.53125,255947.25,222405.765625,244210.171875,0.03076171875,0.993896484375,0.191650390625,0.4882812201976776,-1.2817381620407104,-1.2817381620407104,80.0,126953.0,1.0
14639.5769109,293096.375,295498.9375,334589.28125,329964.78125,285310.90625,255978.1875,222449.75,244232.421875,0.028564453125,0.99462890625,0.192138671875,0.5493163466453552,-1.1901854276657104,-1.2817381620407104,80.0,126954.0,1.0
14639.5788045,293084.3125,295713.59375,334684.65625,329927.3125,285394.59375,256007.78125,222475.5,244223.3125,0.028076171875,0.994140625,0.1953125,0.5798339247703552,-1.0986326932907104,-1.3732908964157104,80.0,126955.0,1.0
14639.5875609,293048.1875,295661.1875,334563.0625,329879.40625,285346.75,255992.578125,222449.3125,244198.984375,0.02685546875,0.995849609375,0.196533203125,0.6713866591453552,-1.1901854276657104,-1.4648436307907104,80.0,126956.0,1.0
14639.5906944,293035.125,295403.71875,334380.0625,329885.21875,285224.71875,255941.078125,222402.453125,244200.0625,0.025390625,0.996337890625,0.19580078125,0.6713866591453552,-1.1901854276657104,-1.4038084745407104,80.0,126957.0,1.0
14639.5906987,293060.8125,295285.59375,334377.03125,329936.8125,285189.125,255911.65625,222395.671875,244230.640625,0.026123046875,0.996826171875,0.197998046875,0.6408690810203552,-1.0986326932907104,-1.4343260526657104,80.0,126958.0,1.0
14639.5926215,293089.5,295480.59375,334565.21875,329958.78125,285294.46875,255956.71875,222445.734375,244227.15625,0.025634765625,0.997314453125,0.197998046875,0.7019042372703552,-1.1291502714157104,-1.3122557401657104,80.0,126959.0,1.0
14639.6471201,293095.21875,295719.5,334688.6875,329930.375,285399.5,256015.28125,222481.3125,244203.90625,0.025634765625,0.998291015625,0.200439453125,0.6713866591453552,-1.0681151151657104,-1.2207030057907104,80.0,126960.0,1.0
14639.6471534,293052.9375,295663.875,334569.96875,329876.53125,285349.625,255987.65625,222443.5,244182.8125,0.023681640625,0.998046875,0.1982421875,0.5493163466453552,-1.0375975370407104,-1.1291502714157104,80.0,126961.0,1.0
14639.6713761,293038.8125,295410.9375,334395.6875,329882.09375,285231.4375,255937.328125,222397.09375,244183.4375,0.022216796875,0.995361328125,0.195068359375,0.6103515028953552,-1.1596678495407104,-0.9155272841453552,80.0,126962.0,1.0
14639.6776137,293071.25,295304.03125,334402.0625,329938.40625,285201.84375,255929.359375,222398.96875,244201.40625,0.022216796875,0.99365234375,0.190185546875,0.5187987685203552,-1.2207030057907104,-0.9765624403953552,80.0,126963.0,1.0
14639.6801297,293100.6875,295495.4375,334578.1875,329964.59375,285302.0625,255976.75,222452.078125,244219.1875,0.023193359375,0.99462890625,0.1884765625,0.6408690810203552,-1.2207030057907104,-0.9155272841453552,80.0,126964.0,1.0
14639.6833024,293087.53125,295714.5,334673.84375,329930.625,285389.21875,256021.28125,222492.9375,244225.984375,0.022216796875,0.99609375,0.193115234375,0.6103515028953552,-1.3122557401657104,-0.8850097060203552,80.0,126965.0,1.0
14639.6833186,293052.3125,295666.21875,334558.15625,329877.15625,285343.1875,255999.375,222461.828125,244198.09375,0.020263671875,0.994384765625,0.19921875,0.7019042372703552,-1.4038084745407104,-0.9155272841453552,80.0,126966.0,1.0
14639.6851432,293036.84375,295407.90625,334383.46875,329876.09375,285219.625,255937.40625,222395.9375,244178.78125,0.021728515625,0.99853515625,0.199951171875,0.5493163466453552,-1.5258787870407104,-1.0375975370407104,80.0,126967.0,1.0
14639.7201482,293068.03125,295295.4375,334392.21875,329932.78125,285192.53125,255923.375,222400.40625,244206.5,0.02294921875,0.998779296875,0.1962890625,0.4272460639476776,-1.7089842557907104,-0.9155272841453552,80.0,126968.0,1.0
14639.7451406,293095.21875,295486.84375,334575.0625,329955.40625,285298.9375,255970.21875,222453.25,244227.6875,0.022705078125,0.998291015625,0.19482421875,0.5493163466453552,-1.7395018339157104,-0.7934569716453552,80.0,126969.0,1.0
14639.7701391,293086.09375,295714.3125,334680.5625,329918.8125,285393.625,256014.296875,222488.015625,244220.0,0.02294921875,0.998046875,0.195068359375,0.4272460639476776,-1.7395018339157104,-0.7629393935203552,80.0,126970.0,1.0
14639.7951245,293050.53125,295670.6875,334573.8125,329874.5625,285354.375,255999.1875,222465.046875,244202.46875,0.02294921875,0.99609375,0.195556640625,0.5798339247703552,-1.8005369901657104,-0.7629393935203552,80.0,126971.0,1.0
14639.8063695,293036.9375,295411.65625,334397.84375,329881.1875,285233.75,255942.78125,222414.359375,244204.625,0.02294921875,0.996826171875,0.192626953125,0.5493163466453552,-1.8920897245407104,-0.8544921278953552,80.0,126972.0,1.0
14639.8088457,293064.09375,295291.9375,334388.90625,329932.15625,285195.65625,255925.078125,222406.65625,244227.328125,0.0234375,0.998291015625,0.195068359375,0.5798339247703552,-1.9531248807907104,-0.8850097060203552,80.0,126973.0,1.0
14639.8113285,293093.625,295483.1875,334563.6875,329955.46875,285294.1875,255975.59375,222455.65625,244236.359375,0.025390625,0.999267578125,0.1943359375,0.4882812201976776,-1.9531248807907104,-0.8544921278953552,80.0,126974.0,1.0
14639.8138295,293076.71875,295696.78125,334652.3125,329912.125,285374.75,256009.828125,222479.078125,244222.5,0.026611328125,0.997314453125,0.193115234375,0.3967284858226776,-1.9531248807907104,-0.8850097060203552,80.0,126975.0,1.0
14639.8388809,293039.6875,295650.21875,334544.75,329866.96875,285334.25,255990.875,222455.125,244202.125,0.02734375,0.995849609375,0.195556640625,0.3051757514476776,-1.8310545682907104,-0.8850097060203552,80.0,126976.0,1.0
14639.8638949,293027.1875,295397.71875,334373.71875,329874.5625,285217.5625,255937.953125,222407.28125,244206.40625,0.028564453125,0.995849609375,0.193115234375,0.2441406100988388,-1.8005369901657104,-0.8239745497703552,80.0,126977.0,1.0
14639.8889003,293053.5625,295280.3125,334375.21875,329923.75,285185.21875,255909.34375,222404.0625,244215.4375,0.028564453125,0.994873046875,0.19189453125,0.2136230319738388,-1.8920897245407104,-0.8239745497703552,80.0,126978.0,1.0
14639.9139766,293079.3125,295470.40625,334557.25,329943.6875,285287.65625,255950.828125,222444.03125,244222.328125,0.030029296875,0.994384765625,0.189697265625,0.2746581733226776,-1.8310545682907104,-0.8850097060203552,80.0,126979.0,1.0
14639.938907,293065.0,295687.3125,334653.28125,329901.3125,285371.34375,255987.125,222459.953125,244202.125,0.030029296875,0.992431640625,0.194580078125,0.2746581733226776,-1.8615721464157104,-0.8544921278953552,80.0,126980.0,1.0
14639.9639132,293037.5625,295646.34375,334544.84375,329864.46875,285333.96875,255975.234375,222440.546875,244184.140625,0.028076171875,0.994140625,0.19580078125,0.3967284858226776,-1.8310545682907104,-0.8850097060203552,80.0,126981.0,1.0
14639.9894261,293034.78125,295399.5,334381.3125,329881.46875,285226.96875,255938.84375,222406.03125,244193.0,0.027587890625,0.993408203125,0.19677734375,0.3662109076976776,-1.7700194120407104,-1.0375975370407104,80.0,126982.0,1.0
14639.9894398,293061.6875,295287.84375,334386.40625,329933.03125,285198.09375,255926.40625,222409.796875,244221.515625,0.0283203125,0.991943359375,0.19384765625,0.5187987685203552,-1.6479490995407104,-1.0070799589157104,80.0,126983.0,1.0
14639.9913186,293099.78125,295488.5625,334580.25,329965.5,285315.75,255988.1875,222478.375,244254.328125,0.026611328125,0.992431640625,0.19091796875,0.5187987685203552,-1.6784666776657104,-1.0681151151657104,80.0,126984.0,1.0
14640.0163343,293075.46875,295691.0625,334661.875,329911.40625,285383.96875,255996.859375,222479.078125,244216.953125,0.024658203125,0.99267578125,0.189697265625,0.5798339247703552,-1.6479490995407104,-1.0986326932907104,80.0,126985.0,1.0
14640.0239123,293035.40625,295639.03125,334535.1875,329861.59375,285329.59375,255965.84375,222440.1875,244195.859375,0.02490234375,0.99365234375,0.194580078125,0.5798339247703552,-1.6174315214157104,-1.0986326932907104,80.0,126986.0,1.0
14640.0489385,293025.03125,295391.28125,334366.1875,329871.4375,285218.71875,255925.609375,222400.578125,244190.5,0.02734375,0.994140625,0.19189453125,0.5187987685203552,-1.6784666776657104,-1.0375975370407104,80.0,126987.0,1.0
14640.0738573,293060.71875,295288.5625,334380.0625,329929.1875,285198.4375,255925.515625,222405.140625,244214.09375,0.029296875,0.994384765625,0.192626953125,0.4882812201976776,-1.6174315214157104,-1.0681151151657104,80.0,126988.0,1.0
14640.1101856,293088.78125,295489.1875,334568.96875,329954.21875,285308.6875,255979.875,222463.609375,244236.546875,0.0263671875,0.994140625,0.190185546875,0.4272460639476776,-1.5563963651657104,-1.0681151151657104,80.0,126989.0,1.0
14640.1127344,293068.5625,295696.25,334654.96875,329912.03125,285386.71875,256009.5625,222494.734375,244236.546875,0.02490234375,0.993896484375,0.1904296875,0.4882812201976776,-1.5258787870407104,-1.0375975370407104,80.0,126990.0,1.0
14640.1150887,293034.6875,295643.40625,334539.8125,329868.21875,285340.9375,255991.234375,222471.21875,244225.546875,0.023681640625,0.993896484375,0.190673828125,0.5187987685203552,-1.5869139432907104,-1.0986326932907104,80.0,126991.0,1.0
14640.117569,293025.84375,295399.40625,334382.46875,329874.46875,285230.28125,255941.4375,222416.671875,244196.3125,0.023681640625,0.99609375,0.192626953125,0.6408690810203552,-1.5869139432907104,-1.1291502714157104,80.0,126992.0,1.0
14640.1200643,293056.6875,295294.90625,334395.625,329929.09375,285207.28125,255938.484375,222421.0625,244219.015625,0.022216796875,0.999267578125,0.193115234375,0.7629393935203552,-1.6479490995407104,-1.0681151151657104,80.0,126993.0,1.0
14640.14514,293078.84375,295474.34375,334560.03125,329947.15625,285299.03125,255967.625,222455.75,244231.984375,0.024169921875,0.997314453125,0.194091796875,0.5798339247703552,-1.7089842557907104,-1.1291502714157104,80.0,126994.0,1.0
14640.1738897,293064.03125,295690.96875,334646.75,329907.75,285382.0,256004.015625,222489.28125,244233.953125,0.024658203125,0.9990234375,0.192138671875,0.4577636420726776,-1.7395018339157104,-1.0986326932907104,80.0,126995.0,1.0
14640.1988572,293033.53125,295638.40625,334524.90625,329868.03125,285337.09375,255994.265625,222475.78125,244239.40625,0.023681640625,0.99658203125,0.1953125,0.5798339247703552,-1.7700194120407104,-1.1901854276657104,80.0,126996.0,1.0
14640.228884,293024.9375,295390.375,334361.0,329870.90625,285221.78125,255936.6875,222417.921875,244211.953125,0.02294921875,0.9970703125,0.1923828125,0.5187987685203552,-1.8920897245407104,-1.0986326932907104,80.0,126997.0,1.0
14640.2539098,293058.65625,295295.25,334387.375,329926.15625,285204.59375,255929.625,222412.03125,244218.125,0.021728515625,0.997802734375,0.1943359375,0.3662109076976776,-1.8920897245407104,-1.0070799589157104,80.0,126998.0,1.0
14640.2789228,293085.375,295488.375,334568.71875,329949.03125,285308.21875,255966.109375,222459.859375,244239.84375,0.0224609375,0.99755859375,0.194091796875,0.3051757514476776,-1.9226073026657104,-1.0070799589157104,80.0,126999.0,1.0
14640.303894,293063.46875,295694.46875,334652.375,329902.1875,285382.875,255994.453125,222478.453125,244222.0625,0.02197265625,0.99560546875,0.193603515625,0.1220703050494194,-1.8920897245407104,-0.8850097060203552,80.0,127000.0,1.0
14640.3309767,293036.125,295644.75,334534.65625,329865.09375,285339.4375,255983.453125,222454.3125,244208.375,0.022216796875,0.993408203125,0.193603515625,0.1220703050494194,-1.8920897245407104,-0.9460448622703552,80.0,127001.0,1.0
14640.3309939,293029.875,295396.09375,334368.15625,329877.78125,285228.65625,255936.96875,222424.453125,244226.703125,0.0234375,0.9951171875,0.19091796875,0.1220703050494194,-2.014159917831421,-0.9155272841453552,80.0,127002.0,1.0
14640.3309952,293064.5625,295298.375,334388.46875,329930.4375,285209.71875,255942.6875,222433.390625,244243.328125,0.022705078125,0.997802734375,0.194091796875,0.03051757626235485,-2.136230230331421,-0.9460448622703552,80.0,127003.0,1.0
14640.3309966,293095.84375,295501.25,334579.625,329951.375,285315.90625,255981.484375,222460.75,244237.96875,0.025146484375,0.997314453125,0.193115234375,0.0915527269244194,-2.105712652206421,-0.9765624403953552,80.0,127004.0,1.0
14640.3309979,293080.65625,295711.96875,334667.40625,329913.8125,285399.4375,256009.390625,222489.28125,244237.171875,0.025146484375,0.998291015625,0.19287109375,0.0,-2.136230230331421,-0.8850097060203552,80.0,127005.0,1.0
14640.3309991,293040.78125,295641.09375,334528.28125,329864.46875,285337.09375,255979.609375,222453.78125,244210.171875,0.028076171875,0.99609375,0.19384765625,-0.0610351525247097,-2.136230230331421,-1.0070799589157104,80.0,127006.0,1.0
14640.3310003,293048.625,295400.125,334368.53125,329887.71875,285232.875,255945.28125,222420.703125,244219.546875,0.0244140625,0.99755859375,0.19189453125,-0.1220703050494194,-2.105712652206421,-0.9765624403953552,80.0,127007.0,1.0
14640.3310015,293079.03125,295303.5625,334386.5,329941.625,285214.25,255940.890625,222427.578125,244240.921875,0.0234375,0.998291015625,0.190673828125,-0.2136230319738388,-2.014159917831421,-0.8850097060203552,80.0,127008.0,1.0
14640.3310027,293097.8125,295496.5,334569.0625,329957.375,285315.03125,255973.265625,222474.4375,244251.828125,0.026123046875,0.998291015625,0.193359375,-0.2441406100988388,-1.9531248807907104,-0.9460448622703552,80.0,127009.0,1.0
14640.3310039,293083.6875,295715.28125,334666.0625,329919.53125,285404.0625,256011.265625,222502.0625,244251.921875,0.026123046875,0.9970703125,0.19091796875,-0.3051757514476776,-2.014159917831421,-1.0070799589157104,80.0,127010.0,1.0
14640.3310051,293045.0625,295655.21875,334545.375,329868.75,285351.875,255988.46875,222466.125,244225.90625,0.02685546875,0.998046875,0.1943359375,-0.4272460639476776,-1.8310545682907104,-0.9460448622703552,80.0,127011.0,1.0
14640.3310062,293034.34375,295395.84375,334371.75,329869.21875,285224.71875,255929.359375,222405.40625,244206.140625,0.027099609375,0.998046875,0.193115234375,-0.5493163466453552,-1.9531248807907104,-0.9155272841453552,80.0,127012.0,1.0
14640.3310078,293062.125,295279.15625,334373.25,329918.65625,285187.96875,255908.0,222404.15625,244229.828125,0.02783203125,0.99755859375,0.1904296875,-0.6408690810203552,-1.8920897245407104,-0.9765624403953552,80.0,127013.0,1.0
14640.331009,293090.75,295481.40625,334564.25,329943.40625,285299.375,255959.140625,222462.546875,244251.65625,0.026123046875,0.99560546875,0.191162109375,-0.5798339247703552,-1.7700194120407104,-0.9460448622703552,80.0,127014.0,1.0
14640.3310102,293073.21875,295687.3125,334649.34375,329907.21875,285382.25,256006.078125,222503.21875,244260.046875,0.025146484375,0.99755859375,0.1953125,-0.5798339247703552,-1.6784666776657104,-1.0070799589157104,80.0,127015.0,1.0
14640.3310114,293034.6875,295630.09375,334528.75,329853.75,285332.0,255983.28125,222461.203125,244207.75,0.028076171875,0.997314453125,0.197998046875,-0.4882812201976776,-1.6479490995407104,-1.0681151151657104,80.0,127016.0,1.0
14640.3310127,293029.25,295380.46875,334365.46875,329865.625,285219.28125,255929.984375,222416.671875,244212.75,0.0263671875,0.997314453125,0.19580078125,-0.5798339247703552,-1.6174315214157104,-1.0375975370407104,80.0,127017.0,1.0
14640.3326019,293068.125,295284.875,334382.46875,329927.5,285198.71875,255925.078125,222426.25,244253.078125,0.027587890625,0.99609375,0.195556640625,-0.7324218153953552,-1.5258787870407104,-0.9155272841453552,80.0,127018.0,1.0
14640.3576701,293095.75,295479.875,334556.8125,329944.5625,285291.6875,255962.4375,222462.984375,244245.921875,0.027099609375,0.9970703125,0.198974609375,-0.7324218153953552,-1.5563963651657104,-0.9155272841453552,80.0,127019.0,1.0
14640.3876339,293080.28125,295691.34375,334641.9375,329901.125,285370.8125,255992.65625,222484.0,244234.9375,0.0263671875,0.995849609375,0.197509765625,-0.7324218153953552,-1.4953612089157104,-1.0375975370407104,80.0,127020.0,1.0
14640.4138131,293048.1875,295635.375,334514.0,329861.53125,285321.90625,255983.1875,222464.59375,244226.703125,0.030029296875,0.99560546875,0.1962890625,-0.8544921278953552,-1.4343260526657104,-0.8850097060203552,80.0,127021.0,1.0
14640.4138201,293043.71875,295394.3125,334359.84375,329877.34375,285217.125,255945.90625,222425.171875,244222.59375,0.02734375,0.99365234375,0.19677734375,-0.8850097060203552,-1.4038084745407104,-0.9460448622703552,80.0,127022.0,1.0
14640.4138216,293069.1875,295289.625,334380.15625,329928.46875,285196.28125,255914.171875,222420.703125,244250.125,0.02490234375,0.992431640625,0.1962890625,-0.7934569716453552,-1.3427733182907104,-1.0375975370407104,80.0,127023.0,1.0
14640.4213714,293088.875,295476.5,334550.03125,329944.3125,285289.53125,255944.65625,222464.515625,244262.640625,0.026123046875,0.99365234375,0.197021484375,-0.7019042372703552,-1.3427733182907104,-1.0375975370407104,80.0,127024.0,1.0
14640.423915,293074.03125,295694.0,334637.46875,329900.40625,285371.0,255996.421875,222491.875,244246.640625,0.024658203125,0.993408203125,0.199462890625,-0.6408690810203552,-1.2512205839157104,-0.9460448622703552,80.0,127025.0,1.0
14640.4263911,293042.90625,295644.21875,334523.28125,329859.28125,285330.40625,255990.421875,222470.859375,244228.765625,0.02587890625,0.994140625,0.19775390625,-0.6103515028953552,-1.3122557401657104,-1.0681151151657104,80.0,127026.0,1.0
14640.4338617,293037.71875,295396.90625,334363.15625,329875.8125,285224.28125,255947.609375,222439.125,244245.75,0.025390625,0.994873046875,0.19970703125,-0.6713866591453552,-1.1596678495407104,-0.8850097060203552,80.0,127027.0,1.0
14640.433869,293072.15625,295299.5625,334386.21875,329936.53125,285208.53125,255939.109375,222440.1875,244273.640625,0.02587890625,0.995849609375,0.20166015625,-0.7324218153953552,-1.0986326932907104,-1.0375975370407104,80.0,127028.0,1.0
14640.4338703,293098.34375,295500.90625,334573.25,329950.125,285311.8125,255977.734375,222464.78125,244252.28125,0.02734375,0.995849609375,0.199462890625,-0.7019042372703552,-1.0986326932907104,-0.9765624403953552,80.0,127029.0,1.0
14640.4338715,293078.59375,295703.21875,334651.6875,329903.28125,285386.71875,256002.859375,222486.953125,244242.984375,0.025390625,0.99560546875,0.199951171875,-0.7019042372703552,-1.0070799589157104,-1.0070799589157104,80.0,127030.0,1.0
14640.4338727,293045.40625,295641.34375,334524.28125,329859.46875,285334.5,255971.296875,222454.5,244231.0,0.0244140625,0.99365234375,0.1982421875,-0.6103515028953552,-1.0375975370407104,-0.9765624403953552,80.0,127031.0,1.0
14640.4338739,293039.25,295386.625,334353.875,329873.3125,285218.5625,255927.21875,222408.890625,244229.75,0.02392578125,0.99169921875,0.197509765625,-0.4882812201976776,-1.0375975370407104,-0.8850097060203552,80.0,127032.0,1.0
14640.4338751,293077.25,295294.09375,334380.40625,329930.90625,285204.875,255925.15625,222421.859375,244251.734375,0.022705078125,0.991455078125,0.198486328125,-0.4882812201976776,-0.9460448622703552,-0.9765624403953552,80.0,127033.0,1.0
14640.4338763,293103.71875,295495.8125,334567.46875,329953.6875,285314.3125,255977.46875,222483.734375,244284.1875,0.02294921875,0.993408203125,0.19970703125,-0.3356933295726776,-1.0070799589157104,-1.0375975370407104,80.0,127034.0,1.0
14640.4363775,293079.5625,295695.53125,334638.34375,329906.84375,285383.34375,255999.28125,222498.3125,244268.8125,0.0234375,0.99560546875,0.201904296875,-0.2441406100988388,-1.1901854276657104,-1.0375975370407104,80.0,127035.0,1.0
14640.4389028,293041.40625,295632.3125,334514.96875,329859.28125,285332.1875,255970.671875,222460.125,244241.1875,0.023681640625,0.9970703125,0.203369140625,-0.2441406100988388,-1.2207030057907104,-1.0375975370407104,80.0,127036.0,1.0
14640.4639146,293030.59375,295375.90625,334348.21875,329870.0,285215.6875,255922.03125,222418.828125,244241.1875,0.024169921875,0.9970703125,0.20068359375,-0.3051757514476776,-1.1596678495407104,-1.0070799589157104,80.0,127037.0,1.0
14640.4889062,293069.84375,295286.3125,334373.0,329930.90625,285202.09375,255924.171875,222432.046875,244265.953125,0.023193359375,0.99462890625,0.197998046875,-0.3051757514476776,-1.1901854276657104,-0.8850097060203552,80.0,127038.0,1.0
14640.5139224,293100.21875,295493.75,334567.71875,329953.25,285316.8125,255976.390625,222485.875,244279.015625,0.02392578125,0.994873046875,0.1982421875,-0.2136230319738388,-1.2207030057907104,-0.8544921278953552,80.0,127039.0,1.0
14640.5489137,293086.625,295706.4375,334658.5625,329911.75,285402.46875,256020.5625,222513.765625,244263.8125,0.023193359375,0.995361328125,0.19921875,-0.0915527269244194,-1.3122557401657104,-0.9460448622703552,80.0,127040.0,1.0
14640.5739385,293057.21875,295651.09375,334537.875,329872.34375,285356.78125,256005.265625,222492.765625,244255.21875,0.025146484375,0.995849609375,0.201416015625,-0.0915527269244194,-1.2207030057907104,-0.9460448622703552,80.0,127041.0,1.0
14640.6019937,293050.15625,295400.40625,334371.21875,329882.34375,285240.90625,255958.234375,222448.5,244255.21875,0.024658203125,0.994873046875,0.200927734375,0.0,-1.3427733182907104,-0.8850097060203552,80.0,127042.0,1.0
14640.6019983,293081.09375,295304.90625,334390.25,329935.71875,285220.4375,255954.578125,222458.078125,244286.421875,0.023681640625,0.99658203125,0.203857421875,0.0610351525247097,-1.3122557401657104,-0.8544921278953552,80.0,127043.0,1.0
14640.6263429,293112.46875,295519.9375,334585.0625,329961.28125,285336.125,256018.6875,222519.859375,244302.4375,0.025390625,0.99755859375,0.202880859375,0.0915527269244194,-1.3122557401657104,-0.7934569716453552,80.0,127044.0,1.0
14640.7284506,293089.40625,295718.34375,334661.15625,329911.125,285402.1875,256025.75,222518.25,244272.484375,0.025634765625,0.997802734375,0.204345703125,0.0,-1.3122557401657104,-0.8239745497703552,80.0,127045.0,1.0
14640.7284559,293046.9375,295641.4375,334526.9375,329862.0625,285340.6875,255975.671875,222477.203125,244251.296875,0.02490234375,0.99609375,0.20458984375,-0.03051757626235485,-1.3732908964157104,-0.8544921278953552,80.0,127046.0,1.0
14640.7284595,293046.9375,295641.4375,334526.9375,329862.0625,285340.6875,255975.671875,222477.203125,244251.296875,0.02490234375,0.99609375,0.20458984375,-0.03051757626235485,-1.3732908964157104,-0.8544921278953552,80.0,127047.0,0.0
14640.728461,293046.9375,295641.4375,334526.9375,329862.0625,285340.6875,255975.671875,222477.203125,244251.296875,0.02490234375,0.99609375,0.20458984375,-0.03051757626235485,-1.3732908964157104,-0.8544921278953552,80.0,127048.0,0.0
14640.7284612,293046.9375,295641.4375,334526.9375,329862.0625,285340.6875,255975.671875,222477.203125,244251.296875,0.02490234375,0.99609375,0.20458984375,-0.03051757626235485,-1.3732908964157104,-0.8544921278953552,80.0,127049.0,0.0
14640.7284614,293046.9375,295641.4375,334526.9375,329862.0625,285340.6875,255975.671875,222477.203125,244251.296875,0.02490234375,0.99609375,0.20458984375,-0.03051757626235485,-1.3732908964157104,-0.8544921278953552,80.0,127050.0,0.0
14640.7284615,293046.9375,295641.4375,334526.9375,329862.0625,285340.6875,255975.671875,222477.203125,244251.296875,0.02490234375,0.99609375,0.20458984375,-0.03051757626235485,-1.3732908964157104,-0.8544921278953552,80.0,127051.0,0.0
14640.7284617,293046.9375,295641.4375,334526.9375,329862.0625,285340.6875,255975.671875,222477.203125,244251.296875,0.02490234375,0.99609375,0.20458984375,-0.03051757626235485,-1.3732908964157104,-0.8544921278953552,80.0,127052.0,0.0
14640.7284619,293046.9375,295641.4375,334526.9375,329862.0625,285340.6875,255975.671875,222477.203125,244251.296875,0.02490234375,0.99609375,0.20458984375,-0.03051757626235485,-1.3732908964157104,-0.8544921278953552,80.0,127053.0,0.0
14640.7284621,293046.9375,295641.4375,334526.9375,329862.0625,285340.6875,255975.671875,222477.203125,244251.296875,0.02490234375,0.99609375,0.20458984375,-0.03051757626235485,-1.3732908964157104,-0.8544921278953552,80.0,127054.0,0.0
14640.7284623,293046.9375,295641.4375,334526.9375,329862.0625,285340.6875,255975.671875,222477.203125,244251.296875,0.02490234375,0.99609375,0.20458984375,-0.03051757626235485,-1.3732908964157104,-0.8544921278953552,80.0,127055.0,0.0
14640.7284624,293046.9375,295641.4375,334526.9375,329862.0625,285340.6875,255975.671875,222477.203125,244251.296875,0.02490234375,0.99609375,0.20458984375,-0.03051757626235485,-1.3732908964157104,-0.8544921278953552,80.0,127056.0,0.0
14640.7284626,293046.9375,295641.4375,334526.9375,329862.0625,285340.6875,255975.671875,222477.203125,244251.296875,0.02490234375,0.99609375,0.20458984375,-0.03051757626235485,-1.3732908964157104,-0.8544921278953552,80.0,127057.0,0.0
14640.7284628,293046.9375,295641.4375,334526.9375,329862.0625,285340.6875,255975.671875,222477.203125,244251.296875,0.02490234375,0.99609375,0.20458984375,-0.03051757626235485,-1.3732908964157104,-0.8544921278953552,80.0,127058.0,0.0
14640.728463,293046.9375,295641.4375,334526.9375,329862.0625,285340.6875,255975.671875,222477.203125,244251.296875,0.02490234375,0.99609375,0.20458984375,-0.03051757626235485,-1.3732908964157104,-0.8544921278953552,80.0,127059.0,0.0
14640.7284631,293046.9375,295641.4375,334526.9375,329862.0625,285340.6875,255975.671875,222477.203125,244251.296875,0.02490234375,0.99609375,0.20458984375,-0.03051757626235485,-1.3732908964157104,-0.8544921278953552,80.0,127060.0,0.0
14640.7284633,293046.9375,295641.4375,334526.9375,329862.0625,285340.6875,255975.671875,222477.203125,244251.296875,0.02490234375,0.99609375,0.20458984375,-0.03051757626235485,-1.3732908964157104,-0.8544921278953552,80.0,127061.0,0.0
14640.7284635,293046.9375,295641.4375,334526.9375,329862.0625,285340.6875,255975.671875,222477.203125,244251.296875,0.02490234375,0.99609375,0.20458984375,-0.03051757626235485,-1.3732908964157104,-0.8544921278953552,80.0,127062.0,0.0
14640.7284637,293046.9375,295641.4375,334526.9375,329862.0625,285340.6875,255975.671875,222477.203125,244251.296875,0.02490234375,0.99609375,0.20458984375,-0.03051757626235485,-1.3732908964157104,-0.8544921278953552,80.0,127063.0,0.0
14640.7284638,293046.9375,295641.4375,334526.9375,329862.0625,285340.6875,255975.671875,222477.203125,244251.296875,0.02490234375,0.99609375,0.20458984375,-0.03051757626235485,-1.3732908964157104,-0.8544921278953552,80.0,127064.0,0.0
14640.728464,293046.9375,295641.4375,334526.9375,329862.0625,285340.6875,255975.671875,222477.203125,244251.296875,0.02490234375,0.99609375,0.20458984375,-0.03051757626235485,-1.3732908964157104,-0.8544921278953552,80.0,127065.0,0.0
14640.7284642,293046.9375,295641.4375,334526.9375,329862.0625,285340.6875,255975.671875,222477.203125,244251.296875,0.02490234375,0.99609375,0.20458984375,-0.03051757626235485,-1.3732908964157104,-0.8544921278953552,80.0,127066.0,0.0
14640.7284644,293046.9375,295641.4375,334526.9375,329862.0625,285340.6875,255975.671875,222477.203125,244251.296875,0.02490234375,0.99609375,0.20458984375,-0.03051757626235485,-1.3732908964157104,-0.8544921278953552,80.0,127067.0,0.0
14640.7284645,293046.9375,295641.4375,334526.9375,329862.0625,285340.6875,255975.671875,222477.203125,244251.296875,0.02490234375,0.99609375,0.20458984375,-0.03051757626235485,-1.3732908964157104,-0.8544921278953552,80.0,127068.0,0.0
14640.7284647,293046.9375,295641.4375,334526.9375,329862.0625,285340.6875,255975.671875,222477.203125,244251.296875,0.02490234375,0.99609375,0.20458984375,-0.03051757626235485,-1.3732908964157104,-0.8544921278953552,80.0,127069.0,0.0
14640.7284649,293046.9375,295641.4375,334526.9375,329862.0625,285340.6875,255975.671875,222477.203125,244251.296875,0.02490234375,0.99609375,0.20458984375,-0.03051757626235485,-1.3732908964157104,-0.8544921278953552,80.0,127070.0,0.0
14640.7284651,293046.9375,295641.4375,334526.9375,329862.0625,285340.6875,255975.671875,222477.203125,244251.296875,0.02490234375,0.99609375,0.20458984375,-0.03051757626235485,-1.3732908964157104,-0.8544921278953552,80.0,127071.0,0.0
14640.7284652,293046.9375,295641.4375,334526.9375,329862.0625,285340.6875,255975.671875,222477.203125,244251.296875,0.02490234375,0.99609375,0.20458984375,-0.03051757626235485,-1.3732908964157104,-0.8544921278953552,80.0,127072.0,0.0
14640.7284654,293046.9375,295641.4375,334526.9375,329862.0625,285340.6875,255975.671875,222477.203125,244251.296875,0.02490234375,0.99609375,0.20458984375,-0.03051757626235485,-1.3732908964157104,-0.8544921278953552,80.0,127073.0,0.0
14640.7284656,293046.9375,295641.4375,334526.9375,329862.0625,285340.6875,255975.671875,222477.203125,244251.296875,0.02490234375,0.99609375,0.20458984375,-0.03051757626235485,-1.3732908964157104,-0.8544921278953552,80.0,127074.0,0.0
14640.7284657,293046.9375,295641.4375,334526.9375,329862.0625,285340.6875,255975.671875,222477.203125,244251.296875,0.02490234375,0.99609375,0.20458984375,-0.03051757626235485,-1.3732908964157104,-0.8544921278953552,80.0,127075.0,0.0
14640.7284659,293046.9375,295641.4375,334526.9375,329862.0625,285340.6875,255975.671875,222477.203125,244251.296875,0.02490234375,0.99609375,0.20458984375,-0.03051757626235485,-1.3732908964157104,-0.8544921278953552,80.0,127076.0,0.0
14640.7284741,293046.9375,295641.4375,334526.9375,329862.0625,285340.6875,255975.671875,222477.203125,244251.296875,0.02490234375,0.99609375,0.20458984375,-0.03051757626235485,-1.3732908964157104,-0.8544921278953552,80.0,127077.0,0.0
14640.7284744,293046.9375,295641.4375,334526.9375,329862.0625,285340.6875,255975.671875,222477.203125,244251.296875,0.02490234375,0.99609375,0.20458984375,-0.03051757626235485,-1.3732908964157104,-0.8544921278953552,80.0,127078.0,0.0
14640.7284746,293046.9375,295641.4375,334526.9375,329862.0625,285340.6875,255975.671875,222477.203125,244251.296875,0.02490234375,0.99609375,0.20458984375,-0.03051757626235485,-1.3732908964157104,-0.8544921278953552,80.0,127079.0,0.0
14640.7284748,293046.9375,295641.4375,334526.9375,329862.0625,285340.6875,255975.671875,222477.203125,244251.296875,0.02490234375,0.99609375,0.20458984375,-0.03051757626235485,-1.3732908964157104,-0.8544921278953552,80.0,127080.0,0.0
14640.728475,293046.9375,295641.4375,334526.9375,329862.0625,285340.6875,255975.671875,222477.203125,244251.296875,0.02490234375,0.99609375,0.20458984375,-0.03051757626235485,-1.3732908964157104,-0.8544921278953552,80.0,127081.0,0.0
14640.7284752,293046.9375,295641.4375,334526.9375,329862.0625,285340.6875,255975.671875,222477.203125,244251.296875,0.02490234375,0.99609375,0.20458984375,-0.03051757626235485,-1.3732908964157104,-0.8544921278953552,80.0,127082.0,0.0
14640.7284754,293046.9375,295641.4375,334526.9375,329862.0625,285340.6875,255975.671875,222477.203125,244251.296875,0.02490234375,0.99609375,0.20458984375,-0.03051757626235485,-1.3732908964157104,-0.8544921278953552,80.0,127083.0,0.0
14640.7284756,293046.9375,295641.4375,334526.9375,329862.0625,285340.6875,255975.671875,222477.203125,244251.296875,0.02490234375,0.99609375,0.20458984375,-0.03051757626235485,-1.3732908964157104,-0.8544921278953552,80.0,127084.0,0.0
14640.7284758,293046.9375,295641.4375,334526.9375,329862.0625,285340.6875,255975.671875,222477.203125,244251.296875,0.02490234375,0.99609375,0.20458984375,-0.03051757626235485,-1.3732908964157104,-0.8544921278953552,80.0,127085.0,0.0
14640.728476,293046.9375,295641.4375,334526.9375,329862.0625,285340.6875,255975.671875,222477.203125,244251.296875,0.02490234375,0.99609375,0.20458984375,-0.03051757626235485,-1.3732908964157104,-0.8544921278953552,80.0,127086.0,0.0
14640.7284761,293046.9375,295641.4375,334526.9375,329862.0625,285340.6875,255975.671875,222477.203125,244251.296875,0.02490234375,0.99609375,0.20458984375,-0.03051757626235485,-1.3732908964157104,-0.8544921278953552,80.0,127087.0,0.0
14640.7284763,293046.9375,295641.4375,334526.9375,329862.0625,285340.6875,255975.671875,222477.203125,244251.296875,0.02490234375,0.99609375,0.20458984375,-0.03051757626235485,-1.3732908964157104,-0.8544921278953552,80.0,127088.0,0.0
14640.7284765,293046.9375,295641.4375,334526.9375,329862.0625,285340.6875,255975.671875,222477.203125,244251.296875,0.02490234375,0.99609375,0.20458984375,-0.03051757626235485,-1.3732908964157104,-0.8544921278953552,80.0,127089.0,0.0
14640.7284767,293046.9375,295641.4375,334526.9375,329862.0625,285340.6875,255975.671875,222477.203125,244251.296875,0.02490234375,0.99609375,0.20458984375,-0.03051757626235485,-1.3732908964157104,-0.8544921278953552,80.0,127090.0,0.0
14640.7284769,293046.9375,295641.4375,334526.9375,329862.0625,285340.6875,255975.671875,222477.203125,244251.296875,0.02490234375,0.99609375,0.20458984375,-0.03051757626235485,-1.3732908964157104,-0.8544921278953552,80.0,127091.0,0.0
14640.728477,293037.28125,295364.09375,334330.78125,329863.84375,285207.8125,255926.234375,222428.828125,244288.3125,0.029296875,0.996826171875,0.199951171875,-0.03051757626235485,-1.4648436307907104,-1.2512205839157104,80.0,127092.0,1.0
14640.7284816,293071.53125,295278.4375,334359.65625,329917.5625,285193.53125,255908.796875,222434.203125,244309.765625,0.029541015625,0.99462890625,0.203857421875,-0.2441406100988388,-1.4038084745407104,-1.0986326932907104,80.0,127093.0,1.0
14640.7284829,293103.71875,295499.09375,334559.84375,329941.8125,285315.375,255970.765625,222490.96875,244326.125,0.027587890625,0.99267578125,0.1982421875,-0.1831054538488388,-1.4953612089157104,-1.1596678495407104,80.0,127094.0,1.0
14640.7284842,293086.71875,295711.4375,334642.71875,329899.25,285395.40625,256012.953125,222517.890625,244320.5,0.02587890625,0.992919921875,0.197998046875,-0.0915527269244194,-1.4648436307907104,-1.0986326932907104,80.0,127095.0,1.0
14640.7284854,293051.78125,295642.59375,334514.875,329855.78125,285339.78125,255995.4375,222492.140625,244303.0625,0.02587890625,0.99169921875,0.20068359375,-0.0610351525247097,-1.2817381620407104,-0.9155272841453552,80.0,127096.0,1.0
14640.7284866,293049.71875,295392.53125,334348.6875,329868.59375,285225.15625,255952.15625,222447.609375,244300.203125,0.023681640625,0.9921875,0.20166015625,0.0610351525247097,-1.1901854276657104,-0.8544921278953552,80.0,127097.0,1.0
14640.7284878,293082.4375,295311.4375,334382.03125,329920.78125,285211.9375,255943.9375,222447.96875,244319.234375,0.0244140625,0.995849609375,0.203369140625,0.0915527269244194,-1.2207030057907104,-0.7934569716453552,80.0,127098.0,1.0
14640.7284891,293110.875,295524.9375,334575.9375,329940.71875,285327.375,255984.53125,222498.578125,244339.890625,0.02294921875,0.994140625,0.20556640625,0.1525878757238388,-1.2512205839157104,-0.7934569716453552,80.0,127099.0,1.0
14640.7301443,293090.3125,295726.1875,334649.96875,329895.75,285403.0,256019.9375,222525.21875,244333.90625,0.02294921875,0.9951171875,0.205078125,0.0610351525247097,-1.4038084745407104,-0.7629393935203552,80.0,127100.0,1.0
14640.7551572,293058.5625,295656.0,334523.28125,329856.34375,285349.96875,256002.046875,222497.234375,244323.0,0.02490234375,0.99755859375,0.20458984375,0.0,-1.4343260526657104,-0.6103515028953552,80.0,127101.0,1.0
14640.780163,293056.25,295402.46875,334356.53125,329868.03125,285230.0,255954.125,222447.703125,244305.296875,0.02392578125,0.99658203125,0.20263671875,0.1220703050494194,-1.4038084745407104,-0.5493163466453552,80.0,127102.0,1.0
14640.8063934,293087.71875,295308.75,334373.0,329921.40625,285207.28125,255945.1875,222456.8125,244334.53125,0.0234375,0.995849609375,0.20458984375,0.1525878757238388,-1.4343260526657104,-0.5493163466453552,80.0,127103.0,1.0
14640.8314165,293119.28125,295528.96875,334569.6875,329946.71875,285327.71875,256002.40625,222515.46875,244354.28125,0.0244140625,0.99365234375,0.20361328125,0.1831054538488388,-1.4953612089157104,-0.5187987685203552,80.0,127104.0,1.0
14640.9086042,293102.09375,295737.8125,334653.5625,329903.375,285406.40625,256024.578125,222529.859375,244333.28125,0.0224609375,0.99462890625,0.201904296875,0.2746581733226776,-1.5869139432907104,-0.3967284858226776,80.0,127105.0,1.0
14640.9086272,293069.28125,295661.1875,334524.625,329865.625,285351.3125,256000.265625,222500.984375,244328.8125,0.02294921875,0.9951171875,0.201416015625,0.3662109076976776,-1.4953612089157104,-0.2746581733226776,80.0,127106.0,1.0
14640.9086286,293058.90625,295402.09375,334358.6875,329877.4375,285233.125,255949.5625,222460.578125,244330.953125,0.024169921875,0.994873046875,0.201171875,0.3662109076976776,-1.4953612089157104,-0.4272460639476776,80.0,127107.0,1.0
14640.9086298,293084.65625,295312.96875,334380.78125,329927.21875,285213.375,255945.546875,222465.5,244344.0,0.024169921875,0.99560546875,0.2021484375,0.4272460639476776,-1.6174315214157104,-0.4882812201976776,80.0,127108.0,1.0
14640.908631,293111.03125,295527.625,334569.6875,329944.65625,285323.53125,256000.171875,222510.28125,244343.296875,0.027099609375,0.994140625,0.207275390625,0.3662109076976776,-1.5563963651657104,-0.4577636420726776,80.0,127109.0,1.0
14640.911367,293097.625,295737.03125,334656.875,329908.28125,285408.8125,256052.75,222545.875,244342.484375,0.02587890625,0.994873046875,0.2041015625,0.3051757514476776,-1.4953612089157104,-0.6103515028953552,80.0,127110.0,1.0
14640.9113815,293055.0,295648.5,334519.4375,329853.28125,285341.40625,256007.859375,222492.046875,244310.75,0.027587890625,0.993408203125,0.204833984375,0.3356933295726776,-1.4953612089157104,-0.5493163466453552,80.0,127111.0,1.0
14640.9113879,293043.0,295386.09375,334354.3125,329863.40625,285222.21875,255938.390625,222442.15625,244314.6875,0.026611328125,0.99365234375,0.20263671875,0.3967284858226776,-1.5258787870407104,-0.4882812201976776,80.0,127112.0,1.0
14640.9352324,293070.53125,295294.625,334375.6875,329913.46875,285202.28125,255926.234375,222445.5625,244336.234375,0.027587890625,0.9921875,0.20361328125,0.5493163466453552,-1.4648436307907104,-0.6713866591453552,80.0,127113.0,1.0
14640.9602338,293100.40625,295507.25,334559.0625,329936.71875,285312.53125,255980.140625,222501.4375,244357.0625,0.02734375,0.98974609375,0.203369140625,0.7629393935203552,-1.3427733182907104,-0.6713866591453552,80.0,127114.0,1.0
14640.9852299,293084.65625,295718.78125,334638.8125,329894.875,285391.90625,256019.3125,222532.015625,244348.203125,0.027587890625,0.989501953125,0.2001953125,0.7934569716453552,-1.3122557401657104,-0.6408690810203552,80.0,127115.0,1.0
14641.0607195,293051.3125,295643.21875,334515.0625,329853.90625,285341.125,256004.203125,222499.203125,244329.25,0.03076171875,0.991455078125,0.2001953125,0.7629393935203552,-1.2207030057907104,-0.6408690810203552,80.0,127116.0,1.0
14641.0607317,293041.5,295380.71875,334349.3125,329867.15625,285226.96875,255947.515625,222454.40625,244340.703125,0.03076171875,0.989990234375,0.201171875,0.8239745497703552,-1.1901854276657104,-0.6713866591453552,80.0,127117.0,1.0
14641.060733,293075.375,295297.40625,334384.15625,329923.75,285215.34375,255943.21875,222470.046875,244365.203125,0.028076171875,0.991943359375,0.19970703125,1.0070799589157104,-1.1291502714157104,-0.7019042372703552,80.0,127118.0,1.0
14641.0607343,293101.125,295506.4375,334567.53125,329938.21875,285318.78125,255993.640625,222517.171875,244359.46875,0.02880859375,0.991943359375,0.201171875,1.0070799589157104,-1.1291502714157104,-0.7934569716453552,80.0,127119.0,1.0
14641.0853561,293085.21875,295713.6875,334642.90625,329896.9375,285395.21875,256033.515625,222544.265625,244351.515625,0.02783203125,0.993408203125,0.202392578125,1.0375975370407104,-1.1596678495407104,-0.7629393935203552,80.0,127120.0,1.0
14641.0853753,293085.21875,295713.6875,334642.90625,329896.9375,285395.21875,256033.515625,222544.265625,244351.515625,0.02783203125,0.993408203125,0.202392578125,1.0375975370407104,-1.1596678495407104,-0.7629393935203552,80.0,127121.0,0.0
14641.0853755,293085.21875,295713.6875,334642.90625,329896.9375,285395.21875,256033.515625,222544.265625,244351.515625,0.02783203125,0.993408203125,0.202392578125,1.0375975370407104,-1.1596678495407104,-0.7629393935203552,80.0,127122.0,0.0
14641.0853757,293085.21875,295713.6875,334642.90625,329896.9375,285395.21875,256033.515625,222544.265625,244351.515625,0.02783203125,0.993408203125,0.202392578125,1.0375975370407104,-1.1596678495407104,-0.7629393935203552,80.0,127123.0,0.0
14641.0853759,293085.21875,295713.6875,334642.90625,329896.9375,285395.21875,256033.515625,222544.265625,244351.515625,0.02783203125,0.993408203125,0.202392578125,1.0375975370407104,-1.1596678495407104,-0.7629393935203552,80.0,127124.0,0.0
14641.0853761,293085.21875,295713.6875,334642.90625,329896.9375,285395.21875,256033.515625,222544.265625,244351.515625,0.02783203125,0.993408203125,0.202392578125,1.0375975370407104,-1.1596678495407104,-0.7629393935203552,80.0,127125.0,0.0
14641.0853763,293085.21875,295713.6875,334642.90625,329896.9375,285395.21875,256033.515625,222544.265625,244351.515625,0.02783203125,0.993408203125,0.202392578125,1.0375975370407104,-1.1596678495407104,-0.7629393935203552,80.0,127126.0,0.0
14641.0853765,293085.21875,295713.6875,334642.90625,329896.9375,285395.21875,256033.515625,222544.265625,244351.515625,0.02783203125,0.993408203125,0.202392578125,1.0375975370407104,-1.1596678495407104,-0.7629393935203552,80.0,127127.0,0.0
14641.0853766,293085.21875,295713.6875,334642.90625,329896.9375,285395.21875,256033.515625,222544.265625,244351.515625,0.02783203125,0.993408203125,0.202392578125,1.0375975370407104,-1.1596678495407104,-0.7629393935203552,80.0,127128.0,0.0
14641.0853768,293085.21875,295713.6875,334642.90625,329896.9375,285395.21875,256033.515625,222544.265625,244351.515625,0.02783203125,0.993408203125,0.202392578125,1.0375975370407104,-1.1596678495407104,-0.7629393935203552,80.0,127129.0,0.0
14641.085377,293085.21875,295713.6875,334642.90625,329896.9375,285395.21875,256033.515625,222544.265625,244351.515625,0.02783203125,0.993408203125,0.202392578125,1.0375975370407104,-1.1596678495407104,-0.7629393935203552,80.0,127130.0,0.0
14641.0853772,293085.21875,295713.6875,334642.90625,329896.9375,285395.21875,256033.515625,222544.265625,244351.515625,0.02783203125,0.993408203125,0.202392578125,1.0375975370407104,-1.1596678495407104,-0.7629393935203552,80.0,127131.0,0.0
14641.0853773,293085.21875,295713.6875,334642.90625,329896.9375,285395.21875,256033.515625,222544.265625,244351.515625,0.02783203125,0.993408203125,0.202392578125,1.0375975370407104,-1.1596678495407104,-0.7629393935203552,80.0,127132.0,0.0
14641.0853775,293085.21875,295713.6875,334642.90625,329896.9375,285395.21875,256033.515625,222544.265625,244351.515625,0.02783203125,0.993408203125,0.202392578125,1.0375975370407104,-1.1596678495407104,-0.7629393935203552,80.0,127133.0,0.0
14641.0853777,293085.21875,295713.6875,334642.90625,329896.9375,285395.21875,256033.515625,222544.265625,244351.515625,0.02783203125,0.993408203125,0.202392578125,1.0375975370407104,-1.1596678495407104,-0.7629393935203552,80.0,127134.0,0.0
14641.0853779,293085.21875,295713.6875,334642.90625,329896.9375,285395.21875,256033.515625,222544.265625,244351.515625,0.02783203125,0.993408203125,0.202392578125,1.0375975370407104,-1.1596678495407104,-0.7629393935203552,80.0,127135.0,0.0
14641.085378,293085.21875,295713.6875,334642.90625,329896.9375,285395.21875,256033.515625,222544.265625,244351.515625,0.02783203125,0.993408203125,0.202392578125,1.0375975370407104,-1.1596678495407104,-0.7629393935203552,80.0,127136.0,0.0
14641.0853782,293085.21875,295713.6875,334642.90625,329896.9375,285395.21875,256033.515625,222544.265625,244351.515625,0.02783203125,0.993408203125,0.202392578125,1.0375975370407104,-1.1596678495407104,-0.7629393935203552,80.0,127137.0,0.0
14641.0853784,293085.21875,295713.6875,334642.90625,329896.9375,285395.21875,256033.515625,222544.265625,244351.515625,0.02783203125,0.993408203125,0.202392578125,1.0375975370407104,-1.1596678495407104,-0.7629393935203552,80.0,127138.0,0.0
14641.0853785,293085.21875,295713.6875,334642.90625,329896.9375,285395.21875,256033.515625,222544.265625,244351.515625,0.02783203125,0.993408203125,0.202392578125,1.0375975370407104,-1.1596678495407104,-0.7629393935203552,80.0,127139.0,0.0
14641.0853787,293085.21875,295713.6875,334642.90625,329896.9375,285395.21875,256033.515625,222544.265625,244351.515625,0.02783203125,0.993408203125,0.202392578125,1.0375975370407104,-1.1596678495407104,-0.7629393935203552,80.0,127140.0,0.0
14641.0853789,293085.21875,295713.6875,334642.90625,329896.9375,285395.21875,256033.515625,222544.265625,244351.515625,0.02783203125,0.993408203125,0.202392578125,1.0375975370407104,-1.1596678495407104,-0.7629393935203552,80.0,127141.0,0.0
14641.085379,293085.21875,295713.6875,334642.90625,329896.9375,285395.21875,256033.515625,222544.265625,244351.515625,0.02783203125,0.993408203125,0.202392578125,1.0375975370407104,-1.1596678495407104,-0.7629393935203552,80.0,127142.0,0.0
14641.0853792,293085.21875,295713.6875,334642.90625,329896.9375,285395.21875,256033.515625,222544.265625,244351.515625,0.02783203125,0.993408203125,0.202392578125,1.0375975370407104,-1.1596678495407104,-0.7629393935203552,80.0,127143.0,0.0
14641.0853794,293085.21875,295713.6875,334642.90625,329896.9375,285395.21875,256033.515625,222544.265625,244351.515625,0.02783203125,0.993408203125,0.202392578125,1.0375975370407104,-1.1596678495407104,-0.7629393935203552,80.0,127144.0,0.0
14641.0853795,293085.21875,295713.6875,334642.90625,329896.9375,285395.21875,256033.515625,222544.265625,244351.515625,0.02783203125,0.993408203125,0.202392578125,1.0375975370407104,-1.1596678495407104,-0.7629393935203552,80.0,127145.0,0.0
14641.0853798,293063.84375,295636.15625,334502.28125,329850.34375,285333.96875,256000.984375,222494.28125,244341.5,0.025390625,0.997314453125,0.197998046875,0.9765624403953552,-1.0986326932907104,-0.6713866591453552,80.0,127146.0,1.0
14641.1102345,293059.46875,295391.5625,334347.6875,329867.78125,285225.875,255956.71875,222455.03125,244352.59375,0.024658203125,0.998291015625,0.193115234375,0.9155272841453552,-1.1901854276657104,-0.8850097060203552,80.0,127147.0,1.0
14641.1299008,293087.53125,295314.46875,334379.96875,329917.21875,285212.375,255955.109375,222467.1875,244378.25,0.024169921875,0.998046875,0.194091796875,1.0375975370407104,-1.1901854276657104,-0.9765624403953552,80.0,127148.0,1.0
14641.1299203,293107.1875,295517.15625,334560.84375,329929.8125,285317.53125,255997.140625,222514.84375,244388.171875,0.02392578125,0.99658203125,0.196044921875,0.9155272841453552,-1.2817381620407104,-1.0375975370407104,80.0,127149.0,1.0
14641.1299216,293088.6875,295719.125,334637.5625,329893.15625,285400.40625,256041.5625,222551.140625,244395.859375,0.02734375,0.995849609375,0.193603515625,0.8544921278953552,-1.4038084745407104,-1.0986326932907104,80.0,127150.0,1.0
14641.1299228,293050.15625,295636.96875,334508.0,329849.96875,285343.09375,256021.09375,222513.5,244369.671875,0.027099609375,0.993896484375,0.19677734375,0.7934569716453552,-1.3122557401657104,-1.1901854276657104,80.0,127151.0,1.0
14641.129924,293042.1875,295385.125,334351.8125,329863.84375,285231.78125,255977.109375,222471.75,244370.203125,0.027099609375,0.99609375,0.197265625,0.8239745497703552,-1.4648436307907104,-1.3122557401657104,80.0,127152.0,1.0
14641.1538666,293074.3125,295311.09375,334393.5625,329921.96875,285225.0,255963.15625,222481.9375,244405.703125,0.027587890625,0.99560546875,0.197021484375,0.7629393935203552,-1.4343260526657104,-1.3427733182907104,80.0,127153.0,1.0
14641.2040364,293095.5,295520.125,334576.9375,329930.53125,285329.5,255995.703125,222520.65625,244401.859375,0.02880859375,0.99658203125,0.19677734375,0.7019042372703552,-1.4953612089157104,-1.2512205839157104,80.0,127154.0,1.0
14641.2040416,293070.53125,295710.28125,334637.625,329879.5,285391.03125,256020.375,222529.15625,244374.859375,0.030029296875,0.998046875,0.199462890625,0.5493163466453552,-1.4953612089157104,-1.3732908964157104,80.0,127155.0,1.0
14641.2040429,293031.03125,295607.8125,334472.25,329831.21875,285309.21875,255990.34375,222484.796875,244347.5,0.02734375,0.996337890625,0.195556640625,0.4577636420726776,-1.4648436307907104,-1.3122557401657104,80.0,127156.0,1.0
14641.2040441,293028.53125,295359.4375,334309.4375,329853.375,285198.71875,255943.484375,222451.1875,244358.3125,0.026611328125,0.994873046875,0.19970703125,0.3662109076976776,-1.4343260526657104,-1.0070799589157104,80.0,127157.0,1.0
14641.2934508,293058.21875,295284.09375,334341.34375,329908.09375,285188.4375,255941.875,222466.65625,244384.328125,0.0283203125,0.993408203125,0.194091796875,0.3967284858226776,-1.4038084745407104,-0.9765624403953552,80.0,127158.0,1.0
14641.2934569,293078.84375,295504.75,334537.59375,329923.3125,285306.96875,255999.375,222522.265625,244403.375,0.02734375,0.99462890625,0.1943359375,0.4272460639476776,-1.4343260526657104,-0.9155272841453552,80.0,127159.0,1.0
14641.2934583,293057.75,295698.21875,334607.59375,329876.8125,285381.1875,256024.140625,222542.65625,244397.46875,0.028076171875,0.993896484375,0.19580078125,0.4882812201976776,-1.3732908964157104,-0.9155272841453552,80.0,127160.0,1.0
14641.2934595,293027.28125,295607.28125,334468.9375,329836.5625,285316.90625,255991.765625,222505.640625,244373.6875,0.02978515625,0.993896484375,0.195556640625,0.4882812201976776,-1.3732908964157104,-0.8239745497703552,80.0,127161.0,1.0
14641.2934607,293023.6875,295354.96875,334306.65625,329851.0625,285198.4375,255949.296875,222457.171875,244360.28125,0.02783203125,0.99365234375,0.195556640625,0.5493163466453552,-1.4038084745407104,-0.8239745497703552,80.0,127162.0,1.0
14641.3184942,293062.59375,295287.375,334356.71875,329910.25,285196.75,255932.140625,222459.59375,244378.421875,0.0263671875,0.995849609375,0.198974609375,0.4882812201976776,-1.4648436307907104,-0.7934569716453552,80.0,127163.0,1.0
14641.3439444,293062.59375,295287.375,334356.71875,329910.25,285196.75,255932.140625,222459.59375,244378.421875,0.0263671875,0.995849609375,0.198974609375,0.4882812201976776,-1.4648436307907104,-0.7934569716453552,80.0,127164.0,0.0
14641.3439489,293062.59375,295287.375,334356.71875,329910.25,285196.75,255932.140625,222459.59375,244378.421875,0.0263671875,0.995849609375,0.198974609375,0.4882812201976776,-1.4648436307907104,-0.7934569716453552,80.0,127165.0,0.0
14641.3439501,293062.59375,295287.375,334356.71875,329910.25,285196.75,255932.140625,222459.59375,244378.421875,0.0263671875,0.995849609375,0.198974609375,0.4882812201976776,-1.4648436307907104,-0.7934569716453552,80.0,127166.0,0.0
14641.3439513,293062.59375,295287.375,334356.71875,329910.25,285196.75,255932.140625,222459.59375,244378.421875,0.0263671875,0.995849609375,0.198974609375,0.4882812201976776,-1.4648436307907104,-0.7934569716453552,80.0,127167.0,0.0
14641.3439525,293062.59375,295287.375,334356.71875,329910.25,285196.75,255932.140625,222459.59375,244378.421875,0.0263671875,0.995849609375,0.198974609375,0.4882812201976776,-1.4648436307907104,-0.7934569716453552,80.0,127168.0,0.0
14641.3439536,293062.59375,295287.375,334356.71875,329910.25,285196.75,255932.140625,222459.59375,244378.421875,0.0263671875,0.995849609375,0.198974609375,0.4882812201976776,-1.4648436307907104,-0.7934569716453552,80.0,127169.0,0.0
14641.3439548,293062.59375,295287.375,334356.71875,329910.25,285196.75,255932.140625,222459.59375,244378.421875,0.0263671875,0.995849609375,0.198974609375,0.4882812201976776,-1.4648436307907104,-0.7934569716453552,80.0,127170.0,0.0
14641.3439559,293062.59375,295287.375,334356.71875,329910.25,285196.75,255932.140625,222459.59375,244378.421875,0.0263671875,0.995849609375,0.198974609375,0.4882812201976776,-1.4648436307907104,-0.7934569716453552,80.0,127171.0,0.0
14641.3439569,293062.59375,295287.375,334356.71875,329910.25,285196.75,255932.140625,222459.59375,244378.421875,0.0263671875,0.995849609375,0.198974609375,0.4882812201976776,-1.4648436307907104,-0.7934569716453552,80.0,127172.0,0.0
14641.3439581,293062.59375,295287.375,334356.71875,329910.25,285196.75,255932.140625,222459.59375,244378.421875,0.0263671875,0.995849609375,0.198974609375,0.4882812201976776,-1.4648436307907104,-0.7934569716453552,80.0,127173.0,0.0
14641.3439593,293074.9375,295509.375,334549.3125,329919.71875,285313.15625,255991.6875,222528.53125,244414.734375,0.027099609375,0.997314453125,0.1982421875,0.3662109076976776,-1.8615721464157104,-1.0070799589157104,80.0,127174.0,1.0
14641.37144,293050.0625,295698.75,334612.25,329865.28125,285378.5,256017.078125,222529.234375,244393.625,0.03076171875,0.99609375,0.198486328125,0.3356933295726776,-1.7089842557907104,-1.0681151151657104,80.0,127175.0,1.0
14641.396404,293020.65625,295608.625,334472.78125,329827.625,285315.90625,255995.53125,222495.890625,244375.03125,0.03076171875,0.99609375,0.197998046875,0.4577636420726776,-1.7395018339157104,-1.1291502714157104,80.0,127176.0,1.0
14641.4465787,293021.0,295361.6875,334324.8125,329851.78125,285214.96875,255958.6875,222463.609375,244381.109375,0.030517578125,0.99658203125,0.198486328125,0.3662109076976776,-1.7395018339157104,-1.1596678495407104,80.0,127177.0,1.0
14641.4465913,293057.21875,295296.15625,334371.75,329907.5625,285213.71875,255957.96875,222481.765625,244402.5625,0.02880859375,0.995361328125,0.197998046875,0.3356933295726776,-1.6174315214157104,-1.1901854276657104,80.0,127178.0,1.0
14641.4465929,293078.84375,295508.5,334557.875,329924.09375,285324.3125,256001.78125,222538.53125,244434.75,0.029296875,0.99267578125,0.19677734375,0.2746581733226776,-1.6784666776657104,-1.2207030057907104,80.0,127179.0,1.0
