Time,FZ,C3,CZ,C4,PZ,PO7,OZ,PO8,AccX,AccY,AccZ,Gyro1,Gyro2,Gyro3,Battery,Counter,Validation
15334.2821977,296820.375,294859.84375,320958.8125,312417.84375,285331.65625,254698.3125,220093.53125,245448.90625,0.042724609375,0.99853515625,0.177490234375,0.5798339247703552,-1.6784666776657104,-0.7934569716453552,73.33333587646484,300475.0,1.0
15334.3072662,296884.28125,295425.625,321912.0,312514.3125,285842.53125,254801.3125,220223.4375,245475.28125,0.04248046875,0.9951171875,0.1787109375,0.5187987685203552,-1.6174315214157104,-0.7629393935203552,73.33333587646484,300476.0,1.0
15334.3337247,296728.28125,295095.6875,321594.5,312290.625,285615.0625,254691.078125,220048.828125,245352.609375,0.0419921875,0.99365234375,0.1806640625,0.4577636420726776,-1.4343260526657104,-0.7629393935203552,73.33333587646484,300477.0,1.0
15334.3337364,296575.3125,294329.84375,320445.4375,312065.5,284964.46875,254526.484375,219811.796875,245241.828125,0.043701171875,0.992919921875,0.174560546875,0.4882812201976776,-1.3122557401657104,-0.7324218153953552,73.33333587646484,300478.0,1.0
15334.3337378,296622.78125,294176.59375,320045.96875,312132.8125,284780.375,254525.140625,219826.640625,245286.53125,0.042724609375,0.995849609375,0.174560546875,0.4882812201976776,-1.2207030057907104,-0.7324218153953552,73.33333587646484,300479.0,1.0
15334.333739,296823.03125,294859.75,320956.40625,312417.78125,285326.90625,254690.453125,220087.0,245442.375,0.043212890625,0.997802734375,0.17333984375,0.4882812201976776,-1.1596678495407104,-0.7629393935203552,73.33333587646484,300480.0,1.0
15334.3337402,296884.65625,295420.53125,321905.46875,312509.6875,285836.28125,254782.890625,220213.953125,245476.34375,0.04296875,0.997314453125,0.17431640625,0.4577636420726776,-1.1596678495407104,-0.8239745497703552,73.33333587646484,300481.0,1.0
15334.3578193,296736.3125,295095.0625,321593.59375,312296.875,285620.4375,254691.078125,220055.078125,245365.296875,0.041015625,0.995849609375,0.177001953125,0.3967284858226776,-1.1291502714157104,-0.8239745497703552,73.33333587646484,300482.0,1.0
15334.3578262,296583.0,294331.4375,320443.9375,312073.46875,284975.28125,254551.15625,219837.28125,245272.046875,0.0390625,0.99658203125,0.1767578125,0.2136230319738388,-1.0681151151657104,-0.6713866591453552,73.33333587646484,300483.0,1.0
15334.3842836,296635.75,294193.125,320062.6875,312143.5625,284802.1875,254546.5,219844.53125,245302.625,0.042724609375,0.99609375,0.1787109375,0.3051757514476776,-1.0070799589157104,-0.7324218153953552,73.33333587646484,300484.0,1.0
15334.38429,296822.40625,294864.75,320969.8125,312414.28125,285338.1875,254677.21875,220073.234375,245431.828125,0.042724609375,0.99609375,0.176513671875,0.2441406100988388,-0.9460448622703552,-0.7934569716453552,73.33333587646484,300485.0,1.0
15334.3842912,296881.53125,295413.90625,321900.71875,312505.5625,285836.90625,254768.859375,220203.234375,245469.1875,0.04248046875,0.995361328125,0.176513671875,0.2136230319738388,-0.9155272841453552,-0.8239745497703552,73.33333587646484,300486.0,1.0
15334.3842924,296723.90625,295073.96875,321567.0625,312286.59375,285602.03125,254662.90625,220035.140625,245353.953125,0.040283203125,0.993408203125,0.1787109375,0.0915527269244194,-0.9460448622703552,-0.7324218153953552,73.33333587646484,300487.0,1.0
15334.3842937,296577.09375,294323.9375,320436.78125,312068.71875,284964.46875,254531.671875,219813.59375,245246.21875,0.04296875,0.990966796875,0.17626953125,0.03051757626235485,-0.8544921278953552,-0.7934569716453552,73.33333587646484,300488.0,1.0
15334.4340469,296643.0625,294200.90625,320069.3125,312149.625,284803.96875,254554.828125,219842.921875,245290.734375,0.042236328125,0.992431640625,0.17578125,0.0915527269244194,-0.9155272841453552,-0.8850097060203552,73.33333587646484,300489.0,1.0
15334.4340635,296643.0625,294200.90625,320069.3125,312149.625,284803.96875,254554.828125,219842.921875,245290.734375,0.042236328125,0.992431640625,0.17578125,0.0915527269244194,-0.9155272841453552,-0.8850097060203552,73.33333587646484,300490.0,0.0
15334.4340637,296643.0625,294200.90625,320069.3125,312149.625,284803.96875,254554.828125,219842.921875,245290.734375,0.042236328125,0.992431640625,0.17578125,0.0915527269244194,-0.9155272841453552,-0.8850097060203552,73.33333587646484,300491.0,0.0
15334.4340639,296643.0625,294200.90625,320069.3125,312149.625,284803.96875,254554.828125,219842.921875,245290.734375,0.042236328125,0.992431640625,0.17578125,0.0915527269244194,-0.9155272841453552,-0.8850097060203552,73.33333587646484,300492.0,0.0
15334.4340641,296643.0625,294200.90625,320069.3125,312149.625,284803.96875,254554.828125,219842.921875,245290.734375,0.042236328125,0.992431640625,0.17578125,0.0915527269244194,-0.9155272841453552,-0.8850097060203552,73.33333587646484,300493.0,0.0
15334.4340643,296643.0625,294200.90625,320069.3125,312149.625,284803.96875,254554.828125,219842.921875,245290.734375,0.042236328125,0.992431640625,0.17578125,0.0915527269244194,-0.9155272841453552,-0.8850097060203552,73.33333587646484,300494.0,0.0
15334.4340645,296643.0625,294200.90625,320069.3125,312149.625,284803.96875,254554.828125,219842.921875,245290.734375,0.042236328125,0.992431640625,0.17578125,0.0915527269244194,-0.9155272841453552,-0.8850097060203552,73.33333587646484,300495.0,0.0
15334.4340647,296643.0625,294200.90625,320069.3125,312149.625,284803.96875,254554.828125,219842.921875,245290.734375,0.042236328125,0.992431640625,0.17578125,0.0915527269244194,-0.9155272841453552,-0.8850097060203552,73.33333587646484,300496.0,0.0
15334.4340648,296643.0625,294200.90625,320069.3125,312149.625,284803.96875,254554.828125,219842.921875,245290.734375,0.042236328125,0.992431640625,0.17578125,0.0915527269244194,-0.9155272841453552,-0.8850097060203552,73.33333587646484,300497.0,0.0
15334.434065,296643.0625,294200.90625,320069.3125,312149.625,284803.96875,254554.828125,219842.921875,245290.734375,0.042236328125,0.992431640625,0.17578125,0.0915527269244194,-0.9155272841453552,-0.8850097060203552,73.33333587646484,300498.0,0.0
15334.4340652,296643.0625,294200.90625,320069.3125,312149.625,284803.96875,254554.828125,219842.921875,245290.734375,0.042236328125,0.992431640625,0.17578125,0.0915527269244194,-0.9155272841453552,-0.8850097060203552,73.33333587646484,300499.0,0.0
15334.4340654,296643.0625,294200.90625,320069.3125,312149.625,284803.96875,254554.828125,219842.921875,245290.734375,0.042236328125,0.992431640625,0.17578125,0.0915527269244194,-0.9155272841453552,-0.8850097060203552,73.33333587646484,300500.0,0.0
15334.4340655,296643.0625,294200.90625,320069.3125,312149.625,284803.96875,254554.828125,219842.921875,245290.734375,0.042236328125,0.992431640625,0.17578125,0.0915527269244194,-0.9155272841453552,-0.8850097060203552,73.33333587646484,300501.0,0.0
15334.4340657,296643.0625,294200.90625,320069.3125,312149.625,284803.96875,254554.828125,219842.921875,245290.734375,0.042236328125,0.992431640625,0.17578125,0.0915527269244194,-0.9155272841453552,-0.8850097060203552,73.33333587646484,300502.0,0.0
15334.4340659,296643.0625,294200.90625,320069.3125,312149.625,284803.96875,254554.828125,219842.921875,245290.734375,0.042236328125,0.992431640625,0.17578125,0.0915527269244194,-0.9155272841453552,-0.8850097060203552,73.33333587646484,300503.0,0.0
15334.4340661,296643.0625,294200.90625,320069.3125,312149.625,284803.96875,254554.828125,219842.921875,245290.734375,0.042236328125,0.992431640625,0.17578125,0.0915527269244194,-0.9155272841453552,-0.8850097060203552,73.33333587646484,300504.0,0.0
15334.4340662,296643.0625,294200.90625,320069.3125,312149.625,284803.96875,254554.828125,219842.921875,245290.734375,0.042236328125,0.992431640625,0.17578125,0.0915527269244194,-0.9155272841453552,-0.8850097060203552,73.33333587646484,300505.0,0.0
15334.4340664,296643.0625,294200.90625,320069.3125,312149.625,284803.96875,254554.828125,219842.921875,245290.734375,0.042236328125,0.992431640625,0.17578125,0.0915527269244194,-0.9155272841453552,-0.8850097060203552,73.33333587646484,300506.0,0.0
15334.4340666,296643.0625,294200.90625,320069.3125,312149.625,284803.96875,254554.828125,219842.921875,245290.734375,0.042236328125,0.992431640625,0.17578125,0.0915527269244194,-0.9155272841453552,-0.8850097060203552,73.33333587646484,300507.0,0.0
15334.4340667,296643.0625,294200.90625,320069.3125,312149.625,284803.96875,254554.828125,219842.921875,245290.734375,0.042236328125,0.992431640625,0.17578125,0.0915527269244194,-0.9155272841453552,-0.8850097060203552,73.33333587646484,300508.0,0.0
15334.4340669,296616.875,294152.1875,320030.9375,312116.1875,284765.53125,254501.71875,219809.921875,245272.234375,0.040283203125,0.994384765625,0.179443359375,0.0610351525247097,-1.7089842557907104,-0.8850097060203552,73.33333587646484,300509.0,1.0
15334.4340683,296820.375,294842.40625,320950.875,312407.03125,285320.75,254674.8125,220076.890625,245428.0625,0.039306640625,0.994140625,0.179931640625,0.0,-1.6479490995407104,-0.9155272841453552,73.33333587646484,300510.0,1.0
15334.4340695,296885.09375,295413.0,321902.78125,312502.34375,285835.03125,254771.1875,220211.359375,245469.734375,0.041748046875,0.994384765625,0.180419921875,0.0,-1.6174315214157104,-0.9460448622703552,73.33333587646484,300511.0,1.0
15334.4340707,296732.65625,295084.0,321586.46875,312286.34375,285612.75,254685.0,220048.828125,245354.65625,0.042724609375,0.995849609375,0.1806640625,0.0610351525247097,-1.7089842557907104,-0.8850097060203552,73.33333587646484,300512.0,1.0
15334.4340719,296575.03125,294313.84375,320437.84375,312049.84375,284957.65625,254504.390625,219798.484375,245228.6875,0.04052734375,0.995361328125,0.17724609375,0.03051757626235485,-1.7089842557907104,-0.8850097060203552,73.33333587646484,300513.0,1.0
15334.4340733,296636.1875,294169.4375,320042.21875,312124.59375,284777.34375,254508.515625,219816.625,245276.796875,0.03955078125,0.99462890625,0.181640625,0.1525878757238388,-1.7700194120407104,-0.8544921278953552,73.33333587646484,300514.0,1.0
15334.4573321,296833.5,294855.1875,320955.5,312411.96875,285328.4375,254695.09375,220089.234375,245440.578125,0.041259765625,0.993896484375,0.18310546875,0.1220703050494194,-1.8005369901657104,-0.8239745497703552,73.33333587646484,300515.0,1.0
15334.4856273,296901.625,295425.53125,321918.4375,312514.40625,285852.09375,254807.84375,220237.65625,245491.359375,0.042236328125,0.99560546875,0.18310546875,0.2746581733226776,-1.8005369901657104,-0.9155272841453552,73.33333587646484,300516.0,1.0
15334.4856335,296745.53125,295092.5625,321595.40625,312291.625,285620.78125,254686.875,220060.4375,245371.5625,0.04443359375,0.995361328125,0.18310546875,0.2441406100988388,-1.7395018339157104,-0.9155272841453552,73.33333587646484,300517.0,1.0
15334.4856348,296583.53125,294319.125,320437.65625,312049.5,284957.84375,254511.28125,219805.640625,245226.453125,0.04345703125,0.99560546875,0.18310546875,0.3051757514476776,-1.7700194120407104,-1.0986326932907104,73.33333587646484,300518.0,1.0
15334.4856361,296638.34375,294172.75,320039.90625,312124.15625,284777.34375,254518.078125,219827.984375,245283.859375,0.042236328125,0.99609375,0.180908203125,0.4577636420726776,-1.7395018339157104,-1.0070799589157104,73.33333587646484,300519.0,1.0
15334.4856374,296831.34375,294858.25,320953.09375,312404.4375,285324.3125,254686.609375,220087.453125,245431.015625,0.041015625,0.994140625,0.18017578125,0.4882812201976776,-1.8005369901657104,-1.0986326932907104,73.33333587646484,300520.0,1.0
15334.4856387,296896.28125,295427.75,321918.4375,312506.5625,285847.25,254790.859375,220230.3125,245475.90625,0.0400390625,0.995361328125,0.178466796875,0.6103515028953552,-1.7395018339157104,-0.8544921278953552,73.33333587646484,300521.0,1.0
15334.48564,296737.75,295086.5,321596.8125,312288.65625,285619.09375,254684.546875,220059.109375,245355.375,0.040771484375,0.99462890625,0.1806640625,0.6103515028953552,-1.7089842557907104,-0.9765624403953552,73.33333587646484,300522.0,1.0
15334.5091599,296581.375,294317.25,320440.25,312061.40625,284961.6875,254519.953125,219821.453125,245250.140625,0.040771484375,0.994384765625,0.18017578125,0.5187987685203552,-1.7395018339157104,-1.0375975370407104,73.33333587646484,300523.0,1.0
15334.5091721,296633.21875,294167.125,320038.28125,312131.03125,284773.9375,254516.109375,219830.046875,245284.296875,0.041259765625,0.99365234375,0.182861328125,0.5798339247703552,-1.6784666776657104,-1.0986326932907104,73.33333587646484,300524.0,1.0
15334.5335045,296823.21875,294843.125,320938.625,312408.65625,285311.90625,254685.53125,220081.8125,245423.421875,0.045166015625,0.992919921875,0.17822265625,0.5798339247703552,-1.6479490995407104,-1.0375975370407104,73.33333587646484,300525.0,1.0
15334.5586673,296889.28125,295421.0625,321905.46875,312508.96875,285840.1875,254798.453125,220234.96875,245477.15625,0.04443359375,0.994384765625,0.177001953125,0.7934569716453552,-1.5869139432907104,-0.9765624403953552,73.33333587646484,300526.0,1.0
15334.6316993,296732.28125,295093.46875,321592.1875,312287.6875,285617.84375,254693.3125,220060.984375,245354.484375,0.045166015625,0.995361328125,0.17529296875,0.7324218153953552,-1.6174315214157104,-0.9765624403953552,73.33333587646484,300527.0,1.0
15334.6317134,296579.3125,294328.0625,320443.9375,312059.4375,284965.8125,254531.484375,219820.296875,245235.578125,0.045654296875,0.9951171875,0.175048828125,0.7324218153953552,-1.5869139432907104,-0.9155272841453552,73.33333587646484,300528.0,1.0
15334.631715,296630.28125,294179.46875,320054.1875,312129.4375,284788.6875,254527.015625,219835.046875,245282.953125,0.0458984375,0.99609375,0.177978515625,0.7629393935203552,-1.4648436307907104,-0.8850097060203552,73.33333587646484,300529.0,1.0
15334.6317163,296812.3125,294842.84375,320949.34375,312395.0625,285322.8125,254673.640625,220078.234375,245419.3125,0.045654296875,0.99658203125,0.17529296875,0.7934569716453552,-1.3732908964157104,-0.8850097060203552,73.33333587646484,300530.0,1.0
15334.6317176,296879.46875,295406.65625,321902.5,312496.96875,285841.375,254778.515625,220222.890625,245468.921875,0.04443359375,0.99462890625,0.17333984375,0.7934569716453552,-1.2817381620407104,-0.7934569716453552,73.33333587646484,300531.0,1.0
15334.6317189,296725.9375,295075.0625,321581.34375,312282.3125,285616.15625,254679.453125,220055.4375,245357.609375,0.04345703125,0.993408203125,0.17529296875,0.8239745497703552,-1.2512205839157104,-0.7324218153953552,73.33333587646484,300532.0,1.0
15334.6317202,296580.3125,294321.78125,320446.0625,312059.25,284975.09375,254519.421875,219819.84375,245240.578125,0.04345703125,0.993408203125,0.1728515625,0.9460448622703552,-1.1291502714157104,-0.7934569716453552,73.33333587646484,300533.0,1.0
15334.6317217,296628.75,294168.46875,320044.90625,312122.28125,284787.53125,254512.265625,219826.640625,245273.21875,0.042236328125,0.992431640625,0.174560546875,0.9460448622703552,-1.0681151151657104,-0.7934569716453552,73.33333587646484,300534.0,1.0
15334.631723,296822.96875,294848.59375,320949.96875,312404.1875,285330.59375,254691.609375,220088.609375,245428.328125,0.041015625,0.993896484375,0.175048828125,1.0070799589157104,-1.0375975370407104,-0.7324218153953552,73.33333587646484,300535.0,1.0
15334.6317243,296888.5,295419.8125,321909.125,312504.84375,285848.0625,254797.921875,220225.21875,245474.828125,0.0419921875,0.993408203125,0.175048828125,0.9765624403953552,-1.1596678495407104,-0.7324218153953552,73.33333587646484,300536.0,1.0
15334.6559904,296736.9375,295090.875,321595.65625,312286.53125,285624.8125,254691.96875,220057.5,245352.703125,0.042236328125,0.99169921875,0.17333984375,0.9460448622703552,-1.0986326932907104,-0.7934569716453552,73.33333587646484,300537.0,1.0
15334.7066341,296579.5,294326.4375,320448.125,312054.25,284972.96875,254528.0,219811.453125,245232.71875,0.04150390625,0.99169921875,0.17431640625,0.8544921278953552,-1.0986326932907104,-0.7324218153953552,73.33333587646484,300538.0,1.0
15334.7066497,296637.0625,294188.59375,320062.34375,312131.5,284800.9375,254531.671875,219836.84375,245287.421875,0.038818359375,0.992431640625,0.1767578125,0.9155272841453552,-1.0070799589157104,-0.7934569716453552,73.33333587646484,300539.0,1.0
15334.766379,296637.0625,294188.59375,320062.34375,312131.5,284800.9375,254531.671875,219836.84375,245287.421875,0.038818359375,0.992431640625,0.1767578125,0.9155272841453552,-1.0070799589157104,-0.7934569716453552,73.33333587646484,300540.0,0.0
15334.766383,296892.6875,295421.0625,321919.125,312503.875,285853.4375,254801.140625,220226.03125,245476.609375,0.037841796875,0.992919921875,0.1728515625,0.8850097060203552,-1.1901854276657104,-0.8544921278953552,73.33333587646484,300541.0,1.0
15334.766392,296735.15625,295080.40625,321580.03125,312280.625,285609.0,254681.6875,220046.140625,245345.09375,0.037841796875,0.994873046875,0.174560546875,0.9460448622703552,-1.2817381620407104,-0.9765624403953552,73.33333587646484,300542.0,1.0
15334.7663934,296576.71875,294307.3125,320423.34375,312049.21875,284951.0625,254508.515625,219807.0625,245230.203125,0.0380859375,0.99658203125,0.173828125,0.8239745497703552,-1.3122557401657104,-1.0070799589157104,73.33333587646484,300543.0,1.0
15334.7663949,296632.59375,294169.4375,320038.0,312124.78125,284778.75,254514.5,219832.453125,245286.171875,0.038330078125,0.998291015625,0.1748046875,0.7324218153953552,-1.4343260526657104,-1.0681151151657104,73.33333587646484,300544.0,1.0
15334.7663962,296826.875,294853.78125,320944.5,312404.8125,285322.8125,254691.078125,220090.484375,245429.40625,0.038330078125,0.998779296875,0.173828125,0.6713866591453552,-1.3732908964157104,-1.0681151151657104,73.33333587646484,300545.0,1.0
15334.7663976,296891.09375,295423.03125,321904.5625,312503.59375,285844.84375,254810.96875,220234.25,245473.671875,0.039306640625,1.000732421875,0.173095703125,0.6103515028953552,-1.4343260526657104,-1.2207030057907104,73.33333587646484,300546.0,1.0
15334.766399,296728.28125,295082.03125,321586.90625,312278.03125,285614.28125,254680.96875,220043.640625,245338.296875,0.040283203125,1.001220703125,0.175537109375,0.4882812201976776,-1.5258787870407104,-1.3122557401657104,73.33333587646484,300547.0,1.0
15334.7664003,296581.28125,294322.34375,320445.875,312057.1875,284968.125,254514.765625,219805.546875,245230.65625,0.0400390625,1.000732421875,0.17626953125,0.4272460639476776,-1.4343260526657104,-1.3427733182907104,73.33333587646484,300548.0,1.0
15334.7664016,296636.28125,294177.59375,320052.21875,312132.125,284789.75,254517.09375,219825.9375,245282.6875,0.04052734375,0.99853515625,0.1767578125,0.3356933295726776,-1.5563963651657104,-1.2817381620407104,73.33333587646484,300549.0,1.0
15334.7908512,296830.09375,294854.75,320955.78125,312407.75,285328.53125,254677.75,220078.0625,245424.765625,0.039794921875,0.996826171875,0.173828125,0.3967284858226776,-1.4953612089157104,-1.3122557401657104,73.33333587646484,300550.0,1.0
15334.8159813,296830.09375,294854.75,320955.78125,312407.75,285328.53125,254677.75,220078.0625,245424.765625,0.039794921875,0.996826171875,0.173828125,0.3967284858226776,-1.4953612089157104,-1.3122557401657104,73.33333587646484,300551.0,0.0
15334.8159866,296830.09375,294854.75,320955.78125,312407.75,285328.53125,254677.75,220078.0625,245424.765625,0.039794921875,0.996826171875,0.173828125,0.3967284858226776,-1.4953612089157104,-1.3122557401657104,73.33333587646484,300552.0,0.0
15334.8159868,296830.09375,294854.75,320955.78125,312407.75,285328.53125,254677.75,220078.0625,245424.765625,0.039794921875,0.996826171875,0.173828125,0.3967284858226776,-1.4953612089157104,-1.3122557401657104,73.33333587646484,300553.0,0.0
15334.815987,296830.09375,294854.75,320955.78125,312407.75,285328.53125,254677.75,220078.0625,245424.765625,0.039794921875,0.996826171875,0.173828125,0.3967284858226776,-1.4953612089157104,-1.3122557401657104,73.33333587646484,300554.0,0.0
15334.8159872,296830.09375,294854.75,320955.78125,312407.75,285328.53125,254677.75,220078.0625,245424.765625,0.039794921875,0.996826171875,0.173828125,0.3967284858226776,-1.4953612089157104,-1.3122557401657104,73.33333587646484,300555.0,0.0
15334.8159874,296830.09375,294854.75,320955.78125,312407.75,285328.53125,254677.75,220078.0625,245424.765625,0.039794921875,0.996826171875,0.173828125,0.3967284858226776,-1.4953612089157104,-1.3122557401657104,73.33333587646484,300556.0,0.0
15334.8159876,296830.09375,294854.75,320955.78125,312407.75,285328.53125,254677.75,220078.0625,245424.765625,0.039794921875,0.996826171875,0.173828125,0.3967284858226776,-1.4953612089157104,-1.3122557401657104,73.33333587646484,300557.0,0.0
15334.8159879,296830.09375,294854.75,320955.78125,312407.75,285328.53125,254677.75,220078.0625,245424.765625,0.039794921875,0.996826171875,0.173828125,0.3967284858226776,-1.4953612089157104,-1.3122557401657104,73.33333587646484,300558.0,0.0
15334.8159881,296830.09375,294854.75,320955.78125,312407.75,285328.53125,254677.75,220078.0625,245424.765625,0.039794921875,0.996826171875,0.173828125,0.3967284858226776,-1.4953612089157104,-1.3122557401657104,73.33333587646484,300559.0,0.0
15334.8159882,296830.09375,294854.75,320955.78125,312407.75,285328.53125,254677.75,220078.0625,245424.765625,0.039794921875,0.996826171875,0.173828125,0.3967284858226776,-1.4953612089157104,-1.3122557401657104,73.33333587646484,300560.0,0.0
15334.8159884,296830.09375,294854.75,320955.78125,312407.75,285328.53125,254677.75,220078.0625,245424.765625,0.039794921875,0.996826171875,0.173828125,0.3967284858226776,-1.4953612089157104,-1.3122557401657104,73.33333587646484,300561.0,0.0
15334.8159886,296757.0625,295115.375,321610.875,312303.0625,285629.65625,254709.859375,220063.84375,245369.859375,0.039794921875,0.9912109375,0.1748046875,0.1831054538488388,-1.5563963651657104,-0.7019042372703552,73.33333587646484,300562.0,1.0
15334.8560307,296603.8125,294344.15625,320454.03125,312075.34375,284973.3125,254547.046875,219821.546875,245253.71875,0.040771484375,0.99462890625,0.1767578125,0.2136230319738388,-1.6174315214157104,-0.5493163466453552,73.33333587646484,300563.0,1.0
15334.9090928,296654.96875,294197.15625,320050.53125,312141.9375,284786.375,254544.890625,219832.8125,245291.453125,0.039794921875,0.994384765625,0.176025390625,0.3051757514476776,-1.5869139432907104,-0.5187987685203552,73.33333587646484,300564.0,1.0
15334.9091052,296846.03125,294882.90625,320968.03125,312416.875,285335.15625,254714.328125,220086.109375,245434.140625,0.040283203125,0.9931640625,0.18017578125,0.3051757514476776,-1.5869139432907104,-0.5493163466453552,73.33333587646484,300565.0,1.0
15334.9091067,296907.0,295447.15625,321927.625,312516.5625,285855.65625,254824.734375,220235.6875,245488.6875,0.03955078125,0.995361328125,0.1787109375,0.1525878757238388,-1.5869139432907104,-0.5798339247703552,73.33333587646484,300566.0,1.0
15334.909108,296745.15625,295108.84375,321606.46875,312293.5,285626.53125,254708.421875,220053.03125,245349.828125,0.0400390625,0.993896484375,0.179931640625,0.1525878757238388,-1.6479490995407104,-0.5798339247703552,73.33333587646484,300567.0,1.0
15334.9091093,296584.875,294328.15625,320439.625,312061.84375,284960.09375,254536.21875,219806.0,245235.9375,0.040283203125,0.99365234375,0.1806640625,0.1525878757238388,-1.6174315214157104,-0.6713866591453552,73.33333587646484,300568.0,1.0
15334.9091105,296641.0,294193.3125,320049.625,312132.5625,284780.09375,254537.390625,219826.28125,245283.671875,0.039794921875,0.994140625,0.17724609375,0.1525878757238388,-1.5869139432907104,-0.7324218153953552,73.33333587646484,300569.0,1.0
15334.9091117,296833.3125,294876.125,320967.125,312412.40625,285332.0,254698.3125,220087.71875,245445.328125,0.041259765625,0.994873046875,0.177978515625,0.0915527269244194,-1.5258787870407104,-0.7019042372703552,73.33333587646484,300570.0,1.0
15334.932271,296893.21875,295437.40625,321925.40625,312503.96875,285843.34375,254792.734375,220214.140625,245466.78125,0.041748046875,0.993896484375,0.179443359375,0.03051757626235485,-1.5258787870407104,-0.6713866591453552,73.33333587646484,300571.0,1.0
15334.9706623,296739.0,295106.25,321608.1875,312287.0625,285620.34375,254707.265625,220056.6875,245348.3125,0.045166015625,0.991943359375,0.180419921875,0.0,-1.4648436307907104,-0.7324218153953552,73.33333587646484,300572.0,1.0
15334.9706687,296578.96875,294329.125,320447.9375,312052.1875,284958.46875,254519.5,219799.28125,245228.234375,0.04296875,0.993408203125,0.17822265625,0.0,-1.4343260526657104,-0.8850097060203552,73.33333587646484,300573.0,1.0
15334.97067,296625.71875,294171.21875,320043.28125,312116.09375,284768.125,254501.53125,219806.34375,245271.34375,0.0419921875,0.9931640625,0.179443359375,0.1220703050494194,-1.4038084745407104,-0.7629393935203552,73.33333587646484,300574.0,1.0
15334.9706712,296815.4375,294850.71875,320940.40625,312394.0625,285304.375,254671.140625,220064.375,245425.5625,0.042724609375,0.9931640625,0.1767578125,0.1525878757238388,-1.3732908964157104,-0.7629393935203552,73.33333587646484,300575.0,1.0
15334.9706724,296882.21875,295420.34375,321898.03125,312495.8125,285825.53125,254783.25,220209.578125,245474.828125,0.04296875,0.990966796875,0.17724609375,0.2136230319738388,-1.2817381620407104,-0.8239745497703552,73.33333587646484,300576.0,1.0
15334.9706736,296737.75,295097.9375,321592.34375,312283.75,285611.21875,254693.484375,220046.765625,245354.75,0.044921875,0.992431640625,0.177734375,0.3051757514476776,-1.2207030057907104,-0.8239745497703552,73.33333587646484,300577.0,1.0
15334.9706748,296579.9375,294328.0625,320438.65625,312052.8125,284954.28125,254514.9375,219795.796875,245233.421875,0.04541015625,0.99365234375,0.17919921875,0.4272460639476776,-1.1291502714157104,-0.8544921278953552,73.33333587646484,300578.0,1.0
15334.9941809,296644.59375,294192.6875,320055.90625,312133.53125,284784.84375,254523.625,219822.171875,245279.390625,0.043212890625,0.9931640625,0.180908203125,0.4882812201976776,-1.0681151151657104,-0.8850097060203552,73.33333587646484,300579.0,1.0
15334.994193,296842.71875,294878.34375,320968.75,312420.71875,285335.3125,254704.578125,220091.375,245441.75,0.040771484375,0.992431640625,0.17919921875,0.4577636420726776,-1.1291502714157104,-0.9155272841453552,73.33333587646484,300580.0,1.0
15335.0184612,296894.03125,295436.0625,321916.28125,312510.75,285843.6875,254790.765625,220222.1875,245487.078125,0.04296875,0.992919921875,0.178466796875,0.6103515028953552,-1.0375975370407104,-0.7629393935203552,73.33333587646484,300581.0,1.0
15335.04371,296742.21875,295107.78125,321606.125,312292.40625,285621.25,254680.34375,220046.59375,245355.640625,0.042236328125,0.994873046875,0.1787109375,0.5798339247703552,-1.0070799589157104,-0.8850097060203552,73.33333587646484,300582.0,1.0
15335.1218048,296580.9375,294325.1875,320439.8125,312056.75,284953.09375,254515.296875,219795.265625,245227.171875,0.041259765625,0.99658203125,0.175537109375,0.7934569716453552,-1.0375975370407104,-0.8239745497703552,73.33333587646484,300583.0,1.0
15335.1218277,296634.75,294177.40625,320035.25,312131.75,284771.25,254528.171875,219827.265625,245291.90625,0.04150390625,0.9951171875,0.180419921875,0.7324218153953552,-0.9765624403953552,-0.8239745497703552,73.33333587646484,300584.0,1.0
15335.1218319,296634.75,294177.40625,320035.25,312131.75,284771.25,254528.171875,219827.265625,245291.90625,0.04150390625,0.9951171875,0.180419921875,0.7324218153953552,-0.9765624403953552,-0.8239745497703552,73.33333587646484,300585.0,0.0
15335.1218323,296634.75,294177.40625,320035.25,312131.75,284771.25,254528.171875,219827.265625,245291.90625,0.04150390625,0.9951171875,0.180419921875,0.7324218153953552,-0.9765624403953552,-0.8239745497703552,73.33333587646484,300586.0,0.0
15335.1218326,296634.75,294177.40625,320035.25,312131.75,284771.25,254528.171875,219827.265625,245291.90625,0.04150390625,0.9951171875,0.180419921875,0.7324218153953552,-0.9765624403953552,-0.8239745497703552,73.33333587646484,300587.0,0.0
15335.1218329,296634.75,294177.40625,320035.25,312131.75,284771.25,254528.171875,219827.265625,245291.90625,0.04150390625,0.9951171875,0.180419921875,0.7324218153953552,-0.9765624403953552,-0.8239745497703552,73.33333587646484,300588.0,0.0
15335.1218333,296634.75,294177.40625,320035.25,312131.75,284771.25,254528.171875,219827.265625,245291.90625,0.04150390625,0.9951171875,0.180419921875,0.7324218153953552,-0.9765624403953552,-0.8239745497703552,73.33333587646484,300589.0,0.0
15335.1218336,296634.75,294177.40625,320035.25,312131.75,284771.25,254528.171875,219827.265625,245291.90625,0.04150390625,0.9951171875,0.180419921875,0.7324218153953552,-0.9765624403953552,-0.8239745497703552,73.33333587646484,300590.0,0.0
15335.1218339,296634.75,294177.40625,320035.25,312131.75,284771.25,254528.171875,219827.265625,245291.90625,0.04150390625,0.9951171875,0.180419921875,0.7324218153953552,-0.9765624403953552,-0.8239745497703552,73.33333587646484,300591.0,0.0
15335.1218341,296634.75,294177.40625,320035.25,312131.75,284771.25,254528.171875,219827.265625,245291.90625,0.04150390625,0.9951171875,0.180419921875,0.7324218153953552,-0.9765624403953552,-0.8239745497703552,73.33333587646484,300592.0,0.0
15335.1218344,296634.75,294177.40625,320035.25,312131.75,284771.25,254528.171875,219827.265625,245291.90625,0.04150390625,0.9951171875,0.180419921875,0.7324218153953552,-0.9765624403953552,-0.8239745497703552,73.33333587646484,300593.0,0.0
15335.1218347,296634.75,294177.40625,320035.25,312131.75,284771.25,254528.171875,219827.265625,245291.90625,0.04150390625,0.9951171875,0.180419921875,0.7324218153953552,-0.9765624403953552,-0.8239745497703552,73.33333587646484,300594.0,0.0
15335.1218349,296634.75,294177.40625,320035.25,312131.75,284771.25,254528.171875,219827.265625,245291.90625,0.04150390625,0.9951171875,0.180419921875,0.7324218153953552,-0.9765624403953552,-0.8239745497703552,73.33333587646484,300595.0,0.0
15335.1218352,296634.75,294177.40625,320035.25,312131.75,284771.25,254528.171875,219827.265625,245291.90625,0.04150390625,0.9951171875,0.180419921875,0.7324218153953552,-0.9765624403953552,-0.8239745497703552,73.33333587646484,300596.0,0.0
15335.1218355,296634.75,294177.40625,320035.25,312131.75,284771.25,254528.171875,219827.265625,245291.90625,0.04150390625,0.9951171875,0.180419921875,0.7324218153953552,-0.9765624403953552,-0.8239745497703552,73.33333587646484,300597.0,0.0
15335.1218357,296634.75,294177.40625,320035.25,312131.75,284771.25,254528.171875,219827.265625,245291.90625,0.04150390625,0.9951171875,0.180419921875,0.7324218153953552,-0.9765624403953552,-0.8239745497703552,73.33333587646484,300598.0,0.0
15335.1218359,296634.75,294177.40625,320035.25,312131.75,284771.25,254528.171875,219827.265625,245291.90625,0.04150390625,0.9951171875,0.180419921875,0.7324218153953552,-0.9765624403953552,-0.8239745497703552,73.33333587646484,300599.0,0.0
15335.1218362,296634.75,294177.40625,320035.25,312131.75,284771.25,254528.171875,219827.265625,245291.90625,0.04150390625,0.9951171875,0.180419921875,0.7324218153953552,-0.9765624403953552,-0.8239745497703552,73.33333587646484,300600.0,0.0
15335.1218365,296634.75,294177.40625,320035.25,312131.75,284771.25,254528.171875,219827.265625,245291.90625,0.04150390625,0.9951171875,0.180419921875,0.7324218153953552,-0.9765624403953552,-0.8239745497703552,73.33333587646484,300601.0,0.0
15335.1218367,296634.75,294177.40625,320035.25,312131.75,284771.25,254528.171875,219827.265625,245291.90625,0.04150390625,0.9951171875,0.180419921875,0.7324218153953552,-0.9765624403953552,-0.8239745497703552,73.33333587646484,300602.0,0.0
15335.121837,296634.75,294177.40625,320035.25,312131.75,284771.25,254528.171875,219827.265625,245291.90625,0.04150390625,0.9951171875,0.180419921875,0.7324218153953552,-0.9765624403953552,-0.8239745497703552,73.33333587646484,300603.0,0.0
15335.1218372,296634.75,294177.40625,320035.25,312131.75,284771.25,254528.171875,219827.265625,245291.90625,0.04150390625,0.9951171875,0.180419921875,0.7324218153953552,-0.9765624403953552,-0.8239745497703552,73.33333587646484,300604.0,0.0
15335.1218375,296634.75,294177.40625,320035.25,312131.75,284771.25,254528.171875,219827.265625,245291.90625,0.04150390625,0.9951171875,0.180419921875,0.7324218153953552,-0.9765624403953552,-0.8239745497703552,73.33333587646484,300605.0,0.0
15335.1218377,296909.9375,295443.5,321925.03125,312519.78125,285841.8125,254808.828125,220230.046875,245492.34375,0.03857421875,1.0009765625,0.177978515625,0.7629393935203552,-1.5563963651657104,-1.2512205839157104,73.33333587646484,300606.0,1.0
15335.1218394,296747.125,295107.875,321611.84375,312292.25,285614.90625,254694.65625,220048.546875,245352.78125,0.038330078125,1.001220703125,0.173583984375,0.7324218153953552,-1.7395018339157104,-1.3427733182907104,73.33333587646484,300607.0,1.0
15335.1218411,296591.21875,294339.75,320452.40625,312060.59375,284958.46875,254532.375,219807.609375,245237.1875,0.03955078125,1.0009765625,0.175537109375,0.6103515028953552,-1.7700194120407104,-1.3122557401657104,73.33333587646484,300608.0,1.0
15335.1218428,296646.46875,294193.84375,320051.34375,312138.46875,284779.375,254550.0,219837.375,245296.109375,0.041259765625,1.000244140625,0.176513671875,0.5798339247703552,-1.8920897245407104,-1.3122557401657104,73.33333587646484,300609.0,1.0
15335.1218445,296839.125,294878.25,320965.34375,312420.28125,285328.78125,254718.078125,220098.625,245453.8125,0.040283203125,1.001220703125,0.177490234375,0.5493163466453552,-1.8615721464157104,-1.4953612089157104,73.33333587646484,300610.0,1.0
15335.1218461,296900.125,295445.375,321930.21875,312513.0,285846.8125,254800.15625,220224.859375,245489.484375,0.041015625,0.999267578125,0.174072265625,0.5187987685203552,-1.8615721464157104,-1.5258787870407104,73.33333587646484,300611.0,1.0
15335.1218477,296733.625,295099.71875,321606.84375,312283.75,285611.6875,254672.5625,220043.453125,245358.59375,0.03955078125,0.997314453125,0.174072265625,0.4577636420726776,-1.8005369901657104,-1.5258787870407104,73.33333587646484,300612.0,1.0
15335.1218493,296573.5,294314.65625,320441.40625,312047.34375,284947.84375,254508.6875,219794.453125,245230.296875,0.03955078125,0.9951171875,0.1748046875,0.3662109076976776,-1.8920897245407104,-1.5258787870407104,73.33333587646484,300613.0,1.0
15335.1685393,296627.5,294162.21875,320032.90625,312117.90625,284757.75,254505.640625,219805.1875,245266.953125,0.040283203125,0.99560546875,0.17431640625,0.4882812201976776,-1.8615721464157104,-1.4648436307907104,73.33333587646484,300614.0,1.0
15335.172839,296820.71875,294851.875,320945.6875,312402.21875,285307.875,254680.890625,220074.75,245435.84375,0.04150390625,0.99609375,0.176025390625,0.3967284858226776,-1.8615721464157104,-1.5563963651657104,73.33333587646484,300615.0,1.0
15335.1728682,296879.71875,295418.28125,321906.0,312496.28125,285825.0,254784.328125,220211.09375,245477.328125,0.0419921875,0.997314453125,0.174560546875,0.3356933295726776,-1.8005369901657104,-1.3732908964157104,73.33333587646484,300616.0,1.0
15335.1789293,296879.71875,295418.28125,321906.0,312496.28125,285825.0,254784.328125,220211.09375,245477.328125,0.0419921875,0.997314453125,0.174560546875,0.3356933295726776,-1.8005369901657104,-1.3732908964157104,73.33333587646484,300617.0,0.0
15335.1789305,296879.71875,295418.28125,321906.0,312496.28125,285825.0,254784.328125,220211.09375,245477.328125,0.0419921875,0.997314453125,0.174560546875,0.3356933295726776,-1.8005369901657104,-1.3732908964157104,73.33333587646484,300618.0,0.0
15335.1789308,296879.71875,295418.28125,321906.0,312496.28125,285825.0,254784.328125,220211.09375,245477.328125,0.0419921875,0.997314453125,0.174560546875,0.3356933295726776,-1.8005369901657104,-1.3732908964157104,73.33333587646484,300619.0,0.0
15335.1789309,296879.71875,295418.28125,321906.0,312496.28125,285825.0,254784.328125,220211.09375,245477.328125,0.0419921875,0.997314453125,0.174560546875,0.3356933295726776,-1.8005369901657104,-1.3732908964157104,73.33333587646484,300620.0,0.0
15335.1789311,296879.71875,295418.28125,321906.0,312496.28125,285825.0,254784.328125,220211.09375,245477.328125,0.0419921875,0.997314453125,0.174560546875,0.3356933295726776,-1.8005369901657104,-1.3732908964157104,73.33333587646484,300621.0,0.0
15335.1789313,296879.71875,295418.28125,321906.0,312496.28125,285825.0,254784.328125,220211.09375,245477.328125,0.0419921875,0.997314453125,0.174560546875,0.3356933295726776,-1.8005369901657104,-1.3732908964157104,73.33333587646484,300622.0,0.0
15335.1789315,296879.71875,295418.28125,321906.0,312496.28125,285825.0,254784.328125,220211.09375,245477.328125,0.0419921875,0.997314453125,0.174560546875,0.3356933295726776,-1.8005369901657104,-1.3732908964157104,73.33333587646484,300623.0,0.0
15335.1789317,296879.71875,295418.28125,321906.0,312496.28125,285825.0,254784.328125,220211.09375,245477.328125,0.0419921875,0.997314453125,0.174560546875,0.3356933295726776,-1.8005369901657104,-1.3732908964157104,73.33333587646484,300624.0,0.0
15335.1789319,296879.71875,295418.28125,321906.0,312496.28125,285825.0,254784.328125,220211.09375,245477.328125,0.0419921875,0.997314453125,0.174560546875,0.3356933295726776,-1.8005369901657104,-1.3732908964157104,73.33333587646484,300625.0,0.0
15335.1789321,296890.1875,295431.15625,321923.34375,312512.375,285849.6875,254818.65625,220241.046875,245489.84375,0.03857421875,0.99365234375,0.177978515625,0.5798339247703552,-1.5258787870407104,-0.6408690810203552,73.33333587646484,300626.0,1.0
15335.178938,296730.875,295099.71875,321605.59375,312291.34375,285623.84375,254704.046875,220069.75,245370.3125,0.037109375,0.994384765625,0.17578125,0.5493163466453552,-1.5258787870407104,-0.7324218153953552,73.33333587646484,300627.0,1.0
15335.1789394,296576.71875,294331.375,320453.03125,312060.5,284967.9375,254540.25,219824.046875,245250.234375,0.03662109375,0.99658203125,0.1748046875,0.5798339247703552,-1.5258787870407104,-0.7629393935203552,73.33333587646484,300628.0,1.0
15335.1789407,296625.71875,294176.25,320045.96875,312127.28125,284775.375,254531.3125,219832.28125,245290.828125,0.0380859375,0.997314453125,0.172607421875,0.5798339247703552,-1.5563963651657104,-0.7019042372703552,73.33333587646484,300629.0,1.0
15335.178942,296815.8125,294850.90625,320945.6875,312400.96875,285314.40625,254698.046875,220083.421875,245431.375,0.03955078125,0.998291015625,0.17236328125,0.5187987685203552,-1.4648436307907104,-0.7019042372703552,73.33333587646484,300630.0,1.0
15335.1789433,296883.03125,295421.0625,321906.0,312500.125,285833.40625,254801.9375,220225.3125,245477.0625,0.03955078125,0.998046875,0.177490234375,0.3967284858226776,-1.4648436307907104,-0.7629393935203552,73.33333587646484,300631.0,1.0
15335.1789446,296727.03125,295089.0,321593.875,312279.71875,285608.625,254689.921875,220050.609375,245358.15625,0.03955078125,0.99609375,0.177978515625,0.3662109076976776,-1.4343260526657104,-0.8544921278953552,73.33333587646484,300632.0,1.0
15335.1789459,296569.5625,294315.90625,320428.1875,312042.625,284940.6875,254504.390625,219794.453125,245225.828125,0.03955078125,0.99560546875,0.17578125,0.3662109076976776,-1.4343260526657104,-0.7629393935203552,73.33333587646484,300633.0,1.0
15335.1789472,296632.875,294179.625,320036.9375,312121.28125,284764.375,254509.40625,219818.234375,245277.59375,0.041015625,0.995849609375,0.173583984375,0.3967284858226776,-1.4038084745407104,-0.7934569716453552,73.33333587646484,300634.0,1.0
15335.1805238,296829.75,294863.6875,320950.40625,312403.46875,285314.125,254691.875,220081.28125,245433.34375,0.0400390625,0.99462890625,0.17626953125,0.3356933295726776,-1.2207030057907104,-0.8239745497703552,73.33333587646484,300635.0,1.0
15335.1821736,296829.75,294863.6875,320950.40625,312403.46875,285314.125,254691.875,220081.28125,245433.34375,0.0400390625,0.99462890625,0.17626953125,0.3356933295726776,-1.2207030057907104,-0.8239745497703552,73.33333587646484,300636.0,0.0
15335.1821749,296829.75,294863.6875,320950.40625,312403.46875,285314.125,254691.875,220081.28125,245433.34375,0.0400390625,0.99462890625,0.17626953125,0.3356933295726776,-1.2207030057907104,-0.8239745497703552,73.33333587646484,300637.0,0.0
15335.1821752,296829.75,294863.6875,320950.40625,312403.46875,285314.125,254691.875,220081.28125,245433.34375,0.0400390625,0.99462890625,0.17626953125,0.3356933295726776,-1.2207030057907104,-0.8239745497703552,73.33333587646484,300638.0,0.0
15335.1821754,296829.75,294863.6875,320950.40625,312403.46875,285314.125,254691.875,220081.28125,245433.34375,0.0400390625,0.99462890625,0.17626953125,0.3356933295726776,-1.2207030057907104,-0.8239745497703552,73.33333587646484,300639.0,0.0
15335.1821757,296829.75,294863.6875,320950.40625,312403.46875,285314.125,254691.875,220081.28125,245433.34375,0.0400390625,0.99462890625,0.17626953125,0.3356933295726776,-1.2207030057907104,-0.8239745497703552,73.33333587646484,300640.0,0.0
15335.182176,296829.75,294863.6875,320950.40625,312403.46875,285314.125,254691.875,220081.28125,245433.34375,0.0400390625,0.99462890625,0.17626953125,0.3356933295726776,-1.2207030057907104,-0.8239745497703552,73.33333587646484,300641.0,0.0
15335.1821761,296829.75,294863.6875,320950.40625,312403.46875,285314.125,254691.875,220081.28125,245433.34375,0.0400390625,0.99462890625,0.17626953125,0.3356933295726776,-1.2207030057907104,-0.8239745497703552,73.33333587646484,300642.0,0.0
15335.1821763,296829.75,294863.6875,320950.40625,312403.46875,285314.125,254691.875,220081.28125,245433.34375,0.0400390625,0.99462890625,0.17626953125,0.3356933295726776,-1.2207030057907104,-0.8239745497703552,73.33333587646484,300643.0,0.0
15335.1821765,296829.75,294863.6875,320950.40625,312403.46875,285314.125,254691.875,220081.28125,245433.34375,0.0400390625,0.99462890625,0.17626953125,0.3356933295726776,-1.2207030057907104,-0.8239745497703552,73.33333587646484,300644.0,0.0
15335.1821767,296829.75,294863.6875,320950.40625,312403.46875,285314.125,254691.875,220081.28125,245433.34375,0.0400390625,0.99462890625,0.17626953125,0.3356933295726776,-1.2207030057907104,-0.8239745497703552,73.33333587646484,300645.0,0.0
15335.1821769,296829.75,294863.6875,320950.40625,312403.46875,285314.125,254691.875,220081.28125,245433.34375,0.0400390625,0.99462890625,0.17626953125,0.3356933295726776,-1.2207030057907104,-0.8239745497703552,73.33333587646484,300646.0,0.0
15335.182177,296829.75,294863.6875,320950.40625,312403.46875,285314.125,254691.875,220081.28125,245433.34375,0.0400390625,0.99462890625,0.17626953125,0.3356933295726776,-1.2207030057907104,-0.8239745497703552,73.33333587646484,300647.0,0.0
15335.1821772,296829.75,294863.6875,320950.40625,312403.46875,285314.125,254691.875,220081.28125,245433.34375,0.0400390625,0.99462890625,0.17626953125,0.3356933295726776,-1.2207030057907104,-0.8239745497703552,73.33333587646484,300648.0,0.0
15335.1821774,296829.75,294863.6875,320950.40625,312403.46875,285314.125,254691.875,220081.28125,245433.34375,0.0400390625,0.99462890625,0.17626953125,0.3356933295726776,-1.2207030057907104,-0.8239745497703552,73.33333587646484,300649.0,0.0
15335.1821777,296829.75,294863.6875,320950.40625,312403.46875,285314.125,254691.875,220081.28125,245433.34375,0.0400390625,0.99462890625,0.17626953125,0.3356933295726776,-1.2207030057907104,-0.8239745497703552,73.33333587646484,300650.0,0.0
15335.1821779,296882.40625,295413.0,321904.125,312496.71875,285830.8125,254787.640625,220211.546875,245477.78125,0.039306640625,0.995361328125,0.17236328125,0.2746581733226776,-1.3122557401657104,-0.7934569716453552,73.33333587646484,300651.0,1.0
15335.1847129,296723.71875,295083.09375,321582.78125,312276.40625,285600.59375,254682.84375,220036.3125,245358.15625,0.03662109375,0.99755859375,0.17529296875,0.2441406100988388,-1.4038084745407104,-0.8544921278953552,73.33333587646484,300652.0,1.0
15335.1883801,296558.75,294309.1875,320425.59375,312036.34375,284938.96875,254514.3125,219786.59375,245229.84375,0.039306640625,0.9970703125,0.176513671875,0.1831054538488388,-1.4648436307907104,-0.8239745497703552,73.33333587646484,300653.0,1.0
15335.1927538,296610.6875,294158.0,320026.65625,312103.5,284755.78125,254510.203125,219802.0625,245273.21875,0.03857421875,0.995361328125,0.175048828125,0.1220703050494194,-1.3732908964157104,-0.7934569716453552,73.33333587646484,300654.0,1.0
15335.1927604,296807.84375,294841.4375,320942.90625,312386.03125,285304.21875,254664.25,220053.828125,245419.84375,0.041259765625,0.99462890625,0.177734375,0.1220703050494194,-1.4038084745407104,-0.7629393935203552,73.33333587646484,300655.0,1.0
15335.1927618,296884.03125,295419.71875,321918.96875,312494.125,285837.875,254783.171875,220206.09375,245470.0,0.040283203125,0.995361328125,0.177001953125,0.1525878757238388,-1.4953612089157104,-0.7629393935203552,73.33333587646484,300656.0,1.0
15335.192763,296738.09375,295094.8125,321610.78125,312284.375,285624.375,254703.59375,220060.890625,245369.6875,0.0400390625,0.9931640625,0.176513671875,0.1220703050494194,-1.4648436307907104,-0.7629393935203552,73.33333587646484,300657.0,1.0
15335.1927643,296575.84375,294325.1875,320454.84375,312046.625,284965.4375,254541.953125,219806.703125,245235.84375,0.0390625,0.995361328125,0.176513671875,0.03051757626235485,-1.4953612089157104,-0.8544921278953552,73.33333587646484,300658.0,1.0
15335.1927657,296622.5,294167.125,320042.84375,312107.25,284767.125,254509.84375,219800.09375,245264.625,0.039794921875,0.994873046875,0.178466796875,0.03051757626235485,-1.4953612089157104,-0.7934569716453552,73.33333587646484,300659.0,1.0
15335.2160299,296819.8125,294844.90625,320941.84375,312391.03125,285307.34375,254684.1875,220064.734375,245425.65625,0.040283203125,0.994873046875,0.177734375,0.03051757626235485,-1.5258787870407104,-0.7019042372703552,73.33333587646484,300660.0,1.0
15335.2432034,296884.65625,295418.375,321906.53125,312489.84375,285829.75,254797.734375,220214.140625,245476.078125,0.039306640625,0.996826171875,0.17529296875,-0.03051757626235485,-1.4648436307907104,-0.6713866591453552,73.33333587646484,300661.0,1.0
15335.243222,296722.8125,295082.65625,321587.625,312266.9375,285603.28125,254674.265625,220038.890625,245360.75,0.039794921875,0.99560546875,0.175048828125,0.0610351525247097,-1.5258787870407104,-0.8239745497703552,73.33333587646484,300662.0,1.0
15335.2432239,296555.90625,294302.65625,320420.40625,312025.375,284937.46875,254498.5,219784.453125,245229.5,0.04150390625,0.99462890625,0.17333984375,0.03051757626235485,-1.5563963651657104,-0.9155272841453552,73.33333587646484,300663.0,1.0
15335.2432293,296555.90625,294302.65625,320420.40625,312025.375,284937.46875,254498.5,219784.453125,245229.5,0.04150390625,0.99462890625,0.17333984375,0.03051757626235485,-1.5563963651657104,-0.9155272841453552,73.33333587646484,300664.0,0.0
15335.2432297,296555.90625,294302.65625,320420.40625,312025.375,284937.46875,254498.5,219784.453125,245229.5,0.04150390625,0.99462890625,0.17333984375,0.03051757626235485,-1.5563963651657104,-0.9155272841453552,73.33333587646484,300665.0,0.0
15335.2432301,296555.90625,294302.65625,320420.40625,312025.375,284937.46875,254498.5,219784.453125,245229.5,0.04150390625,0.99462890625,0.17333984375,0.03051757626235485,-1.5563963651657104,-0.9155272841453552,73.33333587646484,300666.0,0.0
15335.2432303,296555.90625,294302.65625,320420.40625,312025.375,284937.46875,254498.5,219784.453125,245229.5,0.04150390625,0.99462890625,0.17333984375,0.03051757626235485,-1.5563963651657104,-0.9155272841453552,73.33333587646484,300667.0,0.0
15335.2432307,296555.90625,294302.65625,320420.40625,312025.375,284937.46875,254498.5,219784.453125,245229.5,0.04150390625,0.99462890625,0.17333984375,0.03051757626235485,-1.5563963651657104,-0.9155272841453552,73.33333587646484,300668.0,0.0
15335.2432309,296555.90625,294302.65625,320420.40625,312025.375,284937.46875,254498.5,219784.453125,245229.5,0.04150390625,0.99462890625,0.17333984375,0.03051757626235485,-1.5563963651657104,-0.9155272841453552,73.33333587646484,300669.0,0.0
15335.2432312,296555.90625,294302.65625,320420.40625,312025.375,284937.46875,254498.5,219784.453125,245229.5,0.04150390625,0.99462890625,0.17333984375,0.03051757626235485,-1.5563963651657104,-0.9155272841453552,73.33333587646484,300670.0,0.0
15335.2432315,296555.90625,294302.65625,320420.40625,312025.375,284937.46875,254498.5,219784.453125,245229.5,0.04150390625,0.99462890625,0.17333984375,0.03051757626235485,-1.5563963651657104,-0.9155272841453552,73.33333587646484,300671.0,0.0
15335.2432318,296555.90625,294302.65625,320420.40625,312025.375,284937.46875,254498.5,219784.453125,245229.5,0.04150390625,0.99462890625,0.17333984375,0.03051757626235485,-1.5563963651657104,-0.9155272841453552,73.33333587646484,300672.0,0.0
15335.2432321,296555.90625,294302.65625,320420.40625,312025.375,284937.46875,254498.5,219784.453125,245229.5,0.04150390625,0.99462890625,0.17333984375,0.03051757626235485,-1.5563963651657104,-0.9155272841453552,73.33333587646484,300673.0,0.0
15335.2432324,296555.90625,294302.65625,320420.40625,312025.375,284937.46875,254498.5,219784.453125,245229.5,0.04150390625,0.99462890625,0.17333984375,0.03051757626235485,-1.5563963651657104,-0.9155272841453552,73.33333587646484,300674.0,0.0
15335.2432327,296555.90625,294302.65625,320420.40625,312025.375,284937.46875,254498.5,219784.453125,245229.5,0.04150390625,0.99462890625,0.17333984375,0.03051757626235485,-1.5563963651657104,-0.9155272841453552,73.33333587646484,300675.0,0.0
15335.243233,296555.90625,294302.65625,320420.40625,312025.375,284937.46875,254498.5,219784.453125,245229.5,0.04150390625,0.99462890625,0.17333984375,0.03051757626235485,-1.5563963651657104,-0.9155272841453552,73.33333587646484,300676.0,0.0
15335.2432333,296555.90625,294302.65625,320420.40625,312025.375,284937.46875,254498.5,219784.453125,245229.5,0.04150390625,0.99462890625,0.17333984375,0.03051757626235485,-1.5563963651657104,-0.9155272841453552,73.33333587646484,300677.0,0.0
15335.2432336,296555.90625,294302.65625,320420.40625,312025.375,284937.46875,254498.5,219784.453125,245229.5,0.04150390625,0.99462890625,0.17333984375,0.03051757626235485,-1.5563963651657104,-0.9155272841453552,73.33333587646484,300678.0,0.0
15335.243234,296555.90625,294302.65625,320420.40625,312025.375,284937.46875,254498.5,219784.453125,245229.5,0.04150390625,0.99462890625,0.17333984375,0.03051757626235485,-1.5563963651657104,-0.9155272841453552,73.33333587646484,300679.0,0.0
15335.2432343,296555.90625,294302.65625,320420.40625,312025.375,284937.46875,254498.5,219784.453125,245229.5,0.04150390625,0.99462890625,0.17333984375,0.03051757626235485,-1.5563963651657104,-0.9155272841453552,73.33333587646484,300680.0,0.0
15335.2432346,296555.90625,294302.65625,320420.40625,312025.375,284937.46875,254498.5,219784.453125,245229.5,0.04150390625,0.99462890625,0.17333984375,0.03051757626235485,-1.5563963651657104,-0.9155272841453552,73.33333587646484,300681.0,0.0
15335.2432348,296555.90625,294302.65625,320420.40625,312025.375,284937.46875,254498.5,219784.453125,245229.5,0.04150390625,0.99462890625,0.17333984375,0.03051757626235485,-1.5563963651657104,-0.9155272841453552,73.33333587646484,300682.0,0.0
15335.243235,296555.90625,294302.65625,320420.40625,312025.375,284937.46875,254498.5,219784.453125,245229.5,0.04150390625,0.99462890625,0.17333984375,0.03051757626235485,-1.5563963651657104,-0.9155272841453552,73.33333587646484,300683.0,0.0
15335.2432353,296555.90625,294302.65625,320420.40625,312025.375,284937.46875,254498.5,219784.453125,245229.5,0.04150390625,0.99462890625,0.17333984375,0.03051757626235485,-1.5563963651657104,-0.9155272841453552,73.33333587646484,300684.0,0.0
15335.2432356,296555.90625,294302.65625,320420.40625,312025.375,284937.46875,254498.5,219784.453125,245229.5,0.04150390625,0.99462890625,0.17333984375,0.03051757626235485,-1.5563963651657104,-0.9155272841453552,73.33333587646484,300685.0,0.0
15335.2432358,296555.90625,294302.65625,320420.40625,312025.375,284937.46875,254498.5,219784.453125,245229.5,0.04150390625,0.99462890625,0.17333984375,0.03051757626235485,-1.5563963651657104,-0.9155272841453552,73.33333587646484,300686.0,0.0
15335.2432361,296555.90625,294302.65625,320420.40625,312025.375,284937.46875,254498.5,219784.453125,245229.5,0.04150390625,0.99462890625,0.17333984375,0.03051757626235485,-1.5563963651657104,-0.9155272841453552,73.33333587646484,300687.0,0.0
15335.2432363,296555.90625,294302.65625,320420.40625,312025.375,284937.46875,254498.5,219784.453125,245229.5,0.04150390625,0.99462890625,0.17333984375,0.03051757626235485,-1.5563963651657104,-0.9155272841453552,73.33333587646484,300688.0,0.0
15335.2432366,296555.90625,294302.65625,320420.40625,312025.375,284937.46875,254498.5,219784.453125,245229.5,0.04150390625,0.99462890625,0.17333984375,0.03051757626235485,-1.5563963651657104,-0.9155272841453552,73.33333587646484,300689.0,0.0
15335.2432369,296555.90625,294302.65625,320420.40625,312025.375,284937.46875,254498.5,219784.453125,245229.5,0.04150390625,0.99462890625,0.17333984375,0.03051757626235485,-1.5563963651657104,-0.9155272841453552,73.33333587646484,300690.0,0.0
15335.2432371,296555.90625,294302.65625,320420.40625,312025.375,284937.46875,254498.5,219784.453125,245229.5,0.04150390625,0.99462890625,0.17333984375,0.03051757626235485,-1.5563963651657104,-0.9155272841453552,73.33333587646484,300691.0,0.0
15335.2432374,296555.90625,294302.65625,320420.40625,312025.375,284937.46875,254498.5,219784.453125,245229.5,0.04150390625,0.99462890625,0.17333984375,0.03051757626235485,-1.5563963651657104,-0.9155272841453552,73.33333587646484,300692.0,0.0
15335.2432376,296555.90625,294302.65625,320420.40625,312025.375,284937.46875,254498.5,219784.453125,245229.5,0.04150390625,0.99462890625,0.17333984375,0.03051757626235485,-1.5563963651657104,-0.9155272841453552,73.33333587646484,300693.0,0.0
15335.2432379,296555.90625,294302.65625,320420.40625,312025.375,284937.46875,254498.5,219784.453125,245229.5,0.04150390625,0.99462890625,0.17333984375,0.03051757626235485,-1.5563963651657104,-0.9155272841453552,73.33333587646484,300694.0,0.0
15335.2432381,296555.90625,294302.65625,320420.40625,312025.375,284937.46875,254498.5,219784.453125,245229.5,0.04150390625,0.99462890625,0.17333984375,0.03051757626235485,-1.5563963651657104,-0.9155272841453552,73.33333587646484,300695.0,0.0
15335.2432384,296555.90625,294302.65625,320420.40625,312025.375,284937.46875,254498.5,219784.453125,245229.5,0.04150390625,0.99462890625,0.17333984375,0.03051757626235485,-1.5563963651657104,-0.9155272841453552,73.33333587646484,300696.0,0.0
15335.2432387,296555.90625,294302.65625,320420.40625,312025.375,284937.46875,254498.5,219784.453125,245229.5,0.04150390625,0.99462890625,0.17333984375,0.03051757626235485,-1.5563963651657104,-0.9155272841453552,73.33333587646484,300697.0,0.0
15335.2432389,296555.90625,294302.65625,320420.40625,312025.375,284937.46875,254498.5,219784.453125,245229.5,0.04150390625,0.99462890625,0.17333984375,0.03051757626235485,-1.5563963651657104,-0.9155272841453552,73.33333587646484,300698.0,0.0
15335.2432393,296555.90625,294302.65625,320420.40625,312025.375,284937.46875,254498.5,219784.453125,245229.5,0.04150390625,0.99462890625,0.17333984375,0.03051757626235485,-1.5563963651657104,-0.9155272841453552,73.33333587646484,300699.0,0.0
15335.2432396,296800.59375,294832.84375,320903.21875,312362.34375,285296.78125,254681.25,220056.875,245410.546875,0.04248046875,0.99560546875,0.18115234375,0.5493163466453552,-1.5258787870407104,-0.9155272841453552,73.33333587646484,300700.0,1.0
15335.2432415,296871.5,295408.96875,321872.8125,312462.84375,285818.28125,254776.28125,220191.421875,245450.5,0.04296875,0.9970703125,0.177734375,0.5798339247703552,-1.5563963651657104,-0.9155272841453552,73.33333587646484,300701.0,1.0
15335.2432434,296722.5625,295091.40625,321573.40625,312253.25,285601.3125,254673.015625,220027.984375,245336.6875,0.042724609375,0.99755859375,0.1806640625,0.7019042372703552,-1.4953612089157104,-0.9155272841453552,73.33333587646484,300702.0,1.0
15335.2432452,296565.90625,294319.375,320413.625,312024.1875,284944.0,254521.828125,219789.90625,245221.8125,0.042236328125,0.998046875,0.18310546875,0.7324218153953552,-1.4953612089157104,-0.9155272841453552,73.33333587646484,300703.0,1.0
15335.266595,296621.25,294173.46875,320010.3125,312094.65625,284762.5,254539.625,219813.40625,245269.640625,0.042236328125,0.999267578125,0.181396484375,0.7629393935203552,-1.4648436307907104,-0.9155272841453552,73.33333587646484,300704.0,1.0
15335.2666133,296823.40625,294861.46875,320925.46875,312381.375,285311.1875,254697.78125,220071.53125,245424.21875,0.040283203125,0.99658203125,0.182861328125,0.7324218153953552,-1.4343260526657104,-0.9765624403953552,73.33333587646484,300705.0,1.0
15335.287252,296889.65625,295429.375,321896.6875,312486.6875,285832.25,254779.59375,220209.84375,245478.84375,0.038818359375,0.996826171875,0.17822265625,0.7629393935203552,-1.4953612089157104,-0.9765624403953552,73.33333587646484,300706.0,1.0
15335.3337476,296732.9375,295093.65625,321581.1875,312260.5,285602.03125,254662.828125,220027.28125,245342.421875,0.039794921875,0.99609375,0.17626953125,0.8239745497703552,-1.4648436307907104,-0.9155272841453552,73.33333587646484,300707.0,1.0
15335.3842518,296574.9375,294318.5,320417.90625,312027.59375,284941.5625,254502.609375,219783.8125,245226.359375,0.0400390625,0.99609375,0.1796875,0.8850097060203552,-1.5258787870407104,-1.0070799589157104,73.33333587646484,300708.0,1.0
15335.3842691,296627.875,294166.5,320008.40625,312102.25,284757.75,254516.90625,219808.5,245282.953125,0.04150390625,0.997802734375,0.18310546875,0.8544921278953552,-1.4953612089157104,-0.9765624403953552,73.33333587646484,300709.0,1.0
15335.3842727,296627.875,294166.5,320008.40625,312102.25,284757.75,254516.90625,219808.5,245282.953125,0.04150390625,0.997802734375,0.18310546875,0.8544921278953552,-1.4953612089157104,-0.9765624403953552,73.33333587646484,300710.0,0.0
15335.3842731,296627.875,294166.5,320008.40625,312102.25,284757.75,254516.90625,219808.5,245282.953125,0.04150390625,0.997802734375,0.18310546875,0.8544921278953552,-1.4953612089157104,-0.9765624403953552,73.33333587646484,300711.0,0.0
15335.3842734,296627.875,294166.5,320008.40625,312102.25,284757.75,254516.90625,219808.5,245282.953125,0.04150390625,0.997802734375,0.18310546875,0.8544921278953552,-1.4953612089157104,-0.9765624403953552,73.33333587646484,300712.0,0.0
15335.3842737,296627.875,294166.5,320008.40625,312102.25,284757.75,254516.90625,219808.5,245282.953125,0.04150390625,0.997802734375,0.18310546875,0.8544921278953552,-1.4953612089157104,-0.9765624403953552,73.33333587646484,300713.0,0.0
15335.3842741,296627.875,294166.5,320008.40625,312102.25,284757.75,254516.90625,219808.5,245282.953125,0.04150390625,0.997802734375,0.18310546875,0.8544921278953552,-1.4953612089157104,-0.9765624403953552,73.33333587646484,300714.0,0.0
15335.3842744,296627.875,294166.5,320008.40625,312102.25,284757.75,254516.90625,219808.5,245282.953125,0.04150390625,0.997802734375,0.18310546875,0.8544921278953552,-1.4953612089157104,-0.9765624403953552,73.33333587646484,300715.0,0.0
15335.3842747,296627.875,294166.5,320008.40625,312102.25,284757.75,254516.90625,219808.5,245282.953125,0.04150390625,0.997802734375,0.18310546875,0.8544921278953552,-1.4953612089157104,-0.9765624403953552,73.33333587646484,300716.0,0.0
15335.384275,296627.875,294166.5,320008.40625,312102.25,284757.75,254516.90625,219808.5,245282.953125,0.04150390625,0.997802734375,0.18310546875,0.8544921278953552,-1.4953612089157104,-0.9765624403953552,73.33333587646484,300717.0,0.0
15335.3842754,296627.875,294166.5,320008.40625,312102.25,284757.75,254516.90625,219808.5,245282.953125,0.04150390625,0.997802734375,0.18310546875,0.8544921278953552,-1.4953612089157104,-0.9765624403953552,73.33333587646484,300718.0,0.0
15335.3842757,296627.875,294166.5,320008.40625,312102.25,284757.75,254516.90625,219808.5,245282.953125,0.04150390625,0.997802734375,0.18310546875,0.8544921278953552,-1.4953612089157104,-0.9765624403953552,73.33333587646484,300719.0,0.0
15335.384276,296627.875,294166.5,320008.40625,312102.25,284757.75,254516.90625,219808.5,245282.953125,0.04150390625,0.997802734375,0.18310546875,0.8544921278953552,-1.4953612089157104,-0.9765624403953552,73.33333587646484,300720.0,0.0
15335.3842763,296627.875,294166.5,320008.40625,312102.25,284757.75,254516.90625,219808.5,245282.953125,0.04150390625,0.997802734375,0.18310546875,0.8544921278953552,-1.4953612089157104,-0.9765624403953552,73.33333587646484,300721.0,0.0
15335.3842766,296627.875,294166.5,320008.40625,312102.25,284757.75,254516.90625,219808.5,245282.953125,0.04150390625,0.997802734375,0.18310546875,0.8544921278953552,-1.4953612089157104,-0.9765624403953552,73.33333587646484,300722.0,0.0
15335.384277,296627.875,294166.5,320008.40625,312102.25,284757.75,254516.90625,219808.5,245282.953125,0.04150390625,0.997802734375,0.18310546875,0.8544921278953552,-1.4953612089157104,-0.9765624403953552,73.33333587646484,300723.0,0.0
15335.3842773,296627.875,294166.5,320008.40625,312102.25,284757.75,254516.90625,219808.5,245282.953125,0.04150390625,0.997802734375,0.18310546875,0.8544921278953552,-1.4953612089157104,-0.9765624403953552,73.33333587646484,300724.0,0.0
15335.3842776,296627.875,294166.5,320008.40625,312102.25,284757.75,254516.90625,219808.5,245282.953125,0.04150390625,0.997802734375,0.18310546875,0.8544921278953552,-1.4953612089157104,-0.9765624403953552,73.33333587646484,300725.0,0.0
15335.3842779,296627.875,294166.5,320008.40625,312102.25,284757.75,254516.90625,219808.5,245282.953125,0.04150390625,0.997802734375,0.18310546875,0.8544921278953552,-1.4953612089157104,-0.9765624403953552,73.33333587646484,300726.0,0.0
15335.3842782,296748.3125,295121.09375,321597.4375,312273.03125,285624.09375,254702.078125,220051.0625,245350.375,0.045654296875,0.9921875,0.174560546875,0.9155272841453552,-0.9765624403953552,-0.3051757514476776,73.33333587646484,300727.0,1.0
15335.3842803,296585.75,294337.0,320429.875,312037.15625,284962.21875,254527.375,219802.0625,245232.796875,0.0439453125,0.991455078125,0.176025390625,1.0070799589157104,-0.8850097060203552,-0.3662109076976776,73.33333587646484,300728.0,1.0
15335.384282,296639.75,294186.0,320023.1875,312108.25,284775.71875,254537.46875,219822.171875,245281.625,0.043212890625,0.99169921875,0.1748046875,1.0070799589157104,-0.9155272841453552,-0.4577636420726776,73.33333587646484,300729.0,1.0
15335.3842837,296835.90625,294871.5625,320935.3125,312391.5625,285324.40625,254711.8125,220092.8125,245436.296875,0.0439453125,0.990234375,0.178955078125,1.0986326932907104,-0.8544921278953552,-0.5187987685203552,73.33333587646484,300730.0,1.0
15335.3842854,296900.84375,295445.1875,321907.6875,312491.4375,285851.65625,254809.546875,220239.4375,245487.4375,0.043212890625,0.9921875,0.1787109375,1.1901854276657104,-0.8850097060203552,-0.5493163466453552,73.33333587646484,300731.0,1.0
15335.384287,296743.125,295109.5625,321591.8125,312267.125,285623.84375,254693.671875,220058.828125,245362.625,0.04345703125,0.994384765625,0.177978515625,1.2817381620407104,-0.8850097060203552,-0.5493163466453552,73.33333587646484,300732.0,1.0
15335.3842887,296588.875,294341.375,320435.34375,312035.1875,284965.71875,254537.296875,219817.25,245228.421875,0.041748046875,0.99658203125,0.176513671875,1.3122557401657104,-0.8850097060203552,-0.7324218153953552,73.33333587646484,300733.0,1.0
15335.3842903,296648.0,294199.125,320037.84375,312110.46875,284786.625,254546.234375,219838.625,245276.4375,0.040283203125,0.998779296875,0.172119140625,1.0986326932907104,-0.9155272841453552,-0.8239745497703552,73.33333587646484,300734.0,1.0
15335.4084924,296843.0625,294875.9375,320941.28125,312391.65625,285328.875,254708.59375,220091.640625,245434.140625,0.03955078125,0.998046875,0.171875,1.1291502714157104,-0.9765624403953552,-1.0070799589157104,73.33333587646484,300735.0,1.0
15335.427788,296906.1875,295443.5,321903.3125,312488.21875,285846.375,254803.46875,220226.734375,245473.75,0.039306640625,0.996337890625,0.173828125,1.0375975370407104,-0.9765624403953552,-1.0986326932907104,73.33333587646484,300736.0,1.0
15335.4278047,296906.1875,295443.5,321903.3125,312488.21875,285846.375,254803.46875,220226.734375,245473.75,0.039306640625,0.996337890625,0.173828125,1.0375975370407104,-0.9765624403953552,-1.0986326932907104,73.33333587646484,300737.0,0.0
15335.4278049,296906.1875,295443.5,321903.3125,312488.21875,285846.375,254803.46875,220226.734375,245473.75,0.039306640625,0.996337890625,0.173828125,1.0375975370407104,-0.9765624403953552,-1.0986326932907104,73.33333587646484,300738.0,0.0
15335.4278051,296906.1875,295443.5,321903.3125,312488.21875,285846.375,254803.46875,220226.734375,245473.75,0.039306640625,0.996337890625,0.173828125,1.0375975370407104,-0.9765624403953552,-1.0986326932907104,73.33333587646484,300739.0,0.0
15335.4278053,296906.1875,295443.5,321903.3125,312488.21875,285846.375,254803.46875,220226.734375,245473.75,0.039306640625,0.996337890625,0.173828125,1.0375975370407104,-0.9765624403953552,-1.0986326932907104,73.33333587646484,300740.0,0.0
15335.4278055,296906.1875,295443.5,321903.3125,312488.21875,285846.375,254803.46875,220226.734375,245473.75,0.039306640625,0.996337890625,0.173828125,1.0375975370407104,-0.9765624403953552,-1.0986326932907104,73.33333587646484,300741.0,0.0
15335.4278057,296906.1875,295443.5,321903.3125,312488.21875,285846.375,254803.46875,220226.734375,245473.75,0.039306640625,0.996337890625,0.173828125,1.0375975370407104,-0.9765624403953552,-1.0986326932907104,73.33333587646484,300742.0,0.0
15335.4278059,296906.1875,295443.5,321903.3125,312488.21875,285846.375,254803.46875,220226.734375,245473.75,0.039306640625,0.996337890625,0.173828125,1.0375975370407104,-0.9765624403953552,-1.0986326932907104,73.33333587646484,300743.0,0.0
15335.4278061,296906.1875,295443.5,321903.3125,312488.21875,285846.375,254803.46875,220226.734375,245473.75,0.039306640625,0.996337890625,0.173828125,1.0375975370407104,-0.9765624403953552,-1.0986326932907104,73.33333587646484,300744.0,0.0
15335.4278063,296831.90625,294865.9375,320917.25,312380.03125,285301.0625,254693.671875,220069.828125,245413.765625,0.04296875,0.996337890625,0.176025390625,0.6408690810203552,-1.4038084745407104,-1.1901854276657104,73.33333587646484,300745.0,1.0
15335.4364152,296899.21875,295452.25,321901.6875,312486.78125,285837.0625,254802.828125,220223.796875,245472.0625,0.042724609375,0.9951171875,0.177490234375,0.6103515028953552,-1.4038084745407104,-1.0070799589157104,73.33333587646484,300746.0,1.0
15335.4364215,296743.125,295127.09375,321597.71875,312269.0,285619.09375,254699.125,220057.3125,245358.15625,0.04345703125,0.994384765625,0.181396484375,0.6408690810203552,-1.4648436307907104,-0.9765624403953552,73.33333587646484,300747.0,1.0
15335.4364228,296593.71875,294367.40625,320447.0625,312042.96875,284971.625,254554.546875,219825.484375,245242.375,0.0419921875,0.995849609375,0.18017578125,0.6408690810203552,-1.3427733182907104,-0.8850097060203552,73.33333587646484,300748.0,1.0
15335.436424,296650.21875,294224.53125,320045.0625,312117.4375,284791.0,254566.53125,219843.8125,245283.234375,0.038330078125,0.995361328125,0.1787109375,0.6103515028953552,-1.3427733182907104,-0.8239745497703552,73.33333587646484,300749.0,1.0
15335.4364253,296836.46875,294887.75,320937.09375,312392.375,285323.15625,254724.0625,220091.5625,245431.015625,0.041748046875,0.9951171875,0.176025390625,0.5798339247703552,-1.4038084745407104,-0.8850097060203552,73.33333587646484,300750.0,1.0
15335.4364264,296899.40625,295450.8125,321902.96875,312491.78125,285842.96875,254809.1875,220228.53125,245480.640625,0.0400390625,0.99462890625,0.1767578125,0.6408690810203552,-1.4343260526657104,-0.8544921278953552,73.33333587646484,300751.0,1.0
15335.4364276,296744.71875,295130.9375,321604.4375,312268.5625,285623.5625,254689.375,220044.984375,245351.265625,0.040283203125,0.994140625,0.17822265625,0.7019042372703552,-1.5258787870407104,-0.8544921278953552,73.33333587646484,300752.0,1.0
15335.4364288,296576.90625,294340.40625,320433.90625,312024.375,284951.125,254508.953125,219788.46875,245222.703125,0.041015625,0.99560546875,0.176025390625,0.7019042372703552,-1.5563963651657104,-0.7629393935203552,73.33333587646484,300753.0,1.0
15335.43643,296638.34375,294197.34375,320033.8125,312105.8125,284772.3125,254523.625,219815.375,245275.890625,0.03857421875,0.996826171875,0.176513671875,0.6408690810203552,-1.5563963651657104,-0.7934569716453552,73.33333587646484,300754.0,1.0
15335.4379697,296835.03125,294877.1875,320935.21875,312391.40625,285318.4375,254709.765625,220087.71875,245435.484375,0.04052734375,0.99560546875,0.176513671875,0.7019042372703552,-1.6479490995407104,-0.8544921278953552,73.33333587646484,300755.0,1.0
15335.4396992,296894.40625,295443.21875,321899.375,312485.8125,285837.25,254817.40625,220232.203125,245480.015625,0.0400390625,0.9951171875,0.175048828125,0.7934569716453552,-1.5869139432907104,-0.8850097060203552,73.33333587646484,300756.0,1.0
15335.4422299,296894.40625,295443.21875,321899.375,312485.8125,285837.25,254817.40625,220232.203125,245480.015625,0.0400390625,0.9951171875,0.175048828125,0.7934569716453552,-1.5869139432907104,-0.8850097060203552,73.33333587646484,300757.0,0.0
15335.4422307,296894.40625,295443.21875,321899.375,312485.8125,285837.25,254817.40625,220232.203125,245480.015625,0.0400390625,0.9951171875,0.175048828125,0.7934569716453552,-1.5869139432907104,-0.8850097060203552,73.33333587646484,300758.0,0.0
15335.4422309,296894.40625,295443.21875,321899.375,312485.8125,285837.25,254817.40625,220232.203125,245480.015625,0.0400390625,0.9951171875,0.175048828125,0.7934569716453552,-1.5869139432907104,-0.8850097060203552,73.33333587646484,300759.0,0.0
15335.4422311,296894.40625,295443.21875,321899.375,312485.8125,285837.25,254817.40625,220232.203125,245480.015625,0.0400390625,0.9951171875,0.175048828125,0.7934569716453552,-1.5869139432907104,-0.8850097060203552,73.33333587646484,300760.0,0.0
15335.4422313,296894.40625,295443.21875,321899.375,312485.8125,285837.25,254817.40625,220232.203125,245480.015625,0.0400390625,0.9951171875,0.175048828125,0.7934569716453552,-1.5869139432907104,-0.8850097060203552,73.33333587646484,300761.0,0.0
15335.4422315,296894.40625,295443.21875,321899.375,312485.8125,285837.25,254817.40625,220232.203125,245480.015625,0.0400390625,0.9951171875,0.175048828125,0.7934569716453552,-1.5869139432907104,-0.8850097060203552,73.33333587646484,300762.0,0.0
15335.4422317,296894.40625,295443.21875,321899.375,312485.8125,285837.25,254817.40625,220232.203125,245480.015625,0.0400390625,0.9951171875,0.175048828125,0.7934569716453552,-1.5869139432907104,-0.8850097060203552,73.33333587646484,300763.0,0.0
15335.4422319,296894.40625,295443.21875,321899.375,312485.8125,285837.25,254817.40625,220232.203125,245480.015625,0.0400390625,0.9951171875,0.175048828125,0.7934569716453552,-1.5869139432907104,-0.8850097060203552,73.33333587646484,300764.0,0.0
15335.442232,296894.40625,295443.21875,321899.375,312485.8125,285837.25,254817.40625,220232.203125,245480.015625,0.0400390625,0.9951171875,0.175048828125,0.7934569716453552,-1.5869139432907104,-0.8850097060203552,73.33333587646484,300765.0,0.0
15335.4422322,296894.40625,295443.21875,321899.375,312485.8125,285837.25,254817.40625,220232.203125,245480.015625,0.0400390625,0.9951171875,0.175048828125,0.7934569716453552,-1.5869139432907104,-0.8850097060203552,73.33333587646484,300766.0,0.0
15335.4422324,296894.40625,295443.21875,321899.375,312485.8125,285837.25,254817.40625,220232.203125,245480.015625,0.0400390625,0.9951171875,0.175048828125,0.7934569716453552,-1.5869139432907104,-0.8850097060203552,73.33333587646484,300767.0,0.0
15335.4422326,296894.40625,295443.21875,321899.375,312485.8125,285837.25,254817.40625,220232.203125,245480.015625,0.0400390625,0.9951171875,0.175048828125,0.7934569716453552,-1.5869139432907104,-0.8850097060203552,73.33333587646484,300768.0,0.0
15335.4422338,296894.40625,295443.21875,321899.375,312485.8125,285837.25,254817.40625,220232.203125,245480.015625,0.0400390625,0.9951171875,0.175048828125,0.7934569716453552,-1.5869139432907104,-0.8850097060203552,73.33333587646484,300769.0,0.0
15335.4422343,296894.40625,295443.21875,321899.375,312485.8125,285837.25,254817.40625,220232.203125,245480.015625,0.0400390625,0.9951171875,0.175048828125,0.7934569716453552,-1.5869139432907104,-0.8850097060203552,73.33333587646484,300770.0,0.0
15335.4422345,296894.40625,295443.21875,321899.375,312485.8125,285837.25,254817.40625,220232.203125,245480.015625,0.0400390625,0.9951171875,0.175048828125,0.7934569716453552,-1.5869139432907104,-0.8850097060203552,73.33333587646484,300771.0,0.0
15335.4422347,296727.90625,295105.09375,321581.96875,312256.3125,285603.28125,254680.609375,220048.546875,245342.59375,0.048583984375,0.995849609375,0.172119140625,1.7700194120407104,-0.5493163466453552,-0.2746581733226776,73.33333587646484,300772.0,1.0
15335.4458969,296561.71875,294332.15625,320425.875,312018.5625,284943.375,254515.65625,219795.0,245212.5,0.0458984375,0.99560546875,0.171142578125,1.7089842557907104,-0.4882812201976776,-0.2441406100988388,73.33333587646484,300773.0,1.0
15335.4506676,296618.125,294176.0625,320012.25,312090.09375,284755.15625,254508.953125,219812.078125,245267.9375,0.045654296875,0.994384765625,0.169189453125,1.7395018339157104,-0.3662109076976776,-0.2746581733226776,73.33333587646484,300774.0,1.0
15335.4506704,296823.03125,294854.75,320906.15625,312377.90625,285295.71875,254686.25,220073.5,245425.5625,0.046142578125,0.993408203125,0.172607421875,1.6784666776657104,-0.3967284858226776,-0.3356933295726776,73.33333587646484,300775.0,1.0
15335.4506717,296894.84375,295443.125,321884.09375,312485.8125,285828.65625,254806.59375,220224.234375,245471.609375,0.044921875,0.995361328125,0.169677734375,1.5869139432907104,-0.3051757514476776,-0.3967284858226776,73.33333587646484,300776.0,1.0
15335.4506729,296733.625,295123.34375,321587.625,312262.46875,285611.40625,254691.4375,220050.609375,245347.328125,0.043212890625,0.995849609375,0.16943359375,1.4648436307907104,-0.3356933295726776,-0.3051757514476776,73.33333587646484,300777.0,1.0
15335.450674,296570.5625,294341.65625,320425.59375,312019.09375,284944.34375,254508.6875,219789.265625,245212.0625,0.0419921875,0.9951171875,0.172119140625,1.4343260526657104,-0.3356933295726776,-0.3051757514476776,73.33333587646484,300778.0,1.0
15335.4506753,296621.34375,294180.1875,320005.28125,312087.0625,284750.15625,254515.125,219810.546875,245266.0625,0.041259765625,0.994140625,0.170654296875,1.4343260526657104,-0.3051757514476776,-0.4272460639476776,73.33333587646484,300779.0,1.0
15335.4506764,296820.09375,294863.875,320909.28125,312372.25,285295.96875,254682.671875,220076.71875,245423.859375,0.0400390625,0.994873046875,0.166259765625,1.4648436307907104,-0.3662109076976776,-0.4882812201976776,73.33333587646484,300780.0,1.0
15335.4752758,296889.28125,295444.375,321889.8125,312479.71875,285828.5,254794.96875,220228.796875,245475.71875,0.03955078125,0.996826171875,0.1689453125,1.4038084745407104,-0.5493163466453552,-0.5798339247703552,73.33333587646484,300781.0,1.0
15335.4752913,296731.75,295117.34375,321582.34375,312260.78125,285607.375,254701.984375,220061.25,245362.078125,0.0390625,0.997802734375,0.16796875,1.4343260526657104,-0.6103515028953552,-0.6103515028953552,73.33333587646484,300782.0,1.0
15335.4752932,296570.46875,294343.34375,320421.125,312022.3125,284943.90625,254524.875,219803.75,245226.359375,0.040283203125,0.998779296875,0.164306640625,1.2512205839157104,-0.7019042372703552,-0.6408690810203552,73.33333587646484,300783.0,1.0
15335.4752976,296570.46875,294343.34375,320421.125,312022.3125,284943.90625,254524.875,219803.75,245226.359375,0.040283203125,0.998779296875,0.164306640625,1.2512205839157104,-0.7019042372703552,-0.6408690810203552,73.33333587646484,300784.0,0.0
15335.4752981,296570.46875,294343.34375,320421.125,312022.3125,284943.90625,254524.875,219803.75,245226.359375,0.040283203125,0.998779296875,0.164306640625,1.2512205839157104,-0.7019042372703552,-0.6408690810203552,73.33333587646484,300785.0,0.0
15335.4752985,296570.46875,294343.34375,320421.125,312022.3125,284943.90625,254524.875,219803.75,245226.359375,0.040283203125,0.998779296875,0.164306640625,1.2512205839157104,-0.7019042372703552,-0.6408690810203552,73.33333587646484,300786.0,0.0
15335.4752988,296570.46875,294343.34375,320421.125,312022.3125,284943.90625,254524.875,219803.75,245226.359375,0.040283203125,0.998779296875,0.164306640625,1.2512205839157104,-0.7019042372703552,-0.6408690810203552,73.33333587646484,300787.0,0.0
15335.4752991,296570.46875,294343.34375,320421.125,312022.3125,284943.90625,254524.875,219803.75,245226.359375,0.040283203125,0.998779296875,0.164306640625,1.2512205839157104,-0.7019042372703552,-0.6408690810203552,73.33333587646484,300788.0,0.0
15335.4752994,296570.46875,294343.34375,320421.125,312022.3125,284943.90625,254524.875,219803.75,245226.359375,0.040283203125,0.998779296875,0.164306640625,1.2512205839157104,-0.7019042372703552,-0.6408690810203552,73.33333587646484,300789.0,0.0
15335.4752997,296570.46875,294343.34375,320421.125,312022.3125,284943.90625,254524.875,219803.75,245226.359375,0.040283203125,0.998779296875,0.164306640625,1.2512205839157104,-0.7019042372703552,-0.6408690810203552,73.33333587646484,300790.0,0.0
15335.4753,296570.46875,294343.34375,320421.125,312022.3125,284943.90625,254524.875,219803.75,245226.359375,0.040283203125,0.998779296875,0.164306640625,1.2512205839157104,-0.7019042372703552,-0.6408690810203552,73.33333587646484,300791.0,0.0
15335.4753003,296570.46875,294343.34375,320421.125,312022.3125,284943.90625,254524.875,219803.75,245226.359375,0.040283203125,0.998779296875,0.164306640625,1.2512205839157104,-0.7019042372703552,-0.6408690810203552,73.33333587646484,300792.0,0.0
15335.4753006,296570.46875,294343.34375,320421.125,312022.3125,284943.90625,254524.875,219803.75,245226.359375,0.040283203125,0.998779296875,0.164306640625,1.2512205839157104,-0.7019042372703552,-0.6408690810203552,73.33333587646484,300793.0,0.0
15335.475301,296570.46875,294343.34375,320421.125,312022.3125,284943.90625,254524.875,219803.75,245226.359375,0.040283203125,0.998779296875,0.164306640625,1.2512205839157104,-0.7019042372703552,-0.6408690810203552,73.33333587646484,300794.0,0.0
15335.4753013,296570.46875,294343.34375,320421.125,312022.3125,284943.90625,254524.875,219803.75,245226.359375,0.040283203125,0.998779296875,0.164306640625,1.2512205839157104,-0.7019042372703552,-0.6408690810203552,73.33333587646484,300795.0,0.0
15335.4753016,296570.46875,294343.34375,320421.125,312022.3125,284943.90625,254524.875,219803.75,245226.359375,0.040283203125,0.998779296875,0.164306640625,1.2512205839157104,-0.7019042372703552,-0.6408690810203552,73.33333587646484,300796.0,0.0
15335.4753019,296570.46875,294343.34375,320421.125,312022.3125,284943.90625,254524.875,219803.75,245226.359375,0.040283203125,0.998779296875,0.164306640625,1.2512205839157104,-0.7019042372703552,-0.6408690810203552,73.33333587646484,300797.0,0.0
15335.4753022,296570.46875,294343.34375,320421.125,312022.3125,284943.90625,254524.875,219803.75,245226.359375,0.040283203125,0.998779296875,0.164306640625,1.2512205839157104,-0.7019042372703552,-0.6408690810203552,73.33333587646484,300798.0,0.0
15335.4753025,296570.46875,294343.34375,320421.125,312022.3125,284943.90625,254524.875,219803.75,245226.359375,0.040283203125,0.998779296875,0.164306640625,1.2512205839157104,-0.7019042372703552,-0.6408690810203552,73.33333587646484,300799.0,0.0
15335.4753028,296570.46875,294343.34375,320421.125,312022.3125,284943.90625,254524.875,219803.75,245226.359375,0.040283203125,0.998779296875,0.164306640625,1.2512205839157104,-0.7019042372703552,-0.6408690810203552,73.33333587646484,300800.0,0.0
15335.4753031,296570.46875,294343.34375,320421.125,312022.3125,284943.90625,254524.875,219803.75,245226.359375,0.040283203125,0.998779296875,0.164306640625,1.2512205839157104,-0.7019042372703552,-0.6408690810203552,73.33333587646484,300801.0,0.0
15335.4753034,296570.46875,294343.34375,320421.125,312022.3125,284943.90625,254524.875,219803.75,245226.359375,0.040283203125,0.998779296875,0.164306640625,1.2512205839157104,-0.7019042372703552,-0.6408690810203552,73.33333587646484,300802.0,0.0
15335.4753038,296570.46875,294343.34375,320421.125,312022.3125,284943.90625,254524.875,219803.75,245226.359375,0.040283203125,0.998779296875,0.164306640625,1.2512205839157104,-0.7019042372703552,-0.6408690810203552,73.33333587646484,300803.0,0.0
15335.4753041,296570.46875,294343.34375,320421.125,312022.3125,284943.90625,254524.875,219803.75,245226.359375,0.040283203125,0.998779296875,0.164306640625,1.2512205839157104,-0.7019042372703552,-0.6408690810203552,73.33333587646484,300804.0,0.0
15335.4753044,296570.46875,294343.34375,320421.125,312022.3125,284943.90625,254524.875,219803.75,245226.359375,0.040283203125,0.998779296875,0.164306640625,1.2512205839157104,-0.7019042372703552,-0.6408690810203552,73.33333587646484,300805.0,0.0
15335.4753046,296570.46875,294343.34375,320421.125,312022.3125,284943.90625,254524.875,219803.75,245226.359375,0.040283203125,0.998779296875,0.164306640625,1.2512205839157104,-0.7019042372703552,-0.6408690810203552,73.33333587646484,300806.0,0.0
15335.4753049,296570.46875,294343.34375,320421.125,312022.3125,284943.90625,254524.875,219803.75,245226.359375,0.040283203125,0.998779296875,0.164306640625,1.2512205839157104,-0.7019042372703552,-0.6408690810203552,73.33333587646484,300807.0,0.0
15335.4753052,296570.46875,294343.34375,320421.125,312022.3125,284943.90625,254524.875,219803.75,245226.359375,0.040283203125,0.998779296875,0.164306640625,1.2512205839157104,-0.7019042372703552,-0.6408690810203552,73.33333587646484,300808.0,0.0
15335.4753055,296570.46875,294343.34375,320421.125,312022.3125,284943.90625,254524.875,219803.75,245226.359375,0.040283203125,0.998779296875,0.164306640625,1.2512205839157104,-0.7019042372703552,-0.6408690810203552,73.33333587646484,300809.0,0.0
15335.4753057,296570.46875,294343.34375,320421.125,312022.3125,284943.90625,254524.875,219803.75,245226.359375,0.040283203125,0.998779296875,0.164306640625,1.2512205839157104,-0.7019042372703552,-0.6408690810203552,73.33333587646484,300810.0,0.0
15335.475306,296570.46875,294343.34375,320421.125,312022.3125,284943.90625,254524.875,219803.75,245226.359375,0.040283203125,0.998779296875,0.164306640625,1.2512205839157104,-0.7019042372703552,-0.6408690810203552,73.33333587646484,300811.0,0.0
15335.4753063,296570.46875,294343.34375,320421.125,312022.3125,284943.90625,254524.875,219803.75,245226.359375,0.040283203125,0.998779296875,0.164306640625,1.2512205839157104,-0.7019042372703552,-0.6408690810203552,73.33333587646484,300812.0,0.0
15335.4753065,296570.46875,294343.34375,320421.125,312022.3125,284943.90625,254524.875,219803.75,245226.359375,0.040283203125,0.998779296875,0.164306640625,1.2512205839157104,-0.7019042372703552,-0.6408690810203552,73.33333587646484,300813.0,0.0
15335.4753068,296570.46875,294343.34375,320421.125,312022.3125,284943.90625,254524.875,219803.75,245226.359375,0.040283203125,0.998779296875,0.164306640625,1.2512205839157104,-0.7019042372703552,-0.6408690810203552,73.33333587646484,300814.0,0.0
15335.4753071,296570.46875,294343.34375,320421.125,312022.3125,284943.90625,254524.875,219803.75,245226.359375,0.040283203125,0.998779296875,0.164306640625,1.2512205839157104,-0.7019042372703552,-0.6408690810203552,73.33333587646484,300815.0,0.0
15335.4753075,296570.46875,294343.34375,320421.125,312022.3125,284943.90625,254524.875,219803.75,245226.359375,0.040283203125,0.998779296875,0.164306640625,1.2512205839157104,-0.7019042372703552,-0.6408690810203552,73.33333587646484,300816.0,0.0
15335.4753078,296742.3125,294970.96875,321132.28125,312246.90625,285389.78125,254671.59375,220015.03125,245341.78125,0.040771484375,1.00048828125,0.169921875,0.0610351525247097,-1.5258787870407104,-0.6103515028953552,73.33333587646484,300817.0,1.0
15335.4753097,296718.0,294888.8125,320982.78125,312209.53125,285324.5,254658.796875,219984.265625,245323.453125,0.041259765625,0.998046875,0.173828125,0.1220703050494194,-1.6479490995407104,-0.5187987685203552,73.33333587646484,300818.0,1.0
15335.4753118,296714.59375,294669.21875,320815.78125,312226.875,285212.375,254611.234375,219941.796875,245326.859375,0.039794921875,0.994384765625,0.170166015625,0.2136230319738388,-1.6174315214157104,-0.3967284858226776,73.33333587646484,300819.0,1.0
15335.4993777,296746.96875,294621.21875,320857.34375,312281.25,285211.65625,254616.875,219957.625,245353.59375,0.0390625,0.99560546875,0.170166015625,0.3051757514476776,-1.7395018339157104,-0.2136230319738388,73.33333587646484,300820.0,1.0
15335.4993902,296774.21875,294822.125,321062.15625,312306.28125,285333.625,254669.53125,220022.625,245381.578125,0.040771484375,0.99609375,0.17236328125,0.4882812201976776,-1.6784666776657104,-0.2746581733226776,73.33333587646484,300821.0,1.0
15335.5241591,296758.9375,294986.625,321139.96875,312265.78125,285402.71875,254679.640625,220043.546875,245375.140625,0.041748046875,0.993896484375,0.173828125,0.5493163466453552,-1.8615721464157104,-0.2746581733226776,73.33333587646484,300822.0,1.0
15335.5241665,296726.65625,294904.8125,321000.03125,312216.59375,285335.15625,254648.25,219985.875,245335.796875,0.0439453125,0.993408203125,0.17626953125,0.5798339247703552,-1.8615721464157104,-0.1525878757238388,73.33333587646484,300823.0,1.0
15335.5491546,296721.9375,294678.4375,320828.0,312225.53125,285217.3125,254595.6875,219928.5625,245311.390625,0.043212890625,0.99365234375,0.175048828125,0.5493163466453552,-1.8005369901657104,-0.1220703050494194,73.33333587646484,300824.0,1.0
15335.549161,296750.53125,294612.8125,320844.71875,312279.1875,285201.375,254588.796875,219938.40625,245338.125,0.0439453125,0.991943359375,0.17529296875,0.4882812201976776,-1.7700194120407104,0.03051757626235485,73.33333587646484,300825.0,1.0
15335.5734918,296775.65625,294813.25,321041.34375,312300.65625,285317.96875,254647.890625,220003.3125,245365.03125,0.04638671875,0.98974609375,0.1748046875,0.5493163466453552,-1.7089842557907104,0.03051757626235485,73.33333587646484,300826.0,1.0
15335.5985154,296758.59375,294989.125,321126.09375,312257.46875,285393.53125,254680.078125,220028.609375,245352.421875,0.046875,0.98779296875,0.17529296875,0.6408690810203552,-1.6784666776657104,-0.03051757626235485,73.33333587646484,300827.0,1.0
15335.6235181,296724.4375,294911.0625,320990.1875,312212.65625,285330.21875,254652.453125,219988.109375,245327.03125,0.04638671875,0.989501953125,0.172607421875,0.7324218153953552,-1.5563963651657104,-0.0610351525247097,73.33333587646484,300828.0,1.0
15335.632273,296721.75,294690.15625,320830.4375,312228.5,285221.3125,254602.828125,219946.359375,245333.296875,0.04638671875,0.992919921875,0.171142578125,0.9460448622703552,-1.5258787870407104,-0.0915527269244194,73.33333587646484,300829.0,1.0
15335.6347714,296741.0625,294616.9375,320852.25,312275.34375,285206.5625,254592.28125,219954.40625,245361.015625,0.0458984375,0.996826171875,0.173095703125,0.9155272841453552,-1.5258787870407104,-0.03051757626235485,73.33333587646484,300830.0,1.0
15335.6410245,296766.28125,294815.40625,321050.09375,312295.375,285324.3125,254646.546875,220012.171875,245375.5,0.049072265625,0.999755859375,0.17041015625,0.9155272841453552,-1.4343260526657104,-0.03051757626235485,73.33333587646484,300831.0,1.0
15335.6435428,296759.5625,294995.3125,321136.5625,312258.09375,285404.625,254699.484375,220041.84375,245359.84375,0.04736328125,0.999267578125,0.17431640625,0.9155272841453552,-1.4343260526657104,-0.0915527269244194,73.33333587646484,300832.0,1.0
15335.6460425,296726.75,294922.96875,321007.71875,312216.15625,285346.0625,254676.140625,220009.65625,245342.859375,0.048583984375,1.000732421875,0.172119140625,0.8544921278953552,-1.3427733182907104,-0.1525878757238388,73.33333587646484,300833.0,1.0
15335.6485101,296712.09375,294687.1875,320833.03125,312224.90625,285223.375,254622.953125,219959.59375,245334.546875,0.048095703125,1.0029296875,0.170654296875,0.9155272841453552,-1.1901854276657104,-0.2746581733226776,73.33333587646484,300834.0,1.0
15335.6510334,296737.9375,294606.8125,320835.96875,312270.6875,285192.4375,254596.484375,219943.671875,245341.609375,0.048828125,1.003662109375,0.17041015625,0.7629393935203552,-1.1596678495407104,-0.3356933295726776,73.33333587646484,300835.0,1.0
15335.6535178,296763.6875,294805.125,321024.09375,312294.84375,285305.46875,254641.28125,219999.46875,245368.875,0.04736328125,1.002197265625,0.169677734375,0.8544921278953552,-1.0070799589157104,-0.5493163466453552,73.33333587646484,300836.0,1.0
15335.6785138,296756.78125,294998.34375,321125.28125,312258.71875,285394.96875,254696.0,220041.84375,245353.765625,0.04541015625,1.001953125,0.17333984375,0.7629393935203552,-1.0681151151657104,-0.6408690810203552,73.33333587646484,300837.0,1.0
15335.7926442,296719.6875,294923.3125,321002.28125,312214.0,285338.28125,254663.09375,220002.515625,245326.765625,0.046630859375,1.0009765625,0.172119140625,0.7629393935203552,-1.0681151151657104,-0.7324218153953552,73.33333587646484,300838.0,1.0
15335.7926498,296708.0625,294684.59375,320826.84375,312220.1875,285220.875,254609.453125,219953.875,245325.875,0.047119140625,0.998291015625,0.173828125,0.6713866591453552,-0.9155272841453552,-0.8239745497703552,73.33333587646484,300839.0,1.0
15335.7926511,296736.9375,294607.09375,320840.4375,312274.28125,285206.03125,254611.765625,219966.296875,245359.046875,0.048828125,0.99560546875,0.172119140625,0.7934569716453552,-0.8850097060203552,-0.7934569716453552,73.33333587646484,300840.0,1.0
15335.7926524,296766.90625,294804.59375,321032.5625,312295.90625,285317.0,254644.3125,220008.140625,245367.265625,0.048095703125,0.994140625,0.170166015625,0.8544921278953552,-0.7934569716453552,-0.9765624403953552,73.33333587646484,300841.0,1.0
15335.7926536,296751.0625,294990.1875,321129.125,312251.125,285395.3125,254668.015625,220025.75,245344.46875,0.046142578125,0.990478515625,0.169921875,0.8850097060203552,-0.8239745497703552,-0.9460448622703552,73.33333587646484,300842.0,1.0
15335.7926548,296714.40625,294916.71875,321005.21875,312204.34375,285336.46875,254646.015625,219988.46875,245321.140625,0.046630859375,0.990234375,0.169677734375,1.0070799589157104,-0.7324218153953552,-1.0375975370407104,73.33333587646484,300843.0,1.0
15335.792656,296707.1875,294686.5625,320832.84375,312216.34375,285221.875,254612.125,219953.0625,245327.21875,0.044921875,0.98779296875,0.171142578125,1.2817381620407104,-0.7629393935203552,-1.0681151151657104,73.33333587646484,300844.0,1.0
15335.7926572,296729.625,294602.1875,320831.6875,312262.8125,285196.03125,254604.359375,219957.453125,245352.34375,0.044677734375,0.989501953125,0.171142578125,1.3427733182907104,-0.7934569716453552,-1.1291502714157104,73.33333587646484,300845.0,1.0
15335.7926584,296755.71875,294796.1875,321015.40625,312287.0625,285308.40625,254650.046875,220014.21875,245378.625,0.04296875,0.99072265625,0.170166015625,1.4953612089157104,-0.6408690810203552,-1.1291502714157104,73.33333587646484,300846.0,1.0
15335.7926596,296739.375,294985.90625,321118.9375,312245.21875,285392.71875,254678.375,220034.515625,245359.21875,0.04443359375,0.99365234375,0.168212890625,1.5563963651657104,-0.6713866591453552,-1.0986326932907104,73.33333587646484,300847.0,1.0
15335.7926608,296704.3125,294916.71875,321005.3125,312199.4375,285339.34375,254658.4375,219993.390625,245327.484375,0.042724609375,0.99609375,0.1640625,1.6174315214157104,-0.5798339247703552,-1.1596678495407104,73.33333587646484,300848.0,1.0
15335.792662,296697.875,294678.625,320825.96875,312210.0,285218.375,254603.1875,219940.8125,245323.90625,0.044189453125,0.997802734375,0.168212890625,1.4953612089157104,-0.6713866591453552,-1.2207030057907104,73.33333587646484,300849.0,1.0
15335.8184946,296721.375,294588.9375,320817.375,312252.8125,285186.71875,254580.65625,219936.890625,245339.375,0.043212890625,0.9990234375,0.165771484375,1.4648436307907104,-0.6408690810203552,-1.2207030057907104,73.33333587646484,300850.0,1.0
15335.8716784,296747.84375,294787.4375,321009.34375,312272.21875,285301.53125,254644.671875,219995.625,245353.59375,0.043212890625,0.999755859375,0.165771484375,1.2207030057907104,-0.6408690810203552,-1.0986326932907104,73.33333587646484,300851.0,1.0
15335.8716888,296737.3125,294982.25,321110.375,312239.84375,285390.125,254701.0,220036.84375,245351.4375,0.044677734375,0.997802734375,0.1640625,1.1291502714157104,-0.7019042372703552,-1.0986326932907104,73.33333587646484,300852.0,1.0
15335.8716901,296706.5625,294922.34375,321003.96875,312201.21875,285342.125,254669.4375,220000.0,245329.8125,0.042724609375,0.997314453125,0.1640625,1.0986326932907104,-0.6713866591453552,-1.0986326932907104,73.33333587646484,300853.0,1.0
15335.8716913,296693.59375,294678.25,320827.84375,312205.34375,285218.8125,254596.3125,219944.65625,245332.9375,0.043701171875,0.99609375,0.16357421875,1.1291502714157104,-0.7934569716453552,-1.0986326932907104,73.33333587646484,300854.0,1.0
15335.8716925,296716.65625,294579.1875,320812.28125,312248.25,285182.15625,254587.8125,219942.34375,245345.71875,0.043212890625,0.99560546875,0.166259765625,1.1596678495407104,-0.7934569716453552,-1.0681151151657104,73.33333587646484,300855.0,1.0
15335.8716951,296748.3125,294781.34375,320999.40625,312274.4375,285296.6875,254640.296875,220000.1875,245354.125,0.043212890625,0.994384765625,0.1630859375,0.9460448622703552,-0.7324218153953552,-0.9765624403953552,73.33333587646484,300856.0,1.0
15335.8716963,296741.5,294983.125,321114.90625,312241.71875,285394.78125,254688.84375,220029.59375,245334.8125,0.04296875,0.990234375,0.168212890625,0.8544921278953552,-0.7934569716453552,-0.8544921278953552,73.33333587646484,300857.0,1.0
15335.8794637,296715.84375,294934.40625,321020.6875,312206.78125,285357.03125,254665.421875,220000.0,245320.515625,0.04345703125,0.987548828125,0.16650390625,0.6408690810203552,-0.7629393935203552,-0.7934569716453552,73.33333587646484,300858.0,1.0
15335.879479,296705.5625,294699.8125,320850.53125,312214.90625,285237.34375,254619.109375,219954.671875,245322.125,0.043212890625,0.987548828125,0.16650390625,0.6408690810203552,-0.7019042372703552,-0.7629393935203552,73.33333587646484,300859.0,1.0
15335.8794802,296719.875,294590.8125,320828.09375,312248.875,285186.71875,254581.734375,219935.1875,245335.265625,0.04296875,0.9853515625,0.166748046875,0.6713866591453552,-0.6103515028953552,-0.8544921278953552,73.33333587646484,300860.0,1.0
15335.8794815,296747.40625,294772.5,321000.21875,312269.875,285290.78125,254633.40625,219991.59375,245351.09375,0.04248046875,0.98388671875,0.1669921875,0.5493163466453552,-0.6103515028953552,-0.9155272841453552,73.33333587646484,300861.0,1.0
15335.8794836,296747.40625,294772.5,321000.21875,312269.875,285290.78125,254633.40625,219991.59375,245351.09375,0.04248046875,0.98388671875,0.1669921875,0.5493163466453552,-0.6103515028953552,-0.9155272841453552,73.33333587646484,300862.0,0.0
15335.8794838,296747.40625,294772.5,321000.21875,312269.875,285290.78125,254633.40625,219991.59375,245351.09375,0.04248046875,0.98388671875,0.1669921875,0.5493163466453552,-0.6103515028953552,-0.9155272841453552,73.33333587646484,300863.0,0.0
15335.879484,296747.40625,294772.5,321000.21875,312269.875,285290.78125,254633.40625,219991.59375,245351.09375,0.04248046875,0.98388671875,0.1669921875,0.5493163466453552,-0.6103515028953552,-0.9155272841453552,73.33333587646484,300864.0,0.0
15335.8794842,296747.40625,294772.5,321000.21875,312269.875,285290.78125,254633.40625,219991.59375,245351.09375,0.04248046875,0.98388671875,0.1669921875,0.5493163466453552,-0.6103515028953552,-0.9155272841453552,73.33333587646484,300865.0,0.0
15335.8794844,296747.40625,294772.5,321000.21875,312269.875,285290.78125,254633.40625,219991.59375,245351.09375,0.04248046875,0.98388671875,0.1669921875,0.5493163466453552,-0.6103515028953552,-0.9155272841453552,73.33333587646484,300866.0,0.0
15335.8794845,296747.40625,294772.5,321000.21875,312269.875,285290.78125,254633.40625,219991.59375,245351.09375,0.04248046875,0.98388671875,0.1669921875,0.5493163466453552,-0.6103515028953552,-0.9155272841453552,73.33333587646484,300867.0,0.0
15335.879485,296747.40625,294772.5,321000.21875,312269.875,285290.78125,254633.40625,219991.59375,245351.09375,0.04248046875,0.98388671875,0.1669921875,0.5493163466453552,-0.6103515028953552,-0.9155272841453552,73.33333587646484,300868.0,0.0
15335.8794852,296747.40625,294772.5,321000.21875,312269.875,285290.78125,254633.40625,219991.59375,245351.09375,0.04248046875,0.98388671875,0.1669921875,0.5493163466453552,-0.6103515028953552,-0.9155272841453552,73.33333587646484,300869.0,0.0
15335.8794855,296747.40625,294772.5,321000.21875,312269.875,285290.78125,254633.40625,219991.59375,245351.09375,0.04248046875,0.98388671875,0.1669921875,0.5493163466453552,-0.6103515028953552,-0.9155272841453552,73.33333587646484,300870.0,0.0
15335.8794857,296747.40625,294772.5,321000.21875,312269.875,285290.78125,254633.40625,219991.59375,245351.09375,0.04248046875,0.98388671875,0.1669921875,0.5493163466453552,-0.6103515028953552,-0.9155272841453552,73.33333587646484,300871.0,0.0
15335.8794858,296747.40625,294772.5,321000.21875,312269.875,285290.78125,254633.40625,219991.59375,245351.09375,0.04248046875,0.98388671875,0.1669921875,0.5493163466453552,-0.6103515028953552,-0.9155272841453552,73.33333587646484,300872.0,0.0
15335.879486,296747.40625,294772.5,321000.21875,312269.875,285290.78125,254633.40625,219991.59375,245351.09375,0.04248046875,0.98388671875,0.1669921875,0.5493163466453552,-0.6103515028953552,-0.9155272841453552,73.33333587646484,300873.0,0.0
15335.8794862,296747.40625,294772.5,321000.21875,312269.875,285290.78125,254633.40625,219991.59375,245351.09375,0.04248046875,0.98388671875,0.1669921875,0.5493163466453552,-0.6103515028953552,-0.9155272841453552,73.33333587646484,300874.0,0.0
15335.8794864,296747.40625,294772.5,321000.21875,312269.875,285290.78125,254633.40625,219991.59375,245351.09375,0.04248046875,0.98388671875,0.1669921875,0.5493163466453552,-0.6103515028953552,-0.9155272841453552,73.33333587646484,300875.0,0.0
15335.8794865,296747.40625,294772.5,321000.21875,312269.875,285290.78125,254633.40625,219991.59375,245351.09375,0.04248046875,0.98388671875,0.1669921875,0.5493163466453552,-0.6103515028953552,-0.9155272841453552,73.33333587646484,300876.0,0.0
15335.8794867,296747.40625,294772.5,321000.21875,312269.875,285290.78125,254633.40625,219991.59375,245351.09375,0.04248046875,0.98388671875,0.1669921875,0.5493163466453552,-0.6103515028953552,-0.9155272841453552,73.33333587646484,300877.0,0.0
15335.8794869,296747.40625,294772.5,321000.21875,312269.875,285290.78125,254633.40625,219991.59375,245351.09375,0.04248046875,0.98388671875,0.1669921875,0.5493163466453552,-0.6103515028953552,-0.9155272841453552,73.33333587646484,300878.0,0.0
15335.879487,296747.40625,294772.5,321000.21875,312269.875,285290.78125,254633.40625,219991.59375,245351.09375,0.04248046875,0.98388671875,0.1669921875,0.5493163466453552,-0.6103515028953552,-0.9155272841453552,73.33333587646484,300879.0,0.0
15335.8794872,296713.53125,294586.53125,320826.125,312259.34375,285191.375,254593.984375,219947.171875,245355.015625,0.036376953125,0.99560546875,0.179931640625,-2.716064214706421,-2.014159917831421,-1.3427733182907104,73.33333587646484,300880.0,1.0
15335.8794884,296733.375,294753.71875,320986.1875,312272.21875,285277.65625,254617.578125,219981.3125,245351.171875,0.037841796875,0.99609375,0.180908203125,-2.868652105331421,-2.075195074081421,-1.4343260526657104,73.33333587646484,300881.0,1.0
15335.8794896,296723.34375,294945.125,321073.4375,312232.875,285357.84375,254655.21875,220006.984375,245330.4375,0.0390625,0.99609375,0.18408203125,-2.990722417831421,-2.105712652206421,-1.2512205839157104,73.33333587646484,300882.0,1.0
15335.8794909,296696.96875,294895.59375,320970.4375,312195.15625,285320.125,254641.09375,219983.5625,245320.78125,0.04296875,0.994140625,0.182373046875,-3.082275152206421,-2.105712652206421,-1.1596678495407104,73.33333587646484,300883.0,1.0
15335.8794921,296692.6875,294672.375,320811.90625,312211.40625,285214.4375,254593.4375,219942.78125,245331.6875,0.04150390625,0.994384765625,0.181884765625,-3.082275152206421,-2.166747808456421,-1.0681151151657104,73.33333587646484,300884.0,1.0
15335.8794935,296719.25,294584.90625,320813.625,312257.1875,285189.75,254586.5625,219949.40625,245347.0625,0.040771484375,0.994140625,0.18408203125,-3.143310308456421,-2.014159917831421,-0.8850097060203552,73.33333587646484,300885.0,1.0
15335.9022819,296748.84375,294777.15625,320998.875,312283.65625,285303.3125,254640.921875,220010.46875,245366.734375,0.043212890625,0.994384765625,0.18359375,-3.051757574081421,-1.9836424589157104,-0.7019042372703552,73.33333587646484,300886.0,1.0
15335.9272857,296739.375,294972.15625,321091.59375,312245.84375,285383.15625,254684.28125,220031.828125,245345.90625,0.04248046875,0.996826171875,0.1845703125,-2.990722417831421,-1.9836424589157104,-0.7019042372703552,73.33333587646484,300887.0,1.0
15335.9522855,296718.4375,294926.0,320998.875,312214.375,285347.5625,254666.765625,220006.0,245332.671875,0.0419921875,0.9970703125,0.187744140625,-3.112792730331421,-1.8615721464157104,-0.6713866591453552,73.33333587646484,300888.0,1.0
15335.9622849,296701.625,294690.40625,320834.8125,312218.9375,285231.6875,254604.078125,219953.328125,245337.3125,0.041259765625,0.9970703125,0.1884765625,-3.051757574081421,-1.7700194120407104,-0.7019042372703552,73.33333587646484,300889.0,1.0
15335.9647861,296724.59375,294597.0,320828.375,312260.15625,285196.84375,254593.0,219946.890625,245339.015625,0.042236328125,0.997314453125,0.189208984375,-2.929687261581421,-1.6479490995407104,-0.6408690810203552,73.33333587646484,300890.0,1.0
15335.9672017,296750.34375,294778.3125,321002.09375,312280.34375,285298.5,254641.546875,220001.890625,245351.09375,0.04296875,0.998291015625,0.191650390625,-2.899169683456421,-1.5258787870407104,-0.5798339247703552,73.33333587646484,300891.0,1.0
15335.9696987,296741.25,294965.96875,321095.625,312245.75,285384.5,254686.421875,220037.5625,245344.65625,0.04345703125,0.9990234375,0.190673828125,-2.807616949081421,-1.4648436307907104,-0.6103515028953552,73.33333587646484,300892.0,1.0
15335.9728043,296715.9375,294914.65625,320997.96875,312208.375,285344.09375,254657.375,220003.671875,245329.546875,0.04443359375,0.999267578125,0.19091796875,-2.777099370956421,-1.3122557401657104,-0.6103515028953552,73.33333587646484,300893.0,1.0
15335.9728112,296706.28125,294689.78125,320838.125,312218.3125,285234.03125,254610.078125,219958.15625,245335.796875,0.046142578125,0.999755859375,0.190673828125,-2.685546636581421,-1.3122557401657104,-0.7019042372703552,73.33333587646484,300894.0,1.0
15335.9747434,296734.34375,294600.84375,320835.25,312266.40625,285206.9375,254617.140625,219966.484375,245350.546875,0.04541015625,0.9990234375,0.193115234375,-2.685546636581421,-1.3427733182907104,-0.7019042372703552,73.33333587646484,300895.0,1.0
15335.9772724,296751.0625,294782.6875,321001.1875,312278.65625,285305.8125,254654.421875,220010.109375,245356.71875,0.04345703125,0.995361328125,0.194091796875,-2.746581792831421,-1.2817381620407104,-0.6713866591453552,73.33333587646484,300896.0,1.0
15335.979779,296742.125,294976.78125,321102.9375,312240.28125,285390.65625,254673.46875,220025.9375,245334.1875,0.0458984375,0.992431640625,0.196044921875,-2.532958745956421,-1.2207030057907104,-0.7629393935203552,73.33333587646484,300897.0,1.0
15335.9822746,296717.8125,294926.0,321009.875,312203.1875,285352.84375,254659.6875,220006.890625,245316.671875,0.044189453125,0.989501953125,0.1943359375,-2.471923589706421,-1.2207030057907104,-0.8239745497703552,73.33333587646484,300898.0,1.0
15335.984772,296710.75,294704.8125,320857.875,312217.75,285247.15625,254621.96875,219973.0,245324.265625,0.04541015625,0.989501953125,0.194580078125,-2.197265386581421,-1.1291502714157104,-0.8239745497703552,73.33333587646484,300899.0,1.0
15336.0617554,296732.65625,294613.71875,320850.375,312265.875,285213.625,254613.5625,219974.171875,245350.109375,0.043212890625,0.99169921875,0.194091796875,-1.9226073026657104,-0.9765624403953552,-0.9460448622703552,73.33333587646484,300900.0,1.0
15336.0617607,296742.125,294772.84375,320994.59375,312270.6875,285293.21875,254647.265625,220012.34375,245361.1875,0.04296875,0.99462890625,0.194091796875,-1.6479490995407104,-0.9460448622703552,-0.8850097060203552,73.33333587646484,300901.0,1.0
15336.061762,296728.625,294957.3125,321081.5625,312232.25,285369.90625,254685.09375,220038.984375,245345.453125,0.041748046875,0.995361328125,0.1953125,-1.5258787870407104,-0.8544921278953552,-0.8544921278953552,73.33333587646484,300902.0,1.0
15336.0617633,296707.1875,294911.4375,320987.53125,312200.0625,285333.34375,254669.53125,220008.234375,245327.578125,0.042724609375,0.991943359375,0.1962890625,-1.3427733182907104,-0.8850097060203552,-1.0681151151657104,73.33333587646484,300903.0,1.0
15336.0617645,296696.09375,294681.46875,320829.4375,312207.21875,285221.3125,254596.75,219948.953125,245322.484375,0.04248046875,0.991455078125,0.19873046875,-1.1901854276657104,-0.9765624403953552,-1.0375975370407104,73.33333587646484,300904.0,1.0
15336.0617657,296717.28125,294588.21875,320824.09375,312250.40625,285194.78125,254588.53125,219959.765625,245348.765625,0.041015625,0.992919921875,0.1982421875,-0.8239745497703552,-0.9155272841453552,-1.1596678495407104,73.33333587646484,300905.0,1.0
15336.0617683,296746.15625,294783.9375,321002.90625,312271.84375,285303.84375,254649.5,220023.078125,245366.28125,0.04052734375,0.995361328125,0.2001953125,-0.7324218153953552,-0.9460448622703552,-1.1596678495407104,73.33333587646484,300906.0,1.0
15336.0704895,296737.03125,294977.40625,321103.9375,312243.0625,285391.03125,254688.65625,220054.640625,245366.546875,0.038330078125,0.995849609375,0.196533203125,-0.5493163466453552,-1.0986326932907104,-1.1596678495407104,73.33333587646484,300907.0,1.0
15336.07051,296737.03125,294977.40625,321103.9375,312243.0625,285391.03125,254688.65625,220054.640625,245366.546875,0.038330078125,0.995849609375,0.196533203125,-0.5493163466453552,-1.0986326932907104,-1.1596678495407104,73.33333587646484,300908.0,0.0
15336.0705102,296737.03125,294977.40625,321103.9375,312243.0625,285391.03125,254688.65625,220054.640625,245366.546875,0.038330078125,0.995849609375,0.196533203125,-0.5493163466453552,-1.0986326932907104,-1.1596678495407104,73.33333587646484,300909.0,0.0
15336.0705104,296737.03125,294977.40625,321103.9375,312243.0625,285391.03125,254688.65625,220054.640625,245366.546875,0.038330078125,0.995849609375,0.196533203125,-0.5493163466453552,-1.0986326932907104,-1.1596678495407104,73.33333587646484,300910.0,0.0
15336.0705106,296737.03125,294977.40625,321103.9375,312243.0625,285391.03125,254688.65625,220054.640625,245366.546875,0.038330078125,0.995849609375,0.196533203125,-0.5493163466453552,-1.0986326932907104,-1.1596678495407104,73.33333587646484,300911.0,0.0
15336.0705108,296737.03125,294977.40625,321103.9375,312243.0625,285391.03125,254688.65625,220054.640625,245366.546875,0.038330078125,0.995849609375,0.196533203125,-0.5493163466453552,-1.0986326932907104,-1.1596678495407104,73.33333587646484,300912.0,0.0
15336.070511,296737.03125,294977.40625,321103.9375,312243.0625,285391.03125,254688.65625,220054.640625,245366.546875,0.038330078125,0.995849609375,0.196533203125,-0.5493163466453552,-1.0986326932907104,-1.1596678495407104,73.33333587646484,300913.0,0.0
15336.0705111,296737.03125,294977.40625,321103.9375,312243.0625,285391.03125,254688.65625,220054.640625,245366.546875,0.038330078125,0.995849609375,0.196533203125,-0.5493163466453552,-1.0986326932907104,-1.1596678495407104,73.33333587646484,300914.0,0.0
15336.0705113,296737.03125,294977.40625,321103.9375,312243.0625,285391.03125,254688.65625,220054.640625,245366.546875,0.038330078125,0.995849609375,0.196533203125,-0.5493163466453552,-1.0986326932907104,-1.1596678495407104,73.33333587646484,300915.0,0.0
15336.0705115,296737.03125,294977.40625,321103.9375,312243.0625,285391.03125,254688.65625,220054.640625,245366.546875,0.038330078125,0.995849609375,0.196533203125,-0.5493163466453552,-1.0986326932907104,-1.1596678495407104,73.33333587646484,300916.0,0.0
15336.0705117,296737.03125,294977.40625,321103.9375,312243.0625,285391.03125,254688.65625,220054.640625,245366.546875,0.038330078125,0.995849609375,0.196533203125,-0.5493163466453552,-1.0986326932907104,-1.1596678495407104,73.33333587646484,300917.0,0.0
15336.0705118,296737.03125,294977.40625,321103.9375,312243.0625,285391.03125,254688.65625,220054.640625,245366.546875,0.038330078125,0.995849609375,0.196533203125,-0.5493163466453552,-1.0986326932907104,-1.1596678495407104,73.33333587646484,300918.0,0.0
15336.070512,296737.03125,294977.40625,321103.9375,312243.0625,285391.03125,254688.65625,220054.640625,245366.546875,0.038330078125,0.995849609375,0.196533203125,-0.5493163466453552,-1.0986326932907104,-1.1596678495407104,73.33333587646484,300919.0,0.0
15336.0705122,296737.03125,294977.40625,321103.9375,312243.0625,285391.03125,254688.65625,220054.640625,245366.546875,0.038330078125,0.995849609375,0.196533203125,-0.5493163466453552,-1.0986326932907104,-1.1596678495407104,73.33333587646484,300920.0,0.0
15336.0705124,296737.03125,294977.40625,321103.9375,312243.0625,285391.03125,254688.65625,220054.640625,245366.546875,0.038330078125,0.995849609375,0.196533203125,-0.5493163466453552,-1.0986326932907104,-1.1596678495407104,73.33333587646484,300921.0,0.0
15336.0705125,296737.03125,294977.40625,321103.9375,312243.0625,285391.03125,254688.65625,220054.640625,245366.546875,0.038330078125,0.995849609375,0.196533203125,-0.5493163466453552,-1.0986326932907104,-1.1596678495407104,73.33333587646484,300922.0,0.0
15336.0705127,296737.03125,294977.40625,321103.9375,312243.0625,285391.03125,254688.65625,220054.640625,245366.546875,0.038330078125,0.995849609375,0.196533203125,-0.5493163466453552,-1.0986326932907104,-1.1596678495407104,73.33333587646484,300923.0,0.0
15336.0705129,296737.03125,294977.40625,321103.9375,312243.0625,285391.03125,254688.65625,220054.640625,245366.546875,0.038330078125,0.995849609375,0.196533203125,-0.5493163466453552,-1.0986326932907104,-1.1596678495407104,73.33333587646484,300924.0,0.0
15336.0705131,296737.03125,294977.40625,321103.9375,312243.0625,285391.03125,254688.65625,220054.640625,245366.546875,0.038330078125,0.995849609375,0.196533203125,-0.5493163466453552,-1.0986326932907104,-1.1596678495407104,73.33333587646484,300925.0,0.0
15336.0705133,296737.03125,294977.40625,321103.9375,312243.0625,285391.03125,254688.65625,220054.640625,245366.546875,0.038330078125,0.995849609375,0.196533203125,-0.5493163466453552,-1.0986326932907104,-1.1596678495407104,73.33333587646484,300926.0,0.0
15336.0705134,296737.03125,294977.40625,321103.9375,312243.0625,285391.03125,254688.65625,220054.640625,245366.546875,0.038330078125,0.995849609375,0.196533203125,-0.5493163466453552,-1.0986326932907104,-1.1596678495407104,73.33333587646484,300927.0,0.0
15336.0705136,296737.03125,294977.40625,321103.9375,312243.0625,285391.03125,254688.65625,220054.640625,245366.546875,0.038330078125,0.995849609375,0.196533203125,-0.5493163466453552,-1.0986326932907104,-1.1596678495407104,73.33333587646484,300928.0,0.0
15336.0705138,296737.03125,294977.40625,321103.9375,312243.0625,285391.03125,254688.65625,220054.640625,245366.546875,0.038330078125,0.995849609375,0.196533203125,-0.5493163466453552,-1.0986326932907104,-1.1596678495407104,73.33333587646484,300929.0,0.0
15336.070514,296737.03125,294977.40625,321103.9375,312243.0625,285391.03125,254688.65625,220054.640625,245366.546875,0.038330078125,0.995849609375,0.196533203125,-0.5493163466453552,-1.0986326932907104,-1.1596678495407104,73.33333587646484,300930.0,0.0
15336.0705141,296737.03125,294977.40625,321103.9375,312243.0625,285391.03125,254688.65625,220054.640625,245366.546875,0.038330078125,0.995849609375,0.196533203125,-0.5493163466453552,-1.0986326932907104,-1.1596678495407104,73.33333587646484,300931.0,0.0
15336.0705143,296737.03125,294977.40625,321103.9375,312243.0625,285391.03125,254688.65625,220054.640625,245366.546875,0.038330078125,0.995849609375,0.196533203125,-0.5493163466453552,-1.0986326932907104,-1.1596678495407104,73.33333587646484,300932.0,0.0
15336.0705145,296737.03125,294977.40625,321103.9375,312243.0625,285391.03125,254688.65625,220054.640625,245366.546875,0.038330078125,0.995849609375,0.196533203125,-0.5493163466453552,-1.0986326932907104,-1.1596678495407104,73.33333587646484,300933.0,0.0
15336.0705146,296737.03125,294977.40625,321103.9375,312243.0625,285391.03125,254688.65625,220054.640625,245366.546875,0.038330078125,0.995849609375,0.196533203125,-0.5493163466453552,-1.0986326932907104,-1.1596678495407104,73.33333587646484,300934.0,0.0
15336.0705148,296713.96875,294579.375,320828.09375,312263.1875,285195.5625,254591.390625,219955.21875,245345.984375,0.046142578125,0.9892578125,0.17138671875,3.509521245956421,-0.7324218153953552,-0.9765624403953552,73.33333587646484,300935.0,1.0
15336.0705162,296728.0,294738.53125,320968.21875,312272.125,285275.25,254626.703125,219997.59375,245359.046875,0.0439453125,0.98876953125,0.171142578125,3.479003667831421,-0.8544921278953552,-1.2207030057907104,73.33333587646484,300936.0,1.0
15336.0728728,296733.90625,294954.15625,321086.125,312258.90625,285383.34375,254693.046875,220053.203125,245368.875,0.04345703125,0.992431640625,0.1689453125,3.540038824081421,-0.9155272841453552,-1.4648436307907104,73.33333587646484,300937.0,1.0
15336.0728777,296705.21875,294914.5625,321009.34375,312222.875,285352.125,254656.03125,220016.359375,245341.15625,0.040283203125,0.99462890625,0.16748046875,3.570556402206421,-1.0070799589157104,-1.7395018339157104,73.33333587646484,300938.0,1.0
15336.0747502,296699.84375,294689.78125,320858.6875,312231.71875,285246.90625,254614.28125,219969.609375,245330.078125,0.038330078125,0.996337890625,0.167236328125,3.417968511581421,-1.2207030057907104,-1.8310545682907104,73.33333587646484,300939.0,1.0
15336.0772363,296708.0625,294570.4375,320820.9375,312260.15625,285194.15625,254583.4375,219955.578125,245340.53125,0.035400390625,0.998291015625,0.166259765625,3.234863042831421,-1.5258787870407104,-1.9226073026657104,73.33333587646484,300940.0,1.0
15336.0797712,296731.65625,294752.125,320976.96875,312276.78125,285289.0,254637.703125,220006.53125,245357.53125,0.0341796875,1.0029296875,0.164306640625,3.021239995956421,-1.7700194120407104,-1.9226073026657104,73.33333587646484,300941.0,1.0
15336.0822521,296718.625,294948.53125,321079.25,312237.6875,285372.78125,254670.515625,220029.59375,245339.90625,0.035400390625,1.00244140625,0.164794921875,2.929687261581421,-1.9836424589157104,-1.9226073026657104,73.33333587646484,300942.0,1.0
15336.0847687,296695.46875,294908.75,321000.46875,312208.03125,285346.9375,254663.8125,220015.921875,245332.671875,0.03564453125,1.001953125,0.165771484375,2.838134527206421,-2.349853277206421,-2.014159917831421,73.33333587646484,300943.0,1.0
15336.08725,296689.8125,294684.0625,320847.78125,312221.34375,285239.21875,254617.234375,219972.015625,245332.578125,0.033447265625,1.001708984375,0.163330078125,2.655029058456421,-2.593993902206421,-2.044677495956421,73.33333587646484,300944.0,1.0
15336.118237,296710.125,294578.40625,320823.8125,312262.8125,285197.90625,254598.984375,219968.09375,245354.03125,0.032958984375,1.00048828125,0.168212890625,2.502441167831421,-2.990722417831421,-1.9531248807907104,73.33333587646484,300945.0,1.0
15336.1182416,296735.34375,294756.75,320982.25,312279.90625,285296.875,254647.890625,220016.8125,245362.984375,0.03271484375,0.996337890625,0.168701171875,2.441406011581421,-3.204345464706421,-1.9226073026657104,73.33333587646484,300946.0,1.0
15336.1182428,296727.8125,294963.125,321092.9375,312251.28125,285395.59375,254699.84375,220059.46875,245370.21875,0.034423828125,0.99658203125,0.169677734375,2.227782964706421,-3.387450933456421,-1.8310545682907104,73.33333587646484,300947.0,1.0
15336.1182443,296701.09375,294924.40625,321014.34375,312218.375,285366.78125,254674.0,220034.515625,245354.03125,0.03564453125,0.993896484375,0.170166015625,2.136230230331421,-3.662109136581421,-1.7089842557907104,73.33333587646484,300948.0,1.0
15336.1182455,296693.40625,294693.90625,320854.3125,312226.4375,285256.1875,254631.4375,219982.578125,245332.84375,0.0341796875,0.9931640625,0.169677734375,2.075195074081421,-4.058837413787842,-1.4648436307907104,73.33333587646484,300949.0,1.0
15336.1182467,296713.0,294584.46875,320822.90625,312269.34375,285209.34375,254619.546875,219977.125,245355.015625,0.036376953125,0.991943359375,0.169677734375,2.044677495956421,-4.333495616912842,-1.3427733182907104,73.33333587646484,300950.0,1.0
15336.1182479,296723.96875,294751.03125,320966.78125,312277.9375,285288.1875,254633.140625,220007.609375,245362.890625,0.038818359375,0.99365234375,0.164794921875,1.9531248807907104,-4.547118663787842,-1.0070799589157104,73.33333587646484,300951.0,1.0
15336.1182491,296713.4375,294951.03125,321069.0625,312245.75,285376.4375,254677.671875,220040.5,245360.65625,0.041015625,0.9990234375,0.1650390625,1.8920897245407104,-4.699706554412842,-0.9460448622703552,73.33333587646484,300952.0,1.0
15336.1182503,296700.65625,294934.40625,321011.125,312221.875,285364.65625,254679.453125,220031.5625,245345.8125,0.043212890625,0.9990234375,0.163818359375,1.8615721464157104,-4.943847179412842,-0.7629393935203552,73.33333587646484,300953.0,1.0
15336.1182516,296693.21875,294705.53125,320855.5625,312230.8125,285256.90625,254635.90625,219988.828125,245345.546875,0.04638671875,0.99853515625,0.1630859375,1.7395018339157104,-5.065917491912842,-0.5493163466453552,73.33333587646484,300954.0,1.0
15336.1197797,296710.40625,294590.03125,320822.46875,312270.6875,285211.65625,254624.921875,219985.34375,245369.765625,0.047119140625,0.9990234375,0.1689453125,1.5869139432907104,-5.249022960662842,-0.3356933295726776,73.33333587646484,300955.0,1.0
15336.1447733,296725.40625,294754.15625,320971.78125,312281.59375,285299.1875,254642.34375,220019.9375,245379.78125,0.047607421875,0.997802734375,0.16796875,1.5563963651657104,-5.401610851287842,-0.3051757514476776,73.33333587646484,300956.0,1.0
15336.1710327,296732.5625,294985.65625,321104.8125,312267.125,285413.8125,254707.703125,220069.03125,245376.484375,0.047119140625,0.996337890625,0.16796875,1.4953612089157104,-5.584716320037842,-0.2136230319738388,73.33333587646484,300957.0,1.0
15336.2322611,296699.84375,294949.0,321035.78125,312226.25,285389.21875,254710.125,220050.78125,245353.40625,0.048828125,0.998291015625,0.166259765625,1.4648436307907104,-5.615233898162842,-0.2441406100988388,73.33333587646484,300958.0,1.0
15336.2322661,296680.25,294703.125,320866.90625,312225.53125,285266.3125,254649.953125,219990.078125,245347.15625,0.048583984375,0.99755859375,0.168701171875,1.2817381620407104,-5.676269054412842,-0.2136230319738388,73.33333587646484,300959.0,1.0
15336.2322673,296699.65625,294577.78125,320824.78125,312262.75,285209.875,254613.828125,219977.125,245362.53125,0.05029296875,0.996337890625,0.16552734375,1.2817381620407104,-5.645751476287842,-0.2136230319738388,73.33333587646484,300960.0,1.0
15336.2322686,296715.125,294737.34375,320956.03125,312271.125,285284.4375,254642.53125,220008.859375,245366.109375,0.048583984375,0.993896484375,0.163818359375,1.3732908964157104,-5.615233898162842,-0.3051757514476776,73.33333587646484,300961.0,1.0
15336.2322698,296704.5,294954.15625,321077.625,312239.84375,285387.0,254685.71875,220044.890625,245359.84375,0.047119140625,0.993896484375,0.162353515625,1.4953612089157104,-5.737304210662842,-0.3967284858226776,73.33333587646484,300962.0,1.0
15336.232271,296686.25,294930.3125,321020.40625,312211.9375,285369.90625,254683.921875,220028.53125,245339.203125,0.04833984375,0.99365234375,0.1630859375,1.4648436307907104,-5.676269054412842,-0.5493163466453552,73.33333587646484,300963.0,1.0
15336.2322722,296673.65625,294686.65625,320853.125,312216.15625,285249.65625,254622.859375,219977.296875,245334.640625,0.04833984375,0.9931640625,0.165771484375,1.4648436307907104,-5.767821788787842,-0.7019042372703552,73.33333587646484,300964.0,1.0
