Time,FZ,C3,CZ,C4,PZ,PO7,OZ,PO8,AccX,AccY,AccZ,Gyro1,Gyro2,Gyro3,Battery,Counter,Validation
14650.078733,293109.0,295382.15625,334024.40625,329412.96875,285207.75,255774.515625,222186.453125,244460.6875,0.022216796875,0.994384765625,0.201171875,0.1525878757238388,-1.6174315214157104,-1.4648436307907104,80.0,129430.0,1.0
14650.0787345,293133.21875,295240.1875,334002.75,329458.125,285157.65625,255756.265625,222179.390625,244479.09375,0.023681640625,0.992431640625,0.19775390625,0.2136230319738388,-1.5869139432907104,-1.4038084745407104,80.0,129431.0,1.0
14650.078736,293166.9375,295418.375,334179.53125,329491.46875,285259.5,255809.828125,222235.890625,244511.375,0.0224609375,0.989990234375,0.19677734375,0.2441406100988388,-1.7089842557907104,-1.3427733182907104,80.0,129432.0,1.0
14650.0787377,293163.875,295653.34375,334288.59375,329461.96875,285357.65625,255864.546875,222281.578125,244516.203125,0.021484375,0.99169921875,0.197265625,0.3967284858226776,-1.8005369901657104,-1.2207030057907104,80.0,129433.0,1.0
14650.0803565,293124.71875,295616.21875,334155.375,329403.40625,285302.96875,255843.09375,222246.171875,244479.09375,0.02099609375,0.994140625,0.197509765625,0.4577636420726776,-1.8310545682907104,-1.1596678495407104,80.0,129434.0,1.0
14650.1073105,293124.71875,295616.21875,334155.375,329403.40625,285302.96875,255843.09375,222246.171875,244479.09375,0.02099609375,0.994140625,0.197509765625,0.4577636420726776,-1.8310545682907104,-1.1596678495407104,80.0,129435.0,0.0
14650.1073146,293124.71875,295616.21875,334155.375,329403.40625,285302.96875,255843.09375,222246.171875,244479.09375,0.02099609375,0.994140625,0.197509765625,0.4577636420726776,-1.8310545682907104,-1.1596678495407104,80.0,129436.0,0.0
14650.107315,293174.0625,295431.4375,334162.09375,329493.96875,285254.21875,255802.40625,222236.703125,244508.609375,0.023193359375,0.996826171875,0.19970703125,0.5798339247703552,-1.9836424589157104,-1.0070799589157104,80.0,129437.0,1.0
14650.1073269,293162.0,295663.625,334272.9375,329459.625,285347.65625,255847.46875,222266.03125,244501.546875,0.02197265625,0.996826171875,0.19873046875,0.4882812201976776,-2.044677495956421,-0.9155272841453552,80.0,129438.0,1.0
14650.1073287,293127.5,295637.78125,334170.5,329411.875,285314.3125,255838.34375,222242.421875,244485.890625,0.0224609375,0.995849609375,0.200927734375,0.5493163466453552,-2.075195074081421,-0.8239745497703552,80.0,129439.0,1.0
14650.1073305,293117.3125,295396.5625,334011.0625,329420.46875,285209.96875,255793.28125,222205.5,244480.890625,0.021484375,0.99658203125,0.199462890625,0.6103515028953552,-2.136230230331421,-0.8239745497703552,80.0,129440.0,1.0
14650.1303685,293146.8125,295269.78125,334008.125,329473.125,285175.375,255782.828125,222204.421875,244500.828125,0.02001953125,0.99755859375,0.19873046875,0.5187987685203552,-2.166747808456421,-0.7019042372703552,80.0,129441.0,1.0
14650.1592093,293174.15625,295452.0,334190.5,329497.71875,285275.15625,255821.0,222244.65625,244514.328125,0.01904296875,0.997802734375,0.200439453125,0.6103515028953552,-2.166747808456421,-0.7324218153953552,80.0,129442.0,1.0
14650.1842808,293160.21875,295673.1875,334293.96875,329463.21875,285364.09375,255858.828125,222274.515625,244512.625,0.0205078125,0.996826171875,0.20068359375,0.6408690810203552,-2.258300542831421,-0.8239745497703552,80.0,129443.0,1.0
14650.2342625,293125.15625,295643.6875,334179.53125,329418.59375,285323.4375,255840.40625,222255.203125,244504.046875,0.020263671875,0.998046875,0.19921875,0.6408690810203552,-2.288818120956421,-0.8544921278953552,80.0,129444.0,1.0
14650.2342705,293110.40625,295395.65625,334003.84375,329418.40625,285207.03125,255792.75,222208.71875,244492.15625,0.021484375,0.997802734375,0.199951171875,0.5187987685203552,-2.319335699081421,-0.7934569716453552,80.0,129445.0,1.0
14650.2342718,293142.34375,295270.84375,333996.84375,329464.09375,285168.5,255783.8125,222194.328125,244485.1875,0.02294921875,0.998291015625,0.20068359375,0.4882812201976776,-2.410888433456421,-0.8544921278953552,80.0,129446.0,1.0
14650.234273,293169.15625,295449.40625,334173.15625,329491.375,285267.8125,255828.15625,222243.671875,244502.609375,0.02294921875,0.997802734375,0.204345703125,0.4577636420726776,-2.410888433456421,-0.8544921278953552,80.0,129447.0,1.0
14650.2342742,293152.1875,295662.53125,334267.5,329455.0625,285353.1875,255856.859375,222270.578125,244501.0,0.023681640625,0.99658203125,0.197265625,0.4882812201976776,-2.349853277206421,-0.9155272841453552,80.0,129448.0,1.0
14650.2342754,293109.4375,295618.71875,334149.03125,329394.46875,285304.28125,255827.171875,222235.0,244470.515625,0.02490234375,0.9970703125,0.196044921875,0.3356933295726776,-2.319335699081421,-1.0070799589157104,80.0,129449.0,1.0
14650.2744245,293109.09375,295382.875,333997.3125,329409.21875,285200.0625,255774.59375,222185.921875,244474.90625,0.02734375,0.994873046875,0.19677734375,0.3356933295726776,-2.197265386581421,-1.0986326932907104,80.0,129450.0,1.0
14650.2744422,293140.28125,295257.53125,333994.25,329461.78125,285161.875,255759.046875,222179.84375,244485.890625,0.026611328125,0.994873046875,0.193603515625,0.3662109076976776,-1.9836424589157104,-1.1291502714157104,80.0,129451.0,1.0
14650.2744435,293160.9375,295431.4375,334173.15625,329483.15625,285255.75,255788.09375,222219.265625,244499.125,0.02783203125,0.9931640625,0.193115234375,0.4272460639476776,-1.8615721464157104,-1.0986326932907104,80.0,129452.0,1.0
14650.2980724,293154.21875,295652.875,334271.78125,329450.6875,285340.875,255832.53125,222253.0625,244492.25,0.0302734375,0.992431640625,0.1943359375,0.5187987685203552,-1.8615721464157104,-1.1291502714157104,80.0,129453.0,1.0
14650.29808,293154.21875,295652.875,334271.78125,329450.6875,285340.875,255832.53125,222253.0625,244492.25,0.0302734375,0.992431640625,0.1943359375,0.5187987685203552,-1.8615721464157104,-1.1291502714157104,80.0,129454.0,0.0
14650.2980802,293154.21875,295652.875,334271.78125,329450.6875,285340.875,255832.53125,222253.0625,244492.25,0.0302734375,0.992431640625,0.1943359375,0.5187987685203552,-1.8615721464157104,-1.1291502714157104,80.0,129455.0,0.0
14650.2980804,293154.21875,295652.875,334271.78125,329450.6875,285340.875,255832.53125,222253.0625,244492.25,0.0302734375,0.992431640625,0.1943359375,0.5187987685203552,-1.8615721464157104,-1.1291502714157104,80.0,129456.0,0.0
14650.2980806,293154.21875,295652.875,334271.78125,329450.6875,285340.875,255832.53125,222253.0625,244492.25,0.0302734375,0.992431640625,0.1943359375,0.5187987685203552,-1.8615721464157104,-1.1291502714157104,80.0,129457.0,0.0
14650.2980808,293154.21875,295652.875,334271.78125,329450.6875,285340.875,255832.53125,222253.0625,244492.25,0.0302734375,0.992431640625,0.1943359375,0.5187987685203552,-1.8615721464157104,-1.1291502714157104,80.0,129458.0,0.0
14650.2980809,293154.21875,295652.875,334271.78125,329450.6875,285340.875,255832.53125,222253.0625,244492.25,0.0302734375,0.992431640625,0.1943359375,0.5187987685203552,-1.8615721464157104,-1.1291502714157104,80.0,129459.0,0.0
14650.2980811,293154.21875,295652.875,334271.78125,329450.6875,285340.875,255832.53125,222253.0625,244492.25,0.0302734375,0.992431640625,0.1943359375,0.5187987685203552,-1.8615721464157104,-1.1291502714157104,80.0,129460.0,0.0
14650.2980813,293154.21875,295652.875,334271.78125,329450.6875,285340.875,255832.53125,222253.0625,244492.25,0.0302734375,0.992431640625,0.1943359375,0.5187987685203552,-1.8615721464157104,-1.1291502714157104,80.0,129461.0,0.0
14650.2980815,293154.21875,295652.875,334271.78125,329450.6875,285340.875,255832.53125,222253.0625,244492.25,0.0302734375,0.992431640625,0.1943359375,0.5187987685203552,-1.8615721464157104,-1.1291502714157104,80.0,129462.0,0.0
14650.2980817,293154.21875,295652.875,334271.78125,329450.6875,285340.875,255832.53125,222253.0625,244492.25,0.0302734375,0.992431640625,0.1943359375,0.5187987685203552,-1.8615721464157104,-1.1291502714157104,80.0,129463.0,0.0
14650.2980819,293154.21875,295652.875,334271.78125,329450.6875,285340.875,255832.53125,222253.0625,244492.25,0.0302734375,0.992431640625,0.1943359375,0.5187987685203552,-1.8615721464157104,-1.1291502714157104,80.0,129464.0,0.0
14650.2980821,293154.21875,295652.875,334271.78125,329450.6875,285340.875,255832.53125,222253.0625,244492.25,0.0302734375,0.992431640625,0.1943359375,0.5187987685203552,-1.8615721464157104,-1.1291502714157104,80.0,129465.0,0.0
14650.2980822,293154.21875,295652.875,334271.78125,329450.6875,285340.875,255832.53125,222253.0625,244492.25,0.0302734375,0.992431640625,0.1943359375,0.5187987685203552,-1.8615721464157104,-1.1291502714157104,80.0,129466.0,0.0
14650.2980824,293154.21875,295652.875,334271.78125,329450.6875,285340.875,255832.53125,222253.0625,244492.25,0.0302734375,0.992431640625,0.1943359375,0.5187987685203552,-1.8615721464157104,-1.1291502714157104,80.0,129467.0,0.0
14650.2980826,293154.21875,295652.875,334271.78125,329450.6875,285340.875,255832.53125,222253.0625,244492.25,0.0302734375,0.992431640625,0.1943359375,0.5187987685203552,-1.8615721464157104,-1.1291502714157104,80.0,129468.0,0.0
14650.2980827,293154.21875,295652.875,334271.78125,329450.6875,285340.875,255832.53125,222253.0625,244492.25,0.0302734375,0.992431640625,0.1943359375,0.5187987685203552,-1.8615721464157104,-1.1291502714157104,80.0,129469.0,0.0
14650.298083,293154.21875,295652.875,334271.78125,329450.6875,285340.875,255832.53125,222253.0625,244492.25,0.0302734375,0.992431640625,0.1943359375,0.5187987685203552,-1.8615721464157104,-1.1291502714157104,80.0,129470.0,0.0
14650.2980832,293154.21875,295652.875,334271.78125,329450.6875,285340.875,255832.53125,222253.0625,244492.25,0.0302734375,0.992431640625,0.1943359375,0.5187987685203552,-1.8615721464157104,-1.1291502714157104,80.0,129471.0,0.0
14650.2980833,293154.21875,295652.875,334271.78125,329450.6875,285340.875,255832.53125,222253.0625,244492.25,0.0302734375,0.992431640625,0.1943359375,0.5187987685203552,-1.8615721464157104,-1.1291502714157104,80.0,129472.0,0.0
14650.2980835,293154.21875,295652.875,334271.78125,329450.6875,285340.875,255832.53125,222253.0625,244492.25,0.0302734375,0.992431640625,0.1943359375,0.5187987685203552,-1.8615721464157104,-1.1291502714157104,80.0,129473.0,0.0
14650.2980837,293154.21875,295652.875,334271.78125,329450.6875,285340.875,255832.53125,222253.0625,244492.25,0.0302734375,0.992431640625,0.1943359375,0.5187987685203552,-1.8615721464157104,-1.1291502714157104,80.0,129474.0,0.0
14650.2980838,293154.21875,295652.875,334271.78125,329450.6875,285340.875,255832.53125,222253.0625,244492.25,0.0302734375,0.992431640625,0.1943359375,0.5187987685203552,-1.8615721464157104,-1.1291502714157104,80.0,129475.0,0.0
14650.298084,293154.21875,295652.875,334271.78125,329450.6875,285340.875,255832.53125,222253.0625,244492.25,0.0302734375,0.992431640625,0.1943359375,0.5187987685203552,-1.8615721464157104,-1.1291502714157104,80.0,129476.0,0.0
14650.2980842,293154.21875,295652.875,334271.78125,329450.6875,285340.875,255832.53125,222253.0625,244492.25,0.0302734375,0.992431640625,0.1943359375,0.5187987685203552,-1.8615721464157104,-1.1291502714157104,80.0,129477.0,0.0
14650.2980843,293154.21875,295652.875,334271.78125,329450.6875,285340.875,255832.53125,222253.0625,244492.25,0.0302734375,0.992431640625,0.1943359375,0.5187987685203552,-1.8615721464157104,-1.1291502714157104,80.0,129478.0,0.0
14650.2980845,293154.21875,295652.875,334271.78125,329450.6875,285340.875,255832.53125,222253.0625,244492.25,0.0302734375,0.992431640625,0.1943359375,0.5187987685203552,-1.8615721464157104,-1.1291502714157104,80.0,129479.0,0.0
14650.2980847,293089.0625,295346.5,333968.4375,329393.125,285178.59375,255771.734375,222185.828125,244471.6875,0.026611328125,1.000244140625,0.193115234375,0.1831054538488388,-1.1596678495407104,-0.5493163466453552,80.0,129480.0,1.0
14650.3266661,293122.5,295229.375,333976.5625,329449.34375,285151.9375,255764.9375,222187.890625,244483.75,0.025146484375,0.9990234375,0.18896484375,0.0915527269244194,-1.2207030057907104,-0.5798339247703552,80.0,129481.0,1.0
14650.3597972,293160.3125,295434.09375,334173.34375,329484.03125,285264.96875,255822.25,222247.96875,244506.90625,0.0263671875,0.99560546875,0.187744140625,0.0,-1.3122557401657104,-0.5493163466453552,80.0,129482.0,1.0
14650.3598031,293142.15625,295656.90625,334274.65625,329441.46875,285351.15625,255858.375,222276.75,244496.453125,0.02685546875,0.99169921875,0.188232421875,0.0610351525247097,-1.2817381620407104,-0.5187987685203552,80.0,129483.0,1.0
14650.3928428,293106.125,295614.09375,334163.6875,329393.90625,285312.15625,255828.328125,222248.5,244482.3125,0.026611328125,0.989990234375,0.192138671875,0.1220703050494194,-1.2817381620407104,-0.5798339247703552,80.0,129484.0,1.0
14650.3928499,293093.96875,295354.96875,333984.34375,329398.375,285189.6875,255773.4375,222200.40625,244480.4375,0.02685546875,0.989501953125,0.19384765625,0.1525878757238388,-1.3122557401657104,-0.7019042372703552,80.0,129485.0,1.0
14650.3928512,293124.28125,295227.03125,333971.375,329452.03125,285148.1875,255773.265625,222205.59375,244511.90625,0.025146484375,0.99462890625,0.19580078125,0.2136230319738388,-1.1596678495407104,-0.7324218153953552,80.0,129486.0,1.0
14650.4167184,293152.1875,295420.25,334160.03125,329477.34375,285257.09375,255824.3125,222257.359375,244523.890625,0.024169921875,0.998291015625,0.196044921875,0.2441406100988388,-1.1901854276657104,-0.8239745497703552,80.0,129487.0,1.0
14650.4664222,293144.65625,295652.25,334276.625,329441.3125,285351.59375,255851.046875,222270.5,244489.109375,0.022216796875,0.997314453125,0.191650390625,0.1525878757238388,-1.3122557401657104,-0.9155272841453552,80.0,129488.0,1.0
14650.4664415,293106.03125,295600.125,334156.71875,329388.375,285299.90625,255813.3125,222233.296875,244468.734375,0.024658203125,0.99755859375,0.189697265625,0.0,-1.2817381620407104,-1.0070799589157104,80.0,129489.0,1.0
14650.4664428,293098.34375,295352.21875,333987.84375,329391.6875,285183.5,255769.234375,222186.625,244449.5,0.0263671875,0.998291015625,0.190185546875,0.0610351525247097,-1.3427733182907104,-1.2512205839157104,80.0,129490.0,1.0
14650.4664441,293125.0,295229.71875,333984.25,329441.3125,285145.34375,255750.8125,222180.015625,244468.546875,0.026611328125,0.9951171875,0.19140625,-0.03051757626235485,-1.4648436307907104,-1.2817381620407104,80.0,129491.0,1.0
14650.4664454,293155.125,295417.9375,334167.0,329467.21875,285249.125,255805.796875,222236.96875,244500.296875,0.02880859375,0.99462890625,0.19140625,0.03051757626235485,-1.4953612089157104,-1.2512205839157104,80.0,129492.0,1.0
14650.4726854,293137.15625,295628.9375,334249.15625,329429.5,285327.71875,255849.796875,222277.65625,244499.75,0.029296875,0.992919921875,0.196533203125,0.1220703050494194,-1.4343260526657104,-1.2512205839157104,80.0,129493.0,1.0
14650.4726927,293137.15625,295628.9375,334249.15625,329429.5,285327.71875,255849.796875,222277.65625,244499.75,0.029296875,0.992919921875,0.196533203125,0.1220703050494194,-1.4343260526657104,-1.2512205839157104,80.0,129494.0,0.0
14650.472693,293137.15625,295628.9375,334249.15625,329429.5,285327.71875,255849.796875,222277.65625,244499.75,0.029296875,0.992919921875,0.196533203125,0.1220703050494194,-1.4343260526657104,-1.2512205839157104,80.0,129495.0,0.0
14650.4726931,293137.15625,295628.9375,334249.15625,329429.5,285327.71875,255849.796875,222277.65625,244499.75,0.029296875,0.992919921875,0.196533203125,0.1220703050494194,-1.4343260526657104,-1.2512205839157104,80.0,129496.0,0.0
14650.4726934,293137.15625,295628.9375,334249.15625,329429.5,285327.71875,255849.796875,222277.65625,244499.75,0.029296875,0.992919921875,0.196533203125,0.1220703050494194,-1.4343260526657104,-1.2512205839157104,80.0,129497.0,0.0
14650.4726936,293137.15625,295628.9375,334249.15625,329429.5,285327.71875,255849.796875,222277.65625,244499.75,0.029296875,0.992919921875,0.196533203125,0.1220703050494194,-1.4343260526657104,-1.2512205839157104,80.0,129498.0,0.0
14650.4726937,293137.15625,295628.9375,334249.15625,329429.5,285327.71875,255849.796875,222277.65625,244499.75,0.029296875,0.992919921875,0.196533203125,0.1220703050494194,-1.4343260526657104,-1.2512205839157104,80.0,129499.0,0.0
14650.4726939,293137.15625,295628.9375,334249.15625,329429.5,285327.71875,255849.796875,222277.65625,244499.75,0.029296875,0.992919921875,0.196533203125,0.1220703050494194,-1.4343260526657104,-1.2512205839157104,80.0,129500.0,0.0
14650.4726941,293137.15625,295628.9375,334249.15625,329429.5,285327.71875,255849.796875,222277.65625,244499.75,0.029296875,0.992919921875,0.196533203125,0.1220703050494194,-1.4343260526657104,-1.2512205839157104,80.0,129501.0,0.0
14650.4726942,293137.15625,295628.9375,334249.15625,329429.5,285327.71875,255849.796875,222277.65625,244499.75,0.029296875,0.992919921875,0.196533203125,0.1220703050494194,-1.4343260526657104,-1.2512205839157104,80.0,129502.0,0.0
14650.4726944,293137.15625,295628.9375,334249.15625,329429.5,285327.71875,255849.796875,222277.65625,244499.75,0.029296875,0.992919921875,0.196533203125,0.1220703050494194,-1.4343260526657104,-1.2512205839157104,80.0,129503.0,0.0
14650.4726946,293137.15625,295628.9375,334249.15625,329429.5,285327.71875,255849.796875,222277.65625,244499.75,0.029296875,0.992919921875,0.196533203125,0.1220703050494194,-1.4343260526657104,-1.2512205839157104,80.0,129504.0,0.0
14650.4726947,293137.15625,295628.9375,334249.15625,329429.5,285327.71875,255849.796875,222277.65625,244499.75,0.029296875,0.992919921875,0.196533203125,0.1220703050494194,-1.4343260526657104,-1.2512205839157104,80.0,129505.0,0.0
14650.4726949,293137.15625,295628.9375,334249.15625,329429.5,285327.71875,255849.796875,222277.65625,244499.75,0.029296875,0.992919921875,0.196533203125,0.1220703050494194,-1.4343260526657104,-1.2512205839157104,80.0,129506.0,0.0
14650.4726951,293137.15625,295628.9375,334249.15625,329429.5,285327.71875,255849.796875,222277.65625,244499.75,0.029296875,0.992919921875,0.196533203125,0.1220703050494194,-1.4343260526657104,-1.2512205839157104,80.0,129507.0,0.0
14650.4726953,293137.15625,295628.9375,334249.15625,329429.5,285327.71875,255849.796875,222277.65625,244499.75,0.029296875,0.992919921875,0.196533203125,0.1220703050494194,-1.4343260526657104,-1.2512205839157104,80.0,129508.0,0.0
14650.4726955,293137.15625,295628.9375,334249.15625,329429.5,285327.71875,255849.796875,222277.65625,244499.75,0.029296875,0.992919921875,0.196533203125,0.1220703050494194,-1.4343260526657104,-1.2512205839157104,80.0,129509.0,0.0
14650.4726957,293137.15625,295628.9375,334249.15625,329429.5,285327.71875,255849.796875,222277.65625,244499.75,0.029296875,0.992919921875,0.196533203125,0.1220703050494194,-1.4343260526657104,-1.2512205839157104,80.0,129510.0,0.0
14650.4726958,293137.15625,295628.9375,334249.15625,329429.5,285327.71875,255849.796875,222277.65625,244499.75,0.029296875,0.992919921875,0.196533203125,0.1220703050494194,-1.4343260526657104,-1.2512205839157104,80.0,129511.0,0.0
14650.472696,293137.15625,295628.9375,334249.15625,329429.5,285327.71875,255849.796875,222277.65625,244499.75,0.029296875,0.992919921875,0.196533203125,0.1220703050494194,-1.4343260526657104,-1.2512205839157104,80.0,129512.0,0.0
14650.4726962,293137.15625,295628.9375,334249.15625,329429.5,285327.71875,255849.796875,222277.65625,244499.75,0.029296875,0.992919921875,0.196533203125,0.1220703050494194,-1.4343260526657104,-1.2512205839157104,80.0,129513.0,0.0
14650.4726963,293103.34375,295584.9375,334140.53125,329379.15625,285288.65625,255813.21875,222236.15625,244465.328125,0.025390625,0.994873046875,0.196044921875,0.1525878757238388,-2.044677495956421,-1.0375975370407104,80.0,129514.0,1.0
14650.4726976,293092.8125,295331.28125,333964.9375,329388.90625,285167.6875,255773.34375,222193.421875,244465.953125,0.02685546875,0.99462890625,0.19384765625,0.2136230319738388,-1.9836424589157104,-1.0681151151657104,80.0,129515.0,1.0
14650.472699,293139.46875,295245.375,333993.0,329460.0,285157.03125,255777.015625,222211.578125,244506.640625,0.028564453125,0.994384765625,0.195556640625,0.2136230319738388,-1.8615721464157104,-1.1596678495407104,80.0,129516.0,1.0
14650.4727002,293166.65625,295436.78125,334176.3125,329479.84375,285258.4375,255819.125,222257.984375,244513.796875,0.028564453125,0.9921875,0.197021484375,0.3051757514476776,-1.8920897245407104,-1.1291502714157104,80.0,129517.0,1.0
14650.4727014,293141.53125,295638.75,334253.53125,329426.8125,285327.4375,255840.578125,222269.15625,244487.5,0.026611328125,0.9931640625,0.19482421875,0.4272460639476776,-1.9226073026657104,-1.1291502714157104,80.0,129518.0,1.0
14650.4727027,293104.78125,295588.5,334133.65625,329378.0,285280.5,255824.3125,222243.046875,244471.046875,0.0283203125,0.99365234375,0.195556640625,0.4272460639476776,-1.7700194120407104,-1.1596678495407104,80.0,129519.0,1.0
14650.4727039,293102.09375,295352.9375,333982.03125,329395.71875,285179.46875,255789.171875,222213.984375,244483.03125,0.0283203125,0.99267578125,0.197021484375,0.4882812201976776,-1.6784666776657104,-1.1901854276657104,80.0,129520.0,1.0
14650.47836,293128.65625,295239.375,333992.125,329443.28125,285149.53125,255764.671875,222207.203125,244500.640625,0.027099609375,0.992919921875,0.197509765625,0.4882812201976776,-1.6784666776657104,-1.2207030057907104,80.0,129521.0,1.0
14650.4783745,293154.75,295429.0,334174.78125,329462.84375,285252.71875,255807.6875,222248.234375,244506.453125,0.028564453125,0.99560546875,0.196533203125,0.5798339247703552,-1.5563963651657104,-1.2207030057907104,80.0,129522.0,1.0
14650.4783827,293141.1875,295650.5625,334271.53125,329423.5,285338.53125,255849.96875,222273.984375,244482.765625,0.0283203125,0.99560546875,0.1982421875,0.4272460639476776,-1.4648436307907104,-1.1901854276657104,80.0,129523.0,1.0
14650.4783844,293104.15625,295596.90625,334147.6875,329377.8125,285290.4375,255833.4375,222249.75,244469.265625,0.02587890625,0.9970703125,0.196533203125,0.4882812201976776,-1.5258787870407104,-1.1596678495407104,80.0,129524.0,1.0
14650.5097413,293092.53125,295333.0625,333962.96875,329387.65625,285169.03125,255788.1875,222213.8125,244482.59375,0.02734375,0.99462890625,0.194091796875,0.5798339247703552,-1.3732908964157104,-1.2512205839157104,80.0,129525.0,1.0
14650.5097507,293092.53125,295333.0625,333962.96875,329387.65625,285169.03125,255788.1875,222213.8125,244482.59375,0.02734375,0.99462890625,0.194091796875,0.5798339247703552,-1.3732908964157104,-1.2512205839157104,80.0,129526.0,0.0
14650.5097509,293092.53125,295333.0625,333962.96875,329387.65625,285169.03125,255788.1875,222213.8125,244482.59375,0.02734375,0.99462890625,0.194091796875,0.5798339247703552,-1.3732908964157104,-1.2512205839157104,80.0,129527.0,0.0
14650.5097511,293092.53125,295333.0625,333962.96875,329387.65625,285169.03125,255788.1875,222213.8125,244482.59375,0.02734375,0.99462890625,0.194091796875,0.5798339247703552,-1.3732908964157104,-1.2512205839157104,80.0,129528.0,0.0
14650.5097513,293092.53125,295333.0625,333962.96875,329387.65625,285169.03125,255788.1875,222213.8125,244482.59375,0.02734375,0.99462890625,0.194091796875,0.5798339247703552,-1.3732908964157104,-1.2512205839157104,80.0,129529.0,0.0
14650.5097515,293092.53125,295333.0625,333962.96875,329387.65625,285169.03125,255788.1875,222213.8125,244482.59375,0.02734375,0.99462890625,0.194091796875,0.5798339247703552,-1.3732908964157104,-1.2512205839157104,80.0,129530.0,0.0
14650.5097517,293092.53125,295333.0625,333962.96875,329387.65625,285169.03125,255788.1875,222213.8125,244482.59375,0.02734375,0.99462890625,0.194091796875,0.5798339247703552,-1.3732908964157104,-1.2512205839157104,80.0,129531.0,0.0
14650.5097518,293092.53125,295333.0625,333962.96875,329387.65625,285169.03125,255788.1875,222213.8125,244482.59375,0.02734375,0.99462890625,0.194091796875,0.5798339247703552,-1.3732908964157104,-1.2512205839157104,80.0,129532.0,0.0
14650.509752,293092.53125,295333.0625,333962.96875,329387.65625,285169.03125,255788.1875,222213.8125,244482.59375,0.02734375,0.99462890625,0.194091796875,0.5798339247703552,-1.3732908964157104,-1.2512205839157104,80.0,129533.0,0.0
14650.5097522,293092.53125,295333.0625,333962.96875,329387.65625,285169.03125,255788.1875,222213.8125,244482.59375,0.02734375,0.99462890625,0.194091796875,0.5798339247703552,-1.3732908964157104,-1.2512205839157104,80.0,129534.0,0.0
14650.5097524,293092.53125,295333.0625,333962.96875,329387.65625,285169.03125,255788.1875,222213.8125,244482.59375,0.02734375,0.99462890625,0.194091796875,0.5798339247703552,-1.3732908964157104,-1.2512205839157104,80.0,129535.0,0.0
14650.5097525,293092.53125,295333.0625,333962.96875,329387.65625,285169.03125,255788.1875,222213.8125,244482.59375,0.02734375,0.99462890625,0.194091796875,0.5798339247703552,-1.3732908964157104,-1.2512205839157104,80.0,129536.0,0.0
14650.5097527,293092.53125,295333.0625,333962.96875,329387.65625,285169.03125,255788.1875,222213.8125,244482.59375,0.02734375,0.99462890625,0.194091796875,0.5798339247703552,-1.3732908964157104,-1.2512205839157104,80.0,129537.0,0.0
14650.5097529,293092.53125,295333.0625,333962.96875,329387.65625,285169.03125,255788.1875,222213.8125,244482.59375,0.02734375,0.99462890625,0.194091796875,0.5798339247703552,-1.3732908964157104,-1.2512205839157104,80.0,129538.0,0.0
14650.5097531,293092.53125,295333.0625,333962.96875,329387.65625,285169.03125,255788.1875,222213.8125,244482.59375,0.02734375,0.99462890625,0.194091796875,0.5798339247703552,-1.3732908964157104,-1.2512205839157104,80.0,129539.0,0.0
14650.5097532,293092.53125,295333.0625,333962.96875,329387.65625,285169.03125,255788.1875,222213.8125,244482.59375,0.02734375,0.99462890625,0.194091796875,0.5798339247703552,-1.3732908964157104,-1.2512205839157104,80.0,129540.0,0.0
14650.5097534,293092.53125,295333.0625,333962.96875,329387.65625,285169.03125,255788.1875,222213.8125,244482.59375,0.02734375,0.99462890625,0.194091796875,0.5798339247703552,-1.3732908964157104,-1.2512205839157104,80.0,129541.0,0.0
14650.5097536,293092.53125,295333.0625,333962.96875,329387.65625,285169.03125,255788.1875,222213.8125,244482.59375,0.02734375,0.99462890625,0.194091796875,0.5798339247703552,-1.3732908964157104,-1.2512205839157104,80.0,129542.0,0.0
14650.5097538,293092.53125,295333.0625,333962.96875,329387.65625,285169.03125,255788.1875,222213.8125,244482.59375,0.02734375,0.99462890625,0.194091796875,0.5798339247703552,-1.3732908964157104,-1.2512205839157104,80.0,129543.0,0.0
14650.5097539,293092.53125,295333.0625,333962.96875,329387.65625,285169.03125,255788.1875,222213.8125,244482.59375,0.02734375,0.99462890625,0.194091796875,0.5798339247703552,-1.3732908964157104,-1.2512205839157104,80.0,129544.0,0.0
14650.5097541,293092.53125,295333.0625,333962.96875,329387.65625,285169.03125,255788.1875,222213.8125,244482.59375,0.02734375,0.99462890625,0.194091796875,0.5798339247703552,-1.3732908964157104,-1.2512205839157104,80.0,129545.0,0.0
14650.5097543,293132.15625,295232.5,333978.25,329448.53125,285157.21875,255780.234375,222226.234375,244503.421875,0.022705078125,0.99853515625,0.189697265625,0.5187987685203552,-2.258300542831421,-1.1291502714157104,80.0,129546.0,1.0
14650.5360135,293155.3125,295426.25,334163.4375,329465.71875,285263.78125,255819.65625,222268.703125,244514.5,0.0244140625,0.999755859375,0.193359375,0.3967284858226776,-2.380370855331421,-1.2207030057907104,80.0,129547.0,1.0
14650.5360259,293138.9375,295637.78125,334249.625,329422.4375,285342.375,255840.671875,222279.4375,244489.296875,0.024658203125,0.99951171875,0.193359375,0.2746581733226776,-2.288818120956421,-1.1901854276657104,80.0,129548.0,1.0
14650.5379595,293111.5,295581.53125,334126.6875,329380.40625,285294.1875,255836.203125,222250.921875,244468.109375,0.02783203125,1.00146484375,0.19482421875,0.1525878757238388,-2.288818120956421,-1.2512205839157104,80.0,129549.0,1.0
14650.5817162,293099.6875,295327.1875,333947.6875,329385.6875,285173.21875,255783.8125,222205.5,244475.171875,0.025390625,0.998779296875,0.195068359375,-0.0610351525247097,-2.288818120956421,-1.1596678495407104,80.0,129550.0,1.0
14650.5842349,293130.96875,295232.0625,333971.5625,329445.59375,285155.875,255766.640625,222219.984375,244525.5,0.0263671875,0.99853515625,0.19140625,-0.1220703050494194,-2.075195074081421,-1.0986326932907104,80.0,129551.0,1.0
14650.586664,293157.53125,295435.28125,334164.3125,329461.96875,285266.375,255829.40625,222270.5,244515.75,0.024658203125,0.996826171875,0.19140625,-0.1831054538488388,-2.075195074081421,-1.1291502714157104,80.0,129552.0,1.0
14650.5892651,293139.21875,295646.4375,334247.90625,329415.03125,285341.75,255869.375,222289.265625,244480.703125,0.02587890625,0.99267578125,0.190185546875,-0.2136230319738388,-1.9836424589157104,-1.2207030057907104,80.0,129553.0,1.0
14650.5969573,293104.78125,295591.8125,334131.25,329375.84375,285298.9375,255845.328125,222267.546875,244477.84375,0.02587890625,0.99462890625,0.1904296875,-0.2441406100988388,-2.014159917831421,-1.1291502714157104,80.0,129554.0,1.0
14650.5969726,293094.15625,295338.34375,333967.625,329381.84375,285180.8125,255781.125,222208.453125,244462.03125,0.024658203125,0.9931640625,0.189697265625,-0.3051757514476776,-2.014159917831421,-1.1291502714157104,80.0,129555.0,1.0
14650.5969776,293123.28125,295225.4375,333972.09375,329430.03125,285143.625,255750.1875,222193.25,244472.578125,0.02392578125,0.994140625,0.190185546875,-0.3051757514476776,-1.9226073026657104,-1.0986326932907104,80.0,129556.0,1.0
14650.5969788,293153.4375,295423.1875,334156.4375,329458.90625,285250.65625,255799.09375,222251.8125,244505.65625,0.0263671875,0.994140625,0.193603515625,-0.3051757514476776,-1.8005369901657104,-1.0681151151657104,80.0,129557.0,1.0
14650.5969801,293137.15625,295641.0,334251.21875,329419.75,285337.5625,255850.15625,222288.640625,244493.5,0.027099609375,0.992431640625,0.19482421875,-0.3356933295726776,-1.7089842557907104,-1.0986326932907104,80.0,129558.0,1.0
14650.5969813,293097.1875,295577.59375,334122.46875,329365.75,285284.1875,255830.65625,222254.21875,244460.859375,0.0263671875,0.993896484375,0.194091796875,-0.2441406100988388,-1.6479490995407104,-1.1596678495407104,80.0,129559.0,1.0
14650.627857,293093.25,295319.125,333946.96875,329381.75,285167.3125,255772.984375,222208.265625,244469.796875,0.026123046875,0.994384765625,0.191650390625,-0.1220703050494194,-1.6174315214157104,-1.2207030057907104,80.0,129560.0,1.0
14650.6278739,293131.34375,295226.59375,333968.4375,329444.34375,285154.28125,255766.828125,222217.03125,244503.6875,0.025146484375,0.995849609375,0.1923828125,-0.1831054538488388,-1.5563963651657104,-1.1901854276657104,80.0,129561.0,1.0
14650.6278752,293154.6875,295422.65625,334150.1875,329457.65625,285255.46875,255805.984375,222260.03125,244502.53125,0.024169921875,0.99658203125,0.195068359375,-0.1831054538488388,-1.4038084745407104,-1.0986326932907104,80.0,129562.0,1.0
14650.6278764,293134.03125,295625.09375,334227.4375,329411.53125,285327.90625,255832.796875,222278.546875,244491.625,0.02587890625,0.99609375,0.197021484375,-0.1525878757238388,-1.4343260526657104,-1.0986326932907104,80.0,129563.0,1.0
14650.6278776,293105.78125,295568.3125,334110.40625,329377.46875,285288.84375,255833.078125,222267.640625,244489.375,0.0263671875,0.996826171875,0.193115234375,-0.2441406100988388,-1.2817381620407104,-1.1901854276657104,80.0,129564.0,1.0
14650.6278788,293100.125,295323.15625,333946.625,329389.09375,285170.71875,255780.40625,222216.859375,244468.734375,0.026611328125,0.994384765625,0.1953125,-0.2441406100988388,-1.3122557401657104,-1.1291502714157104,80.0,129565.0,1.0
14650.6535881,293131.34375,295227.65625,333970.65625,329443.1875,285149.625,255763.6875,222216.671875,244488.125,0.025146484375,0.994140625,0.19580078125,-0.3356933295726776,-1.0986326932907104,-1.1596678495407104,80.0,129566.0,1.0
14650.6536102,293157.71875,295431.15625,334161.0,329461.0625,285259.3125,255814.828125,222267.640625,244506.546875,0.023681640625,0.994384765625,0.193359375,-0.3662109076976776,-1.0375975370407104,-1.1596678495407104,80.0,129567.0,1.0
14650.6791276,293136.53125,295637.875,334244.25,329412.15625,285337.28125,255840.3125,222286.046875,244488.578125,0.02392578125,0.9951171875,0.197021484375,-0.2746581733226776,-1.1291502714157104,-1.1596678495407104,80.0,129568.0,1.0
14650.6791328,293104.0625,295580.65625,334127.03125,329374.0625,285291.0625,255818.3125,222257.53125,244480.359375,0.02197265625,0.993408203125,0.194091796875,-0.2441406100988388,-1.0375975370407104,-1.0375975370407104,80.0,129569.0,1.0
14650.6791341,293100.59375,295328.53125,333967.34375,329388.03125,285177.96875,255773.34375,222215.59375,244471.140625,0.021484375,0.99462890625,0.19482421875,-0.1831054538488388,-1.0375975370407104,-1.0375975370407104,80.0,129570.0,1.0
14650.7104236,293141.0,295243.40625,333996.21875,329444.0,285162.40625,255779.609375,222225.34375,244487.234375,0.021728515625,0.9951171875,0.19384765625,-0.1525878757238388,-1.0986326932907104,-1.1291502714157104,80.0,129571.0,1.0
14650.785084,293141.0,295243.40625,333996.21875,329444.0,285162.40625,255779.609375,222225.34375,244487.234375,0.021728515625,0.9951171875,0.19384765625,-0.1525878757238388,-1.0986326932907104,-1.1291502714157104,80.0,129572.0,0.0
14650.785089,293141.0,295243.40625,333996.21875,329444.0,285162.40625,255779.609375,222225.34375,244487.234375,0.021728515625,0.9951171875,0.19384765625,-0.1525878757238388,-1.0986326932907104,-1.1291502714157104,80.0,129573.0,0.0
14650.7850903,293141.0,295243.40625,333996.21875,329444.0,285162.40625,255779.609375,222225.34375,244487.234375,0.021728515625,0.9951171875,0.19384765625,-0.1525878757238388,-1.0986326932907104,-1.1291502714157104,80.0,129574.0,0.0
14650.7850913,293141.0,295243.40625,333996.21875,329444.0,285162.40625,255779.609375,222225.34375,244487.234375,0.021728515625,0.9951171875,0.19384765625,-0.1525878757238388,-1.0986326932907104,-1.1291502714157104,80.0,129575.0,0.0
14650.7850933,293141.0,295243.40625,333996.21875,329444.0,285162.40625,255779.609375,222225.34375,244487.234375,0.021728515625,0.9951171875,0.19384765625,-0.1525878757238388,-1.0986326932907104,-1.1291502714157104,80.0,129576.0,0.0
14650.7850935,293141.0,295243.40625,333996.21875,329444.0,285162.40625,255779.609375,222225.34375,244487.234375,0.021728515625,0.9951171875,0.19384765625,-0.1525878757238388,-1.0986326932907104,-1.1291502714157104,80.0,129577.0,0.0
14650.7850937,293141.0,295243.40625,333996.21875,329444.0,285162.40625,255779.609375,222225.34375,244487.234375,0.021728515625,0.9951171875,0.19384765625,-0.1525878757238388,-1.0986326932907104,-1.1291502714157104,80.0,129578.0,0.0
14650.7850939,293141.0,295243.40625,333996.21875,329444.0,285162.40625,255779.609375,222225.34375,244487.234375,0.021728515625,0.9951171875,0.19384765625,-0.1525878757238388,-1.0986326932907104,-1.1291502714157104,80.0,129579.0,0.0
14650.7850941,293141.0,295243.40625,333996.21875,329444.0,285162.40625,255779.609375,222225.34375,244487.234375,0.021728515625,0.9951171875,0.19384765625,-0.1525878757238388,-1.0986326932907104,-1.1291502714157104,80.0,129580.0,0.0
14650.7850942,293141.0,295243.40625,333996.21875,329444.0,285162.40625,255779.609375,222225.34375,244487.234375,0.021728515625,0.9951171875,0.19384765625,-0.1525878757238388,-1.0986326932907104,-1.1291502714157104,80.0,129581.0,0.0
14650.7850944,293141.0,295243.40625,333996.21875,329444.0,285162.40625,255779.609375,222225.34375,244487.234375,0.021728515625,0.9951171875,0.19384765625,-0.1525878757238388,-1.0986326932907104,-1.1291502714157104,80.0,129582.0,0.0
14650.7850946,293141.0,295243.40625,333996.21875,329444.0,285162.40625,255779.609375,222225.34375,244487.234375,0.021728515625,0.9951171875,0.19384765625,-0.1525878757238388,-1.0986326932907104,-1.1291502714157104,80.0,129583.0,0.0
14650.7850948,293141.0,295243.40625,333996.21875,329444.0,285162.40625,255779.609375,222225.34375,244487.234375,0.021728515625,0.9951171875,0.19384765625,-0.1525878757238388,-1.0986326932907104,-1.1291502714157104,80.0,129584.0,0.0
14650.7850952,293141.0,295243.40625,333996.21875,329444.0,285162.40625,255779.609375,222225.34375,244487.234375,0.021728515625,0.9951171875,0.19384765625,-0.1525878757238388,-1.0986326932907104,-1.1291502714157104,80.0,129585.0,0.0
14650.7850954,293141.0,295243.40625,333996.21875,329444.0,285162.40625,255779.609375,222225.34375,244487.234375,0.021728515625,0.9951171875,0.19384765625,-0.1525878757238388,-1.0986326932907104,-1.1291502714157104,80.0,129586.0,0.0
14650.7850956,293141.0,295243.40625,333996.21875,329444.0,285162.40625,255779.609375,222225.34375,244487.234375,0.021728515625,0.9951171875,0.19384765625,-0.1525878757238388,-1.0986326932907104,-1.1291502714157104,80.0,129587.0,0.0
14650.7850958,293141.0,295243.40625,333996.21875,329444.0,285162.40625,255779.609375,222225.34375,244487.234375,0.021728515625,0.9951171875,0.19384765625,-0.1525878757238388,-1.0986326932907104,-1.1291502714157104,80.0,129588.0,0.0
14650.785096,293085.125,295550.34375,334079.375,329355.75,285270.21875,255826.71875,222264.78125,244474.265625,0.0224609375,0.99658203125,0.20068359375,0.2136230319738388,-1.6479490995407104,-0.7934569716453552,80.0,129589.0,1.0
14650.7850999,293081.28125,295302.59375,333933.1875,329371.75,285169.8125,255780.859375,222218.375,244473.015625,0.022705078125,0.99755859375,0.19775390625,0.0610351525247097,-1.6784666776657104,-0.7629393935203552,80.0,129590.0,1.0
14650.7851012,293117.125,295220.4375,333970.03125,329426.28125,285157.75,255777.46875,222222.3125,244480.4375,0.02294921875,0.997802734375,0.199951171875,0.0915527269244194,-1.7089842557907104,-0.7324218153953552,80.0,129591.0,1.0
14650.7851024,293144.84375,295432.78125,334166.5625,329448.46875,285270.59375,255821.984375,222272.28125,244491.796875,0.021728515625,0.99560546875,0.19921875,0.0915527269244194,-1.7089842557907104,-0.6713866591453552,80.0,129592.0,1.0
14650.7851036,293129.09375,295636.34375,334246.46875,329411.625,285350.78125,255854.53125,222301.875,244494.03125,0.02197265625,0.995361328125,0.1953125,0.1525878757238388,-1.8005369901657104,-0.7324218153953552,80.0,129593.0,1.0
14650.8119247,293100.84375,295565.4375,334110.59375,329370.9375,285294.375,255834.40625,222273.71875,244477.3125,0.02001953125,0.996826171875,0.197509765625,0.1831054538488388,-1.7089842557907104,-0.7324218153953552,80.0,129594.0,1.0
14650.8119336,293092.4375,295308.59375,333937.3125,329378.375,285172.78125,255787.203125,222229.09375,244472.9375,0.020263671875,0.999755859375,0.195556640625,0.2441406100988388,-1.8005369901657104,-0.8544921278953552,80.0,129595.0,1.0
14650.8119352,293131.875,295230.875,333977.09375,329442.1875,285166.78125,255792.484375,222245.546875,244505.65625,0.02001953125,0.99951171875,0.1953125,0.1831054538488388,-1.8615721464157104,-0.9460448622703552,80.0,129596.0,1.0
14650.8119364,293154.3125,295438.40625,334169.40625,329458.03125,285277.03125,255827.890625,222285.34375,244509.40625,0.02099609375,0.999267578125,0.19287109375,0.1220703050494194,-1.9531248807907104,-1.0070799589157104,80.0,129597.0,1.0
14650.8119391,293139.84375,295644.125,334249.34375,329414.3125,285355.78125,255864.71875,222308.5,244496.359375,0.02197265625,0.996337890625,0.193115234375,0.0610351525247097,-1.8920897245407104,-1.0986326932907104,80.0,129598.0,1.0
14650.8119403,293105.15625,295569.5625,334112.90625,329369.34375,285292.84375,255821.453125,222264.140625,244468.640625,0.020263671875,0.997314453125,0.200439453125,0.0610351525247097,-1.8310545682907104,-1.0986326932907104,80.0,129599.0,1.0
14650.8362767,293101.5625,295321.90625,333957.53125,329385.0625,285185.03125,255777.1875,222227.484375,244477.140625,0.020263671875,0.997802734375,0.198974609375,0.1220703050494194,-1.9531248807907104,-1.0986326932907104,80.0,129600.0,1.0
14650.861732,293101.5625,295321.90625,333957.53125,329385.0625,285185.03125,255777.1875,222227.484375,244477.140625,0.020263671875,0.997802734375,0.198974609375,0.1220703050494194,-1.9531248807907104,-1.0986326932907104,80.0,129601.0,0.0
14650.8617365,293101.5625,295321.90625,333957.53125,329385.0625,285185.03125,255777.1875,222227.484375,244477.140625,0.020263671875,0.997802734375,0.198974609375,0.1220703050494194,-1.9531248807907104,-1.0986326932907104,80.0,129602.0,0.0
14650.8617378,293101.5625,295321.90625,333957.53125,329385.0625,285185.03125,255777.1875,222227.484375,244477.140625,0.020263671875,0.997802734375,0.198974609375,0.1220703050494194,-1.9531248807907104,-1.0986326932907104,80.0,129603.0,0.0
14650.8617389,293101.5625,295321.90625,333957.53125,329385.0625,285185.03125,255777.1875,222227.484375,244477.140625,0.020263671875,0.997802734375,0.198974609375,0.1220703050494194,-1.9531248807907104,-1.0986326932907104,80.0,129604.0,0.0
14650.8617402,293101.5625,295321.90625,333957.53125,329385.0625,285185.03125,255777.1875,222227.484375,244477.140625,0.020263671875,0.997802734375,0.198974609375,0.1220703050494194,-1.9531248807907104,-1.0986326932907104,80.0,129605.0,0.0
14650.8617413,293101.5625,295321.90625,333957.53125,329385.0625,285185.03125,255777.1875,222227.484375,244477.140625,0.020263671875,0.997802734375,0.198974609375,0.1220703050494194,-1.9531248807907104,-1.0986326932907104,80.0,129606.0,0.0
14650.8617425,293101.5625,295321.90625,333957.53125,329385.0625,285185.03125,255777.1875,222227.484375,244477.140625,0.020263671875,0.997802734375,0.198974609375,0.1220703050494194,-1.9531248807907104,-1.0986326932907104,80.0,129607.0,0.0
14650.861744,293101.5625,295321.90625,333957.53125,329385.0625,285185.03125,255777.1875,222227.484375,244477.140625,0.020263671875,0.997802734375,0.198974609375,0.1220703050494194,-1.9531248807907104,-1.0986326932907104,80.0,129608.0,0.0
14650.8617452,293101.5625,295321.90625,333957.53125,329385.0625,285185.03125,255777.1875,222227.484375,244477.140625,0.020263671875,0.997802734375,0.198974609375,0.1220703050494194,-1.9531248807907104,-1.0986326932907104,80.0,129609.0,0.0
14650.8617454,293101.5625,295321.90625,333957.53125,329385.0625,285185.03125,255777.1875,222227.484375,244477.140625,0.020263671875,0.997802734375,0.198974609375,0.1220703050494194,-1.9531248807907104,-1.0986326932907104,80.0,129610.0,0.0
14650.8617456,293101.5625,295321.90625,333957.53125,329385.0625,285185.03125,255777.1875,222227.484375,244477.140625,0.020263671875,0.997802734375,0.198974609375,0.1220703050494194,-1.9531248807907104,-1.0986326932907104,80.0,129611.0,0.0
14650.8617457,293101.5625,295321.90625,333957.53125,329385.0625,285185.03125,255777.1875,222227.484375,244477.140625,0.020263671875,0.997802734375,0.198974609375,0.1220703050494194,-1.9531248807907104,-1.0986326932907104,80.0,129612.0,0.0
14650.8617459,293101.5625,295321.90625,333957.53125,329385.0625,285185.03125,255777.1875,222227.484375,244477.140625,0.020263671875,0.997802734375,0.198974609375,0.1220703050494194,-1.9531248807907104,-1.0986326932907104,80.0,129613.0,0.0
14650.8617461,293101.5625,295321.90625,333957.53125,329385.0625,285185.03125,255777.1875,222227.484375,244477.140625,0.020263671875,0.997802734375,0.198974609375,0.1220703050494194,-1.9531248807907104,-1.0986326932907104,80.0,129614.0,0.0
14650.8617466,293101.5625,295321.90625,333957.53125,329385.0625,285185.03125,255777.1875,222227.484375,244477.140625,0.020263671875,0.997802734375,0.198974609375,0.1220703050494194,-1.9531248807907104,-1.0986326932907104,80.0,129615.0,0.0
14650.8617467,293101.5625,295321.90625,333957.53125,329385.0625,285185.03125,255777.1875,222227.484375,244477.140625,0.020263671875,0.997802734375,0.198974609375,0.1220703050494194,-1.9531248807907104,-1.0986326932907104,80.0,129616.0,0.0
14650.8617469,293101.5625,295321.90625,333957.53125,329385.0625,285185.03125,255777.1875,222227.484375,244477.140625,0.020263671875,0.997802734375,0.198974609375,0.1220703050494194,-1.9531248807907104,-1.0986326932907104,80.0,129617.0,0.0
14650.8617471,293101.5625,295321.90625,333957.53125,329385.0625,285185.03125,255777.1875,222227.484375,244477.140625,0.020263671875,0.997802734375,0.198974609375,0.1220703050494194,-1.9531248807907104,-1.0986326932907104,80.0,129618.0,0.0
14650.8617472,293101.5625,295321.90625,333957.53125,329385.0625,285185.03125,255777.1875,222227.484375,244477.140625,0.020263671875,0.997802734375,0.198974609375,0.1220703050494194,-1.9531248807907104,-1.0986326932907104,80.0,129619.0,0.0
14650.8617474,293101.5625,295321.90625,333957.53125,329385.0625,285185.03125,255777.1875,222227.484375,244477.140625,0.020263671875,0.997802734375,0.198974609375,0.1220703050494194,-1.9531248807907104,-1.0986326932907104,80.0,129620.0,0.0
14650.8617476,293101.5625,295321.90625,333957.53125,329385.0625,285185.03125,255777.1875,222227.484375,244477.140625,0.020263671875,0.997802734375,0.198974609375,0.1220703050494194,-1.9531248807907104,-1.0986326932907104,80.0,129621.0,0.0
14650.8617477,293101.5625,295321.90625,333957.53125,329385.0625,285185.03125,255777.1875,222227.484375,244477.140625,0.020263671875,0.997802734375,0.198974609375,0.1220703050494194,-1.9531248807907104,-1.0986326932907104,80.0,129622.0,0.0
14650.8617479,293101.5625,295321.90625,333957.53125,329385.0625,285185.03125,255777.1875,222227.484375,244477.140625,0.020263671875,0.997802734375,0.198974609375,0.1220703050494194,-1.9531248807907104,-1.0986326932907104,80.0,129623.0,0.0
14650.8617481,293101.5625,295321.90625,333957.53125,329385.0625,285185.03125,255777.1875,222227.484375,244477.140625,0.020263671875,0.997802734375,0.198974609375,0.1220703050494194,-1.9531248807907104,-1.0986326932907104,80.0,129624.0,0.0
14650.8617483,293101.5625,295321.90625,333957.53125,329385.0625,285185.03125,255777.1875,222227.484375,244477.140625,0.020263671875,0.997802734375,0.198974609375,0.1220703050494194,-1.9531248807907104,-1.0986326932907104,80.0,129625.0,0.0
14650.8617484,293101.5625,295321.90625,333957.53125,329385.0625,285185.03125,255777.1875,222227.484375,244477.140625,0.020263671875,0.997802734375,0.198974609375,0.1220703050494194,-1.9531248807907104,-1.0986326932907104,80.0,129626.0,0.0
14650.8617486,293101.5625,295321.90625,333957.53125,329385.0625,285185.03125,255777.1875,222227.484375,244477.140625,0.020263671875,0.997802734375,0.198974609375,0.1220703050494194,-1.9531248807907104,-1.0986326932907104,80.0,129627.0,0.0
14650.8617488,293101.5625,295321.90625,333957.53125,329385.0625,285185.03125,255777.1875,222227.484375,244477.140625,0.020263671875,0.997802734375,0.198974609375,0.1220703050494194,-1.9531248807907104,-1.0986326932907104,80.0,129628.0,0.0
14650.8617489,293101.5625,295321.90625,333957.53125,329385.0625,285185.03125,255777.1875,222227.484375,244477.140625,0.020263671875,0.997802734375,0.198974609375,0.1220703050494194,-1.9531248807907104,-1.0986326932907104,80.0,129629.0,0.0
14650.8617491,293101.5625,295321.90625,333957.53125,329385.0625,285185.03125,255777.1875,222227.484375,244477.140625,0.020263671875,0.997802734375,0.198974609375,0.1220703050494194,-1.9531248807907104,-1.0986326932907104,80.0,129630.0,0.0
14650.8617493,293126.5,295239.5625,333981.5625,329440.0625,285169.375,255794.09375,222254.9375,244502.890625,0.026611328125,0.99609375,0.1953125,0.4882812201976776,-1.4953612089157104,-0.8850097060203552,80.0,129631.0,1.0
14650.9477671,293153.0625,295442.5,334153.9375,329450.78125,285267.375,255841.75,222303.125,244505.203125,0.027099609375,0.996337890625,0.19775390625,0.4882812201976776,-1.3732908964157104,-0.8239745497703552,80.0,129632.0,1.0
14650.9477721,293139.5625,295648.6875,334224.3125,329399.71875,285334.34375,255869.46875,222315.109375,244477.84375,0.025146484375,0.9951171875,0.1962890625,0.4577636420726776,-1.4038084745407104,-0.5493163466453552,80.0,129633.0,1.0
14650.9477734,293115.78125,295580.03125,334100.84375,329367.09375,285282.84375,255841.5625,222289.265625,244470.34375,0.02490234375,0.994873046875,0.1962890625,0.4272460639476776,-1.4648436307907104,-0.5798339247703552,80.0,129634.0,1.0
14650.9477746,293125.09375,295345.0625,333961.375,329390.78125,285186.625,255807.0625,222260.84375,244479.28125,0.02490234375,0.993896484375,0.195068359375,0.5493163466453552,-1.4343260526657104,-0.5187987685203552,80.0,129635.0,1.0
14650.9477759,293160.5625,295273.0,334003.375,329439.875,285180.03125,255805.359375,222262.09375,244490.546875,0.023193359375,0.995361328125,0.19775390625,0.5493163466453552,-1.3732908964157104,-0.3967284858226776,80.0,129636.0,1.0
14650.9477771,293185.25,295486.3125,334192.84375,329460.71875,285291.5,255848.71875,222308.046875,244506.109375,0.0224609375,0.997314453125,0.19873046875,0.6103515028953552,-1.4038084745407104,-0.4272460639476776,80.0,129637.0,1.0
14650.9735579,293167.0,295683.09375,334260.875,329418.0625,285364.375,255885.640625,222334.953125,244494.65625,0.02294921875,0.996337890625,0.198486328125,0.4577636420726776,-1.4038084745407104,-0.4577636420726776,80.0,129638.0,1.0
14650.9735778,293139.375,295604.4375,334120.59375,329382.28125,285307.4375,255883.140625,222321.015625,244498.328125,0.0234375,0.995361328125,0.198974609375,0.3967284858226776,-1.4648436307907104,-0.3662109076976776,80.0,129639.0,1.0
14650.997938,293142.6875,295367.5,333979.59375,329401.34375,285207.46875,255837.90625,222277.734375,244482.40625,0.0224609375,0.996337890625,0.1943359375,0.3662109076976776,-1.4038084745407104,-0.3356933295726776,80.0,129640.0,1.0
14651.0079832,293170.84375,295287.65625,334024.40625,329447.5625,285193.78125,255811.34375,222272.109375,244487.0625,0.021484375,0.99462890625,0.19580078125,0.2441406100988388,-1.4038084745407104,-0.4272460639476776,80.0,129641.0,1.0
14651.0104373,293182.125,295481.40625,334194.625,329454.09375,285287.5625,255840.578125,222308.3125,244507.625,0.02197265625,0.996826171875,0.1953125,0.3356933295726776,-1.4038084745407104,-0.4577636420726776,80.0,129642.0,1.0
14651.0129593,293152.8125,295659.875,334240.75,329397.6875,285340.875,255864.09375,222316.546875,244481.34375,0.02490234375,0.995361328125,0.19384765625,0.2746581733226776,-1.4343260526657104,-0.4577636420726776,80.0,129643.0,1.0
14651.0799558,293121.78125,295578.78125,334103.6875,329357.96875,285279.1875,255845.5,222288.46875,244451.828125,0.025146484375,0.994140625,0.19482421875,0.1525878757238388,-1.4038084745407104,-0.5493163466453552,80.0,129644.0,1.0
14651.0799623,293121.78125,295578.78125,334103.6875,329357.96875,285279.1875,255845.5,222288.46875,244451.828125,0.025146484375,0.994140625,0.19482421875,0.1525878757238388,-1.4038084745407104,-0.5493163466453552,80.0,129645.0,0.0
14651.0799625,293121.78125,295578.78125,334103.6875,329357.96875,285279.1875,255845.5,222288.46875,244451.828125,0.025146484375,0.994140625,0.19482421875,0.1525878757238388,-1.4038084745407104,-0.5493163466453552,80.0,129646.0,0.0
14651.0799628,293121.78125,295578.78125,334103.6875,329357.96875,285279.1875,255845.5,222288.46875,244451.828125,0.025146484375,0.994140625,0.19482421875,0.1525878757238388,-1.4038084745407104,-0.5493163466453552,80.0,129647.0,0.0
14651.079963,293121.78125,295578.78125,334103.6875,329357.96875,285279.1875,255845.5,222288.46875,244451.828125,0.025146484375,0.994140625,0.19482421875,0.1525878757238388,-1.4038084745407104,-0.5493163466453552,80.0,129648.0,0.0
14651.0799632,293121.78125,295578.78125,334103.6875,329357.96875,285279.1875,255845.5,222288.46875,244451.828125,0.025146484375,0.994140625,0.19482421875,0.1525878757238388,-1.4038084745407104,-0.5493163466453552,80.0,129649.0,0.0
14651.0799633,293121.78125,295578.78125,334103.6875,329357.96875,285279.1875,255845.5,222288.46875,244451.828125,0.025146484375,0.994140625,0.19482421875,0.1525878757238388,-1.4038084745407104,-0.5493163466453552,80.0,129650.0,0.0
14651.0799635,293121.78125,295578.78125,334103.6875,329357.96875,285279.1875,255845.5,222288.46875,244451.828125,0.025146484375,0.994140625,0.19482421875,0.1525878757238388,-1.4038084745407104,-0.5493163466453552,80.0,129651.0,0.0
14651.0799637,293121.78125,295578.78125,334103.6875,329357.96875,285279.1875,255845.5,222288.46875,244451.828125,0.025146484375,0.994140625,0.19482421875,0.1525878757238388,-1.4038084745407104,-0.5493163466453552,80.0,129652.0,0.0
14651.0799639,293121.78125,295578.78125,334103.6875,329357.96875,285279.1875,255845.5,222288.46875,244451.828125,0.025146484375,0.994140625,0.19482421875,0.1525878757238388,-1.4038084745407104,-0.5493163466453552,80.0,129653.0,0.0
14651.0799641,293121.78125,295578.78125,334103.6875,329357.96875,285279.1875,255845.5,222288.46875,244451.828125,0.025146484375,0.994140625,0.19482421875,0.1525878757238388,-1.4038084745407104,-0.5493163466453552,80.0,129654.0,0.0
14651.0799643,293121.78125,295578.78125,334103.6875,329357.96875,285279.1875,255845.5,222288.46875,244451.828125,0.025146484375,0.994140625,0.19482421875,0.1525878757238388,-1.4038084745407104,-0.5493163466453552,80.0,129655.0,0.0
14651.0799645,293121.78125,295578.78125,334103.6875,329357.96875,285279.1875,255845.5,222288.46875,244451.828125,0.025146484375,0.994140625,0.19482421875,0.1525878757238388,-1.4038084745407104,-0.5493163466453552,80.0,129656.0,0.0
14651.0799646,293121.78125,295578.78125,334103.6875,329357.96875,285279.1875,255845.5,222288.46875,244451.828125,0.025146484375,0.994140625,0.19482421875,0.1525878757238388,-1.4038084745407104,-0.5493163466453552,80.0,129657.0,0.0
14651.0799648,293121.78125,295578.78125,334103.6875,329357.96875,285279.1875,255845.5,222288.46875,244451.828125,0.025146484375,0.994140625,0.19482421875,0.1525878757238388,-1.4038084745407104,-0.5493163466453552,80.0,129658.0,0.0
14651.079965,293121.78125,295578.78125,334103.6875,329357.96875,285279.1875,255845.5,222288.46875,244451.828125,0.025146484375,0.994140625,0.19482421875,0.1525878757238388,-1.4038084745407104,-0.5493163466453552,80.0,129659.0,0.0
14651.0799651,293121.78125,295578.78125,334103.6875,329357.96875,285279.1875,255845.5,222288.46875,244451.828125,0.025146484375,0.994140625,0.19482421875,0.1525878757238388,-1.4038084745407104,-0.5493163466453552,80.0,129660.0,0.0
14651.0799653,293121.78125,295578.78125,334103.6875,329357.96875,285279.1875,255845.5,222288.46875,244451.828125,0.025146484375,0.994140625,0.19482421875,0.1525878757238388,-1.4038084745407104,-0.5493163466453552,80.0,129661.0,0.0
14651.0799655,293121.78125,295578.78125,334103.6875,329357.96875,285279.1875,255845.5,222288.46875,244451.828125,0.025146484375,0.994140625,0.19482421875,0.1525878757238388,-1.4038084745407104,-0.5493163466453552,80.0,129662.0,0.0
14651.0799657,293121.78125,295578.78125,334103.6875,329357.96875,285279.1875,255845.5,222288.46875,244451.828125,0.025146484375,0.994140625,0.19482421875,0.1525878757238388,-1.4038084745407104,-0.5493163466453552,80.0,129663.0,0.0
14651.0799658,293121.78125,295578.78125,334103.6875,329357.96875,285279.1875,255845.5,222288.46875,244451.828125,0.025146484375,0.994140625,0.19482421875,0.1525878757238388,-1.4038084745407104,-0.5493163466453552,80.0,129664.0,0.0
14651.079966,293121.78125,295578.78125,334103.6875,329357.96875,285279.1875,255845.5,222288.46875,244451.828125,0.025146484375,0.994140625,0.19482421875,0.1525878757238388,-1.4038084745407104,-0.5493163466453552,80.0,129665.0,0.0
14651.0799662,293121.78125,295578.78125,334103.6875,329357.96875,285279.1875,255845.5,222288.46875,244451.828125,0.025146484375,0.994140625,0.19482421875,0.1525878757238388,-1.4038084745407104,-0.5493163466453552,80.0,129666.0,0.0
14651.0799664,293121.78125,295578.78125,334103.6875,329357.96875,285279.1875,255845.5,222288.46875,244451.828125,0.025146484375,0.994140625,0.19482421875,0.1525878757238388,-1.4038084745407104,-0.5493163466453552,80.0,129667.0,0.0
14651.0799666,293121.78125,295578.78125,334103.6875,329357.96875,285279.1875,255845.5,222288.46875,244451.828125,0.025146484375,0.994140625,0.19482421875,0.1525878757238388,-1.4038084745407104,-0.5493163466453552,80.0,129668.0,0.0
14651.0799667,293121.78125,295578.78125,334103.6875,329357.96875,285279.1875,255845.5,222288.46875,244451.828125,0.025146484375,0.994140625,0.19482421875,0.1525878757238388,-1.4038084745407104,-0.5493163466453552,80.0,129669.0,0.0
14651.0799669,293121.78125,295578.78125,334103.6875,329357.96875,285279.1875,255845.5,222288.46875,244451.828125,0.025146484375,0.994140625,0.19482421875,0.1525878757238388,-1.4038084745407104,-0.5493163466453552,80.0,129670.0,0.0
14651.0799671,293121.78125,295578.78125,334103.6875,329357.96875,285279.1875,255845.5,222288.46875,244451.828125,0.025146484375,0.994140625,0.19482421875,0.1525878757238388,-1.4038084745407104,-0.5493163466453552,80.0,129671.0,0.0
14651.0799672,293121.78125,295578.78125,334103.6875,329357.96875,285279.1875,255845.5,222288.46875,244451.828125,0.025146484375,0.994140625,0.19482421875,0.1525878757238388,-1.4038084745407104,-0.5493163466453552,80.0,129672.0,0.0
14651.0799674,293121.78125,295578.78125,334103.6875,329357.96875,285279.1875,255845.5,222288.46875,244451.828125,0.025146484375,0.994140625,0.19482421875,0.1525878757238388,-1.4038084745407104,-0.5493163466453552,80.0,129673.0,0.0
14651.0799676,293121.875,295603.8125,334111.21875,329362.0,285304.90625,255878.578125,222307.15625,244478.921875,0.03076171875,0.99462890625,0.197509765625,0.0610351525247097,-1.2817381620407104,-0.6408690810203552,80.0,129674.0,1.0
14651.0799689,293115.53125,295352.84375,333957.96875,329379.0625,285196.03125,255831.46875,222267.359375,244487.765625,0.031005859375,0.99560546875,0.198486328125,0.03051757626235485,-1.0986326932907104,-0.6103515028953552,80.0,129675.0,1.0
14651.0799702,293154.40625,295289.0,334006.6875,329434.40625,285194.5,255827.34375,222274.96875,244510.578125,0.02880859375,0.99609375,0.197021484375,0.0610351525247097,-0.9765624403953552,-0.5798339247703552,80.0,129676.0,1.0
14651.0799714,293167.09375,295497.59375,334189.25,329434.59375,285296.875,255865.265625,222313.765625,244506.1875,0.025390625,0.995361328125,0.19482421875,0.0610351525247097,-0.9155272841453552,-0.5798339247703552,80.0,129677.0,1.0
14651.0799726,293149.5,295695.09375,334263.03125,329393.65625,285373.3125,255904.953125,222346.84375,244502.4375,0.026123046875,0.996826171875,0.193115234375,-0.0915527269244194,-0.9155272841453552,-0.5493163466453552,80.0,129678.0,1.0
14651.0799738,293120.6875,295609.15625,334131.25,329359.0625,285318.34375,255891.359375,222332.28125,244498.5,0.02734375,0.996337890625,0.19384765625,0.0,-0.9155272841453552,-0.4577636420726776,80.0,129679.0,1.0
14651.129071,293118.90625,295351.75,333969.40625,329381.03125,285205.0625,255846.390625,222299.734375,244517.453125,0.02978515625,0.996337890625,0.1962890625,0.03051757626235485,-1.0070799589157104,-0.4272460639476776,80.0,129680.0,1.0
14651.1290802,293149.5,295282.5625,334001.5,329430.5625,285189.21875,255843.71875,222303.390625,244520.671875,0.03076171875,0.99658203125,0.197998046875,0.1525878757238388,-1.0070799589157104,-0.4272460639476776,80.0,129681.0,1.0
14651.1290823,293175.40625,295512.34375,334196.15625,329436.3125,285297.5,255879.46875,222326.640625,244492.15625,0.0302734375,0.996337890625,0.19921875,0.2136230319738388,-0.8544921278953552,-0.5798339247703552,80.0,129682.0,1.0
14651.1290843,293147.96875,295695.8125,334256.40625,329389.90625,285360.09375,255895.5625,222344.53125,244496.71875,0.02587890625,0.99853515625,0.1962890625,0.1831054538488388,-0.7629393935203552,-0.7019042372703552,80.0,129683.0,1.0
14651.1290863,293113.8125,295605.84375,334117.28125,329349.65625,285299.5625,255881.359375,222316.984375,244483.65625,0.02294921875,0.99853515625,0.19384765625,0.1220703050494194,-0.7019042372703552,-0.7934569716453552,80.0,129684.0,1.0
14651.1290883,293121.875,295363.21875,333971.375,329377.65625,285195.75,255830.21875,222275.953125,244493.5,0.021484375,0.996826171875,0.193603515625,0.1525878757238388,-0.7934569716453552,-0.9460448622703552,80.0,129685.0,1.0
14651.1410687,293154.40625,295299.625,334020.0,329433.53125,285192.4375,255824.9375,222296.6875,244529.96875,0.02392578125,0.99560546875,0.193359375,0.2746581733226776,-0.7934569716453552,-1.0681151151657104,80.0,129686.0,1.0
14651.1410764,293175.15625,295513.59375,334205.53125,329438.25,285299.8125,255864.8125,222329.0625,244511.203125,0.0244140625,0.992919921875,0.197265625,0.4272460639476776,-1.0070799589157104,-1.1901854276657104,80.0,129687.0,1.0
14651.1441203,293153.78125,295700.4375,334260.96875,329396.59375,285367.3125,255897.796875,222349.984375,244513.171875,0.023193359375,0.992431640625,0.200439453125,0.4882812201976776,-1.0986326932907104,-1.1901854276657104,80.0,129688.0,1.0
14651.1441267,293117.03125,295599.5,334109.875,329353.96875,285295.625,255878.84375,222320.75,244496.890625,0.025390625,0.993408203125,0.198486328125,0.3356933295726776,-1.1596678495407104,-1.2207030057907104,80.0,129689.0,1.0
14651.1441288,293112.21875,295350.15625,333960.375,329365.03125,285182.875,255824.3125,222260.125,244471.859375,0.025146484375,0.99365234375,0.200927734375,0.5187987685203552,-1.1596678495407104,-1.1596678495407104,80.0,129690.0,1.0
14651.1466901,293145.375,295284.15625,334009.09375,329420.125,285181.28125,255822.34375,222270.9375,244493.234375,0.0244140625,0.992919921875,0.204345703125,0.6103515028953552,-1.0986326932907104,-1.0986326932907104,80.0,129691.0,1.0
14651.160193,293162.28125,295498.84375,334189.25,329430.40625,285287.5625,255862.484375,222318.5,244505.203125,0.02490234375,0.993408203125,0.202880859375,0.7324218153953552,-1.1596678495407104,-1.0986326932907104,80.0,129692.0,1.0
14651.1601993,293141.1875,295686.59375,334245.0625,329387.5625,285356.59375,255903.703125,222347.921875,244508.421875,0.02490234375,0.993408203125,0.1982421875,0.7934569716453552,-1.1291502714157104,-0.9765624403953552,80.0,129693.0,1.0
14651.1602013,293111.03125,295600.40625,334108.34375,329355.90625,285301.53125,255887.34375,222326.203125,244496.625,0.025634765625,0.9921875,0.19580078125,0.7934569716453552,-1.2207030057907104,-0.8239745497703552,80.0,129694.0,1.0
14651.1602032,293104.96875,295338.875,333946.34375,329368.4375,285183.78125,255821.8125,222274.515625,244484.46875,0.023681640625,0.994384765625,0.19677734375,0.8850097060203552,-1.3122557401657104,-0.8850097060203552,80.0,129695.0,1.0
14651.1602049,293141.0,295273.96875,333988.71875,329421.71875,285177.78125,255815.109375,222286.859375,244522.375,0.02490234375,0.995849609375,0.197509765625,1.0681151151657104,-1.3122557401657104,-0.6713866591453552,80.0,129696.0,1.0
14651.1602067,293159.6875,295486.84375,334168.96875,329426.09375,285281.0625,255859.625,222323.6875,244520.234375,0.02490234375,0.99658203125,0.197021484375,1.0681151151657104,-1.4038084745407104,-0.7019042372703552,80.0,129697.0,1.0
14651.1602086,293145.75,295677.125,334228.875,329381.40625,285349.1875,255894.578125,222341.84375,244495.015625,0.024658203125,0.99658203125,0.19921875,1.1291502714157104,-1.3427733182907104,-0.5493163466453552,80.0,129698.0,1.0
14651.1602104,293124.71875,295602.5625,334101.90625,329353.5,285301.0625,255887.796875,222328.796875,244489.03125,0.0244140625,0.996826171875,0.197509765625,1.0681151151657104,-1.4648436307907104,-0.4882812201976776,80.0,129699.0,1.0
14651.1602122,293124.1875,295356.0625,333954.375,329377.375,285198.53125,255843.171875,222291.15625,244507.265625,0.023681640625,0.997802734375,0.19873046875,1.0681151151657104,-1.5258787870407104,-0.3662109076976776,80.0,129700.0,1.0
14651.160214,293159.15625,295300.96875,334010.34375,329432.28125,285200.3125,255835.390625,222291.59375,244516.03125,0.022216796875,0.9970703125,0.200927734375,1.0070799589157104,-1.6784666776657104,-0.3356933295726776,80.0,129701.0,1.0
14651.1602158,293185.53125,295530.5,334211.71875,329446.75,285319.84375,255884.484375,222333.265625,244509.953125,0.02197265625,0.99609375,0.1982421875,1.0375975370407104,-1.8005369901657104,-0.3356933295726776,80.0,129702.0,1.0
14651.1602176,293160.5625,295715.46875,334270.53125,329399.09375,285386.46875,255913.265625,222351.40625,244500.921875,0.022216796875,0.994873046875,0.1962890625,1.0070799589157104,-1.8310545682907104,-0.4272460639476776,80.0,129703.0,1.0
14651.1602205,293160.5625,295715.46875,334270.53125,329399.09375,285386.46875,255913.265625,222351.40625,244500.921875,0.022216796875,0.994873046875,0.1962890625,1.0070799589157104,-1.8310545682907104,-0.4272460639476776,80.0,129704.0,0.0
14651.1602208,293160.5625,295715.46875,334270.53125,329399.09375,285386.46875,255913.265625,222351.40625,244500.921875,0.022216796875,0.994873046875,0.1962890625,1.0070799589157104,-1.8310545682907104,-0.4272460639476776,80.0,129705.0,0.0
14651.1602211,293160.5625,295715.46875,334270.53125,329399.09375,285386.46875,255913.265625,222351.40625,244500.921875,0.022216796875,0.994873046875,0.1962890625,1.0070799589157104,-1.8310545682907104,-0.4272460639476776,80.0,129706.0,0.0
14651.1602214,293160.5625,295715.46875,334270.53125,329399.09375,285386.46875,255913.265625,222351.40625,244500.921875,0.022216796875,0.994873046875,0.1962890625,1.0070799589157104,-1.8310545682907104,-0.4272460639476776,80.0,129707.0,0.0
14651.1602217,293160.5625,295715.46875,334270.53125,329399.09375,285386.46875,255913.265625,222351.40625,244500.921875,0.022216796875,0.994873046875,0.1962890625,1.0070799589157104,-1.8310545682907104,-0.4272460639476776,80.0,129708.0,0.0
14651.1602221,293160.5625,295715.46875,334270.53125,329399.09375,285386.46875,255913.265625,222351.40625,244500.921875,0.022216796875,0.994873046875,0.1962890625,1.0070799589157104,-1.8310545682907104,-0.4272460639476776,80.0,129709.0,0.0
14651.1602224,293160.5625,295715.46875,334270.53125,329399.09375,285386.46875,255913.265625,222351.40625,244500.921875,0.022216796875,0.994873046875,0.1962890625,1.0070799589157104,-1.8310545682907104,-0.4272460639476776,80.0,129710.0,0.0
14651.1602228,293157.625,295289.71875,333993.09375,329431.03125,285200.6875,255835.21875,222286.59375,244513.25,0.030029296875,0.994384765625,0.197021484375,0.8544921278953552,-1.8615721464157104,-0.6713866591453552,80.0,129711.0,1.0
14651.2121112,293180.78125,295516.8125,334188.375,329443.375,285319.0625,255881.984375,222338.4375,244523.09375,0.031982421875,0.993896484375,0.1943359375,0.8544921278953552,-1.8310545682907104,-0.7629393935203552,80.0,129712.0,1.0
14651.212126,293154.40625,295696.96875,334238.4375,329394.1875,285380.03125,255905.9375,222355.875,244523.53125,0.02978515625,0.99609375,0.191650390625,0.9765624403953552,-1.7395018339157104,-0.8239745497703552,80.0,129713.0,1.0
14651.2121275,293124.1875,295603.25,334103.53125,329358.6875,285319.3125,255881.796875,222321.375,244501.0,0.031005859375,0.995849609375,0.195556640625,1.0070799589157104,-1.7395018339157104,-0.7934569716453552,80.0,129714.0,1.0
14651.212129,293116.59375,295352.03125,333949.21875,329370.5,285200.9375,255829.5,222270.40625,244483.84375,0.031982421875,0.9970703125,0.1953125,0.9765624403953552,-1.6479490995407104,-0.8544921278953552,80.0,129715.0,1.0
14651.2121303,293146.28125,295292.75,334003.28125,329428.34375,285198.96875,255817.515625,222281.40625,244518.796875,0.03125,0.9970703125,0.193359375,0.9155272841453552,-1.5869139432907104,-0.9460448622703552,80.0,129716.0,1.0
14651.2121316,293166.46875,295509.65625,334183.71875,329437.46875,285306.1875,255860.515625,222321.28125,244520.3125,0.03125,0.99609375,0.191162109375,1.0070799589157104,-1.4343260526657104,-0.9460448622703552,80.0,129717.0,1.0
14651.2723603,293144.125,295685.96875,334223.78125,329385.875,285357.40625,255887.609375,222331.03125,244493.765625,0.02978515625,0.998046875,0.193603515625,1.0681151151657104,-1.3732908964157104,-1.0681151151657104,80.0,129718.0,1.0
14651.2723731,293103.28125,295582.34375,334075.8125,329346.34375,285288.03125,255852.46875,222300.09375,244492.78125,0.0302734375,0.99560546875,0.19140625,1.0681151151657104,-1.3122557401657104,-0.9460448622703552,80.0,129719.0,1.0
14651.2967216,293102.09375,295332.8125,333931.0625,329368.34375,285185.5625,255815.109375,222271.03125,244504.21875,0.02880859375,0.99609375,0.18798828125,1.0986326932907104,-1.1901854276657104,-1.0375975370407104,80.0,129720.0,1.0
14651.2992618,293144.65625,295289.0,334000.78125,329424.9375,285195.65625,255829.765625,222283.734375,244506.28125,0.02685546875,0.995361328125,0.193603515625,1.1596678495407104,-1.2207030057907104,-1.0681151151657104,80.0,129721.0,1.0
14651.3242691,293159.6875,295506.15625,334181.75,329426.1875,285297.9375,255854.265625,222312.515625,244503.15625,0.02490234375,0.998291015625,0.1953125,1.1901854276657104,-1.1291502714157104,-1.1291502714157104,80.0,129722.0,1.0
14651.3493033,293148.5,295695.625,334239.34375,329386.21875,285369.75,255894.234375,222341.65625,244504.140625,0.02490234375,0.997314453125,0.19482421875,1.2207030057907104,-1.1901854276657104,-1.0986326932907104,80.0,129723.0,1.0
14651.3781197,293116.5,295590.5625,334095.21875,329348.9375,285304.5625,255875.625,222316.625,244491.078125,0.025146484375,0.997314453125,0.195068359375,1.1901854276657104,-1.2512205839157104,-1.1596678495407104,80.0,129724.0,1.0
14651.378127,293116.5,295590.5625,334095.21875,329348.9375,285304.5625,255875.625,222316.625,244491.078125,0.025146484375,0.997314453125,0.195068359375,1.1901854276657104,-1.2512205839157104,-1.1596678495407104,80.0,129725.0,0.0
14651.3781272,293116.5,295590.5625,334095.21875,329348.9375,285304.5625,255875.625,222316.625,244491.078125,0.025146484375,0.997314453125,0.195068359375,1.1901854276657104,-1.2512205839157104,-1.1596678495407104,80.0,129726.0,0.0
14651.3781274,293116.5,295590.5625,334095.21875,329348.9375,285304.5625,255875.625,222316.625,244491.078125,0.025146484375,0.997314453125,0.195068359375,1.1901854276657104,-1.2512205839157104,-1.1596678495407104,80.0,129727.0,0.0
14651.3781276,293116.5,295590.5625,334095.21875,329348.9375,285304.5625,255875.625,222316.625,244491.078125,0.025146484375,0.997314453125,0.195068359375,1.1901854276657104,-1.2512205839157104,-1.1596678495407104,80.0,129728.0,0.0
14651.3781278,293116.5,295590.5625,334095.21875,329348.9375,285304.5625,255875.625,222316.625,244491.078125,0.025146484375,0.997314453125,0.195068359375,1.1901854276657104,-1.2512205839157104,-1.1596678495407104,80.0,129729.0,0.0
14651.3781279,293116.5,295590.5625,334095.21875,329348.9375,285304.5625,255875.625,222316.625,244491.078125,0.025146484375,0.997314453125,0.195068359375,1.1901854276657104,-1.2512205839157104,-1.1596678495407104,80.0,129730.0,0.0
14651.3781283,293116.5,295590.5625,334095.21875,329348.9375,285304.5625,255875.625,222316.625,244491.078125,0.025146484375,0.997314453125,0.195068359375,1.1901854276657104,-1.2512205839157104,-1.1596678495407104,80.0,129731.0,0.0
14651.3781284,293116.5,295590.5625,334095.21875,329348.9375,285304.5625,255875.625,222316.625,244491.078125,0.025146484375,0.997314453125,0.195068359375,1.1901854276657104,-1.2512205839157104,-1.1596678495407104,80.0,129732.0,0.0
14651.3781286,293116.5,295590.5625,334095.21875,329348.9375,285304.5625,255875.625,222316.625,244491.078125,0.025146484375,0.997314453125,0.195068359375,1.1901854276657104,-1.2512205839157104,-1.1596678495407104,80.0,129733.0,0.0
14651.3781288,293116.5,295590.5625,334095.21875,329348.9375,285304.5625,255875.625,222316.625,244491.078125,0.025146484375,0.997314453125,0.195068359375,1.1901854276657104,-1.2512205839157104,-1.1596678495407104,80.0,129734.0,0.0
14651.378129,293116.5,295590.5625,334095.21875,329348.9375,285304.5625,255875.625,222316.625,244491.078125,0.025146484375,0.997314453125,0.195068359375,1.1901854276657104,-1.2512205839157104,-1.1596678495407104,80.0,129735.0,0.0
14651.3781291,293116.5,295590.5625,334095.21875,329348.9375,285304.5625,255875.625,222316.625,244491.078125,0.025146484375,0.997314453125,0.195068359375,1.1901854276657104,-1.2512205839157104,-1.1596678495407104,80.0,129736.0,0.0
14651.3781293,293116.5,295590.5625,334095.21875,329348.9375,285304.5625,255875.625,222316.625,244491.078125,0.025146484375,0.997314453125,0.195068359375,1.1901854276657104,-1.2512205839157104,-1.1596678495407104,80.0,129737.0,0.0
14651.3781295,293116.5,295590.5625,334095.21875,329348.9375,285304.5625,255875.625,222316.625,244491.078125,0.025146484375,0.997314453125,0.195068359375,1.1901854276657104,-1.2512205839157104,-1.1596678495407104,80.0,129738.0,0.0
14651.3781296,293116.5,295590.5625,334095.21875,329348.9375,285304.5625,255875.625,222316.625,244491.078125,0.025146484375,0.997314453125,0.195068359375,1.1901854276657104,-1.2512205839157104,-1.1596678495407104,80.0,129739.0,0.0
14651.3781298,293116.5,295590.5625,334095.21875,329348.9375,285304.5625,255875.625,222316.625,244491.078125,0.025146484375,0.997314453125,0.195068359375,1.1901854276657104,-1.2512205839157104,-1.1596678495407104,80.0,129740.0,0.0
14651.37813,293116.5,295590.5625,334095.21875,329348.9375,285304.5625,255875.625,222316.625,244491.078125,0.025146484375,0.997314453125,0.195068359375,1.1901854276657104,-1.2512205839157104,-1.1596678495407104,80.0,129741.0,0.0
14651.3781301,293116.5,295590.5625,334095.21875,329348.9375,285304.5625,255875.625,222316.625,244491.078125,0.025146484375,0.997314453125,0.195068359375,1.1901854276657104,-1.2512205839157104,-1.1596678495407104,80.0,129742.0,0.0
14651.3781304,293116.5,295590.5625,334095.21875,329348.9375,285304.5625,255875.625,222316.625,244491.078125,0.025146484375,0.997314453125,0.195068359375,1.1901854276657104,-1.2512205839157104,-1.1596678495407104,80.0,129743.0,0.0
14651.3781306,293116.5,295590.5625,334095.21875,329348.9375,285304.5625,255875.625,222316.625,244491.078125,0.025146484375,0.997314453125,0.195068359375,1.1901854276657104,-1.2512205839157104,-1.1596678495407104,80.0,129744.0,0.0
14651.3781308,293116.5,295590.5625,334095.21875,329348.9375,285304.5625,255875.625,222316.625,244491.078125,0.025146484375,0.997314453125,0.195068359375,1.1901854276657104,-1.2512205839157104,-1.1596678495407104,80.0,129745.0,0.0
14651.3781309,293116.5,295590.5625,334095.21875,329348.9375,285304.5625,255875.625,222316.625,244491.078125,0.025146484375,0.997314453125,0.195068359375,1.1901854276657104,-1.2512205839157104,-1.1596678495407104,80.0,129746.0,0.0
14651.3781311,293116.5,295590.5625,334095.21875,329348.9375,285304.5625,255875.625,222316.625,244491.078125,0.025146484375,0.997314453125,0.195068359375,1.1901854276657104,-1.2512205839157104,-1.1596678495407104,80.0,129747.0,0.0
14651.3781313,293116.5,295590.5625,334095.21875,329348.9375,285304.5625,255875.625,222316.625,244491.078125,0.025146484375,0.997314453125,0.195068359375,1.1901854276657104,-1.2512205839157104,-1.1596678495407104,80.0,129748.0,0.0
14651.3781314,293116.5,295590.5625,334095.21875,329348.9375,285304.5625,255875.625,222316.625,244491.078125,0.025146484375,0.997314453125,0.195068359375,1.1901854276657104,-1.2512205839157104,-1.1596678495407104,80.0,129749.0,0.0
14651.3781316,293116.5,295590.5625,334095.21875,329348.9375,285304.5625,255875.625,222316.625,244491.078125,0.025146484375,0.997314453125,0.195068359375,1.1901854276657104,-1.2512205839157104,-1.1596678495407104,80.0,129750.0,0.0
14651.3781318,293116.5,295590.5625,334095.21875,329348.9375,285304.5625,255875.625,222316.625,244491.078125,0.025146484375,0.997314453125,0.195068359375,1.1901854276657104,-1.2512205839157104,-1.1596678495407104,80.0,129751.0,0.0
14651.3781319,293116.5,295590.5625,334095.21875,329348.9375,285304.5625,255875.625,222316.625,244491.078125,0.025146484375,0.997314453125,0.195068359375,1.1901854276657104,-1.2512205839157104,-1.1596678495407104,80.0,129752.0,0.0
14651.3781321,293147.0625,295674.78125,334211.15625,329365.9375,285360.96875,255897.890625,222352.84375,244487.953125,0.029052734375,0.996826171875,0.188232421875,0.3356933295726776,-1.5869139432907104,-1.0375975370407104,80.0,129753.0,1.0
14651.3781335,293120.0,295560.625,334063.8125,329337.875,285295.34375,255884.75,222331.296875,244484.828125,0.028564453125,0.99560546875,0.190673828125,0.3356933295726776,-1.5869139432907104,-1.0375975370407104,80.0,129754.0,1.0
14651.3781347,293119.8125,295314.125,333921.5625,329357.34375,285185.28125,255816.4375,222276.125,244490.09375,0.025634765625,0.993408203125,0.188720703125,0.3051757514476776,-1.5563963651657104,-1.0986326932907104,80.0,129755.0,1.0
14651.3781359,293158.15625,295278.90625,333989.78125,329417.34375,285197.1875,255824.3125,222292.9375,244514.59375,0.0234375,0.993408203125,0.189208984375,0.3967284858226776,-1.4648436307907104,-1.0681151151657104,80.0,129756.0,1.0
14651.378137,293172.90625,295498.21875,334162.4375,329424.0625,285301.25,255869.734375,222340.953125,244523.265625,0.025146484375,0.995361328125,0.192626953125,0.3662109076976776,-1.4648436307907104,-1.1596678495407104,80.0,129757.0,1.0
14651.3781382,293147.0625,295674.53125,334206.4375,329364.5,285355.15625,255887.875,222341.65625,244484.109375,0.0244140625,0.9951171875,0.1962890625,0.4882812201976776,-1.3427733182907104,-1.2207030057907104,80.0,129758.0,1.0
14651.3781394,293116.0625,295566.78125,334063.375,329326.40625,285285.6875,255860.34375,222304.03125,244460.6875,0.02685546875,0.99560546875,0.193359375,0.3662109076976776,-1.3122557401657104,-1.2512205839157104,80.0,129759.0,1.0
14651.3781406,293120.15625,295315.1875,333921.3125,329352.4375,285180.03125,255816.265625,222268.703125,244468.375,0.0263671875,0.99560546875,0.193115234375,0.2746581733226776,-1.3732908964157104,-1.2207030057907104,80.0,129760.0,1.0
14651.3781417,293159.15625,295272.71875,333985.6875,329408.5,285187.34375,255816.078125,222289.546875,244497.515625,0.025634765625,0.99560546875,0.19287109375,0.1220703050494194,-1.3427733182907104,-1.2207030057907104,80.0,129761.0,1.0
14651.378143,293187.75,295510.0,334179.25,329425.3125,285308.125,255871.15625,222348.734375,244526.046875,0.025390625,0.993408203125,0.19189453125,0.1831054538488388,-1.2207030057907104,-1.1596678495407104,80.0,129762.0,1.0
14651.380445,293165.21875,295680.15625,334217.875,329375.21875,285363.65625,255898.875,222360.796875,244514.15625,0.02587890625,0.99462890625,0.18896484375,0.3051757514476776,-1.2207030057907104,-1.1596678495407104,80.0,129763.0,1.0
14651.4054172,293165.21875,295680.15625,334217.875,329375.21875,285363.65625,255898.875,222360.796875,244514.15625,0.02587890625,0.99462890625,0.18896484375,0.3051757514476776,-1.2207030057907104,-1.1596678495407104,80.0,129764.0,0.0
14651.4054184,293165.21875,295680.15625,334217.875,329375.21875,285363.65625,255898.875,222360.796875,244514.15625,0.02587890625,0.99462890625,0.18896484375,0.3051757514476776,-1.2207030057907104,-1.1596678495407104,80.0,129765.0,0.0
14651.4054186,293165.21875,295680.15625,334217.875,329375.21875,285363.65625,255898.875,222360.796875,244514.15625,0.02587890625,0.99462890625,0.18896484375,0.3051757514476776,-1.2207030057907104,-1.1596678495407104,80.0,129766.0,0.0
14651.4054188,293165.21875,295680.15625,334217.875,329375.21875,285363.65625,255898.875,222360.796875,244514.15625,0.02587890625,0.99462890625,0.18896484375,0.3051757514476776,-1.2207030057907104,-1.1596678495407104,80.0,129767.0,0.0
14651.405419,293165.21875,295680.15625,334217.875,329375.21875,285363.65625,255898.875,222360.796875,244514.15625,0.02587890625,0.99462890625,0.18896484375,0.3051757514476776,-1.2207030057907104,-1.1596678495407104,80.0,129768.0,0.0
14651.4054192,293165.21875,295680.15625,334217.875,329375.21875,285363.65625,255898.875,222360.796875,244514.15625,0.02587890625,0.99462890625,0.18896484375,0.3051757514476776,-1.2207030057907104,-1.1596678495407104,80.0,129769.0,0.0
14651.4054193,293165.21875,295680.15625,334217.875,329375.21875,285363.65625,255898.875,222360.796875,244514.15625,0.02587890625,0.99462890625,0.18896484375,0.3051757514476776,-1.2207030057907104,-1.1596678495407104,80.0,129770.0,0.0
14651.4054195,293165.21875,295680.15625,334217.875,329375.21875,285363.65625,255898.875,222360.796875,244514.15625,0.02587890625,0.99462890625,0.18896484375,0.3051757514476776,-1.2207030057907104,-1.1596678495407104,80.0,129771.0,0.0
14651.4054197,293165.21875,295680.15625,334217.875,329375.21875,285363.65625,255898.875,222360.796875,244514.15625,0.02587890625,0.99462890625,0.18896484375,0.3051757514476776,-1.2207030057907104,-1.1596678495407104,80.0,129772.0,0.0
14651.4054199,293165.21875,295680.15625,334217.875,329375.21875,285363.65625,255898.875,222360.796875,244514.15625,0.02587890625,0.99462890625,0.18896484375,0.3051757514476776,-1.2207030057907104,-1.1596678495407104,80.0,129773.0,0.0
14651.4054201,293165.21875,295680.15625,334217.875,329375.21875,285363.65625,255898.875,222360.796875,244514.15625,0.02587890625,0.99462890625,0.18896484375,0.3051757514476776,-1.2207030057907104,-1.1596678495407104,80.0,129774.0,0.0
14651.4054203,293165.21875,295680.15625,334217.875,329375.21875,285363.65625,255898.875,222360.796875,244514.15625,0.02587890625,0.99462890625,0.18896484375,0.3051757514476776,-1.2207030057907104,-1.1596678495407104,80.0,129775.0,0.0
14651.4054207,293165.21875,295680.15625,334217.875,329375.21875,285363.65625,255898.875,222360.796875,244514.15625,0.02587890625,0.99462890625,0.18896484375,0.3051757514476776,-1.2207030057907104,-1.1596678495407104,80.0,129776.0,0.0
14651.4054209,293165.21875,295680.15625,334217.875,329375.21875,285363.65625,255898.875,222360.796875,244514.15625,0.02587890625,0.99462890625,0.18896484375,0.3051757514476776,-1.2207030057907104,-1.1596678495407104,80.0,129777.0,0.0
14651.4054211,293165.21875,295680.15625,334217.875,329375.21875,285363.65625,255898.875,222360.796875,244514.15625,0.02587890625,0.99462890625,0.18896484375,0.3051757514476776,-1.2207030057907104,-1.1596678495407104,80.0,129778.0,0.0
14651.4054212,293165.21875,295680.15625,334217.875,329375.21875,285363.65625,255898.875,222360.796875,244514.15625,0.02587890625,0.99462890625,0.18896484375,0.3051757514476776,-1.2207030057907104,-1.1596678495407104,80.0,129779.0,0.0
14651.4054214,293165.21875,295680.15625,334217.875,329375.21875,285363.65625,255898.875,222360.796875,244514.15625,0.02587890625,0.99462890625,0.18896484375,0.3051757514476776,-1.2207030057907104,-1.1596678495407104,80.0,129780.0,0.0
14651.4054216,293165.21875,295680.15625,334217.875,329375.21875,285363.65625,255898.875,222360.796875,244514.15625,0.02587890625,0.99462890625,0.18896484375,0.3051757514476776,-1.2207030057907104,-1.1596678495407104,80.0,129781.0,0.0
14651.4054217,293165.21875,295680.15625,334217.875,329375.21875,285363.65625,255898.875,222360.796875,244514.15625,0.02587890625,0.99462890625,0.18896484375,0.3051757514476776,-1.2207030057907104,-1.1596678495407104,80.0,129782.0,0.0
14651.4054219,293165.21875,295680.15625,334217.875,329375.21875,285363.65625,255898.875,222360.796875,244514.15625,0.02587890625,0.99462890625,0.18896484375,0.3051757514476776,-1.2207030057907104,-1.1596678495407104,80.0,129783.0,0.0
14651.4054221,293165.21875,295680.15625,334217.875,329375.21875,285363.65625,255898.875,222360.796875,244514.15625,0.02587890625,0.99462890625,0.18896484375,0.3051757514476776,-1.2207030057907104,-1.1596678495407104,80.0,129784.0,0.0
14651.4054223,293165.21875,295680.15625,334217.875,329375.21875,285363.65625,255898.875,222360.796875,244514.15625,0.02587890625,0.99462890625,0.18896484375,0.3051757514476776,-1.2207030057907104,-1.1596678495407104,80.0,129785.0,0.0
14651.4054225,293247.9375,295303.75,334006.0625,329446.21875,285211.75,255848.546875,222310.8125,244534.4375,0.023193359375,0.99658203125,0.19287109375,0.2746581733226776,-1.5869139432907104,-0.9460448622703552,80.0,129786.0,1.0
14651.4323164,293256.78125,295523.34375,334172.71875,329441.03125,285311.8125,255882.78125,222352.125,244529.34375,0.02490234375,0.998291015625,0.196044921875,0.3662109076976776,-1.6174315214157104,-1.0375975370407104,80.0,129787.0,1.0
14651.4323226,293234.6875,295709.75,334236.125,329391.5,285376.71875,255904.59375,222360.890625,244489.203125,0.02587890625,0.99560546875,0.1982421875,0.3356933295726776,-1.5869139432907104,-1.1596678495407104,80.0,129788.0,1.0
14651.4579013,293198.03125,295592.625,334089.40625,329360.65625,285305.09375,255886.890625,222338.4375,244482.59375,0.02783203125,0.99365234375,0.199462890625,0.3051757514476776,-1.6784666776657104,-1.0070799589157104,80.0,129789.0,1.0
14651.4579186,293197.875,295344.53125,333946.53125,329386.78125,285201.375,255860.515625,222314.390625,244489.46875,0.02880859375,0.994873046875,0.20068359375,0.2441406100988388,-1.6784666776657104,-0.9460448622703552,80.0,129790.0,1.0
14651.4579198,293237.1875,295323.5,334029.65625,329445.96875,285221.6875,255864.71875,222326.546875,244504.578125,0.027587890625,0.994384765625,0.198486328125,0.2746581733226776,-1.5869139432907104,-0.9155272841453552,80.0,129791.0,1.0
14651.4979816,293243.53125,295541.125,334211.96875,329441.84375,285325.3125,255879.828125,222345.15625,244497.078125,0.02783203125,0.993408203125,0.198974609375,0.3356933295726776,-1.4343260526657104,-0.8239745497703552,80.0,129792.0,1.0
14651.5738369,293212.53125,295701.78125,334247.90625,329387.75,285375.375,255893.328125,222350.515625,244483.578125,0.02685546875,0.993408203125,0.196533203125,0.2746581733226776,-1.4038084745407104,-0.7324218153953552,80.0,129793.0,1.0
14651.5738429,293179.1875,295571.53125,334091.0,329352.875,285299.28125,255869.640625,222320.921875,244474.984375,0.0263671875,0.9921875,0.191162109375,0.3356933295726776,-1.4038084745407104,-0.7324218153953552,80.0,129794.0,1.0
14651.5738442,293181.84375,295322.25,333949.46875,329377.5625,285194.6875,255834.59375,222292.484375,244484.640625,0.0263671875,0.992919921875,0.192626953125,0.5187987685203552,-1.3427733182907104,-0.6408690810203552,80.0,129795.0,1.0
14651.5738454,293220.75,295303.65625,334024.75,329436.03125,285210.96875,255846.296875,222319.765625,244519.25,0.025146484375,0.99560546875,0.1943359375,0.6408690810203552,-1.3732908964157104,-0.6103515028953552,80.0,129796.0,1.0
14651.5738466,293238.28125,295542.375,334214.28125,329440.40625,285328.34375,255892.890625,222361.515625,244510.125,0.0263671875,0.9951171875,0.199462890625,0.7629393935203552,-1.3732908964157104,-0.5187987685203552,80.0,129797.0,1.0
14651.5738478,293213.40625,295708.0625,334245.84375,329388.8125,285380.375,255915.234375,222372.234375,244494.921875,0.025146484375,0.995361328125,0.1982421875,0.6713866591453552,-1.3427733182907104,-0.4577636420726776,80.0,129798.0,1.0
14651.573849,293176.40625,295580.65625,334080.8125,329350.65625,285296.4375,255884.65625,222331.828125,244471.40625,0.0244140625,0.99755859375,0.198974609375,0.7019042372703552,-1.3427733182907104,-0.4882812201976776,80.0,129799.0,1.0
14651.5738503,293175.6875,295339.6875,333946.4375,329378.375,285199.34375,255848.984375,222302.953125,244486.171875,0.02392578125,0.996826171875,0.196533203125,0.6713866591453552,-1.3122557401657104,-0.4272460639476776,80.0,129800.0,1.0
14651.5817442,293203.125,295307.15625,334016.34375,329425.9375,285208.0,255847.734375,222312.25,244508.34375,0.025390625,0.995361328125,0.193115234375,0.6103515028953552,-1.1901854276657104,-0.4577636420726776,80.0,129801.0,1.0
14651.5842617,293203.125,295307.15625,334016.34375,329425.9375,285208.0,255847.734375,222312.25,244508.34375,0.025390625,0.995361328125,0.193115234375,0.6103515028953552,-1.1901854276657104,-0.4577636420726776,80.0,129802.0,0.0
14651.5842646,293203.125,295307.15625,334016.34375,329425.9375,285208.0,255847.734375,222312.25,244508.34375,0.025390625,0.995361328125,0.193115234375,0.6103515028953552,-1.1901854276657104,-0.4577636420726776,80.0,129803.0,0.0
14651.584266,293203.125,295307.15625,334016.34375,329425.9375,285208.0,255847.734375,222312.25,244508.34375,0.025390625,0.995361328125,0.193115234375,0.6103515028953552,-1.1901854276657104,-0.4577636420726776,80.0,129804.0,0.0
14651.584267,293203.125,295307.15625,334016.34375,329425.9375,285208.0,255847.734375,222312.25,244508.34375,0.025390625,0.995361328125,0.193115234375,0.6103515028953552,-1.1901854276657104,-0.4577636420726776,80.0,129805.0,0.0
14651.5842681,293203.125,295307.15625,334016.34375,329425.9375,285208.0,255847.734375,222312.25,244508.34375,0.025390625,0.995361328125,0.193115234375,0.6103515028953552,-1.1901854276657104,-0.4577636420726776,80.0,129806.0,0.0
14651.5842692,293203.125,295307.15625,334016.34375,329425.9375,285208.0,255847.734375,222312.25,244508.34375,0.025390625,0.995361328125,0.193115234375,0.6103515028953552,-1.1901854276657104,-0.4577636420726776,80.0,129807.0,0.0
14651.5842702,293203.125,295307.15625,334016.34375,329425.9375,285208.0,255847.734375,222312.25,244508.34375,0.025390625,0.995361328125,0.193115234375,0.6103515028953552,-1.1901854276657104,-0.4577636420726776,80.0,129808.0,0.0
14651.5842714,293203.125,295307.15625,334016.34375,329425.9375,285208.0,255847.734375,222312.25,244508.34375,0.025390625,0.995361328125,0.193115234375,0.6103515028953552,-1.1901854276657104,-0.4577636420726776,80.0,129809.0,0.0
14651.5842724,293203.125,295307.15625,334016.34375,329425.9375,285208.0,255847.734375,222312.25,244508.34375,0.025390625,0.995361328125,0.193115234375,0.6103515028953552,-1.1901854276657104,-0.4577636420726776,80.0,129810.0,0.0
14651.5842734,293203.125,295307.15625,334016.34375,329425.9375,285208.0,255847.734375,222312.25,244508.34375,0.025390625,0.995361328125,0.193115234375,0.6103515028953552,-1.1901854276657104,-0.4577636420726776,80.0,129811.0,0.0
14651.5842746,293203.125,295307.15625,334016.34375,329425.9375,285208.0,255847.734375,222312.25,244508.34375,0.025390625,0.995361328125,0.193115234375,0.6103515028953552,-1.1901854276657104,-0.4577636420726776,80.0,129812.0,0.0
14651.5842756,293203.125,295307.15625,334016.34375,329425.9375,285208.0,255847.734375,222312.25,244508.34375,0.025390625,0.995361328125,0.193115234375,0.6103515028953552,-1.1901854276657104,-0.4577636420726776,80.0,129813.0,0.0
14651.5842767,293203.125,295307.15625,334016.34375,329425.9375,285208.0,255847.734375,222312.25,244508.34375,0.025390625,0.995361328125,0.193115234375,0.6103515028953552,-1.1901854276657104,-0.4577636420726776,80.0,129814.0,0.0
14651.5842778,293203.125,295307.15625,334016.34375,329425.9375,285208.0,255847.734375,222312.25,244508.34375,0.025390625,0.995361328125,0.193115234375,0.6103515028953552,-1.1901854276657104,-0.4577636420726776,80.0,129815.0,0.0
14651.5842788,293203.125,295307.15625,334016.34375,329425.9375,285208.0,255847.734375,222312.25,244508.34375,0.025390625,0.995361328125,0.193115234375,0.6103515028953552,-1.1901854276657104,-0.4577636420726776,80.0,129816.0,0.0
14651.5842799,293191.34375,295524.40625,334184.0625,329417.25,285311.8125,255882.96875,222355.703125,244498.40625,0.02587890625,0.996826171875,0.196044921875,0.3051757514476776,-1.3122557401657104,-1.2512205839157104,80.0,129817.0,1.0
14651.5867287,293166.46875,295693.46875,334215.90625,329367.1875,285365.28125,255911.21875,222368.75,244481.96875,0.02587890625,0.997802734375,0.191650390625,0.2441406100988388,-1.3427733182907104,-1.2512205839157104,80.0,129818.0,1.0
14651.5892668,293133.5625,295565.8125,334055.15625,329335.625,285289.53125,255884.21875,222337.640625,244487.953125,0.02587890625,0.997314453125,0.193115234375,0.2441406100988388,-1.3427733182907104,-1.0681151151657104,80.0,129819.0,1.0
14651.5917237,293132.5,295318.78125,333913.25,329355.125,285181.8125,255841.921875,222298.125,244481.6875,0.02587890625,0.997314453125,0.1943359375,0.1525878757238388,-1.3427733182907104,-1.0681151151657104,80.0,129820.0,1.0
14651.6010441,293160.9375,295285.25,333979.5,329401.6875,285188.4375,255846.125,222305.546875,244490.1875,0.021728515625,0.9990234375,0.19775390625,0.0915527269244194,-1.3427733182907104,-0.9155272841453552,80.0,129821.0,1.0
14651.601055,293183.375,295526.28125,334173.15625,329412.25,285310.03125,255899.859375,222357.40625,244497.15625,0.02197265625,0.998046875,0.19921875,0.0610351525247097,-1.4648436307907104,-1.0070799589157104,80.0,129822.0,1.0
14651.6010563,293159.40625,295697.40625,334214.375,329362.4375,285368.59375,255928.203125,222372.515625,244476.59375,0.021240234375,0.998779296875,0.1962890625,0.0,-1.4343260526657104,-1.0375975370407104,80.0,129823.0,1.0
14651.6010575,293131.78125,295578.84375,334066.5,329332.75,285298.5625,255904.6875,222345.234375,244475.4375,0.021484375,0.997802734375,0.191162109375,0.03051757626235485,-1.4648436307907104,-0.8850097060203552,80.0,129824.0,1.0
14651.6010587,293134.1875,295328.6875,333921.84375,329356.90625,285190.125,255859.8125,222309.921875,244485.265625,0.02294921875,0.9990234375,0.195068359375,-0.0610351525247097,-1.6174315214157104,-0.8850097060203552,80.0,129825.0,1.0
14651.60106,293171.9375,295307.6875,334002.5,329412.96875,285211.125,255869.734375,222327.359375,244506.015625,0.023681640625,0.9990234375,0.19921875,-0.0915527269244194,-1.7395018339157104,-0.8544921278953552,80.0,129826.0,1.0
14651.6010612,293184.625,295536.9375,334190.25,329415.03125,285325.5,255910.59375,222368.84375,244499.125,0.024169921875,0.998046875,0.19970703125,-0.1831054538488388,-1.7700194120407104,-0.8850097060203552,80.0,129827.0,1.0
14651.6010624,293155.9375,295700.0,334219.65625,329363.53125,285373.40625,255928.015625,222379.65625,244486.609375,0.02392578125,0.998779296875,0.1982421875,-0.1525878757238388,-1.8005369901657104,-0.8850097060203552,80.0,129828.0,1.0
14651.6010635,293121.3125,295565.90625,334048.53125,329328.28125,285284.34375,255880.1875,222337.1875,244475.609375,0.022216796875,0.998046875,0.1982421875,-0.2136230319738388,-1.8920897245407104,-0.8850097060203552,80.0,129829.0,1.0
14651.6035202,293117.3125,295306.25,333892.0625,329347.59375,285167.40625,255823.859375,222290.96875,244475.25,0.0224609375,0.99755859375,0.1982421875,-0.2441406100988388,-1.9226073026657104,-0.9460448622703552,80.0,129830.0,1.0
14651.6035225,293157.71875,295289.625,333971.5625,329407.78125,285193.875,255845.5,222319.484375,244504.21875,0.02197265625,0.99609375,0.1982421875,-0.3356933295726776,-1.9836424589157104,-0.9155272841453552,80.0,129831.0,1.0
14651.6279972,293172.65625,295526.90625,334164.6875,329407.59375,285313.875,255899.40625,222364.640625,244509.671875,0.025390625,0.995361328125,0.199951171875,-0.4272460639476776,-1.8615721464157104,-0.9155272841453552,80.0,129832.0,1.0
14651.7209113,293140.71875,295685.34375,334201.59375,329346.53125,285362.40625,255905.9375,222360.171875,244480.171875,0.0244140625,0.99462890625,0.200439453125,-0.5493163466453552,-1.8615721464157104,-0.8850097060203552,80.0,129833.0,1.0
14651.7209224,293140.71875,295685.34375,334201.59375,329346.53125,285362.40625,255905.9375,222360.171875,244480.171875,0.0244140625,0.99462890625,0.200439453125,-0.5493163466453552,-1.8615721464157104,-0.8850097060203552,80.0,129834.0,0.0
14651.7209226,293140.71875,295685.34375,334201.59375,329346.53125,285362.40625,255905.9375,222360.171875,244480.171875,0.0244140625,0.99462890625,0.200439453125,-0.5493163466453552,-1.8615721464157104,-0.8850097060203552,80.0,129835.0,0.0
14651.7209228,293140.71875,295685.34375,334201.59375,329346.53125,285362.40625,255905.9375,222360.171875,244480.171875,0.0244140625,0.99462890625,0.200439453125,-0.5493163466453552,-1.8615721464157104,-0.8850097060203552,80.0,129836.0,0.0
14651.7209232,293140.71875,295685.34375,334201.59375,329346.53125,285362.40625,255905.9375,222360.171875,244480.171875,0.0244140625,0.99462890625,0.200439453125,-0.5493163466453552,-1.8615721464157104,-0.8850097060203552,80.0,129837.0,0.0
14651.7209235,293140.71875,295685.34375,334201.59375,329346.53125,285362.40625,255905.9375,222360.171875,244480.171875,0.0244140625,0.99462890625,0.200439453125,-0.5493163466453552,-1.8615721464157104,-0.8850097060203552,80.0,129838.0,0.0
14651.7209237,293140.71875,295685.34375,334201.59375,329346.53125,285362.40625,255905.9375,222360.171875,244480.171875,0.0244140625,0.99462890625,0.200439453125,-0.5493163466453552,-1.8615721464157104,-0.8850097060203552,80.0,129839.0,0.0
14651.7209239,293140.71875,295685.34375,334201.59375,329346.53125,285362.40625,255905.9375,222360.171875,244480.171875,0.0244140625,0.99462890625,0.200439453125,-0.5493163466453552,-1.8615721464157104,-0.8850097060203552,80.0,129840.0,0.0
14651.7209241,293140.71875,295685.34375,334201.59375,329346.53125,285362.40625,255905.9375,222360.171875,244480.171875,0.0244140625,0.99462890625,0.200439453125,-0.5493163466453552,-1.8615721464157104,-0.8850097060203552,80.0,129841.0,0.0
14651.7209242,293140.71875,295685.34375,334201.59375,329346.53125,285362.40625,255905.9375,222360.171875,244480.171875,0.0244140625,0.99462890625,0.200439453125,-0.5493163466453552,-1.8615721464157104,-0.8850097060203552,80.0,129842.0,0.0
14651.7209244,293140.71875,295685.34375,334201.59375,329346.53125,285362.40625,255905.9375,222360.171875,244480.171875,0.0244140625,0.99462890625,0.200439453125,-0.5493163466453552,-1.8615721464157104,-0.8850097060203552,80.0,129843.0,0.0
14651.7209246,293140.71875,295685.34375,334201.59375,329346.53125,285362.40625,255905.9375,222360.171875,244480.171875,0.0244140625,0.99462890625,0.200439453125,-0.5493163466453552,-1.8615721464157104,-0.8850097060203552,80.0,129844.0,0.0
14651.7209247,293140.71875,295685.34375,334201.59375,329346.53125,285362.40625,255905.9375,222360.171875,244480.171875,0.0244140625,0.99462890625,0.200439453125,-0.5493163466453552,-1.8615721464157104,-0.8850097060203552,80.0,129845.0,0.0
14651.7209249,293140.71875,295685.34375,334201.59375,329346.53125,285362.40625,255905.9375,222360.171875,244480.171875,0.0244140625,0.99462890625,0.200439453125,-0.5493163466453552,-1.8615721464157104,-0.8850097060203552,80.0,129846.0,0.0
14651.7209251,293140.71875,295685.34375,334201.59375,329346.53125,285362.40625,255905.9375,222360.171875,244480.171875,0.0244140625,0.99462890625,0.200439453125,-0.5493163466453552,-1.8615721464157104,-0.8850097060203552,80.0,129847.0,0.0
14651.7209253,293140.71875,295685.34375,334201.59375,329346.53125,285362.40625,255905.9375,222360.171875,244480.171875,0.0244140625,0.99462890625,0.200439453125,-0.5493163466453552,-1.8615721464157104,-0.8850097060203552,80.0,129848.0,0.0
14651.7209254,293111.9375,295544.875,334037.1875,329313.0,285271.21875,255870.4375,222325.484375,244483.390625,0.025390625,0.994140625,0.197265625,0.3356933295726776,-1.1596678495407104,-1.0681151151657104,80.0,129849.0,1.0
14651.7209268,293119.1875,295301.25,333898.96875,329335.28125,285162.3125,255831.46875,222283.109375,244460.765625,0.0263671875,0.992919921875,0.200439453125,0.4272460639476776,-1.1291502714157104,-1.0681151151657104,80.0,129850.0,1.0
14651.720928,293147.875,295272.8125,333963.25,329382.75,285166.96875,255831.46875,222292.40625,244480.359375,0.025146484375,0.992431640625,0.198974609375,0.4272460639476776,-1.1291502714157104,-1.1901854276657104,80.0,129851.0,1.0
14651.7209292,293169.0625,295509.21875,334148.65625,329391.78125,285285.6875,255888.234375,222349.625,244488.671875,0.02392578125,0.9931640625,0.199462890625,0.3662109076976776,-1.1596678495407104,-1.1291502714157104,80.0,129852.0,1.0
14651.7209305,293148.40625,295680.6875,334189.875,329344.125,285347.65625,255917.296875,222372.6875,244475.609375,0.0263671875,0.99365234375,0.2001953125,0.4577636420726776,-1.1901854276657104,-1.0986326932907104,80.0,129853.0,1.0
14651.7209317,293115.78125,295553.09375,334032.625,329310.59375,285269.0625,255877.78125,222335.3125,244469.625,0.02197265625,0.995361328125,0.1982421875,0.5798339247703552,-1.0986326932907104,-1.0681151151657104,80.0,129854.0,1.0
14651.7209329,293118.5625,295308.59375,333897.625,329335.0,285165.1875,255827.625,222292.046875,244470.25,0.020263671875,0.9951171875,0.198486328125,0.7019042372703552,-1.2207030057907104,-1.0986326932907104,80.0,129855.0,1.0
14651.7209341,293155.3125,295290.78125,333977.1875,329390.6875,285187.34375,255839.328125,222313.5,244497.15625,0.02099609375,0.99755859375,0.198486328125,0.7324218153953552,-1.2207030057907104,-1.1596678495407104,80.0,129856.0,1.0
14651.7209352,293174.53125,295527.96875,334162.09375,329398.21875,285306.1875,255887.96875,222367.0625,244517.90625,0.0185546875,0.998779296875,0.199462890625,0.7934569716453552,-1.3732908964157104,-1.1901854276657104,80.0,129857.0,1.0
14651.7209365,293154.84375,295697.3125,334203.46875,329349.03125,285365.53125,255921.140625,222374.390625,244483.484375,0.019775390625,0.996337890625,0.197265625,0.7019042372703552,-1.4953612089157104,-1.2512205839157104,80.0,129858.0,1.0
14651.7209379,293130.1875,295569.1875,334054.78125,329323.46875,285292.21875,255891.359375,222339.875,244472.9375,0.022705078125,0.99267578125,0.1943359375,0.7629393935203552,-1.6174315214157104,-1.1596678495407104,80.0,129859.0,1.0
14651.7467046,293125.53125,295307.15625,333902.0,329343.84375,285177.53125,255838.96875,222298.75,244482.59375,0.024658203125,0.99365234375,0.196044921875,0.8239745497703552,-1.5869139432907104,-1.0986326932907104,80.0,129860.0,1.0
14651.7735954,293156.03125,295283.53125,333965.375,329388.65625,285183.78125,255844.609375,222308.046875,244490.8125,0.026123046875,0.995361328125,0.194580078125,0.8544921278953552,-1.5258787870407104,-0.9765624403953552,80.0,129861.0,1.0
14651.7736001,293174.15625,295525.125,334149.21875,329392.40625,285302.6875,255898.96875,222355.25,244496.890625,0.02685546875,0.997802734375,0.19677734375,0.7019042372703552,-1.5258787870407104,-0.9155272841453552,80.0,129862.0,1.0
14651.8016344,293154.21875,295698.21875,334193.1875,329347.78125,285367.875,255938.65625,222388.25,244488.046875,0.027099609375,0.999755859375,0.197021484375,0.6408690810203552,-1.4648436307907104,-0.8239745497703552,80.0,129863.0,1.0
14651.801639,293118.375,295556.875,334036.28125,329307.71875,285280.78125,255884.484375,222328.15625,244461.484375,0.02490234375,0.999755859375,0.197509765625,0.6103515028953552,-1.5258787870407104,-0.8239745497703552,80.0,129864.0,1.0
14651.8016404,293122.40625,295304.8125,333898.78125,329333.84375,285172.96875,255828.78125,222278.546875,244475.609375,0.0244140625,0.99658203125,0.1962890625,0.6103515028953552,-1.4953612089157104,-0.8850097060203552,80.0,129865.0,1.0
14651.8229961,293168.0,295300.0,333995.53125,329395.625,285205.9375,255850.421875,222310.453125,244495.546875,0.025146484375,0.9970703125,0.19384765625,0.6103515028953552,-1.5563963651657104,-0.7324218153953552,80.0,129866.0,1.0
14651.9026633,293182.5625,295533.96875,334178.34375,329400.53125,285319.9375,255894.765625,222360.625,244509.40625,0.026611328125,0.99560546875,0.195068359375,0.5187987685203552,-1.6784666776657104,-0.7019042372703552,80.0,129867.0,1.0
14651.9026685,293153.15625,295687.03125,334200.53125,329343.84375,285361.15625,255909.34375,222362.859375,244483.578125,0.029296875,0.9931640625,0.197021484375,0.5798339247703552,-1.5563963651657104,-0.6103515028953552,80.0,129868.0,1.0
14651.9026697,293119.09375,295542.28125,334031.71875,329310.15625,285272.8125,255876.875,222325.03125,244466.5,0.02978515625,0.993896484375,0.196044921875,0.5798339247703552,-1.5869139432907104,-0.7324218153953552,80.0,129869.0,1.0
14651.9026709,293125.4375,295298.65625,333897.09375,329339.90625,285169.46875,255827.265625,222284.625,244467.828125,0.026611328125,0.995849609375,0.19921875,0.6103515028953552,-1.4343260526657104,-0.7019042372703552,80.0,129870.0,1.0
14651.9026721,293163.625,295285.25,333984.15625,329398.84375,285192.90625,255829.140625,222302.421875,244499.578125,0.025390625,0.996826171875,0.198486328125,0.6103515028953552,-1.3732908964157104,-0.7934569716453552,80.0,129871.0,1.0
14651.9350423,293186.5,295525.75,334175.03125,329406.25,285315.21875,255892.078125,222366.703125,244518.078125,0.026123046875,0.99853515625,0.195068359375,0.5493163466453552,-1.4038084745407104,-0.8850097060203552,80.0,129872.0,1.0
14651.9855003,293186.5,295525.75,334175.03125,329406.25,285315.21875,255892.078125,222366.703125,244518.078125,0.026123046875,0.99853515625,0.195068359375,0.5493163466453552,-1.4038084745407104,-0.8850097060203552,80.0,129873.0,0.0
14651.9855011,293186.5,295525.75,334175.03125,329406.25,285315.21875,255892.078125,222366.703125,244518.078125,0.026123046875,0.99853515625,0.195068359375,0.5493163466453552,-1.4038084745407104,-0.8850097060203552,80.0,129874.0,0.0
14651.9855014,293186.5,295525.75,334175.03125,329406.25,285315.21875,255892.078125,222366.703125,244518.078125,0.026123046875,0.99853515625,0.195068359375,0.5493163466453552,-1.4038084745407104,-0.8850097060203552,80.0,129875.0,0.0
14651.9855015,293186.5,295525.75,334175.03125,329406.25,285315.21875,255892.078125,222366.703125,244518.078125,0.026123046875,0.99853515625,0.195068359375,0.5493163466453552,-1.4038084745407104,-0.8850097060203552,80.0,129876.0,0.0
14651.9855017,293186.5,295525.75,334175.03125,329406.25,285315.21875,255892.078125,222366.703125,244518.078125,0.026123046875,0.99853515625,0.195068359375,0.5493163466453552,-1.4038084745407104,-0.8850097060203552,80.0,129877.0,0.0
14651.9855019,293186.5,295525.75,334175.03125,329406.25,285315.21875,255892.078125,222366.703125,244518.078125,0.026123046875,0.99853515625,0.195068359375,0.5493163466453552,-1.4038084745407104,-0.8850097060203552,80.0,129878.0,0.0
14651.9855021,293186.5,295525.75,334175.03125,329406.25,285315.21875,255892.078125,222366.703125,244518.078125,0.026123046875,0.99853515625,0.195068359375,0.5493163466453552,-1.4038084745407104,-0.8850097060203552,80.0,129879.0,0.0
14651.9855023,293186.5,295525.75,334175.03125,329406.25,285315.21875,255892.078125,222366.703125,244518.078125,0.026123046875,0.99853515625,0.195068359375,0.5493163466453552,-1.4038084745407104,-0.8850097060203552,80.0,129880.0,0.0
14651.9855025,293186.5,295525.75,334175.03125,329406.25,285315.21875,255892.078125,222366.703125,244518.078125,0.026123046875,0.99853515625,0.195068359375,0.5493163466453552,-1.4038084745407104,-0.8850097060203552,80.0,129881.0,0.0
14651.9855026,293186.5,295525.75,334175.03125,329406.25,285315.21875,255892.078125,222366.703125,244518.078125,0.026123046875,0.99853515625,0.195068359375,0.5493163466453552,-1.4038084745407104,-0.8850097060203552,80.0,129882.0,0.0
14651.9855028,293186.5,295525.75,334175.03125,329406.25,285315.21875,255892.078125,222366.703125,244518.078125,0.026123046875,0.99853515625,0.195068359375,0.5493163466453552,-1.4038084745407104,-0.8850097060203552,80.0,129883.0,0.0
14651.985503,293186.5,295525.75,334175.03125,329406.25,285315.21875,255892.078125,222366.703125,244518.078125,0.026123046875,0.99853515625,0.195068359375,0.5493163466453552,-1.4038084745407104,-0.8850097060203552,80.0,129884.0,0.0
14651.9855031,293186.5,295525.75,334175.03125,329406.25,285315.21875,255892.078125,222366.703125,244518.078125,0.026123046875,0.99853515625,0.195068359375,0.5493163466453552,-1.4038084745407104,-0.8850097060203552,80.0,129885.0,0.0
14651.9855033,293186.5,295525.75,334175.03125,329406.25,285315.21875,255892.078125,222366.703125,244518.078125,0.026123046875,0.99853515625,0.195068359375,0.5493163466453552,-1.4038084745407104,-0.8850097060203552,80.0,129886.0,0.0
14651.9855035,293186.5,295525.75,334175.03125,329406.25,285315.21875,255892.078125,222366.703125,244518.078125,0.026123046875,0.99853515625,0.195068359375,0.5493163466453552,-1.4038084745407104,-0.8850097060203552,80.0,129887.0,0.0
14651.9855037,293186.5,295525.75,334175.03125,329406.25,285315.21875,255892.078125,222366.703125,244518.078125,0.026123046875,0.99853515625,0.195068359375,0.5493163466453552,-1.4038084745407104,-0.8850097060203552,80.0,129888.0,0.0
14651.9855038,293186.5,295525.75,334175.03125,329406.25,285315.21875,255892.078125,222366.703125,244518.078125,0.026123046875,0.99853515625,0.195068359375,0.5493163466453552,-1.4038084745407104,-0.8850097060203552,80.0,129889.0,0.0
14651.985504,293186.5,295525.75,334175.03125,329406.25,285315.21875,255892.078125,222366.703125,244518.078125,0.026123046875,0.99853515625,0.195068359375,0.5493163466453552,-1.4038084745407104,-0.8850097060203552,80.0,129890.0,0.0
14651.9855042,293186.5,295525.75,334175.03125,329406.25,285315.21875,255892.078125,222366.703125,244518.078125,0.026123046875,0.99853515625,0.195068359375,0.5493163466453552,-1.4038084745407104,-0.8850097060203552,80.0,129891.0,0.0
14651.9855044,293186.5,295525.75,334175.03125,329406.25,285315.21875,255892.078125,222366.703125,244518.078125,0.026123046875,0.99853515625,0.195068359375,0.5493163466453552,-1.4038084745407104,-0.8850097060203552,80.0,129892.0,0.0
14651.9855045,293186.5,295525.75,334175.03125,329406.25,285315.21875,255892.078125,222366.703125,244518.078125,0.026123046875,0.99853515625,0.195068359375,0.5493163466453552,-1.4038084745407104,-0.8850097060203552,80.0,129893.0,0.0
14651.9855047,293186.5,295525.75,334175.03125,329406.25,285315.21875,255892.078125,222366.703125,244518.078125,0.026123046875,0.99853515625,0.195068359375,0.5493163466453552,-1.4038084745407104,-0.8850097060203552,80.0,129894.0,0.0
14651.9855049,293186.5,295525.75,334175.03125,329406.25,285315.21875,255892.078125,222366.703125,244518.078125,0.026123046875,0.99853515625,0.195068359375,0.5493163466453552,-1.4038084745407104,-0.8850097060203552,80.0,129895.0,0.0
14651.985505,293186.5,295525.75,334175.03125,329406.25,285315.21875,255892.078125,222366.703125,244518.078125,0.026123046875,0.99853515625,0.195068359375,0.5493163466453552,-1.4038084745407104,-0.8850097060203552,80.0,129896.0,0.0
14651.9855052,293186.5,295525.75,334175.03125,329406.25,285315.21875,255892.078125,222366.703125,244518.078125,0.026123046875,0.99853515625,0.195068359375,0.5493163466453552,-1.4038084745407104,-0.8850097060203552,80.0,129897.0,0.0
14651.9855054,293186.5,295525.75,334175.03125,329406.25,285315.21875,255892.078125,222366.703125,244518.078125,0.026123046875,0.99853515625,0.195068359375,0.5493163466453552,-1.4038084745407104,-0.8850097060203552,80.0,129898.0,0.0
14651.9855055,293186.5,295525.75,334175.03125,329406.25,285315.21875,255892.078125,222366.703125,244518.078125,0.026123046875,0.99853515625,0.195068359375,0.5493163466453552,-1.4038084745407104,-0.8850097060203552,80.0,129899.0,0.0
14651.9855057,293186.5,295525.75,334175.03125,329406.25,285315.21875,255892.078125,222366.703125,244518.078125,0.026123046875,0.99853515625,0.195068359375,0.5493163466453552,-1.4038084745407104,-0.8850097060203552,80.0,129900.0,0.0
14651.9855059,293186.5,295525.75,334175.03125,329406.25,285315.21875,255892.078125,222366.703125,244518.078125,0.026123046875,0.99853515625,0.195068359375,0.5493163466453552,-1.4038084745407104,-0.8850097060203552,80.0,129901.0,0.0
14651.9855061,293186.5,295525.75,334175.03125,329406.25,285315.21875,255892.078125,222366.703125,244518.078125,0.026123046875,0.99853515625,0.195068359375,0.5493163466453552,-1.4038084745407104,-0.8850097060203552,80.0,129902.0,0.0
14651.9855063,293186.5,295525.75,334175.03125,329406.25,285315.21875,255892.078125,222366.703125,244518.078125,0.026123046875,0.99853515625,0.195068359375,0.5493163466453552,-1.4038084745407104,-0.8850097060203552,80.0,129903.0,0.0
14651.9855065,293186.5,295525.75,334175.03125,329406.25,285315.21875,255892.078125,222366.703125,244518.078125,0.026123046875,0.99853515625,0.195068359375,0.5493163466453552,-1.4038084745407104,-0.8850097060203552,80.0,129904.0,0.0
14651.9855067,293186.5,295525.75,334175.03125,329406.25,285315.21875,255892.078125,222366.703125,244518.078125,0.026123046875,0.99853515625,0.195068359375,0.5493163466453552,-1.4038084745407104,-0.8850097060203552,80.0,129905.0,0.0
14651.9855069,293186.5,295525.75,334175.03125,329406.25,285315.21875,255892.078125,222366.703125,244518.078125,0.026123046875,0.99853515625,0.195068359375,0.5493163466453552,-1.4038084745407104,-0.8850097060203552,80.0,129906.0,0.0
14651.985507,293186.5,295525.75,334175.03125,329406.25,285315.21875,255892.078125,222366.703125,244518.078125,0.026123046875,0.99853515625,0.195068359375,0.5493163466453552,-1.4038084745407104,-0.8850097060203552,80.0,129907.0,0.0
14651.9855072,293156.1875,295673.90625,334177.625,329338.21875,285356.59375,255915.234375,222382.703125,244496.171875,0.028076171875,0.994873046875,0.194580078125,0.8239745497703552,-1.7700194120407104,-1.0681151151657104,80.0,129908.0,1.0
14652.0142666,293140.71875,295556.15625,334039.9375,329317.375,285292.21875,255899.953125,222350.15625,244468.1875,0.02880859375,0.998291015625,0.19287109375,0.7019042372703552,-1.7395018339157104,-1.0681151151657104,80.0,129909.0,1.0
14652.0392276,293144.03125,295315.1875,333915.0625,329343.84375,285194.9375,255861.140625,222321.453125,244484.375,0.0302734375,0.99658203125,0.1943359375,0.6713866591453552,-1.6479490995407104,-1.1596678495407104,80.0,129910.0,1.0
14652.0866502,293174.96875,295300.4375,333997.5625,329390.625,285210.78125,255852.828125,222330.671875,244504.5,0.028076171875,0.997314453125,0.192138671875,0.6713866591453552,-1.5258787870407104,-1.1291502714157104,80.0,129911.0,1.0
14652.0866555,293195.96875,295549.0,334186.3125,329396.4375,285331.28125,255909.96875,222380.640625,244496.890625,0.027099609375,0.99560546875,0.1904296875,0.6408690810203552,-1.6479490995407104,-1.0986326932907104,80.0,129912.0,1.0
14652.0866568,293165.5,295695.8125,334204.71875,329342.15625,285376.90625,255931.328125,222393.25,244476.78125,0.026123046875,0.99560546875,0.189697265625,0.5798339247703552,-1.6174315214157104,-1.1291502714157104,80.0,129913.0,1.0
14652.1105218,293138.40625,295549.4375,334046.65625,329314.34375,285295.34375,255899.5,222358.65625,244468.640625,0.026611328125,0.99609375,0.18798828125,0.5798339247703552,-1.6174315214157104,-1.0986326932907104,80.0,129914.0,1.0
14652.1635747,293150.5625,295311.4375,333924.53125,329348.3125,285199.15625,255863.46875,222325.578125,244480.984375,0.025390625,0.99560546875,0.19140625,0.5798339247703552,-1.5869139432907104,-1.0681151151657104,80.0,129915.0,1.0
14652.1635807,293192.9375,295320.90625,334024.125,329404.28125,285229.65625,255874.828125,222347.203125,244503.15625,0.02685546875,0.994384765625,0.191650390625,0.7019042372703552,-1.5258787870407104,-1.1596678495407104,80.0,129916.0,1.0
14652.163582,293201.96875,295553.46875,334200.53125,329406.875,285339.875,255910.671875,222390.84375,244521.84375,0.025634765625,0.996826171875,0.19091796875,0.7019042372703552,-1.5563963651657104,-1.2207030057907104,80.0,129917.0,1.0
14652.1635832,293172.1875,295694.1875,334209.125,329352.78125,285380.46875,255935.0,222402.375,244505.03125,0.025390625,0.99609375,0.191162109375,0.7019042372703552,-1.5563963651657104,-1.2512205839157104,80.0,129918.0,1.0
14652.1635844,293134.28125,295546.5,334040.40625,329311.3125,285289.90625,255899.140625,222347.828125,244457.28125,0.02490234375,0.997314453125,0.19091796875,0.6408690810203552,-1.5563963651657104,-1.2207030057907104,80.0,129919.0,1.0
14652.1635855,293134.125,295300.8125,333908.96875,329333.125,285183.5,255854.984375,222305.90625,244455.765625,0.02587890625,0.9970703125,0.188232421875,0.6713866591453552,-1.5563963651657104,-1.1291502714157104,80.0,129920.0,1.0
14652.1635867,293167.5625,295294.09375,333998.1875,329385.5,285206.65625,255853.640625,222326.734375,244484.375,0.024169921875,0.998046875,0.192138671875,0.6103515028953552,-1.5563963651657104,-1.0681151151657104,80.0,129921.0,1.0
14652.1635879,293179.625,295533.625,334176.75,329385.78125,285317.34375,255895.203125,222369.109375,244488.578125,0.022216796875,0.99755859375,0.1904296875,0.7324218153953552,-1.6174315214157104,-1.0986326932907104,80.0,129922.0,1.0
14652.163589,293149.59375,295677.21875,334190.6875,329331.4375,285357.3125,255919.0,222374.828125,244467.390625,0.020263671875,0.99755859375,0.19091796875,0.7324218153953552,-1.6479490995407104,-1.1596678495407104,80.0,129923.0,1.0
14652.1666619,293120.15625,295527.0,334027.78125,329301.03125,285274.25,255883.046875,222340.234375,244456.21875,0.019287109375,0.996826171875,0.192626953125,0.6713866591453552,-1.6784666776657104,-1.0070799589157104,80.0,129924.0,1.0
14652.1666672,293131.15625,295292.65625,333911.65625,329336.59375,285185.21875,255848.1875,222316.0,244475.34375,0.01806640625,0.99658203125,0.193603515625,0.5187987685203552,-1.8005369901657104,-1.0681151151657104,80.0,129925.0,1.0
14652.1666684,293159.0625,295288.71875,334000.34375,329384.96875,285208.375,255849.171875,222328.25,244503.859375,0.0205078125,0.994384765625,0.193115234375,0.4272460639476776,-1.9226073026657104,-1.0986326932907104,80.0,129926.0,1.0
14652.1945955,293159.0625,295288.71875,334000.34375,329384.96875,285208.375,255849.171875,222328.25,244503.859375,0.0205078125,0.994384765625,0.193115234375,0.4272460639476776,-1.9226073026657104,-1.0986326932907104,80.0,129927.0,0.0
14652.1946001,293159.0625,295288.71875,334000.34375,329384.96875,285208.375,255849.171875,222328.25,244503.859375,0.0205078125,0.994384765625,0.193115234375,0.4272460639476776,-1.9226073026657104,-1.0986326932907104,80.0,129928.0,0.0
14652.1946015,293159.0625,295288.71875,334000.34375,329384.96875,285208.375,255849.171875,222328.25,244503.859375,0.0205078125,0.994384765625,0.193115234375,0.4272460639476776,-1.9226073026657104,-1.0986326932907104,80.0,129929.0,0.0
14652.1946029,293159.0625,295288.71875,334000.34375,329384.96875,285208.375,255849.171875,222328.25,244503.859375,0.0205078125,0.994384765625,0.193115234375,0.4272460639476776,-1.9226073026657104,-1.0986326932907104,80.0,129930.0,0.0
14652.1946041,293159.0625,295288.71875,334000.34375,329384.96875,285208.375,255849.171875,222328.25,244503.859375,0.0205078125,0.994384765625,0.193115234375,0.4272460639476776,-1.9226073026657104,-1.0986326932907104,80.0,129931.0,0.0
14652.1946052,293159.0625,295288.71875,334000.34375,329384.96875,285208.375,255849.171875,222328.25,244503.859375,0.0205078125,0.994384765625,0.193115234375,0.4272460639476776,-1.9226073026657104,-1.0986326932907104,80.0,129932.0,0.0
14652.1946062,293159.0625,295288.71875,334000.34375,329384.96875,285208.375,255849.171875,222328.25,244503.859375,0.0205078125,0.994384765625,0.193115234375,0.4272460639476776,-1.9226073026657104,-1.0986326932907104,80.0,129933.0,0.0
14652.1946073,293159.0625,295288.71875,334000.34375,329384.96875,285208.375,255849.171875,222328.25,244503.859375,0.0205078125,0.994384765625,0.193115234375,0.4272460639476776,-1.9226073026657104,-1.0986326932907104,80.0,129934.0,0.0
14652.1946084,293159.0625,295288.71875,334000.34375,329384.96875,285208.375,255849.171875,222328.25,244503.859375,0.0205078125,0.994384765625,0.193115234375,0.4272460639476776,-1.9226073026657104,-1.0986326932907104,80.0,129935.0,0.0
14652.1946096,293159.0625,295288.71875,334000.34375,329384.96875,285208.375,255849.171875,222328.25,244503.859375,0.0205078125,0.994384765625,0.193115234375,0.4272460639476776,-1.9226073026657104,-1.0986326932907104,80.0,129936.0,0.0
14652.1946109,293159.0625,295288.71875,334000.34375,329384.96875,285208.375,255849.171875,222328.25,244503.859375,0.0205078125,0.994384765625,0.193115234375,0.4272460639476776,-1.9226073026657104,-1.0986326932907104,80.0,129937.0,0.0
14652.1946111,293159.0625,295288.71875,334000.34375,329384.96875,285208.375,255849.171875,222328.25,244503.859375,0.0205078125,0.994384765625,0.193115234375,0.4272460639476776,-1.9226073026657104,-1.0986326932907104,80.0,129938.0,0.0
14652.1946113,293159.0625,295288.71875,334000.34375,329384.96875,285208.375,255849.171875,222328.25,244503.859375,0.0205078125,0.994384765625,0.193115234375,0.4272460639476776,-1.9226073026657104,-1.0986326932907104,80.0,129939.0,0.0
14652.1946114,293159.0625,295288.71875,334000.34375,329384.96875,285208.375,255849.171875,222328.25,244503.859375,0.0205078125,0.994384765625,0.193115234375,0.4272460639476776,-1.9226073026657104,-1.0986326932907104,80.0,129940.0,0.0
14652.1946116,293159.0625,295288.71875,334000.34375,329384.96875,285208.375,255849.171875,222328.25,244503.859375,0.0205078125,0.994384765625,0.193115234375,0.4272460639476776,-1.9226073026657104,-1.0986326932907104,80.0,129941.0,0.0
14652.1946118,293159.0625,295288.71875,334000.34375,329384.96875,285208.375,255849.171875,222328.25,244503.859375,0.0205078125,0.994384765625,0.193115234375,0.4272460639476776,-1.9226073026657104,-1.0986326932907104,80.0,129942.0,0.0
14652.194612,293159.0625,295288.71875,334000.34375,329384.96875,285208.375,255849.171875,222328.25,244503.859375,0.0205078125,0.994384765625,0.193115234375,0.4272460639476776,-1.9226073026657104,-1.0986326932907104,80.0,129943.0,0.0
14652.1946121,293159.0625,295288.71875,334000.34375,329384.96875,285208.375,255849.171875,222328.25,244503.859375,0.0205078125,0.994384765625,0.193115234375,0.4272460639476776,-1.9226073026657104,-1.0986326932907104,80.0,129944.0,0.0
14652.1946123,293159.0625,295288.71875,334000.34375,329384.96875,285208.375,255849.171875,222328.25,244503.859375,0.0205078125,0.994384765625,0.193115234375,0.4272460639476776,-1.9226073026657104,-1.0986326932907104,80.0,129945.0,0.0
