Time,FZ,C3,CZ,C4,PZ,PO7,OZ,PO8,AccX,AccY,AccZ,Gyro1,Gyro2,Gyro3,Battery,Counter,Validation
14375.6656594,291830.75,297585.59375,355124.34375,351463.125,288308.71875,257358.53125,223891.09375,245482.875,0.00439453125,1.003662109375,0.171142578125,-0.7324218153953552,-4.119872570037842,0.1525878757238388,80.0,60826.0,1.0
14375.6656687,291833.6875,297369.6875,355011.4375,351486.90625,288241.84375,257322.328125,223872.84375,245481.265625,0.007080078125,1.002197265625,0.171630859375,-0.9155272841453552,-4.364013195037842,0.1831054538488388,80.0,60827.0,1.0
14375.6656701,291862.84375,297548.75,355148.75,351505.25,288310.59375,257348.515625,223903.875,245493.328125,0.009033203125,1.001708984375,0.1728515625,-1.0681151151657104,-4.669188976287842,0.1525878757238388,80.0,60828.0,1.0
14375.6656731,291862.84375,297548.75,355148.75,351505.25,288310.59375,257348.515625,223903.875,245493.328125,0.009033203125,1.001708984375,0.1728515625,-1.0681151151657104,-4.669188976287842,0.1525878757238388,80.0,60829.0,0.0
14375.6656734,291862.84375,297548.75,355148.75,351505.25,288310.59375,257348.515625,223903.875,245493.328125,0.009033203125,1.001708984375,0.1728515625,-1.0681151151657104,-4.669188976287842,0.1525878757238388,80.0,60830.0,0.0
14375.6656736,291862.84375,297548.75,355148.75,351505.25,288310.59375,257348.515625,223903.875,245493.328125,0.009033203125,1.001708984375,0.1728515625,-1.0681151151657104,-4.669188976287842,0.1525878757238388,80.0,60831.0,0.0
14375.6656738,291862.84375,297548.75,355148.75,351505.25,288310.59375,257348.515625,223903.875,245493.328125,0.009033203125,1.001708984375,0.1728515625,-1.0681151151657104,-4.669188976287842,0.1525878757238388,80.0,60832.0,0.0
14375.6656743,291862.84375,297548.75,355148.75,351505.25,288310.59375,257348.515625,223903.875,245493.328125,0.009033203125,1.001708984375,0.1728515625,-1.0681151151657104,-4.669188976287842,0.1525878757238388,80.0,60833.0,0.0
14375.6656745,291862.84375,297548.75,355148.75,351505.25,288310.59375,257348.515625,223903.875,245493.328125,0.009033203125,1.001708984375,0.1728515625,-1.0681151151657104,-4.669188976287842,0.1525878757238388,80.0,60834.0,0.0
14375.6656746,291862.84375,297548.75,355148.75,351505.25,288310.59375,257348.515625,223903.875,245493.328125,0.009033203125,1.001708984375,0.1728515625,-1.0681151151657104,-4.669188976287842,0.1525878757238388,80.0,60835.0,0.0
14375.6656749,291862.84375,297548.75,355148.75,351505.25,288310.59375,257348.515625,223903.875,245493.328125,0.009033203125,1.001708984375,0.1728515625,-1.0681151151657104,-4.669188976287842,0.1525878757238388,80.0,60836.0,0.0
14375.665675,291862.84375,297548.75,355148.75,351505.25,288310.59375,257348.515625,223903.875,245493.328125,0.009033203125,1.001708984375,0.1728515625,-1.0681151151657104,-4.669188976287842,0.1525878757238388,80.0,60837.0,0.0
14375.6656752,291862.84375,297548.75,355148.75,351505.25,288310.59375,257348.515625,223903.875,245493.328125,0.009033203125,1.001708984375,0.1728515625,-1.0681151151657104,-4.669188976287842,0.1525878757238388,80.0,60838.0,0.0
14375.6656754,291862.84375,297548.75,355148.75,351505.25,288310.59375,257348.515625,223903.875,245493.328125,0.009033203125,1.001708984375,0.1728515625,-1.0681151151657104,-4.669188976287842,0.1525878757238388,80.0,60839.0,0.0
14375.6656756,291862.84375,297548.75,355148.75,351505.25,288310.59375,257348.515625,223903.875,245493.328125,0.009033203125,1.001708984375,0.1728515625,-1.0681151151657104,-4.669188976287842,0.1525878757238388,80.0,60840.0,0.0
14375.6656758,291862.84375,297548.75,355148.75,351505.25,288310.59375,257348.515625,223903.875,245493.328125,0.009033203125,1.001708984375,0.1728515625,-1.0681151151657104,-4.669188976287842,0.1525878757238388,80.0,60841.0,0.0
14375.665676,291862.84375,297548.75,355148.75,351505.25,288310.59375,257348.515625,223903.875,245493.328125,0.009033203125,1.001708984375,0.1728515625,-1.0681151151657104,-4.669188976287842,0.1525878757238388,80.0,60842.0,0.0
14375.6656761,291862.84375,297548.75,355148.75,351505.25,288310.59375,257348.515625,223903.875,245493.328125,0.009033203125,1.001708984375,0.1728515625,-1.0681151151657104,-4.669188976287842,0.1525878757238388,80.0,60843.0,0.0
14375.6656763,291862.84375,297548.75,355148.75,351505.25,288310.59375,257348.515625,223903.875,245493.328125,0.009033203125,1.001708984375,0.1728515625,-1.0681151151657104,-4.669188976287842,0.1525878757238388,80.0,60844.0,0.0
14375.6656765,291862.84375,297548.75,355148.75,351505.25,288310.59375,257348.515625,223903.875,245493.328125,0.009033203125,1.001708984375,0.1728515625,-1.0681151151657104,-4.669188976287842,0.1525878757238388,80.0,60845.0,0.0
14375.6656767,291862.84375,297548.75,355148.75,351505.25,288310.59375,257348.515625,223903.875,245493.328125,0.009033203125,1.001708984375,0.1728515625,-1.0681151151657104,-4.669188976287842,0.1525878757238388,80.0,60846.0,0.0
14375.6656769,291862.84375,297548.75,355148.75,351505.25,288310.59375,257348.515625,223903.875,245493.328125,0.009033203125,1.001708984375,0.1728515625,-1.0681151151657104,-4.669188976287842,0.1525878757238388,80.0,60847.0,0.0
14375.665677,291862.84375,297548.75,355148.75,351505.25,288310.59375,257348.515625,223903.875,245493.328125,0.009033203125,1.001708984375,0.1728515625,-1.0681151151657104,-4.669188976287842,0.1525878757238388,80.0,60848.0,0.0
14375.6656772,291862.84375,297548.75,355148.75,351505.25,288310.59375,257348.515625,223903.875,245493.328125,0.009033203125,1.001708984375,0.1728515625,-1.0681151151657104,-4.669188976287842,0.1525878757238388,80.0,60849.0,0.0
14375.6656774,291862.84375,297548.75,355148.75,351505.25,288310.59375,257348.515625,223903.875,245493.328125,0.009033203125,1.001708984375,0.1728515625,-1.0681151151657104,-4.669188976287842,0.1525878757238388,80.0,60850.0,0.0
14375.6656776,291862.84375,297548.75,355148.75,351505.25,288310.59375,257348.515625,223903.875,245493.328125,0.009033203125,1.001708984375,0.1728515625,-1.0681151151657104,-4.669188976287842,0.1525878757238388,80.0,60851.0,0.0
14375.6656778,291862.84375,297548.75,355148.75,351505.25,288310.59375,257348.515625,223903.875,245493.328125,0.009033203125,1.001708984375,0.1728515625,-1.0681151151657104,-4.669188976287842,0.1525878757238388,80.0,60852.0,0.0
14375.6656779,291862.84375,297548.75,355148.75,351505.25,288310.59375,257348.515625,223903.875,245493.328125,0.009033203125,1.001708984375,0.1728515625,-1.0681151151657104,-4.669188976287842,0.1525878757238388,80.0,60853.0,0.0
14375.6656781,291862.84375,297548.75,355148.75,351505.25,288310.59375,257348.515625,223903.875,245493.328125,0.009033203125,1.001708984375,0.1728515625,-1.0681151151657104,-4.669188976287842,0.1525878757238388,80.0,60854.0,0.0
14375.6656783,291862.84375,297548.75,355148.75,351505.25,288310.59375,257348.515625,223903.875,245493.328125,0.009033203125,1.001708984375,0.1728515625,-1.0681151151657104,-4.669188976287842,0.1525878757238388,80.0,60855.0,0.0
14375.6656785,291862.84375,297548.75,355148.75,351505.25,288310.59375,257348.515625,223903.875,245493.328125,0.009033203125,1.001708984375,0.1728515625,-1.0681151151657104,-4.669188976287842,0.1525878757238388,80.0,60856.0,0.0
14375.6656787,291862.84375,297548.75,355148.75,351505.25,288310.59375,257348.515625,223903.875,245493.328125,0.009033203125,1.001708984375,0.1728515625,-1.0681151151657104,-4.669188976287842,0.1525878757238388,80.0,60857.0,0.0
14375.6656789,291862.84375,297548.75,355148.75,351505.25,288310.59375,257348.515625,223903.875,245493.328125,0.009033203125,1.001708984375,0.1728515625,-1.0681151151657104,-4.669188976287842,0.1525878757238388,80.0,60858.0,0.0
14375.6656791,291862.84375,297548.75,355148.75,351505.25,288310.59375,257348.515625,223903.875,245493.328125,0.009033203125,1.001708984375,0.1728515625,-1.0681151151657104,-4.669188976287842,0.1525878757238388,80.0,60859.0,0.0
14375.6656792,291862.84375,297548.75,355148.75,351505.25,288310.59375,257348.515625,223903.875,245493.328125,0.009033203125,1.001708984375,0.1728515625,-1.0681151151657104,-4.669188976287842,0.1525878757238388,80.0,60860.0,0.0
14375.6656794,291847.0,297603.125,355156.4375,351465.8125,288329.5625,257396.078125,223926.765625,245523.734375,0.025634765625,0.99658203125,0.1787109375,-0.5187987685203552,-2.410888433456421,-1.4953612089157104,80.0,60861.0,1.0
14375.6801465,291846.65625,297369.0625,355033.4375,351491.3125,288260.28125,257356.75,223902.890625,245538.65625,0.033203125,0.995849609375,0.180419921875,-0.6408690810203552,-2.380370855331421,-0.9460448622703552,80.0,60862.0,1.0
14375.7164781,291892.96875,297558.59375,355183.625,351520.625,288338.78125,257394.5625,223946.875,245543.578125,0.035888671875,0.990234375,0.178955078125,-0.6103515028953552,-2.197265386581421,-0.5187987685203552,80.0,60863.0,1.0
14375.7407327,291887.25,297821.28125,355300.125,351475.46875,288393.03125,257411.28125,223948.578125,245496.28125,0.0322265625,0.986083984375,0.1767578125,-0.3662109076976776,-1.8005369901657104,-0.1525878757238388,80.0,60864.0,1.0
14375.7407485,291864.4375,297840.59375,355260.4375,351440.875,288381.9375,257401.984375,223926.3125,245489.75,0.029541015625,0.986083984375,0.17822265625,0.0,-1.4038084745407104,-0.0610351525247097,80.0,60865.0,1.0
14375.7407498,291846.65625,297584.0,355112.90625,351449.46875,288308.0,257368.28125,223896.625,245493.875,0.02490234375,0.98681640625,0.1787109375,0.2746581733226776,-1.2207030057907104,-0.0915527269244194,80.0,60866.0,1.0
14375.740751,291862.75,297405.09375,355060.34375,351493.09375,288278.40625,257356.484375,223906.28125,245518.640625,0.02197265625,0.98974609375,0.177490234375,0.3967284858226776,-1.0681151151657104,-0.1525878757238388,80.0,60867.0,1.0
14375.7407522,291886.96875,297570.03125,355194.71875,351509.71875,288343.15625,257401.453125,223947.6875,245533.125,0.01953125,0.989013671875,0.175537109375,0.7324218153953552,-0.8239745497703552,-0.3662109076976776,80.0,60868.0,1.0
14375.7407534,291886.4375,297828.6875,355307.5625,351481.75,288409.75,257440.15625,223974.953125,245535.796875,0.0205078125,0.990966796875,0.179443359375,0.9460448622703552,-0.6713866591453552,-0.5798339247703552,80.0,60869.0,1.0
14375.7407547,291850.40625,297835.03125,355254.8125,351435.875,288387.9375,257428.890625,223949.65625,245494.046875,0.02099609375,0.993408203125,0.1806640625,0.9155272841453552,-0.4882812201976776,-0.8239745497703552,80.0,60870.0,1.0
14375.7407559,291828.5,297569.15625,355104.0625,351442.5625,288306.9375,257367.03125,223898.59375,245491.8125,0.022705078125,0.992431640625,0.180419921875,0.9765624403953552,-0.3967284858226776,-0.9765624403953552,80.0,60871.0,1.0
14375.7407571,291849.15625,297384.875,355044.875,351485.84375,288271.53125,257343.25,223891.4375,245502.625,0.02197265625,0.993408203125,0.18212890625,1.1291502714157104,-0.2746581733226776,-1.3122557401657104,80.0,60872.0,1.0
14375.7407582,291885.28125,297563.34375,355189.4375,351505.96875,288343.6875,257385.71875,223927.203125,245507.109375,0.022705078125,0.991943359375,0.1806640625,1.1901854276657104,-0.0915527269244194,-1.5258787870407104,80.0,60873.0,1.0
14375.7407594,291887.78125,297837.0,355321.9375,351475.75,288418.6875,257425.046875,223951.609375,245503.53125,0.020263671875,0.9912109375,0.179931640625,1.2817381620407104,0.1525878757238388,-2.014159917831421,80.0,60874.0,1.0
14375.7441664,291865.6875,297853.90625,355277.25,351445.4375,288407.0,257407.265625,223939.90625,245500.21875,0.016845703125,0.98828125,0.17919921875,1.5258787870407104,0.2746581733226776,-2.227782964706421,80.0,60875.0,1.0
14375.744183,291865.6875,297853.90625,355277.25,351445.4375,288407.0,257407.265625,223939.90625,245500.21875,0.016845703125,0.98828125,0.17919921875,1.5258787870407104,0.2746581733226776,-2.227782964706421,80.0,60876.0,0.0
14375.7441847,291865.6875,297853.90625,355277.25,351445.4375,288407.0,257407.265625,223939.90625,245500.21875,0.016845703125,0.98828125,0.17919921875,1.5258787870407104,0.2746581733226776,-2.227782964706421,80.0,60877.0,0.0
14375.7441849,291908.34375,297589.0,355202.21875,351525.46875,288365.0625,257394.203125,223949.5625,245520.15625,0.012939453125,0.9912109375,0.177978515625,1.9531248807907104,0.3967284858226776,-2.777099370956421,80.0,60878.0,1.0
14375.7477365,291909.25,297865.09375,355333.9375,351498.90625,288439.34375,257440.078125,223982.375,245525.34375,0.01123046875,0.9921875,0.17333984375,2.075195074081421,0.4272460639476776,-2.868652105331421,80.0,60879.0,1.0
14375.7501498,291877.6875,297877.0625,355287.875,351460.28125,288421.90625,257426.484375,223959.296875,245507.640625,0.00927734375,0.994873046875,0.176513671875,2.105712652206421,0.3662109076976776,-2.929687261581421,80.0,60880.0,1.0
14375.7552053,291857.5625,297613.03125,355130.15625,351464.03125,288339.46875,257393.5,223924.4375,245496.640625,0.005615234375,0.99609375,0.17724609375,2.197265386581421,0.3356933295726776,-2.929687261581421,80.0,60881.0,1.0
14375.7632627,291875.09375,297434.3125,355078.75,351506.59375,288309.0,257390.28125,223935.25,245514.96875,0.004638671875,0.997802734375,0.1787109375,2.075195074081421,0.0915527269244194,-2.807616949081421,80.0,60882.0,1.0
14375.7632785,291897.71875,297592.65625,355211.78125,351518.9375,288368.71875,257402.96875,223956.0,245519.625,0.001953125,0.998779296875,0.179931640625,1.9531248807907104,0.0,-2.655029058456421,80.0,60883.0,1.0
14375.7632826,291889.21875,297850.25,355323.5625,351478.4375,288423.96875,257420.140625,223964.765625,245496.546875,-0.001708984375,1.000732421875,0.180908203125,1.8005369901657104,-0.2136230319738388,-2.441406011581421,80.0,60884.0,1.0
14375.7632837,291848.0,297830.3125,355237.8125,351430.6875,288387.40625,257402.703125,223945.984375,245487.34375,-0.00048828125,1.000244140625,0.178466796875,1.8005369901657104,-0.3967284858226776,-2.349853277206421,80.0,60885.0,1.0
14375.7632849,291831.4375,297555.03125,355052.46875,351431.21875,288300.875,257366.578125,223917.640625,245478.84375,-0.000732421875,1.002685546875,0.1806640625,1.6174315214157104,-0.6713866591453552,-2.136230230331421,80.0,60886.0,1.0
14375.7632861,291846.28125,297382.03125,354995.78125,351473.25,288269.125,257355.21875,223922.640625,245492.171875,0.0,1.0048828125,0.18115234375,1.4648436307907104,-0.9460448622703552,-1.9531248807907104,80.0,60887.0,1.0
14375.7632873,291873.21875,297555.5625,355145.28125,351492.71875,288334.03125,257370.15625,223938.296875,245494.765625,0.00146484375,1.004150390625,0.18115234375,1.2207030057907104,-1.1596678495407104,-1.7700194120407104,80.0,60888.0,1.0
14375.7632884,291875.1875,297826.09375,355276.0,351466.90625,288408.5,257418.609375,223969.9375,245488.859375,0.002197265625,1.00390625,0.1806640625,1.2207030057907104,-1.4343260526657104,-1.6479490995407104,80.0,60889.0,1.0
14375.7632896,291856.5625,297849.625,355230.5625,351438.8125,288401.8125,257436.59375,223973.703125,245480.640625,0.0009765625,1.005615234375,0.181396484375,1.2207030057907104,-1.5869139432907104,-1.4343260526657104,80.0,60890.0,1.0
14375.7632907,291844.15625,297599.90625,355090.8125,351450.875,288329.03125,257381.0625,223935.796875,245486.359375,-0.000244140625,1.003662109375,0.178466796875,1.0681151151657104,-1.8005369901657104,-1.1901854276657104,80.0,60891.0,1.0
14375.7632919,291857.28125,297404.375,355027.625,351487.53125,288283.875,257331.984375,223916.75,245501.734375,0.000244140625,1.001220703125,0.178466796875,0.9460448622703552,-1.9836424589157104,-1.0375975370407104,80.0,60892.0,1.0
14375.7659178,291884.375,297566.03125,355160.84375,351500.15625,288341.1875,257355.3125,223933.640625,245488.421875,0.00146484375,1.00244140625,0.17578125,0.9765624403953552,-2.166747808456421,-0.9765624403953552,80.0,60893.0,1.0
14375.7677111,291884.375,297566.03125,355160.84375,351500.15625,288341.1875,257355.3125,223933.640625,245488.421875,0.00146484375,1.00244140625,0.17578125,0.9765624403953552,-2.166747808456421,-0.9765624403953552,80.0,60894.0,0.0
14375.7677116,291884.375,297566.03125,355160.84375,351500.15625,288341.1875,257355.3125,223933.640625,245488.421875,0.00146484375,1.00244140625,0.17578125,0.9765624403953552,-2.166747808456421,-0.9765624403953552,80.0,60895.0,0.0
14375.7677118,291884.375,297566.03125,355160.84375,351500.15625,288341.1875,257355.3125,223933.640625,245488.421875,0.00146484375,1.00244140625,0.17578125,0.9765624403953552,-2.166747808456421,-0.9765624403953552,80.0,60896.0,0.0
14375.7677121,291884.375,297566.03125,355160.84375,351500.15625,288341.1875,257355.3125,223933.640625,245488.421875,0.00146484375,1.00244140625,0.17578125,0.9765624403953552,-2.166747808456421,-0.9765624403953552,80.0,60897.0,0.0
14375.7677124,291884.375,297566.03125,355160.84375,351500.15625,288341.1875,257355.3125,223933.640625,245488.421875,0.00146484375,1.00244140625,0.17578125,0.9765624403953552,-2.166747808456421,-0.9765624403953552,80.0,60898.0,0.0
14375.7677127,291884.375,297566.03125,355160.84375,351500.15625,288341.1875,257355.3125,223933.640625,245488.421875,0.00146484375,1.00244140625,0.17578125,0.9765624403953552,-2.166747808456421,-0.9765624403953552,80.0,60899.0,0.0
14375.7677129,291884.375,297566.03125,355160.84375,351500.15625,288341.1875,257355.3125,223933.640625,245488.421875,0.00146484375,1.00244140625,0.17578125,0.9765624403953552,-2.166747808456421,-0.9765624403953552,80.0,60900.0,0.0
14375.7677132,291884.375,297566.03125,355160.84375,351500.15625,288341.1875,257355.3125,223933.640625,245488.421875,0.00146484375,1.00244140625,0.17578125,0.9765624403953552,-2.166747808456421,-0.9765624403953552,80.0,60901.0,0.0
14375.7677135,291884.375,297566.03125,355160.84375,351500.15625,288341.1875,257355.3125,223933.640625,245488.421875,0.00146484375,1.00244140625,0.17578125,0.9765624403953552,-2.166747808456421,-0.9765624403953552,80.0,60902.0,0.0
14375.7677138,291884.375,297566.03125,355160.84375,351500.15625,288341.1875,257355.3125,223933.640625,245488.421875,0.00146484375,1.00244140625,0.17578125,0.9765624403953552,-2.166747808456421,-0.9765624403953552,80.0,60903.0,0.0
14375.7677141,291908.0,297857.5625,355296.375,351486.65625,288437.75,257413.078125,223979.78125,245462.3125,0.016357421875,0.989501953125,0.17529296875,1.0986326932907104,-3.051757574081421,-0.7629393935203552,80.0,60904.0,1.0
14375.7814299,291885.46875,297881.0,355259.625,351456.53125,288429.4375,257415.578125,223981.5625,245467.40625,0.015625,0.99169921875,0.1767578125,1.2512205839157104,-2.929687261581421,-0.7934569716453552,80.0,60905.0,1.0
14375.7877057,291870.78125,297611.15625,355096.5625,351462.6875,288345.84375,257377.125,223948.9375,245456.859375,0.018310546875,0.99462890625,0.17529296875,1.1901854276657104,-2.929687261581421,-0.7934569716453552,80.0,60906.0,1.0
14375.79391,291881.34375,297409.71875,355012.9375,351494.25,288295.21875,257349.59375,223934.890625,245465.078125,0.017822265625,0.995361328125,0.173583984375,1.1291502714157104,-2.960204839706421,-0.8850097060203552,80.0,60907.0,1.0
14375.830175,291905.125,297567.4375,355134.8125,351508.75,288354.3125,257369.4375,223957.609375,245469.375,0.018310546875,0.998291015625,0.1728515625,1.1291502714157104,-2.807616949081421,-0.8850097060203552,80.0,60908.0,1.0
14375.8464275,291908.875,297845.40625,355269.46875,351482.1875,288435.875,257422.734375,223996.765625,245452.46875,0.01953125,0.99658203125,0.173828125,0.9765624403953552,-2.685546636581421,-0.9765624403953552,80.0,60909.0,1.0
14375.8627116,291889.3125,297879.125,355244.875,351450.53125,288430.78125,257414.59375,223976.921875,245427.171875,0.0185546875,0.99560546875,0.17138671875,0.8239745497703552,-2.563476324081421,-1.0986326932907104,80.0,60910.0,1.0
14375.8682608,291864.8125,297609.46875,355090.375,351451.59375,288346.71875,257350.671875,223928.28125,245420.640625,0.01708984375,0.9970703125,0.170654296875,0.7629393935203552,-2.502441167831421,-1.0681151151657104,80.0,60911.0,1.0
14375.8682784,291878.46875,297415.375,355019.5625,351490.6875,288306.125,257331.4375,223923.453125,245442.015625,0.015625,0.994140625,0.17138671875,0.7019042372703552,-2.410888433456421,-1.2512205839157104,80.0,60912.0,1.0
14375.8851888,291906.09375,297576.5625,355132.3125,351509.71875,288360.125,257365.328125,223958.40625,245452.296875,0.0146484375,0.99267578125,0.1708984375,0.7324218153953552,-2.380370855331421,-1.4038084745407104,80.0,60913.0,1.0
14375.8915676,291909.15625,297849.71875,355262.03125,351481.375,288431.84375,257404.3125,223989.4375,245434.5,0.01611328125,0.992431640625,0.166259765625,0.8544921278953552,-2.349853277206421,-1.4648436307907104,80.0,60914.0,1.0
14375.8915904,291883.9375,297872.59375,355222.96875,351449.46875,288419.40625,257390.0,223971.015625,245418.859375,0.0166015625,0.993408203125,0.16796875,0.9155272841453552,-2.319335699081421,-1.5869139432907104,80.0,60915.0,1.0
14375.8915917,291862.21875,297606.34375,355068.46875,351450.875,288337.15625,257342.625,223928.640625,245411.34375,0.015625,0.99658203125,0.1708984375,0.8850097060203552,-2.380370855331421,-1.6784666776657104,80.0,60916.0,1.0
14375.891593,291874.71875,297410.625,354997.65625,351481.46875,288291.75,257323.671875,223918.53125,245406.15625,0.01171875,0.997802734375,0.17236328125,0.6713866591453552,-2.227782964706421,-1.8005369901657104,80.0,60917.0,1.0
14375.8915942,291909.3125,297582.46875,355136.59375,351506.3125,288360.125,257361.484375,223961.625,245418.671875,0.01123046875,0.998291015625,0.171875,0.6713866591453552,-2.258300542831421,-1.8615721464157104,80.0,60918.0,1.0
14375.8977139,291910.3125,297849.625,355270.1875,351478.4375,288433.28125,257400.28125,223991.578125,245413.5,0.01123046875,1.00146484375,0.176513671875,0.6103515028953552,-2.105712652206421,-1.8920897245407104,80.0,60919.0,1.0
14375.9319265,291884.84375,297872.40625,355225.65625,351441.9375,288417.8125,257388.578125,223973.515625,245400.171875,0.010498046875,1.001708984375,0.17626953125,0.5493163466453552,-2.105712652206421,-1.9836424589157104,80.0,60920.0,1.0
14375.9319491,291884.84375,297872.40625,355225.65625,351441.9375,288417.8125,257388.578125,223973.515625,245400.171875,0.010498046875,1.001708984375,0.17626953125,0.5493163466453552,-2.105712652206421,-1.9836424589157104,80.0,60921.0,0.0
14375.9319492,291884.84375,297872.40625,355225.65625,351441.9375,288417.8125,257388.578125,223973.515625,245400.171875,0.010498046875,1.001708984375,0.17626953125,0.5493163466453552,-2.105712652206421,-1.9836424589157104,80.0,60922.0,0.0
14375.9319494,291884.84375,297872.40625,355225.65625,351441.9375,288417.8125,257388.578125,223973.515625,245400.171875,0.010498046875,1.001708984375,0.17626953125,0.5493163466453552,-2.105712652206421,-1.9836424589157104,80.0,60923.0,0.0
14375.9319496,291884.84375,297872.40625,355225.65625,351441.9375,288417.8125,257388.578125,223973.515625,245400.171875,0.010498046875,1.001708984375,0.17626953125,0.5493163466453552,-2.105712652206421,-1.9836424589157104,80.0,60924.0,0.0
14375.9319498,291884.84375,297872.40625,355225.65625,351441.9375,288417.8125,257388.578125,223973.515625,245400.171875,0.010498046875,1.001708984375,0.17626953125,0.5493163466453552,-2.105712652206421,-1.9836424589157104,80.0,60925.0,0.0
14375.93195,291884.84375,297872.40625,355225.65625,351441.9375,288417.8125,257388.578125,223973.515625,245400.171875,0.010498046875,1.001708984375,0.17626953125,0.5493163466453552,-2.105712652206421,-1.9836424589157104,80.0,60926.0,0.0
14375.9319503,291884.84375,297872.40625,355225.65625,351441.9375,288417.8125,257388.578125,223973.515625,245400.171875,0.010498046875,1.001708984375,0.17626953125,0.5493163466453552,-2.105712652206421,-1.9836424589157104,80.0,60927.0,0.0
14375.9319505,291884.84375,297872.40625,355225.65625,351441.9375,288417.8125,257388.578125,223973.515625,245400.171875,0.010498046875,1.001708984375,0.17626953125,0.5493163466453552,-2.105712652206421,-1.9836424589157104,80.0,60928.0,0.0
14375.9319508,291884.84375,297872.40625,355225.65625,351441.9375,288417.8125,257388.578125,223973.515625,245400.171875,0.010498046875,1.001708984375,0.17626953125,0.5493163466453552,-2.105712652206421,-1.9836424589157104,80.0,60929.0,0.0
14375.931951,291884.84375,297872.40625,355225.65625,351441.9375,288417.8125,257388.578125,223973.515625,245400.171875,0.010498046875,1.001708984375,0.17626953125,0.5493163466453552,-2.105712652206421,-1.9836424589157104,80.0,60930.0,0.0
14375.9319512,291884.84375,297872.40625,355225.65625,351441.9375,288417.8125,257388.578125,223973.515625,245400.171875,0.010498046875,1.001708984375,0.17626953125,0.5493163466453552,-2.105712652206421,-1.9836424589157104,80.0,60931.0,0.0
14375.9319514,291884.84375,297872.40625,355225.65625,351441.9375,288417.8125,257388.578125,223973.515625,245400.171875,0.010498046875,1.001708984375,0.17626953125,0.5493163466453552,-2.105712652206421,-1.9836424589157104,80.0,60932.0,0.0
14375.9319515,291884.84375,297872.40625,355225.65625,351441.9375,288417.8125,257388.578125,223973.515625,245400.171875,0.010498046875,1.001708984375,0.17626953125,0.5493163466453552,-2.105712652206421,-1.9836424589157104,80.0,60933.0,0.0
14375.9319517,291884.84375,297872.40625,355225.65625,351441.9375,288417.8125,257388.578125,223973.515625,245400.171875,0.010498046875,1.001708984375,0.17626953125,0.5493163466453552,-2.105712652206421,-1.9836424589157104,80.0,60934.0,0.0
14375.9319519,291884.84375,297872.40625,355225.65625,351441.9375,288417.8125,257388.578125,223973.515625,245400.171875,0.010498046875,1.001708984375,0.17626953125,0.5493163466453552,-2.105712652206421,-1.9836424589157104,80.0,60935.0,0.0
14375.931952,291884.84375,297872.40625,355225.65625,351441.9375,288417.8125,257388.578125,223973.515625,245400.171875,0.010498046875,1.001708984375,0.17626953125,0.5493163466453552,-2.105712652206421,-1.9836424589157104,80.0,60936.0,0.0
14375.9319522,291884.84375,297872.40625,355225.65625,351441.9375,288417.8125,257388.578125,223973.515625,245400.171875,0.010498046875,1.001708984375,0.17626953125,0.5493163466453552,-2.105712652206421,-1.9836424589157104,80.0,60937.0,0.0
14375.9319524,291884.84375,297872.40625,355225.65625,351441.9375,288417.8125,257388.578125,223973.515625,245400.171875,0.010498046875,1.001708984375,0.17626953125,0.5493163466453552,-2.105712652206421,-1.9836424589157104,80.0,60938.0,0.0
14375.9319525,291884.84375,297872.40625,355225.65625,351441.9375,288417.8125,257388.578125,223973.515625,245400.171875,0.010498046875,1.001708984375,0.17626953125,0.5493163466453552,-2.105712652206421,-1.9836424589157104,80.0,60939.0,0.0
14375.9319527,291884.84375,297872.40625,355225.65625,351441.9375,288417.8125,257388.578125,223973.515625,245400.171875,0.010498046875,1.001708984375,0.17626953125,0.5493163466453552,-2.105712652206421,-1.9836424589157104,80.0,60940.0,0.0
14375.9319529,291884.84375,297872.40625,355225.65625,351441.9375,288417.8125,257388.578125,223973.515625,245400.171875,0.010498046875,1.001708984375,0.17626953125,0.5493163466453552,-2.105712652206421,-1.9836424589157104,80.0,60941.0,0.0
14375.931953,291884.84375,297872.40625,355225.65625,351441.9375,288417.8125,257388.578125,223973.515625,245400.171875,0.010498046875,1.001708984375,0.17626953125,0.5493163466453552,-2.105712652206421,-1.9836424589157104,80.0,60942.0,0.0
14375.9319532,291884.84375,297872.40625,355225.65625,351441.9375,288417.8125,257388.578125,223973.515625,245400.171875,0.010498046875,1.001708984375,0.17626953125,0.5493163466453552,-2.105712652206421,-1.9836424589157104,80.0,60943.0,0.0
14375.9319534,291884.84375,297872.40625,355225.65625,351441.9375,288417.8125,257388.578125,223973.515625,245400.171875,0.010498046875,1.001708984375,0.17626953125,0.5493163466453552,-2.105712652206421,-1.9836424589157104,80.0,60944.0,0.0
14375.9319536,291884.84375,297872.40625,355225.65625,351441.9375,288417.8125,257388.578125,223973.515625,245400.171875,0.010498046875,1.001708984375,0.17626953125,0.5493163466453552,-2.105712652206421,-1.9836424589157104,80.0,60945.0,0.0
14375.9319538,291884.84375,297872.40625,355225.65625,351441.9375,288417.8125,257388.578125,223973.515625,245400.171875,0.010498046875,1.001708984375,0.17626953125,0.5493163466453552,-2.105712652206421,-1.9836424589157104,80.0,60946.0,0.0
14375.9319539,291884.84375,297872.40625,355225.65625,351441.9375,288417.8125,257388.578125,223973.515625,245400.171875,0.010498046875,1.001708984375,0.17626953125,0.5493163466453552,-2.105712652206421,-1.9836424589157104,80.0,60947.0,0.0
14375.9319541,291884.84375,297872.40625,355225.65625,351441.9375,288417.8125,257388.578125,223973.515625,245400.171875,0.010498046875,1.001708984375,0.17626953125,0.5493163466453552,-2.105712652206421,-1.9836424589157104,80.0,60948.0,0.0
14375.9319543,291884.84375,297872.40625,355225.65625,351441.9375,288417.8125,257388.578125,223973.515625,245400.171875,0.010498046875,1.001708984375,0.17626953125,0.5493163466453552,-2.105712652206421,-1.9836424589157104,80.0,60949.0,0.0
14375.9319545,291884.84375,297882.78125,355220.8125,351429.25,288419.40625,257305.78125,223951.703125,245272.5,0.00927734375,0.99169921875,0.179443359375,0.5798339247703552,-0.7019042372703552,-1.4343260526657104,80.0,60950.0,1.0
14375.9319559,291869.375,297616.96875,355055.40625,351441.15625,288341.53125,257273.15625,223930.515625,245278.40625,0.007568359375,0.98974609375,0.17919921875,0.6408690810203552,-0.6103515028953552,-1.5258787870407104,80.0,60951.0,1.0
14375.9319571,291891.53125,297434.5,354989.78125,351483.53125,288304.78125,257253.75,223927.203125,245286.265625,0.0087890625,0.989501953125,0.181884765625,0.6408690810203552,-0.5493163466453552,-1.4343260526657104,80.0,60952.0,1.0
14375.9319582,291918.625,297599.8125,355128.46875,351501.6875,288368.53125,257270.640625,223951.171875,245290.296875,0.0087890625,0.990966796875,0.179443359375,0.7324218153953552,-0.5493163466453552,-1.6174315214157104,80.0,60953.0,1.0
14375.9319595,291917.46875,297872.15625,355264.375,351472.53125,288441.59375,257312.9375,223977.0,245280.359375,0.007568359375,0.99267578125,0.179443359375,0.8544921278953552,-0.4577636420726776,-1.5258787870407104,80.0,60954.0,1.0
14375.9651766,291889.65625,297886.375,355218.3125,351437.3125,288428.8125,257314.71875,223969.234375,245275.0,0.00634765625,0.994873046875,0.18212890625,0.8544921278953552,-0.5187987685203552,-1.4343260526657104,80.0,60955.0,1.0
14375.99396,291869.1875,297618.5,355058.28125,351440.59375,288342.625,257257.765625,223921.84375,245260.25,0.006591796875,0.9931640625,0.179931640625,0.8239745497703552,-0.6103515028953552,-1.3122557401657104,80.0,60956.0,1.0
14376.0451845,291879.03125,297406.0625,354961.1875,351475.3125,288286.03125,257226.21875,223908.15625,245271.78125,0.004638671875,0.995361328125,0.1796875,0.8239745497703552,-0.6713866591453552,-1.4038084745407104,80.0,60957.0,1.0
14376.0716801,291917.90625,297587.90625,355107.09375,351500.34375,288363.34375,257275.03125,223955.546875,245276.796875,0.0048828125,0.993408203125,0.18115234375,0.9155272841453552,-0.7019042372703552,-1.3427733182907104,80.0,60958.0,1.0
14376.0716953,291918.1875,297868.40625,355245.6875,351468.0625,288441.9375,257317.5,223988.09375,245282.515625,0.00390625,0.994873046875,0.18017578125,1.0070799589157104,-0.7629393935203552,-1.2817381620407104,80.0,60959.0,1.0
14376.0716976,291895.125,297894.6875,355218.78125,351433.1875,288434.0,257317.046875,223975.3125,245258.734375,0.0048828125,0.997314453125,0.18017578125,1.0070799589157104,-0.8544921278953552,-1.1291502714157104,80.0,60960.0,1.0
14376.0716996,291869.28125,297628.34375,355060.875,351433.28125,288350.40625,257255.0,223929.0,245247.28125,0.005859375,0.99755859375,0.1806640625,0.9460448622703552,-0.9460448622703552,-1.0375975370407104,80.0,60961.0,1.0
14376.0717016,291880.8125,297436.03125,354996.59375,351470.28125,288309.8125,257221.734375,223912.28125,245254.34375,0.00537109375,0.996826171875,0.17919921875,0.8850097060203552,-1.0375975370407104,-1.0070799589157104,80.0,60962.0,1.0
14376.0717035,291909.0625,297596.0625,355130.875,351491.125,288373.625,257257.5,223952.6875,245268.203125,0.0048828125,0.998046875,0.177978515625,0.9460448622703552,-1.0986326932907104,-0.9155272841453552,80.0,60963.0,1.0
14376.0738722,291919.15625,297881.90625,355279.75,351471.625,288457.84375,257306.953125,223990.5,245269.09375,0.003662109375,0.999267578125,0.17724609375,1.0681151151657104,-1.1596678495407104,-0.8850097060203552,80.0,60964.0,1.0
14376.1505134,291899.3125,297907.625,355244.0625,351442.125,288447.84375,257303.1875,223979.953125,245261.59375,0.00341796875,1.000244140625,0.177978515625,0.8239745497703552,-1.2512205839157104,-0.9155272841453552,80.0,60965.0,1.0
14376.1505286,291876.15625,297641.46875,355080.28125,351445.15625,288360.59375,257250.171875,223945.796875,245271.875,0.003662109375,0.9990234375,0.1787109375,0.9155272841453552,-1.3122557401657104,-0.8850097060203552,80.0,60966.0,1.0
14376.1505299,291889.3125,297444.25,355006.96875,351482.4375,288314.375,257226.5625,223934.625,245278.578125,0.004638671875,1.0009765625,0.17724609375,0.9460448622703552,-1.5258787870407104,-0.9460448622703552,80.0,60967.0,1.0
14376.1505311,291918.625,297597.03125,355126.15625,351498.90625,288368.1875,257244.265625,223954.296875,245270.625,0.00146484375,1.003173828125,0.17919921875,0.8850097060203552,-1.5563963651657104,-1.0375975370407104,80.0,60968.0,1.0
14376.1505323,291918.96875,297866.0625,355258.03125,351467.6875,288436.84375,257270.734375,223974.234375,245260.25,0.002197265625,1.003173828125,0.1748046875,0.8544921278953552,-1.7700194120407104,-0.9765624403953552,80.0,60969.0,1.0
14376.1505335,291897.53125,297894.9375,355229.21875,351439.28125,288435.5,257274.3125,223974.953125,245259.359375,0.002685546875,1.002685546875,0.176025390625,0.6408690810203552,-1.8615721464157104,-0.9460448622703552,80.0,60970.0,1.0
14376.1505347,291881.6875,297636.03125,355078.75,351447.03125,288359.5,257242.125,223945.71875,245255.421875,0.00341796875,0.998779296875,0.177490234375,0.6103515028953552,-1.9836424589157104,-1.0070799589157104,80.0,60971.0,1.0
14376.1505359,291893.0625,297445.21875,355012.25,351482.0,288316.78125,257220.84375,223932.484375,245264.265625,0.004150390625,0.998046875,0.174072265625,0.6408690810203552,-2.136230230331421,-0.9155272841453552,80.0,60972.0,1.0
14376.1505371,291924.4375,297617.25,355155.8125,351504.0,288390.625,257276.015625,223978.703125,245273.21875,0.006591796875,0.994873046875,0.17333984375,0.6408690810203552,-2.136230230331421,-0.8544921278953552,80.0,60973.0,1.0
14376.1505382,291925.25,297894.59375,355298.25,351471.71875,288459.375,257276.375,223980.21875,245257.296875,0.0087890625,0.996337890625,0.1728515625,0.7019042372703552,-2.197265386581421,-0.8544921278953552,80.0,60974.0,1.0
14376.1505397,291901.8125,297916.59375,355260.0625,351434.34375,288446.0625,257248.828125,223956.4375,245249.4375,0.00830078125,0.998046875,0.170654296875,0.7934569716453552,-2.136230230331421,-0.8239745497703552,80.0,60975.0,1.0
14376.1760946,291880.0,297638.15625,355078.03125,351436.125,288357.53125,257211.640625,223925.15625,245248.265625,0.009033203125,0.99853515625,0.175048828125,0.7629393935203552,-2.105712652206421,-0.8850097060203552,80.0,60976.0,1.0
14376.1801796,291880.0,297638.15625,355078.03125,351436.125,288357.53125,257211.640625,223925.15625,245248.265625,0.009033203125,0.99853515625,0.175048828125,0.7629393935203552,-2.105712652206421,-0.8850097060203552,80.0,60977.0,0.0
14376.1801804,291880.0,297638.15625,355078.03125,351436.125,288357.53125,257211.640625,223925.15625,245248.265625,0.009033203125,0.99853515625,0.175048828125,0.7629393935203552,-2.105712652206421,-0.8850097060203552,80.0,60978.0,0.0
14376.1801805,291880.0,297638.15625,355078.03125,351436.125,288357.53125,257211.640625,223925.15625,245248.265625,0.009033203125,0.99853515625,0.175048828125,0.7629393935203552,-2.105712652206421,-0.8850097060203552,80.0,60979.0,0.0
14376.1801807,291880.0,297638.15625,355078.03125,351436.125,288357.53125,257211.640625,223925.15625,245248.265625,0.009033203125,0.99853515625,0.175048828125,0.7629393935203552,-2.105712652206421,-0.8850097060203552,80.0,60980.0,0.0
14376.1801809,291880.0,297638.15625,355078.03125,351436.125,288357.53125,257211.640625,223925.15625,245248.265625,0.009033203125,0.99853515625,0.175048828125,0.7629393935203552,-2.105712652206421,-0.8850097060203552,80.0,60981.0,0.0
14376.1801811,291880.0,297638.15625,355078.03125,351436.125,288357.53125,257211.640625,223925.15625,245248.265625,0.009033203125,0.99853515625,0.175048828125,0.7629393935203552,-2.105712652206421,-0.8850097060203552,80.0,60982.0,0.0
14376.1801813,291880.0,297638.15625,355078.03125,351436.125,288357.53125,257211.640625,223925.15625,245248.265625,0.009033203125,0.99853515625,0.175048828125,0.7629393935203552,-2.105712652206421,-0.8850097060203552,80.0,60983.0,0.0
14376.1801815,291880.0,297638.15625,355078.03125,351436.125,288357.53125,257211.640625,223925.15625,245248.265625,0.009033203125,0.99853515625,0.175048828125,0.7629393935203552,-2.105712652206421,-0.8850097060203552,80.0,60984.0,0.0
14376.1801817,291880.0,297638.15625,355078.03125,351436.125,288357.53125,257211.640625,223925.15625,245248.265625,0.009033203125,0.99853515625,0.175048828125,0.7629393935203552,-2.105712652206421,-0.8850097060203552,80.0,60985.0,0.0
14376.1801818,291880.0,297638.15625,355078.03125,351436.125,288357.53125,257211.640625,223925.15625,245248.265625,0.009033203125,0.99853515625,0.175048828125,0.7629393935203552,-2.105712652206421,-0.8850097060203552,80.0,60986.0,0.0
14376.180182,291880.0,297638.15625,355078.03125,351436.125,288357.53125,257211.640625,223925.15625,245248.265625,0.009033203125,0.99853515625,0.175048828125,0.7629393935203552,-2.105712652206421,-0.8850097060203552,80.0,60987.0,0.0
14376.1801822,291880.0,297638.15625,355078.03125,351436.125,288357.53125,257211.640625,223925.15625,245248.265625,0.009033203125,0.99853515625,0.175048828125,0.7629393935203552,-2.105712652206421,-0.8850097060203552,80.0,60988.0,0.0
14376.1801824,291880.0,297638.15625,355078.03125,351436.125,288357.53125,257211.640625,223925.15625,245248.265625,0.009033203125,0.99853515625,0.175048828125,0.7629393935203552,-2.105712652206421,-0.8850097060203552,80.0,60989.0,0.0
14376.1801825,291880.0,297638.15625,355078.03125,351436.125,288357.53125,257211.640625,223925.15625,245248.265625,0.009033203125,0.99853515625,0.175048828125,0.7629393935203552,-2.105712652206421,-0.8850097060203552,80.0,60990.0,0.0
14376.1801827,291880.0,297638.15625,355078.03125,351436.125,288357.53125,257211.640625,223925.15625,245248.265625,0.009033203125,0.99853515625,0.175048828125,0.7629393935203552,-2.105712652206421,-0.8850097060203552,80.0,60991.0,0.0
14376.1801829,291880.0,297638.15625,355078.03125,351436.125,288357.53125,257211.640625,223925.15625,245248.265625,0.009033203125,0.99853515625,0.175048828125,0.7629393935203552,-2.105712652206421,-0.8850097060203552,80.0,60992.0,0.0
14376.1801831,291880.0,297638.15625,355078.03125,351436.125,288357.53125,257211.640625,223925.15625,245248.265625,0.009033203125,0.99853515625,0.175048828125,0.7629393935203552,-2.105712652206421,-0.8850097060203552,80.0,60993.0,0.0
14376.1801832,291880.0,297638.15625,355078.03125,351436.125,288357.53125,257211.640625,223925.15625,245248.265625,0.009033203125,0.99853515625,0.175048828125,0.7629393935203552,-2.105712652206421,-0.8850097060203552,80.0,60994.0,0.0
14376.1801834,291880.0,297638.15625,355078.03125,351436.125,288357.53125,257211.640625,223925.15625,245248.265625,0.009033203125,0.99853515625,0.175048828125,0.7629393935203552,-2.105712652206421,-0.8850097060203552,80.0,60995.0,0.0
14376.1801836,291880.0,297638.15625,355078.03125,351436.125,288357.53125,257211.640625,223925.15625,245248.265625,0.009033203125,0.99853515625,0.175048828125,0.7629393935203552,-2.105712652206421,-0.8850097060203552,80.0,60996.0,0.0
14376.1801838,291880.0,297638.15625,355078.03125,351436.125,288357.53125,257211.640625,223925.15625,245248.265625,0.009033203125,0.99853515625,0.175048828125,0.7629393935203552,-2.105712652206421,-0.8850097060203552,80.0,60997.0,0.0
14376.1801839,291880.0,297638.15625,355078.03125,351436.125,288357.53125,257211.640625,223925.15625,245248.265625,0.009033203125,0.99853515625,0.175048828125,0.7629393935203552,-2.105712652206421,-0.8850097060203552,80.0,60998.0,0.0
14376.1801841,291880.0,297638.15625,355078.03125,351436.125,288357.53125,257211.640625,223925.15625,245248.265625,0.009033203125,0.99853515625,0.175048828125,0.7629393935203552,-2.105712652206421,-0.8850097060203552,80.0,60999.0,0.0
14376.1801843,291880.0,297638.15625,355078.03125,351436.125,288357.53125,257211.640625,223925.15625,245248.265625,0.009033203125,0.99853515625,0.175048828125,0.7629393935203552,-2.105712652206421,-0.8850097060203552,80.0,61000.0,0.0
14376.1801845,291887.25,297647.75,355082.4375,351431.125,288364.59375,257147.09375,223919.15625,245167.359375,0.0029296875,0.995849609375,0.174072265625,0.5187987685203552,-1.0986326932907104,-0.4577636420726776,80.0,61001.0,1.0
14376.1826815,291898.5,297451.84375,355009.90625,351462.6875,288319.71875,257118.484375,223902.890625,245154.921875,0.00341796875,0.99560546875,0.175048828125,0.4272460639476776,-1.2817381620407104,-0.3967284858226776,80.0,61002.0,1.0
14376.1910833,291923.90625,297592.5625,355123.46875,351479.6875,288376.78125,257147.265625,223940.703125,245128.375,0.003662109375,0.994140625,0.17626953125,0.4577636420726776,-1.2512205839157104,-0.3051757514476776,80.0,61003.0,1.0
14376.1911024,291926.5,297863.375,355243.1875,351452.40625,288448.5625,257195.546875,223976.03125,245098.421875,0.005126953125,0.995849609375,0.1728515625,0.2746581733226776,-1.3732908964157104,-0.2746581733226776,80.0,61004.0,1.0
14376.1911042,291899.59375,297895.75,355214.46875,351415.3125,288439.53125,257182.84375,223952.515625,245057.75,0.005126953125,0.994140625,0.171142578125,0.3662109076976776,-1.4953612089157104,-0.2441406100988388,80.0,61005.0,1.0
14376.1911055,291883.5,297633.96875,355056.59375,351422.0,288358.78125,257132.15625,223912.09375,245038.078125,0.005126953125,0.9951171875,0.17431640625,0.3662109076976776,-1.6174315214157104,-0.1831054538488388,80.0,61006.0,1.0
14376.1911067,291895.28125,297432.0,354979.59375,351461.34375,288318.03125,257115.703125,223909.0625,245044.515625,0.00634765625,0.995849609375,0.173095703125,0.3967284858226776,-1.6784666776657104,-0.1220703050494194,80.0,61007.0,1.0
14376.1938834,291931.78125,297610.71875,355126.84375,351489.0625,288392.875,257165.59375,223953.40625,245058.8125,0.005126953125,0.993408203125,0.175048828125,0.3662109076976776,-1.5869139432907104,-0.1831054538488388,80.0,61008.0,1.0
14376.1938895,291925.40625,297867.59375,355241.84375,351454.09375,288452.75,257187.59375,223968.609375,245046.390625,0.007568359375,0.994384765625,0.174560546875,0.3967284858226776,-1.5869139432907104,-0.2441406100988388,80.0,61009.0,1.0
14376.1938908,291896.71875,297884.46875,355195.96875,351415.125,288437.75,257166.9375,223952.78125,245035.03125,0.009521484375,0.995849609375,0.173583984375,0.5187987685203552,-1.6479490995407104,-0.2441406100988388,80.0,61010.0,1.0
14376.2011073,291872.5,297618.5,355039.6875,351415.75,288355.65625,257120.625,223916.484375,245020.8125,0.009765625,0.997314453125,0.170166015625,0.4577636420726776,-1.6479490995407104,-0.2746581733226776,80.0,61011.0,1.0
14376.201121,291892.6875,297433.5,354991.40625,351459.375,288325.4375,257103.546875,223912.1875,245033.953125,0.01025390625,0.9970703125,0.17138671875,0.4882812201976776,-1.6174315214157104,-0.3967284858226776,80.0,61012.0,1.0
14376.2011271,291932.125,297610.625,355145.90625,351487.8125,288400.625,257141.28125,223956.53125,245050.765625,0.010498046875,0.99658203125,0.16796875,0.4882812201976776,-1.6174315214157104,-0.5493163466453552,80.0,61013.0,1.0
14376.2011284,291930.0625,297878.75,355271.15625,351461.8125,288474.5,257184.640625,223997.21875,245065.609375,0.01220703125,0.995849609375,0.167236328125,0.5187987685203552,-1.5563963651657104,-0.4882812201976776,80.0,61014.0,1.0
14376.2011296,291898.40625,297890.46875,355210.1875,351419.40625,288447.75,257169.890625,223972.171875,245043.796875,0.01318359375,0.99658203125,0.171630859375,0.6103515028953552,-1.6174315214157104,-0.3662109076976776,80.0,61015.0,1.0
14376.203767,291881.96875,297632.625,355059.09375,351419.34375,288361.46875,257109.0,223911.828125,245013.578125,0.014404296875,0.996826171875,0.17236328125,0.5493163466453552,-1.4038084745407104,-0.4882812201976776,80.0,61016.0,1.0
14376.203787,291891.09375,297422.0625,354976.03125,351453.75,288311.9375,257073.5,223902.890625,245025.109375,0.015380859375,0.9951171875,0.1728515625,0.5798339247703552,-1.3427733182907104,-0.6103515028953552,80.0,61017.0,1.0
14376.2037884,291921.3125,297577.5625,355097.53125,351473.96875,288370.5,257110.15625,223937.21875,245037.984375,0.01513671875,0.994140625,0.17626953125,0.6103515028953552,-1.2512205839157104,-0.7019042372703552,80.0,61018.0,1.0
14376.2139653,291930.4375,297866.34375,355249.34375,351456.25,288455.0,257154.421875,223967.0,245040.9375,0.015869140625,0.993896484375,0.171875,0.5493163466453552,-1.1291502714157104,-0.7934569716453552,80.0,61019.0,1.0
14376.2314506,291901.375,297889.40625,355213.59375,351418.4375,288441.125,257131.890625,223945.09375,245021.71875,0.017333984375,0.992919921875,0.168212890625,0.3967284858226776,-1.0681151151657104,-0.8544921278953552,80.0,61020.0,1.0
14376.2489219,291876.0625,297616.96875,355044.15625,351416.375,288353.15625,257081.28125,223910.21875,245016.890625,0.01513671875,0.9931640625,0.169189453125,0.3662109076976776,-1.0681151151657104,-0.8544921278953552,80.0,61021.0,1.0
14376.2627038,291892.4375,297429.125,354978.09375,351458.125,288319.09375,257079.578125,223921.84375,245037.359375,0.01025390625,0.9951171875,0.168701171875,0.3051757514476776,-0.9460448622703552,-0.8544921278953552,80.0,61022.0,1.0
14376.2664639,291924.71875,297601.34375,355127.65625,351480.3125,288389.90625,257115.890625,223953.40625,245043.171875,0.008544921875,0.994873046875,0.1689453125,0.3051757514476776,-0.8544921278953552,-0.8850097060203552,80.0,61023.0,1.0
14376.2701715,291931.5,297881.8125,355276.875,351454.8125,288463.125,257131.4375,223951.796875,245021.984375,0.008056640625,0.995849609375,0.168701171875,0.4577636420726776,-0.7629393935203552,-0.9460448622703552,80.0,61024.0,1.0
14376.2727108,291892.4375,297889.03125,355222.6875,351405.75,288436.59375,257104.34375,223923.359375,244999.53125,0.007568359375,0.995361328125,0.16943359375,0.5187987685203552,-0.8239745497703552,-1.0375975370407104,80.0,61025.0,1.0
14376.2798482,291866.5,297616.34375,355050.59375,351403.5,288347.4375,257057.6875,223891.359375,245002.21875,0.007080078125,0.99365234375,0.17041015625,0.5187987685203552,-0.8544921278953552,-1.1291502714157104,80.0,61026.0,1.0
14376.2798614,291885.625,297425.65625,354987.84375,351446.59375,288312.84375,257045.078125,223895.015625,245021.265625,0.008056640625,0.99169921875,0.171142578125,0.3967284858226776,-0.9765624403953552,-1.2817381620407104,80.0,61027.0,1.0
14376.2798689,291928.0,297598.5625,355136.15625,351478.875,288390.0,257097.734375,223945.890625,245044.6875,0.006591796875,0.991943359375,0.169189453125,0.4577636420726776,-1.0375975370407104,-1.2512205839157104,80.0,61028.0,1.0
14376.2798764,291931.5,297874.90625,355275.09375,351453.03125,288465.46875,257137.4375,223971.734375,245033.515625,0.004638671875,0.99169921875,0.17041015625,0.5493163466453552,-1.1901854276657104,-1.0986326932907104,80.0,61029.0,1.0
14376.2798818,291902.25,297895.125,355223.78125,351409.59375,288447.21875,257126.25,223949.015625,245012.140625,0.004150390625,0.9951171875,0.16845703125,0.5798339247703552,-1.2207030057907104,-1.1291502714157104,80.0,61030.0,1.0
14376.279883,291879.09375,297630.3125,355053.90625,351410.75,288358.96875,257072.34375,223907.0,245015.453125,0.001953125,0.9970703125,0.170166015625,0.7324218153953552,-1.3427733182907104,-1.0681151151657104,80.0,61031.0,1.0
14376.2798842,291894.03125,297434.59375,354980.84375,351449.28125,288315.0,257046.0625,223903.0625,245017.953125,0.003173828125,0.998291015625,0.168212890625,0.6103515028953552,-1.4343260526657104,-1.0986326932907104,80.0,61032.0,1.0
14376.288485,291929.1875,297601.5,355120.78125,351475.5625,288382.5,257084.0625,223939.8125,245020.640625,0.002685546875,0.998046875,0.172119140625,0.5493163466453552,-1.5258787870407104,-1.0681151151657104,80.0,61033.0,1.0
14376.2884892,291925.34375,297873.5,355256.9375,351445.4375,288452.9375,257118.296875,223966.09375,245016.609375,0.002197265625,0.996826171875,0.17236328125,0.5187987685203552,-1.6784666776657104,-0.9155272841453552,80.0,61034.0,1.0
14376.2884905,291894.125,297895.40625,355213.59375,351407.78125,288433.4375,257097.734375,223941.515625,245005.078125,0.002685546875,0.998046875,0.17333984375,0.5798339247703552,-1.7700194120407104,-0.8544921278953552,80.0,61035.0,1.0
14376.2884917,291874.0,297629.5,355052.375,351410.5625,288347.34375,257032.015625,223891.984375,245005.4375,0.0029296875,0.99755859375,0.172119140625,0.5798339247703552,-1.9226073026657104,-0.8239745497703552,80.0,61036.0,1.0
14376.288493,291889.3125,297430.125,354977.09375,351445.78125,288304.4375,257012.4375,223885.359375,245005.53125,0.00439453125,0.99755859375,0.168212890625,0.4882812201976776,-2.044677495956421,-0.7019042372703552,80.0,61037.0,1.0
14376.2884942,291932.9375,297604.90625,355130.15625,351482.375,288389.28125,257073.234375,223944.640625,245031.375,0.00439453125,0.998046875,0.16845703125,0.5493163466453552,-2.258300542831421,-0.7934569716453552,80.0,61038.0,1.0
14376.2884953,291938.28125,297892.25,355287.625,351461.8125,288479.59375,257126.96875,223987.375,245033.6875,0.005859375,0.99658203125,0.167724609375,0.5798339247703552,-2.349853277206421,-0.6713866591453552,80.0,61039.0,1.0
14376.2884966,291913.875,297926.25,355257.84375,351424.875,288467.25,257103.359375,223959.125,245007.671875,0.00634765625,0.996826171875,0.166748046875,0.6103515028953552,-2.471923589706421,-0.5798339247703552,80.0,61040.0,1.0
14376.2884977,291882.40625,297641.03125,355070.8125,351413.0625,288363.34375,257027.734375,223897.34375,244987.296875,0.0078125,0.997802734375,0.16796875,0.5187987685203552,-2.563476324081421,-0.5493163466453552,80.0,61041.0,1.0
14376.2884991,291893.40625,297427.78125,354967.90625,351449.625,288309.625,257011.1875,223894.390625,245010.359375,0.010498046875,0.9970703125,0.16943359375,0.4577636420726776,-2.563476324081421,-0.5493163466453552,80.0,61042.0,1.0
14376.2902794,291925.78125,297581.46875,355086.4375,351469.65625,288369.875,257048.734375,223929.078125,245002.75,0.0126953125,0.998046875,0.168212890625,0.4577636420726776,-2.624511480331421,-0.4272460639476776,80.0,61043.0,1.0
14376.3077437,291930.78125,297867.21875,355233.875,351446.875,288455.53125,257088.96875,223957.515625,244998.46875,0.010986328125,0.995361328125,0.172119140625,0.3662109076976776,-2.441406011581421,-0.3967284858226776,80.0,61044.0,1.0
14376.3226858,291903.15625,297897.1875,355201.6875,351407.625,288440.875,257063.21875,223927.75,244978.078125,0.01416015625,0.993896484375,0.169921875,0.3967284858226776,-2.410888433456421,-0.3662109076976776,80.0,61045.0,1.0
14376.3377366,291882.875,297637.1875,355049.625,351412.34375,288362.5625,257016.375,223894.390625,244983.796875,0.014892578125,0.994384765625,0.16943359375,0.5187987685203552,-2.227782964706421,-0.3662109076976776,80.0,61046.0,1.0
14376.3740147,291897.96875,297430.125,354969.21875,351451.59375,288320.0,256995.28125,223890.734375,245002.578125,0.016845703125,0.99462890625,0.1708984375,0.4882812201976776,-2.044677495956421,-0.3356933295726776,80.0,61047.0,1.0
14376.3740331,291939.375,297601.6875,355112.375,351478.875,288390.1875,257042.921875,223924.609375,244995.515625,0.017333984375,0.99365234375,0.166748046875,0.5493163466453552,-1.9531248807907104,-0.3662109076976776,80.0,61048.0,1.0
14376.3740358,291940.71875,297879.65625,355255.78125,351452.5,288466.34375,257085.03125,223950.71875,244985.0625,0.01708984375,0.9970703125,0.168212890625,0.4882812201976776,-1.7700194120407104,-0.3356933295726776,80.0,61049.0,1.0
14376.3740375,291916.375,297911.9375,355223.25,351417.625,288459.90625,257082.0,223947.859375,244985.953125,0.01708984375,0.99609375,0.166015625,0.4882812201976776,-1.6784666776657104,-0.2136230319738388,80.0,61050.0,1.0
14376.3740393,291896.28125,297646.9375,355063.03125,351422.8125,288377.21875,257035.953125,223913.796875,244990.421875,0.01611328125,0.994384765625,0.16650390625,0.4272460639476776,-1.4648436307907104,-0.3051757514476776,80.0,61051.0,1.0
14376.4082737,291907.34375,297449.25,354992.03125,351453.125,288328.21875,257014.40625,223895.5625,244983.453125,0.017333984375,0.99658203125,0.17041015625,0.4272460639476776,-1.3427733182907104,-0.2746581733226776,80.0,61052.0,1.0
14376.4082931,291950.09375,297623.875,355133.46875,351483.625,288399.3125,257054.28125,223937.75,245006.515625,0.017822265625,0.99755859375,0.166015625,0.3356933295726776,-1.0986326932907104,-0.4577636420726776,80.0,61053.0,1.0
14376.4082957,291951.625,297892.34375,355263.375,351455.8125,288469.46875,257077.703125,223956.890625,244999.8125,0.018310546875,0.998046875,0.16845703125,0.2441406100988388,-0.9765624403953552,-0.6103515028953552,80.0,61054.0,1.0
14376.4477822,291926.84375,297917.84375,355223.96875,351418.0,288459.375,257078.875,223949.109375,244984.96875,0.019775390625,0.997314453125,0.1669921875,0.2746581733226776,-0.8544921278953552,-0.5187987685203552,80.0,61055.0,1.0
14376.4478019,291903.96875,297660.34375,355061.6875,351417.1875,288374.71875,257034.703125,223911.203125,244979.0625,0.017578125,0.996826171875,0.1689453125,0.3356933295726776,-0.6713866591453552,-0.6408690810203552,80.0,61056.0,1.0
14376.4478045,291913.71875,297457.5625,354988.09375,351452.6875,288329.1875,256997.78125,223893.046875,244984.25,0.015380859375,0.997314453125,0.167236328125,0.3662109076976776,-0.5798339247703552,-0.6713866591453552,80.0,61057.0,1.0
14376.44781,291913.71875,297457.5625,354988.09375,351452.6875,288329.1875,256997.78125,223893.046875,244984.25,0.015380859375,0.997314453125,0.167236328125,0.3662109076976776,-0.5798339247703552,-0.6713866591453552,80.0,61058.0,0.0
14376.4478104,291913.71875,297457.5625,354988.09375,351452.6875,288329.1875,256997.78125,223893.046875,244984.25,0.015380859375,0.997314453125,0.167236328125,0.3662109076976776,-0.5798339247703552,-0.6713866591453552,80.0,61059.0,0.0
14376.4478108,291913.71875,297457.5625,354988.09375,351452.6875,288329.1875,256997.78125,223893.046875,244984.25,0.015380859375,0.997314453125,0.167236328125,0.3662109076976776,-0.5798339247703552,-0.6713866591453552,80.0,61060.0,0.0
14376.4478111,291913.71875,297457.5625,354988.09375,351452.6875,288329.1875,256997.78125,223893.046875,244984.25,0.015380859375,0.997314453125,0.167236328125,0.3662109076976776,-0.5798339247703552,-0.6713866591453552,80.0,61061.0,0.0
14376.4478114,291913.71875,297457.5625,354988.09375,351452.6875,288329.1875,256997.78125,223893.046875,244984.25,0.015380859375,0.997314453125,0.167236328125,0.3662109076976776,-0.5798339247703552,-0.6713866591453552,80.0,61062.0,0.0
14376.4478117,291913.71875,297457.5625,354988.09375,351452.6875,288329.1875,256997.78125,223893.046875,244984.25,0.015380859375,0.997314453125,0.167236328125,0.3662109076976776,-0.5798339247703552,-0.6713866591453552,80.0,61063.0,0.0
14376.4478121,291913.71875,297457.5625,354988.09375,351452.6875,288329.1875,256997.78125,223893.046875,244984.25,0.015380859375,0.997314453125,0.167236328125,0.3662109076976776,-0.5798339247703552,-0.6713866591453552,80.0,61064.0,0.0
14376.4478125,291913.71875,297457.5625,354988.09375,351452.6875,288329.1875,256997.78125,223893.046875,244984.25,0.015380859375,0.997314453125,0.167236328125,0.3662109076976776,-0.5798339247703552,-0.6713866591453552,80.0,61065.0,0.0
14376.4478128,291913.71875,297457.5625,354988.09375,351452.6875,288329.1875,256997.78125,223893.046875,244984.25,0.015380859375,0.997314453125,0.167236328125,0.3662109076976776,-0.5798339247703552,-0.6713866591453552,80.0,61066.0,0.0
14376.447813,291913.71875,297457.5625,354988.09375,351452.6875,288329.1875,256997.78125,223893.046875,244984.25,0.015380859375,0.997314453125,0.167236328125,0.3662109076976776,-0.5798339247703552,-0.6713866591453552,80.0,61067.0,0.0
14376.4478133,291913.71875,297457.5625,354988.09375,351452.6875,288329.1875,256997.78125,223893.046875,244984.25,0.015380859375,0.997314453125,0.167236328125,0.3662109076976776,-0.5798339247703552,-0.6713866591453552,80.0,61068.0,0.0
14376.4478136,291913.71875,297457.5625,354988.09375,351452.6875,288329.1875,256997.78125,223893.046875,244984.25,0.015380859375,0.997314453125,0.167236328125,0.3662109076976776,-0.5798339247703552,-0.6713866591453552,80.0,61069.0,0.0
14376.447814,291913.71875,297457.5625,354988.09375,351452.6875,288329.1875,256997.78125,223893.046875,244984.25,0.015380859375,0.997314453125,0.167236328125,0.3662109076976776,-0.5798339247703552,-0.6713866591453552,80.0,61070.0,0.0
14376.4478143,291913.71875,297457.5625,354988.09375,351452.6875,288329.1875,256997.78125,223893.046875,244984.25,0.015380859375,0.997314453125,0.167236328125,0.3662109076976776,-0.5798339247703552,-0.6713866591453552,80.0,61071.0,0.0
14376.4478146,291913.71875,297457.5625,354988.09375,351452.6875,288329.1875,256997.78125,223893.046875,244984.25,0.015380859375,0.997314453125,0.167236328125,0.3662109076976776,-0.5798339247703552,-0.6713866591453552,80.0,61072.0,0.0
14376.4478149,291913.71875,297457.5625,354988.09375,351452.6875,288329.1875,256997.78125,223893.046875,244984.25,0.015380859375,0.997314453125,0.167236328125,0.3662109076976776,-0.5798339247703552,-0.6713866591453552,80.0,61073.0,0.0
14376.4478152,291913.71875,297457.5625,354988.09375,351452.6875,288329.1875,256997.78125,223893.046875,244984.25,0.015380859375,0.997314453125,0.167236328125,0.3662109076976776,-0.5798339247703552,-0.6713866591453552,80.0,61074.0,0.0
14376.4478156,291913.71875,297457.5625,354988.09375,351452.6875,288329.1875,256997.78125,223893.046875,244984.25,0.015380859375,0.997314453125,0.167236328125,0.3662109076976776,-0.5798339247703552,-0.6713866591453552,80.0,61075.0,0.0
14376.4478159,291913.71875,297457.5625,354988.09375,351452.6875,288329.1875,256997.78125,223893.046875,244984.25,0.015380859375,0.997314453125,0.167236328125,0.3662109076976776,-0.5798339247703552,-0.6713866591453552,80.0,61076.0,0.0
14376.4478163,291913.71875,297457.5625,354988.09375,351452.6875,288329.1875,256997.78125,223893.046875,244984.25,0.015380859375,0.997314453125,0.167236328125,0.3662109076976776,-0.5798339247703552,-0.6713866591453552,80.0,61077.0,0.0
14376.4478166,291913.71875,297457.5625,354988.09375,351452.6875,288329.1875,256997.78125,223893.046875,244984.25,0.015380859375,0.997314453125,0.167236328125,0.3662109076976776,-0.5798339247703552,-0.6713866591453552,80.0,61078.0,0.0
14376.4478169,291913.71875,297457.5625,354988.09375,351452.6875,288329.1875,256997.78125,223893.046875,244984.25,0.015380859375,0.997314453125,0.167236328125,0.3662109076976776,-0.5798339247703552,-0.6713866591453552,80.0,61079.0,0.0
14376.4478173,291913.71875,297457.5625,354988.09375,351452.6875,288329.1875,256997.78125,223893.046875,244984.25,0.015380859375,0.997314453125,0.167236328125,0.3662109076976776,-0.5798339247703552,-0.6713866591453552,80.0,61080.0,0.0
14376.4478176,291913.71875,297457.5625,354988.09375,351452.6875,288329.1875,256997.78125,223893.046875,244984.25,0.015380859375,0.997314453125,0.167236328125,0.3662109076976776,-0.5798339247703552,-0.6713866591453552,80.0,61081.0,0.0
14376.4478179,291913.71875,297457.5625,354988.09375,351452.6875,288329.1875,256997.78125,223893.046875,244984.25,0.015380859375,0.997314453125,0.167236328125,0.3662109076976776,-0.5798339247703552,-0.6713866591453552,80.0,61082.0,0.0
14376.4478182,291913.71875,297457.5625,354988.09375,351452.6875,288329.1875,256997.78125,223893.046875,244984.25,0.015380859375,0.997314453125,0.167236328125,0.3662109076976776,-0.5798339247703552,-0.6713866591453552,80.0,61083.0,0.0
14376.4478185,291913.71875,297457.5625,354988.09375,351452.6875,288329.1875,256997.78125,223893.046875,244984.25,0.015380859375,0.997314453125,0.167236328125,0.3662109076976776,-0.5798339247703552,-0.6713866591453552,80.0,61084.0,0.0
14376.4478189,291913.71875,297457.5625,354988.09375,351452.6875,288329.1875,256997.78125,223893.046875,244984.25,0.015380859375,0.997314453125,0.167236328125,0.3662109076976776,-0.5798339247703552,-0.6713866591453552,80.0,61085.0,0.0
14376.4478192,291913.71875,297457.5625,354988.09375,351452.6875,288329.1875,256997.78125,223893.046875,244984.25,0.015380859375,0.997314453125,0.167236328125,0.3662109076976776,-0.5798339247703552,-0.6713866591453552,80.0,61086.0,0.0
14376.4478195,291913.71875,297457.5625,354988.09375,351452.6875,288329.1875,256997.78125,223893.046875,244984.25,0.015380859375,0.997314453125,0.167236328125,0.3662109076976776,-0.5798339247703552,-0.6713866591453552,80.0,61087.0,0.0
14376.4478199,291913.71875,297457.5625,354988.09375,351452.6875,288329.1875,256997.78125,223893.046875,244984.25,0.015380859375,0.997314453125,0.167236328125,0.3662109076976776,-0.5798339247703552,-0.6713866591453552,80.0,61088.0,0.0
14376.4478202,291913.71875,297457.5625,354988.09375,351452.6875,288329.1875,256997.78125,223893.046875,244984.25,0.015380859375,0.997314453125,0.167236328125,0.3662109076976776,-0.5798339247703552,-0.6713866591453552,80.0,61089.0,0.0
14376.4478205,291913.71875,297457.5625,354988.09375,351452.6875,288329.1875,256997.78125,223893.046875,244984.25,0.015380859375,0.997314453125,0.167236328125,0.3662109076976776,-0.5798339247703552,-0.6713866591453552,80.0,61090.0,0.0
14376.4478208,291873.375,297645.3125,355026.46875,351359.5,288355.9375,256944.578125,223892.609375,244976.03125,0.01806640625,0.994873046875,0.173583984375,-1.8615721464157104,-0.2746581733226776,-1.1901854276657104,80.0,61091.0,1.0
14376.4478229,291885.90625,297441.5625,354953.21875,351399.75,288310.6875,256928.484375,223888.21875,244996.234375,0.017333984375,0.992919921875,0.17822265625,-1.8615721464157104,-0.1525878757238388,-1.3732908964157104,80.0,61092.0,1.0
14376.4582181,291917.71875,297602.125,355087.6875,351427.8125,288381.59375,256978.90625,223942.140625,245021.4375,0.017578125,0.994384765625,0.177490234375,-1.9226073026657104,-0.0610351525247097,-1.3732908964157104,80.0,61093.0,1.0
14376.4582301,291929.1875,297892.1875,355235.75,351408.25,288473.78125,257046.765625,223990.328125,245020.640625,0.017578125,0.99365234375,0.176513671875,-1.9226073026657104,0.0915527269244194,-1.3732908964157104,80.0,61094.0,1.0
14376.4582337,291902.1875,297926.0625,355201.25,351372.375,288462.96875,257036.21875,223968.953125,245010.09375,0.017578125,0.994384765625,0.17919921875,-1.9226073026657104,0.1831054538488388,-1.3732908964157104,80.0,61095.0,1.0
14376.4795179,291889.21875,297671.4375,355051.75,351377.3125,288382.5,256963.796875,223919.703125,245005.0,0.012939453125,0.991455078125,0.17724609375,-1.8920897245407104,0.2136230319738388,-1.5258787870407104,80.0,61096.0,1.0
14376.4795325,291912.1875,297477.9375,354989.96875,351418.53125,288345.21875,256948.875,223910.75,245005.4375,0.01171875,0.9921875,0.17626953125,-1.8920897245407104,0.1831054538488388,-1.5258787870407104,80.0,61097.0,1.0
14376.4945072,291947.15625,297635.9375,355127.125,351439.34375,288410.75,256984.28125,223945.796875,245013.125,0.01123046875,0.991943359375,0.17626953125,-1.8920897245407104,0.1831054538488388,-1.4648436307907104,80.0,61098.0,1.0
14376.4945278,291945.71875,297906.9375,355265.09375,351407.53125,288480.3125,257005.828125,223963.6875,245007.765625,0.01123046875,0.992919921875,0.17724609375,-1.7700194120407104,0.2746581733226776,-1.3732908964157104,80.0,61099.0,1.0
14376.5089848,291945.71875,297906.9375,355265.09375,351407.53125,288480.3125,257005.828125,223963.6875,245007.765625,0.01123046875,0.992919921875,0.17724609375,-1.7700194120407104,0.2746581733226776,-1.3732908964157104,80.0,61100.0,0.0
14376.5089893,291945.71875,297906.9375,355265.09375,351407.53125,288480.3125,257005.828125,223963.6875,245007.765625,0.01123046875,0.992919921875,0.17724609375,-1.7700194120407104,0.2746581733226776,-1.3732908964157104,80.0,61101.0,0.0
14376.5089895,291945.71875,297906.9375,355265.09375,351407.53125,288480.3125,257005.828125,223963.6875,245007.765625,0.01123046875,0.992919921875,0.17724609375,-1.7700194120407104,0.2746581733226776,-1.3732908964157104,80.0,61102.0,0.0
14376.5089898,291945.71875,297906.9375,355265.09375,351407.53125,288480.3125,257005.828125,223963.6875,245007.765625,0.01123046875,0.992919921875,0.17724609375,-1.7700194120407104,0.2746581733226776,-1.3732908964157104,80.0,61103.0,0.0
14376.50899,291945.71875,297906.9375,355265.09375,351407.53125,288480.3125,257005.828125,223963.6875,245007.765625,0.01123046875,0.992919921875,0.17724609375,-1.7700194120407104,0.2746581733226776,-1.3732908964157104,80.0,61104.0,0.0
14376.5089902,291945.71875,297906.9375,355265.09375,351407.53125,288480.3125,257005.828125,223963.6875,245007.765625,0.01123046875,0.992919921875,0.17724609375,-1.7700194120407104,0.2746581733226776,-1.3732908964157104,80.0,61105.0,0.0
14376.5089904,291945.71875,297906.9375,355265.09375,351407.53125,288480.3125,257005.828125,223963.6875,245007.765625,0.01123046875,0.992919921875,0.17724609375,-1.7700194120407104,0.2746581733226776,-1.3732908964157104,80.0,61106.0,0.0
14376.5089906,291945.71875,297906.9375,355265.09375,351407.53125,288480.3125,257005.828125,223963.6875,245007.765625,0.01123046875,0.992919921875,0.17724609375,-1.7700194120407104,0.2746581733226776,-1.3732908964157104,80.0,61107.0,0.0
14376.5089908,291945.71875,297906.9375,355265.09375,351407.53125,288480.3125,257005.828125,223963.6875,245007.765625,0.01123046875,0.992919921875,0.17724609375,-1.7700194120407104,0.2746581733226776,-1.3732908964157104,80.0,61108.0,0.0
14376.508991,291945.71875,297906.9375,355265.09375,351407.53125,288480.3125,257005.828125,223963.6875,245007.765625,0.01123046875,0.992919921875,0.17724609375,-1.7700194120407104,0.2746581733226776,-1.3732908964157104,80.0,61109.0,0.0
14376.5089912,291945.71875,297906.9375,355265.09375,351407.53125,288480.3125,257005.828125,223963.6875,245007.765625,0.01123046875,0.992919921875,0.17724609375,-1.7700194120407104,0.2746581733226776,-1.3732908964157104,80.0,61110.0,0.0
14376.5089914,291945.71875,297906.9375,355265.09375,351407.53125,288480.3125,257005.828125,223963.6875,245007.765625,0.01123046875,0.992919921875,0.17724609375,-1.7700194120407104,0.2746581733226776,-1.3732908964157104,80.0,61111.0,0.0
14376.5089916,291945.71875,297906.9375,355265.09375,351407.53125,288480.3125,257005.828125,223963.6875,245007.765625,0.01123046875,0.992919921875,0.17724609375,-1.7700194120407104,0.2746581733226776,-1.3732908964157104,80.0,61112.0,0.0
14376.5089918,291945.71875,297906.9375,355265.09375,351407.53125,288480.3125,257005.828125,223963.6875,245007.765625,0.01123046875,0.992919921875,0.17724609375,-1.7700194120407104,0.2746581733226776,-1.3732908964157104,80.0,61113.0,0.0
14376.508992,291953.9375,297908.4375,355245.40625,351410.46875,288491.46875,256976.046875,223970.390625,245035.484375,0.014892578125,0.996337890625,0.1845703125,-0.3051757514476776,-1.5869139432907104,-0.3051757514476776,80.0,61114.0,1.0
14376.5239958,291925.6875,297938.9375,355203.5625,351371.21875,288477.25,256970.328125,223955.546875,245019.296875,0.01611328125,0.99560546875,0.1826171875,-0.1831054538488388,-1.5258787870407104,-0.3662109076976776,80.0,61115.0,1.0
14376.5276459,291901.375,297682.96875,355057.03125,351370.875,288398.125,256924.640625,223916.125,245013.671875,0.01953125,0.99853515625,0.183349609375,-0.2136230319738388,-1.4343260526657104,-0.5493163466453552,80.0,61116.0,1.0
14376.5374248,291907.4375,297445.3125,354943.46875,351401.28125,288333.59375,256891.734375,223905.484375,245027.34375,0.02099609375,1.0,0.18359375,-0.1220703050494194,-1.4343260526657104,-0.6103515028953552,80.0,61117.0,1.0
14376.5374403,291939.375,297590.15625,355050.0625,351422.28125,288387.84375,256925.265625,223940.4375,245036.640625,0.02392578125,0.998779296875,0.183837890625,-0.1525878757238388,-1.2817381620407104,-0.7629393935203552,80.0,61118.0,1.0
14376.5374439,291942.75,297867.75,355182.75,351395.0,288466.1875,256974.265625,223977.8125,245030.203125,0.027099609375,0.995849609375,0.1806640625,-0.1525878757238388,-1.1901854276657104,-0.9155272841453552,80.0,61119.0,1.0
14376.5374458,291921.84375,297915.96875,355159.40625,351362.09375,288469.03125,256983.296875,223976.375,245023.5,0.031494140625,0.995361328125,0.17626953125,-0.1525878757238388,-0.8850097060203552,-1.0375975370407104,80.0,61120.0,1.0
14376.5374478,291896.4375,297670.1875,355013.125,351359.25,288392.6875,256936.171875,223940.4375,245018.3125,0.032470703125,0.99365234375,0.177978515625,-0.0915527269244194,-0.5493163466453552,-1.3122557401657104,80.0,61121.0,1.0
14376.537466,291900.90625,297462.84375,354944.75,351388.9375,288339.9375,256880.46875,223910.484375,245019.484375,0.031982421875,0.9931640625,0.178955078125,0.03051757626235485,-0.2136230319738388,-1.5869139432907104,80.0,61122.0,1.0
14376.537468,291939.8125,297622.34375,355081.0,351418.0625,288405.1875,256907.5625,223941.953125,245036.640625,0.0322265625,0.993896484375,0.18115234375,0.2441406100988388,0.2746581733226776,-1.8310545682907104,80.0,61123.0,1.0
14376.5427804,291938.75,297902.8125,355220.8125,351390.8125,288482.28125,256948.953125,223973.875,245032.625,0.031982421875,0.99169921875,0.18408203125,0.3356933295726776,0.6103515028953552,-2.044677495956421,80.0,61124.0,1.0
14376.5427877,291904.3125,297921.9375,355176.3125,351346.09375,288464.84375,256939.03125,223957.96875,245020.375,0.030029296875,0.99267578125,0.1845703125,0.3662109076976776,1.0986326932907104,-2.166747808456421,80.0,61125.0,1.0
14376.5427892,291881.96875,297660.6875,355017.0625,351347.71875,288381.78125,256896.65625,223922.828125,245022.875,0.02587890625,0.99267578125,0.182373046875,0.5187987685203552,1.4038084745407104,-2.349853277206421,80.0,61126.0,1.0
14376.5427905,291892.0625,297454.15625,354935.625,351383.21875,288334.9375,256871.625,223915.40625,245034.671875,0.022705078125,0.992919921875,0.1845703125,0.5493163466453552,1.8005369901657104,-2.502441167831421,80.0,61127.0,1.0
14376.5427919,291929.71875,297618.6875,355077.5,351406.8125,288407.53125,256907.65625,223948.671875,245034.765625,0.020263671875,0.9951171875,0.188720703125,0.6103515028953552,2.014159917831421,-2.593993902206421,80.0,61128.0,1.0
14376.5427931,291941.78125,297905.9375,355229.5,351386.6875,288490.65625,256951.28125,223979.875,245033.953125,0.015625,0.99609375,0.18505859375,0.5798339247703552,2.197265386581421,-2.593993902206421,80.0,61129.0,1.0
14376.5427944,291917.71875,297931.875,355187.375,351349.21875,288473.9375,256933.578125,223960.28125,245027.875,0.01220703125,0.99609375,0.18603515625,0.7629393935203552,2.227782964706421,-2.746581792831421,80.0,61130.0,1.0
14376.5427958,291903.78125,297681.53125,355032.71875,351357.375,288397.59375,256901.671875,223937.75,245036.109375,0.0087890625,0.99609375,0.183349609375,0.8239745497703552,2.258300542831421,-2.685546636581421,80.0,61131.0,1.0
14376.5427972,291920.78125,297492.0,354971.375,351401.625,288364.15625,256905.859375,223953.3125,245051.9375,0.00537109375,0.9990234375,0.181396484375,1.0375975370407104,2.258300542831421,-2.624511480331421,80.0,61132.0,1.0
14376.545241,291953.5,297653.46875,355114.15625,351424.25,288425.6875,256928.3125,223974.953125,245056.84375,0.002197265625,0.99853515625,0.18603515625,0.9765624403953552,2.197265386581421,-2.563476324081421,80.0,61133.0,1.0
14376.551403,291952.15625,297923.09375,355254.4375,351394.75,288492.0,256945.203125,223987.640625,245050.859375,-0.00146484375,0.999267578125,0.182861328125,1.0375975370407104,2.014159917831421,-2.471923589706421,80.0,61134.0,1.0
14376.5546245,291919.96875,297951.375,355214.5625,351352.1875,288473.5,256925.265625,223970.84375,245034.046875,-0.00537109375,0.99951171875,0.184326171875,1.0375975370407104,1.8615721464157104,-2.349853277206421,80.0,61135.0,1.0
14376.5546329,291901.09375,297688.15625,355049.25,351353.25,288388.5625,256877.078125,223937.9375,245034.046875,-0.005859375,0.997802734375,0.181396484375,1.0681151151657104,1.6479490995407104,-2.258300542831421,80.0,61136.0,1.0
14376.5546344,291923.8125,297501.65625,354995.875,351399.21875,288358.875,256870.546875,223942.40625,245056.578125,-0.007080078125,0.99755859375,0.18310546875,1.1291502714157104,1.3732908964157104,-2.105712652206421,80.0,61137.0,1.0
14376.5735512,291954.75,297658.90625,355136.96875,351422.46875,288425.6875,256906.578125,223979.0625,245071.15625,-0.0087890625,0.9951171875,0.183837890625,1.0681151151657104,1.0986326932907104,-1.8615721464157104,80.0,61138.0,1.0
14376.5735639,291947.25,297904.78125,355240.40625,351383.125,288477.25,256928.9375,223995.96875,245066.140625,-0.0107421875,0.99658203125,0.18115234375,1.1901854276657104,0.7324218153953552,-1.6174315214157104,80.0,61139.0,1.0
14376.5735653,291906.09375,297889.3125,355133.5625,351327.6875,288428.625,256882.0,223962.875,245053.0,-0.01025390625,0.997314453125,0.185791015625,1.2207030057907104,0.3662109076976776,-1.3427733182907104,80.0,61140.0,1.0
14376.5735668,291887.6875,297642.8125,354980.84375,351333.5,288355.3125,256848.015625,223934.1875,245046.921875,-0.010986328125,0.9970703125,0.183349609375,1.1596678495407104,-0.0610351525247097,-1.0986326932907104,80.0,61141.0,1.0
14376.5776564,291904.0625,297457.5625,354928.09375,351373.65625,288320.34375,256837.375,223928.453125,245040.125,-0.010009765625,0.997802734375,0.185302734375,1.0070799589157104,-0.5187987685203552,-0.6713866591453552,80.0,61142.0,1.0
14376.592709,291935.875,297619.84375,355077.6875,351399.75,288389.90625,256873.234375,223966.1875,245057.109375,-0.00634765625,0.997802734375,0.18603515625,0.7934569716453552,-0.9765624403953552,-0.3356933295726776,80.0,61143.0,1.0
14376.6089369,291940.09375,297899.5,355223.15625,351370.875,288461.875,256904.171875,223983.265625,245042.90625,-0.00732421875,0.993896484375,0.18212890625,0.7629393935203552,-1.3122557401657104,-0.1525878757238388,80.0,61144.0,1.0
14376.6239371,291912.625,297933.9375,355187.28125,351333.78125,288450.0,256894.25,223972.890625,245039.859375,-0.00244140625,0.99267578125,0.182861328125,0.9460448622703552,-1.4953612089157104,0.0,80.0,61145.0,1.0
14376.6389672,291882.59375,297666.78125,355020.71875,351331.25,288364.4375,256845.78125,223942.234375,245052.828125,-0.002197265625,0.99462890625,0.183837890625,1.2512205839157104,-1.5869139432907104,0.2441406100988388,80.0,61146.0,1.0
14376.6427008,291898.6875,297465.96875,354948.65625,351372.9375,288324.375,256827.015625,223943.296875,245070.171875,-0.001708984375,0.99853515625,0.183837890625,1.0986326932907104,-1.8920897245407104,0.3967284858226776,80.0,61147.0,1.0
14376.6589502,291935.0625,297621.625,355084.5625,351395.28125,288386.59375,256867.953125,223973.78125,245060.78125,0.001220703125,0.996826171875,0.18212890625,0.7934569716453552,-2.319335699081421,0.5798339247703552,80.0,61148.0,1.0
14376.6627023,291944.46875,297904.96875,355234.6875,351371.9375,288463.21875,256908.28125,223991.3125,245049.15625,0.006591796875,0.994140625,0.17822265625,0.5493163466453552,-2.502441167831421,0.7324218153953552,80.0,61149.0,1.0
14376.6732441,291902.53125,297913.90625,355166.71875,351320.09375,288428.90625,256877.796875,223961.625,245035.21875,0.00830078125,0.99267578125,0.1806640625,0.6103515028953552,-2.593993902206421,0.7629393935203552,80.0,61150.0,1.0
14376.6732521,291883.125,297658.65625,355006.78125,351328.59375,288353.6875,256845.421875,223946.96875,245052.109375,0.011962890625,0.9931640625,0.184814453125,0.6713866591453552,-2.502441167831421,0.7324218153953552,80.0,61151.0,1.0
14376.6776987,291907.8125,297478.84375,354963.59375,351381.5,288331.625,256839.53125,223953.84375,245077.234375,0.0126953125,0.994384765625,0.1787109375,0.6408690810203552,-2.471923589706421,0.7019042372703552,80.0,61152.0,1.0
14376.6814503,291940.09375,297641.21875,355111.21875,351403.3125,288396.78125,256867.6875,223970.21875,245067.671875,0.016357421875,0.99560546875,0.179443359375,0.5798339247703552,-2.532958745956421,0.7019042372703552,80.0,61153.0,1.0
14376.6839515,291939.28125,297900.84375,355233.0625,351375.59375,288462.0625,256881.90625,223998.734375,245077.953125,0.0185546875,0.99560546875,0.1748046875,0.5798339247703552,-2.441406011581421,0.5493163466453552,80.0,61154.0,1.0
14376.6918554,291907.34375,297911.3125,355168.625,351328.84375,288436.21875,256871.0,223985.328125,245056.765625,0.020751953125,0.99365234375,0.17578125,0.6408690810203552,-2.349853277206421,0.5187987685203552,80.0,61155.0,1.0
14376.6918734,291883.5,297642.375,354989.78125,351323.46875,288345.125,256838.453125,223948.125,245041.03125,0.021484375,0.99365234375,0.177490234375,0.6408690810203552,-2.227782964706421,0.3051757514476776,80.0,61156.0,1.0
14376.6918759,291896.53125,297434.40625,354903.96875,351360.6875,288295.59375,256806.171875,223937.9375,245064.53125,0.02294921875,0.99169921875,0.1826171875,0.7019042372703552,-2.136230230331421,0.1525878757238388,80.0,61157.0,1.0
14376.6918772,291928.90625,297596.25,355042.09375,351384.71875,288363.96875,256841.9375,223974.234375,245071.15625,0.0234375,0.9921875,0.180419921875,0.7629393935203552,-2.014159917831421,-0.0610351525247097,80.0,61158.0,1.0
14376.6918787,291929.1875,297873.84375,355181.40625,351354.34375,288438.625,256877.53125,223999.359375,245061.671875,0.0224609375,0.9912109375,0.17919921875,0.8850097060203552,-1.7700194120407104,-0.3051757514476776,80.0,61159.0,1.0
14376.6918801,291897.875,297907.46875,355147.6875,351313.375,288425.9375,256868.140625,223988.71875,245055.421875,0.02392578125,0.992431640625,0.1787109375,0.8239745497703552,-1.4648436307907104,-0.4577636420726776,80.0,61160.0,1.0
14376.6918814,291870.625,297645.59375,354989.34375,351311.40625,288342.625,256817.265625,223944.28125,245051.484375,0.02392578125,0.9912109375,0.1767578125,0.8850097060203552,-1.3122557401657104,-0.6713866591453552,80.0,61161.0,1.0
14376.6918827,291892.875,297446.03125,354921.03125,351355.65625,288305.15625,256785.875,223933.734375,245064.8125,0.0205078125,0.99365234375,0.177001953125,0.9460448622703552,-1.0986326932907104,-0.8544921278953552,80.0,61162.0,1.0
14376.6918841,291937.3125,297611.25,355068.03125,351387.21875,288381.25,256830.859375,223979.25,245082.859375,0.01904296875,0.99658203125,0.1787109375,1.2207030057907104,-1.0070799589157104,-1.0986326932907104,80.0,61163.0,1.0
14376.6918854,291943.375,297888.25,355208.9375,351362.09375,288460.1875,256876.71875,224016.609375,245083.3125,0.015625,0.996337890625,0.177490234375,1.2817381620407104,-0.7934569716453552,-1.3427733182907104,80.0,61164.0,1.0
14376.6918868,291916.21875,297918.90625,355173.625,351326.15625,288452.9375,256869.03125,224015.09375,245081.796875,0.01416015625,0.99609375,0.18115234375,1.2817381620407104,-0.7934569716453552,-1.5869139432907104,80.0,61165.0,1.0
14376.6918881,291878.125,297643.625,354988.0,351311.875,288349.3125,256806.71875,223961.890625,245072.578125,0.013671875,0.995849609375,0.179931640625,1.2512205839157104,-0.7934569716453552,-1.7395018339157104,80.0,61166.0,1.0
14376.6918899,291910.5,297459.8125,354931.78125,351366.84375,288320.34375,256799.734375,223963.234375,245086.890625,0.01318359375,0.995361328125,0.18115234375,1.2512205839157104,-0.7934569716453552,-1.7089842557907104,80.0,61167.0,1.0
14376.6959211,291938.375,297611.78125,355063.8125,351386.78125,288382.03125,256831.296875,223988.09375,245086.078125,0.015625,0.99658203125,0.18310546875,1.2207030057907104,-0.7629393935203552,-1.6479490995407104,80.0,61168.0,1.0
14376.6959308,291936.0625,297887.6875,355203.125,351355.9375,288454.46875,256860.53125,224008.828125,245077.140625,0.0126953125,0.996337890625,0.181396484375,1.0681151151657104,-0.7324218153953552,-1.5869139432907104,80.0,61169.0,1.0
14376.6959322,291913.96875,297923.8125,355168.625,351324.46875,288448.90625,256857.40625,224009.1875,245077.6875,0.012939453125,0.998291015625,0.179931640625,0.9765624403953552,-0.7629393935203552,-1.5869139432907104,80.0,61170.0,1.0
14376.6959335,291891.34375,297660.34375,355000.15625,351323.125,288363.53125,256806.984375,223968.6875,245082.6875,0.010009765625,0.99853515625,0.1796875,1.0375975370407104,-0.7629393935203552,-1.4038084745407104,80.0,61171.0,1.0
14376.6971013,291896.4375,297437.1875,354895.75,351351.46875,288303.0,256775.875,223946.96875,245085.453125,0.006591796875,1.000732421875,0.177978515625,0.9765624403953552,-0.7629393935203552,-1.3732908964157104,80.0,61172.0,1.0
14376.6989358,291896.4375,297437.1875,354895.75,351351.46875,288303.0,256775.875,223946.96875,245085.453125,0.006591796875,1.000732421875,0.177978515625,0.9765624403953552,-0.7629393935203552,-1.3732908964157104,80.0,61173.0,0.0
14376.6989372,291896.4375,297437.1875,354895.75,351351.46875,288303.0,256775.875,223946.96875,245085.453125,0.006591796875,1.000732421875,0.177978515625,0.9765624403953552,-0.7629393935203552,-1.3732908964157104,80.0,61174.0,0.0
14376.6989374,291896.4375,297437.1875,354895.75,351351.46875,288303.0,256775.875,223946.96875,245085.453125,0.006591796875,1.000732421875,0.177978515625,0.9765624403953552,-0.7629393935203552,-1.3732908964157104,80.0,61175.0,0.0
14376.6989376,291896.4375,297437.1875,354895.75,351351.46875,288303.0,256775.875,223946.96875,245085.453125,0.006591796875,1.000732421875,0.177978515625,0.9765624403953552,-0.7629393935203552,-1.3732908964157104,80.0,61176.0,0.0
14376.6989379,291896.4375,297437.1875,354895.75,351351.46875,288303.0,256775.875,223946.96875,245085.453125,0.006591796875,1.000732421875,0.177978515625,0.9765624403953552,-0.7629393935203552,-1.3732908964157104,80.0,61177.0,0.0
14376.6989381,291896.4375,297437.1875,354895.75,351351.46875,288303.0,256775.875,223946.96875,245085.453125,0.006591796875,1.000732421875,0.177978515625,0.9765624403953552,-0.7629393935203552,-1.3732908964157104,80.0,61178.0,0.0
14376.6989382,291896.4375,297437.1875,354895.75,351351.46875,288303.0,256775.875,223946.96875,245085.453125,0.006591796875,1.000732421875,0.177978515625,0.9765624403953552,-0.7629393935203552,-1.3732908964157104,80.0,61179.0,0.0
14376.6989384,291896.4375,297437.1875,354895.75,351351.46875,288303.0,256775.875,223946.96875,245085.453125,0.006591796875,1.000732421875,0.177978515625,0.9765624403953552,-0.7629393935203552,-1.3732908964157104,80.0,61180.0,0.0
14376.6989386,291896.4375,297437.1875,354895.75,351351.46875,288303.0,256775.875,223946.96875,245085.453125,0.006591796875,1.000732421875,0.177978515625,0.9765624403953552,-0.7629393935203552,-1.3732908964157104,80.0,61181.0,0.0
14376.6989388,291896.4375,297437.1875,354895.75,351351.46875,288303.0,256775.875,223946.96875,245085.453125,0.006591796875,1.000732421875,0.177978515625,0.9765624403953552,-0.7629393935203552,-1.3732908964157104,80.0,61182.0,0.0
14376.698939,291896.4375,297437.1875,354895.75,351351.46875,288303.0,256775.875,223946.96875,245085.453125,0.006591796875,1.000732421875,0.177978515625,0.9765624403953552,-0.7629393935203552,-1.3732908964157104,80.0,61183.0,0.0
14376.6989393,291896.4375,297437.1875,354895.75,351351.46875,288303.0,256775.875,223946.96875,245085.453125,0.006591796875,1.000732421875,0.177978515625,0.9765624403953552,-0.7629393935203552,-1.3732908964157104,80.0,61184.0,0.0
14376.6989395,291896.4375,297437.1875,354895.75,351351.46875,288303.0,256775.875,223946.96875,245085.453125,0.006591796875,1.000732421875,0.177978515625,0.9765624403953552,-0.7629393935203552,-1.3732908964157104,80.0,61185.0,0.0
14376.6989396,291887.40625,297663.8125,354984.0,351310.53125,288369.71875,256774.703125,223983.796875,245074.8125,0.010986328125,0.999267578125,0.18115234375,0.3051757514476776,-2.746581792831421,-0.7019042372703552,80.0,61186.0,1.0
14376.7014005,291908.25,297462.125,354914.6875,351356.5625,288334.375,256769.078125,223993.375,245100.84375,0.01171875,0.997314453125,0.181884765625,0.1831054538488388,-2.838134527206421,-0.7019042372703552,80.0,61187.0,1.0
14376.7039011,291940.15625,297610.8125,355045.21875,351377.9375,288393.5625,256798.046875,224023.234375,245112.1875,0.011962890625,0.998046875,0.1806640625,0.1831054538488388,-2.777099370956421,-0.6408690810203552,80.0,61188.0,1.0
14376.7102272,291940.53125,297887.34375,355184.15625,351347.71875,288464.375,256835.953125,224050.671875,245107.28125,0.01171875,0.99365234375,0.178466796875,0.2136230319738388,-2.868652105331421,-0.7324218153953552,80.0,61189.0,1.0
14376.7252814,291907.90625,297917.75,355143.125,351299.625,288444.625,256811.984375,224025.828125,245082.953125,0.012451171875,0.99560546875,0.177001953125,0.3051757514476776,-2.746581792831421,-0.7019042372703552,80.0,61190.0,1.0
14376.7942717,291891.90625,297666.59375,354987.90625,351306.0625,288371.125,256787.046875,224008.296875,245092.4375,0.01318359375,0.99658203125,0.1796875,0.3662109076976776,-2.624511480331421,-0.6408690810203552,80.0,61191.0,1.0
14376.7942881,291903.78125,297459.34375,354912.46875,351341.09375,288324.90625,256755.65625,223983.890625,245094.3125,0.015625,0.9951171875,0.179443359375,0.3356933295726776,-2.563476324081421,-0.7629393935203552,80.0,61192.0,1.0
14376.7942899,291931.3125,297598.5625,355031.0,351360.6875,288378.46875,256772.734375,224004.546875,245102.625,0.01708984375,0.993896484375,0.177490234375,0.2441406100988388,-2.593993902206421,-0.7019042372703552,80.0,61193.0,1.0
14376.7942913,291932.21875,297866.78125,355157.0,351334.65625,288449.1875,256816.015625,224041.640625,245107.984375,0.019287109375,0.995849609375,0.17822265625,0.3967284858226776,-2.441406011581421,-0.7324218153953552,80.0,61194.0,1.0
14376.7942925,291901.71875,297907.0,355126.9375,351296.84375,288441.3125,256815.125,224040.03125,245103.515625,0.0185546875,0.995361328125,0.1787109375,0.4577636420726776,-2.349853277206421,-0.7019042372703552,80.0,61195.0,1.0
14376.7942938,291877.6875,297654.25,354973.34375,351291.125,288357.46875,256771.125,223995.875,245081.171875,0.019287109375,0.994873046875,0.17919921875,0.5493163466453552,-2.227782964706421,-0.8239745497703552,80.0,61196.0,1.0
14376.7942951,291890.375,297451.65625,354902.96875,351330.375,288313.8125,256743.421875,223988.984375,245097.53125,0.019287109375,0.994140625,0.178955078125,0.6713866591453552,-2.105712652206421,-0.6713866591453552,80.0,61197.0,1.0
14376.7942964,291919.59375,297595.6875,355030.3125,351352.09375,288374.875,256774.265625,224021.625,245110.5,0.015625,0.992431640625,0.17822265625,0.6713866591453552,-2.014159917831421,-0.6408690810203552,80.0,61198.0,1.0
14376.7942977,291919.0625,297863.03125,355158.15625,351318.9375,288442.3125,256806.265625,224041.640625,245097.078125,0.015380859375,0.9931640625,0.178466796875,0.8850097060203552,-1.9226073026657104,-0.7019042372703552,80.0,61199.0,1.0
14376.8070115,291909.15625,297925.0,355145.375,351297.28125,288451.25,256815.390625,224046.203125,245101.734375,0.013427734375,0.994384765625,0.175048828125,0.9155272841453552,-1.8310545682907104,-0.7324218153953552,80.0,61200.0,1.0
14376.8070242,291881.34375,297659.90625,354977.8125,351297.03125,288365.21875,256781.5,224019.125,245107.359375,0.011474609375,0.992919921875,0.177001953125,1.0986326932907104,-1.7395018339157104,-0.7934569716453552,80.0,61201.0,1.0
14376.8483763,291892.96875,297450.59375,354900.375,351334.125,288320.96875,256762.453125,224018.84375,245120.953125,0.010498046875,0.994873046875,0.173095703125,1.1291502714157104,-1.6784666776657104,-0.9155272841453552,80.0,61202.0,1.0
14376.8483923,291921.03125,297596.40625,355033.34375,351356.28125,288378.5625,256779.0,224037.0,245130.15625,0.0107421875,0.9970703125,0.1748046875,1.1901854276657104,-1.7089842557907104,-1.0375975370407104,80.0,61203.0,1.0
14376.853289,291921.03125,297596.40625,355033.34375,351356.28125,288378.5625,256779.0,224037.0,245130.15625,0.0107421875,0.9970703125,0.1748046875,1.1901854276657104,-1.7089842557907104,-1.0375975370407104,80.0,61204.0,0.0
14376.8532919,291921.03125,297596.40625,355033.34375,351356.28125,288378.5625,256779.0,224037.0,245130.15625,0.0107421875,0.9970703125,0.1748046875,1.1901854276657104,-1.7089842557907104,-1.0375975370407104,80.0,61205.0,0.0
14376.8532921,291866.0625,297635.3125,354957.4375,351281.71875,288342.96875,256744.75,223991.578125,245088.765625,0.01123046875,0.996337890625,0.17724609375,0.8850097060203552,-1.8005369901657104,-1.0986326932907104,80.0,61206.0,1.0
14376.8532991,291888.125,297436.71875,354886.34375,351326.625,288306.84375,256732.953125,223987.109375,245103.34375,0.010986328125,0.995849609375,0.1767578125,0.9460448622703552,-1.7395018339157104,-1.0681151151657104,80.0,61207.0,1.0
14376.8533015,291925.96875,297595.4375,355018.0625,351355.5,288373.71875,256782.65625,224029.3125,245118.265625,0.01220703125,0.9951171875,0.177490234375,0.9460448622703552,-1.6479490995407104,-1.0681151151657104,80.0,61208.0,1.0
14376.8584258,291931.3125,297882.96875,355171.5625,351335.71875,288461.625,256840.15625,224072.046875,245124.53125,0.01171875,0.9951171875,0.17626953125,1.0070799589157104,-1.5869139432907104,-1.0986326932907104,80.0,61209.0,1.0
14376.8584449,291902.1875,297922.9375,355146.71875,351295.78125,288455.0,256834.078125,224056.21875,245109.78125,0.011962890625,0.993408203125,0.176513671875,1.0375975370407104,-1.5563963651657104,-1.1596678495407104,80.0,61210.0,1.0
14376.8614778,291879.46875,297662.3125,354984.34375,351292.5625,288366.03125,256771.21875,224010.265625,245101.46875,0.01123046875,0.99365234375,0.17724609375,1.0681151151657104,-1.4953612089157104,-1.1291502714157104,80.0,61211.0,1.0
14376.8639773,291885.53125,297437.28125,354878.5625,351322.40625,288304.96875,256736.984375,223999.453125,245115.859375,0.010986328125,0.995361328125,0.174560546875,1.2207030057907104,-1.4953612089157104,-1.0681151151657104,80.0,61212.0,1.0
14376.8664871,291913.0,297586.40625,355005.25,351345.65625,288369.71875,256776.5,224042.984375,245136.421875,0.011474609375,0.996337890625,0.176025390625,1.2817381620407104,-1.4953612089157104,-1.0070799589157104,80.0,61213.0,1.0
14376.8920068,291922.5625,297876.625,355166.1875,351324.1875,288454.71875,256819.671875,224072.765625,245129.453125,0.011962890625,0.998291015625,0.177978515625,1.4038084745407104,-1.5869139432907104,-1.0070799589157104,80.0,61214.0,1.0
14376.8920122,291899.75,297911.75,355137.59375,351287.8125,288448.375,256812.171875,224060.6875,245116.03125,0.010009765625,0.996826171875,0.178466796875,1.4038084745407104,-1.5869139432907104,-0.8850097060203552,80.0,61215.0,1.0
14376.8920136,291874.53125,297646.21875,354963.5,351281.71875,288360.40625,256767.828125,224024.390625,245115.40625,0.01123046875,0.998046875,0.178466796875,1.3732908964157104,-1.4953612089157104,-0.7934569716453552,80.0,61216.0,1.0
14376.8920148,291890.8125,297449.4375,354889.65625,351318.84375,288320.625,256754.5,224017.78125,245124.984375,0.012451171875,0.99609375,0.1767578125,1.3122557401657104,-1.4343260526657104,-0.7019042372703552,80.0,61217.0,1.0
14376.892016,291919.96875,297598.03125,355020.65625,351340.90625,288378.5625,256776.234375,224041.734375,245126.5,0.011962890625,0.998291015625,0.17578125,1.4648436307907104,-1.4953612089157104,-0.7019042372703552,80.0,61218.0,1.0
14376.8920172,291921.75,297861.875,355143.3125,351314.625,288445.78125,256809.3125,224069.09375,245127.921875,0.013427734375,0.998046875,0.17333984375,1.3732908964157104,-1.4648436307907104,-0.6408690810203552,80.0,61219.0,1.0
14376.8920185,291898.875,297901.46875,355107.09375,351279.9375,288440.4375,256807.421875,224066.40625,245127.921875,0.01611328125,0.99658203125,0.170654296875,1.4038084745407104,-1.4343260526657104,-0.6103515028953552,80.0,61220.0,1.0
14376.8920197,291878.3125,297650.875,354953.5,351280.84375,288362.46875,256771.578125,224032.796875,245119.875,0.015380859375,0.99853515625,0.17333984375,1.4343260526657104,-1.4038084745407104,-0.5798339247703552,80.0,61221.0,1.0
14376.8920209,291893.0625,297449.25,354883.59375,351321.4375,288321.0625,256756.921875,224024.296875,245131.0625,0.014404296875,0.998046875,0.173583984375,1.4343260526657104,-1.4038084745407104,-0.6408690810203552,80.0,61222.0,1.0
14376.8920221,291927.5625,297596.78125,355017.6875,351348.0625,288382.40625,256783.640625,224051.03125,245136.875,0.01171875,0.998291015625,0.173583984375,1.4343260526657104,-1.3427733182907104,-0.7019042372703552,80.0,61223.0,1.0
14376.8920233,291920.875,297853.90625,355139.8125,351310.25,288441.59375,256794.015625,224060.875,245122.828125,0.01123046875,0.99560546875,0.17138671875,1.2817381620407104,-1.3122557401657104,-0.7324218153953552,80.0,61224.0,1.0
14376.9253243,291892.53125,297892.09375,355101.65625,351268.9375,288431.65625,256795.71875,224052.640625,245114.609375,0.012939453125,0.997314453125,0.171630859375,1.3427733182907104,-1.2817381620407104,-0.7629393935203552,80.0,61225.0,1.0
14376.9253298,291892.53125,297892.09375,355101.65625,351268.9375,288431.65625,256795.71875,224052.640625,245114.609375,0.012939453125,0.997314453125,0.171630859375,1.3427733182907104,-1.2817381620407104,-0.7629393935203552,80.0,61226.0,0.0
14376.9253301,291892.53125,297892.09375,355101.65625,351268.9375,288431.65625,256795.71875,224052.640625,245114.609375,0.012939453125,0.997314453125,0.171630859375,1.3427733182907104,-1.2817381620407104,-0.7629393935203552,80.0,61227.0,0.0
14376.9253302,291892.53125,297892.09375,355101.65625,351268.9375,288431.65625,256795.71875,224052.640625,245114.609375,0.012939453125,0.997314453125,0.171630859375,1.3427733182907104,-1.2817381620407104,-0.7629393935203552,80.0,61228.0,0.0
14376.9253304,291892.53125,297892.09375,355101.65625,351268.9375,288431.65625,256795.71875,224052.640625,245114.609375,0.012939453125,0.997314453125,0.171630859375,1.3427733182907104,-1.2817381620407104,-0.7629393935203552,80.0,61229.0,0.0
14376.9253306,291892.53125,297892.09375,355101.65625,351268.9375,288431.65625,256795.71875,224052.640625,245114.609375,0.012939453125,0.997314453125,0.171630859375,1.3427733182907104,-1.2817381620407104,-0.7629393935203552,80.0,61230.0,0.0
14376.9253308,291892.53125,297892.09375,355101.65625,351268.9375,288431.65625,256795.71875,224052.640625,245114.609375,0.012939453125,0.997314453125,0.171630859375,1.3427733182907104,-1.2817381620407104,-0.7629393935203552,80.0,61231.0,0.0
14376.925331,291884.65625,297423.84375,354856.3125,351303.625,288295.40625,256706.046875,223998.90625,245128.828125,0.012451171875,0.99755859375,0.172607421875,0.9460448622703552,-1.1901854276657104,-1.0375975370407104,80.0,61232.0,1.0
14376.9403301,291921.21875,297577.625,354989.34375,351329.90625,288360.9375,256748.515625,224039.328125,245132.75,0.009521484375,0.99658203125,0.172119140625,0.9765624403953552,-1.1291502714157104,-1.0070799589157104,80.0,61233.0,1.0
14376.9465056,291931.78125,297869.03125,355143.3125,351306.5,288441.78125,256790.359375,224071.59375,245119.875,0.008544921875,0.998046875,0.171875,0.9155272841453552,-1.1291502714157104,-1.0070799589157104,80.0,61234.0,1.0
14376.9503012,291902.09375,297902.53125,355109.15625,351267.4375,288428.4375,256776.3125,224050.59375,245117.28125,0.00927734375,0.995849609375,0.173828125,0.8850097060203552,-1.2512205839157104,-0.9155272841453552,80.0,61235.0,1.0
14376.9526987,291870.15625,297632.96875,354938.9375,351257.59375,288337.78125,256723.921875,224008.03125,245102.890625,0.010009765625,0.997314453125,0.171142578125,0.7629393935203552,-1.2512205839157104,-0.9155272841453552,80.0,61236.0,1.0
14376.9552956,291880.53125,297417.78125,354853.28125,351292.90625,288287.0,256702.46875,223995.515625,245111.296875,0.00927734375,0.9970703125,0.17236328125,0.6103515028953552,-1.2817381620407104,-0.7934569716453552,80.0,61237.0,1.0
14376.958404,291909.6875,297563.96875,354980.5,351316.25,288342.625,256724.1875,224021.53125,245123.640625,0.007568359375,0.99658203125,0.168701171875,0.6103515028953552,-1.3427733182907104,-0.8239745497703552,80.0,61238.0,1.0
14376.9584196,291919.0625,297851.3125,355125.25,351296.65625,288426.375,256777.125,224069.453125,245131.421875,0.0068359375,0.9951171875,0.169921875,0.6408690810203552,-1.3122557401657104,-0.7324218153953552,80.0,61239.0,1.0
14376.9607989,291894.40625,297898.15625,355099.6875,351263.125,288429.0625,256780.96875,224066.234375,245129.0,0.007080078125,0.997314453125,0.167236328125,0.7019042372703552,-1.3427733182907104,-0.7019042372703552,80.0,61240.0,1.0
14376.9608045,291870.96875,297639.96875,354935.625,351257.9375,288341.1875,256730.1875,224014.203125,245111.65625,0.01025390625,0.997314453125,0.16943359375,0.7934569716453552,-1.4953612089157104,-0.6103515028953552,80.0,61241.0,1.0
14376.962687,291888.84375,297435.03125,354862.5625,351303.375,288300.6875,256712.296875,224012.859375,245129.265625,0.0087890625,0.99658203125,0.170654296875,0.6713866591453552,-1.4953612089157104,-0.6408690810203552,80.0,61242.0,1.0
14376.9653009,291930.875,297590.5,355003.75,351339.40625,288372.9375,256754.40625,224065.25,245149.75,0.01123046875,0.9951171875,0.171630859375,0.6103515028953552,-1.4648436307907104,-0.5798339247703552,80.0,61243.0,1.0
14376.9676958,291927.9375,297854.71875,355136.4375,351306.5,288439.875,256788.390625,224088.59375,245141.421875,0.011474609375,0.996826171875,0.17431640625,0.5493163466453552,-1.4953612089157104,-0.5187987685203552,80.0,61244.0,1.0
14376.9707745,291894.5,297890.75,355097.34375,351260.625,288422.375,256780.25,224068.46875,245127.921875,0.009765625,0.995361328125,0.173583984375,0.6103515028953552,-1.5258787870407104,-0.4577636420726776,80.0,61245.0,1.0
14376.9707789,291867.03125,297632.8125,354939.71875,351256.0625,288338.21875,256734.5625,224027.25,245116.125,0.010009765625,0.995361328125,0.17333984375,0.5493163466453552,-1.6174315214157104,-0.4577636420726776,80.0,61246.0,1.0
14376.9707803,291875.0,297406.96875,354835.5625,351289.5,288278.78125,256694.0625,224012.6875,245130.96875,0.011474609375,0.996337890625,0.172607421875,0.6713866591453552,-1.6784666776657104,-0.3967284858226776,80.0,61247.0,1.0
14376.9726937,291913.71875,297556.625,354964.5,351317.6875,288346.09375,256735.09375,224059.265625,245157.875,0.011962890625,0.996826171875,0.171875,0.7019042372703552,-1.6174315214157104,-0.4577636420726776,80.0,61248.0,1.0
14376.9776888,291925.0625,297851.59375,355127.03125,351292.71875,288426.75,256774.625,224076.703125,245127.484375,0.01416015625,0.996826171875,0.171630859375,0.7019042372703552,-1.5869139432907104,-0.3662109076976776,80.0,61249.0,1.0
14376.9853049,291906.03125,297906.75,355113.96875,351260.0,288428.1875,256780.78125,224070.796875,245117.375,0.012939453125,0.998779296875,0.171630859375,0.6713866591453552,-1.7089842557907104,-0.3662109076976776,80.0,61250.0,1.0
14376.991488,291880.09375,297649.875,354954.3125,351258.75,288345.03125,256737.875,224038.609375,245120.59375,0.013916015625,0.999267578125,0.1689453125,0.6408690810203552,-1.6784666776657104,-0.4272460639476776,80.0,61251.0,1.0
14377.0014598,291883.3125,297422.0625,354856.9375,351292.0,288289.15625,256698.4375,224026.09375,245140.984375,0.013916015625,0.996826171875,0.171875,0.6713866591453552,-1.6479490995407104,-0.4272460639476776,80.0,61252.0,1.0
14377.0177898,291913.71875,297559.5,354973.4375,351312.125,288343.40625,256723.921875,224050.234375,245142.234375,0.014404296875,0.997802734375,0.17236328125,0.4882812201976776,-1.5563963651657104,-0.4577636420726776,80.0,61253.0,1.0
14377.0493422,291911.84375,297839.875,355115.40625,351279.6875,288416.03125,256751.453125,224066.953125,245131.0625,0.01220703125,0.997314453125,0.171875,0.6103515028953552,-1.5258787870407104,-0.4577636420726776,80.0,61254.0,1.0
14377.049356,291875.1875,297871.53125,355070.25,351235.15625,288403.3125,256749.21875,224058.546875,245124.078125,0.015869140625,0.99755859375,0.1748046875,0.5798339247703552,-1.4953612089157104,-0.5493163466453552,80.0,61255.0,1.0
14377.0493573,291856.5625,297620.46875,354906.75,351240.0625,288324.5625,256717.21875,224029.75,245116.84375,0.0166015625,0.99853515625,0.174560546875,0.3967284858226776,-1.5258787870407104,-0.5798339247703552,80.0,61256.0,1.0
14377.0493585,291869.625,297416.34375,354830.75,351279.59375,288281.28125,256696.46875,224020.453125,245119.34375,0.01708984375,0.99755859375,0.173828125,0.3356933295726776,-1.4648436307907104,-0.6408690810203552,80.0,61257.0,1.0
14377.0493597,291906.5625,297570.5625,354970.65625,351311.59375,288352.71875,256727.765625,224058.1875,245140.71875,0.0166015625,0.99462890625,0.17236328125,0.2746581733226776,-1.4648436307907104,-0.5798339247703552,80.0,61258.0,1.0
14377.0493609,291906.71875,297848.4375,355116.125,351282.1875,288426.375,256758.53125,224074.734375,245128.828125,0.0166015625,0.99560546875,0.171142578125,0.1525878757238388,-1.3732908964157104,-0.6408690810203552,80.0,61259.0,1.0
14377.0493622,291883.21875,297894.0625,355090.1875,351245.0625,288422.53125,256758.25,224067.578125,245124.078125,0.016357421875,0.994384765625,0.172607421875,0.2441406100988388,-1.2207030057907104,-0.6713866591453552,80.0,61260.0,1.0
14377.0493634,291862.3125,297641.46875,354935.875,351248.65625,288345.375,256716.859375,224037.796875,245129.625,0.016357421875,0.995361328125,0.174560546875,0.1831054538488388,-1.1901854276657104,-0.7019042372703552,80.0,61261.0,1.0
14377.049365,291874.53125,297428.59375,354855.78125,351285.40625,288296.03125,256688.25,224020.015625,245136.515625,0.015380859375,0.993896484375,0.17333984375,0.2136230319738388,-1.1901854276657104,-0.7019042372703552,80.0,61262.0,1.0
14377.0576869,291903.4375,297555.03125,354964.125,351303.0,288344.65625,256722.40625,224053.359375,245145.984375,0.015869140625,0.994873046875,0.169921875,0.3356933295726776,-1.2207030057907104,-0.7629393935203552,80.0,61263.0,1.0
14377.0904742,291908.0625,297814.125,355080.375,351276.90625,288409.84375,256763.171875,224082.859375,245150.71875,0.016357421875,0.996826171875,0.169677734375,0.3967284858226776,-1.1291502714157104,-0.8544921278953552,80.0,61264.0,1.0
14377.0904848,291882.875,297864.46875,355050.875,351235.25,288399.5625,256754.59375,224067.390625,245122.296875,0.01708984375,0.995361328125,0.17333984375,0.3051757514476776,-1.1291502714157104,-0.9155272841453552,80.0,61265.0,1.0
14377.0904861,291861.84375,297629.21875,354911.46875,351238.375,288325.1875,256700.5,224029.125,245118.625,0.0166015625,0.994873046875,0.173828125,0.2441406100988388,-1.1901854276657104,-0.8850097060203552,80.0,61266.0,1.0
14377.0904873,291871.25,297413.5625,354829.59375,351276.71875,288274.21875,256655.890625,224005.4375,245134.359375,0.017333984375,0.99462890625,0.171630859375,0.1831054538488388,-1.1596678495407104,-0.9155272841453552,80.0,61267.0,1.0
14377.0904886,291904.21875,297551.1875,354951.25,351301.59375,288330.28125,256694.421875,224043.078125,245148.765625,0.01708984375,0.994140625,0.174072265625,0.2136230319738388,-1.0681151151657104,-0.8239745497703552,80.0,61268.0,1.0
14377.0904898,291908.34375,297831.90625,355098.5,351274.3125,288409.40625,256741.890625,224073.828125,245133.03125,0.015380859375,0.994873046875,0.173583984375,0.2441406100988388,-1.0070799589157104,-0.8850097060203552,80.0,61269.0,1.0
14377.090491,291881.96875,297881.90625,355081.09375,351238.09375,288409.3125,256734.921875,224067.125,245126.40625,0.015869140625,0.996337890625,0.174072265625,0.3356933295726776,-0.9765624403953552,-0.8850097060203552,80.0,61270.0,1.0
14377.0904922,291864.25,297626.375,354919.25,351237.84375,288328.9375,256699.0625,224032.96875,245124.984375,0.01513671875,0.9970703125,0.172607421875,0.3967284858226776,-1.0375975370407104,-0.8544921278953552,80.0,61271.0,1.0
14377.0904936,291881.34375,297410.71875,354828.15625,351281.5625,288283.0625,256688.875,224031.453125,245149.296875,0.013427734375,0.99755859375,0.17333984375,0.4272460639476776,-1.1291502714157104,-0.9155272841453552,80.0,61272.0,1.0
14377.1293738,291917.90625,297559.75,354965.21875,351311.9375,288352.1875,256733.125,224077.5,245171.734375,0.011474609375,0.998779296875,0.174560546875,0.4272460639476776,-1.0986326932907104,-0.9460448622703552,80.0,61273.0,1.0
14377.1293911,291911.65625,297832.09375,355105.03125,351275.03125,288420.84375,256752.796875,224094.671875,245156.359375,0.012451171875,0.998779296875,0.17431640625,0.5187987685203552,-1.0986326932907104,-0.9765624403953552,80.0,61274.0,1.0
14377.1293925,291877.5,297873.5625,355069.8125,351228.09375,288405.46875,256739.125,224076.15625,245137.765625,0.01123046875,0.998291015625,0.1767578125,0.4272460639476776,-1.0681151151657104,-0.9460448622703552,80.0,61275.0,1.0
14377.1293937,291862.75,297630.65625,354921.5,351236.84375,288334.65625,256715.25,224054.875,245142.59375,0.01220703125,0.999267578125,0.176025390625,0.3967284858226776,-1.0681151151657104,-0.9460448622703552,80.0,61276.0,1.0
14377.1293949,291877.75,297425.03125,354848.53125,351278.15625,288296.3125,256702.015625,224050.40625,245160.921875,0.01220703125,0.99755859375,0.1767578125,0.3051757514476776,-1.1291502714157104,-0.9460448622703552,80.0,61277.0,1.0
14377.1293961,291910.125,297565.9375,354973.71875,351301.59375,288355.9375,256737.875,224076.78125,245162.4375,0.011962890625,0.99755859375,0.17578125,0.2441406100988388,-1.2512205839157104,-0.8850097060203552,80.0,61278.0,1.0
14377.1293973,291907.0,297836.03125,355108.25,351269.40625,288424.59375,256775.421875,224096.1875,245151.53125,0.01025390625,0.99658203125,0.173583984375,0.2136230319738388,-1.3122557401657104,-0.6408690810203552,80.0,61279.0,1.0
14377.1293985,291870.53125,297872.15625,355070.71875,351223.15625,288408.40625,256749.578125,224077.40625,245138.65625,0.008056640625,0.996826171875,0.17431640625,0.2746581733226776,-1.2817381620407104,-0.7019042372703552,80.0,61280.0,1.0
14377.1293996,291842.28125,297607.6875,354901.90625,351217.09375,288317.21875,256689.859375,224027.4375,245127.75,0.009033203125,0.995361328125,0.176513671875,0.2441406100988388,-1.3427733182907104,-0.6408690810203552,80.0,61281.0,1.0
14377.1294008,291866.6875,297399.8125,354825.8125,351264.375,288277.71875,256682.265625,224021.796875,245149.109375,0.008544921875,0.994873046875,0.17236328125,0.3662109076976776,-1.4648436307907104,-0.7629393935203552,80.0,61282.0,1.0
14377.1294025,291912.28125,297551.4375,354962.625,351299.625,288348.96875,256728.75,224072.9375,245171.734375,0.01025390625,0.99560546875,0.173828125,0.4272460639476776,-1.5258787870407104,-0.8544921278953552,80.0,61283.0,1.0
14377.1294037,291913.625,297812.34375,355087.78125,351267.6875,288412.96875,256756.734375,224099.859375,245161.8125,0.01025390625,0.995361328125,0.176513671875,0.4577636420726776,-1.5869139432907104,-0.9155272841453552,80.0,61284.0,1.0
14377.1294049,291887.5,297857.75,355052.375,351224.96875,288403.5,256751.90625,224082.859375,245149.109375,0.010498046875,0.99658203125,0.17578125,0.3662109076976776,-1.6479490995407104,-0.9460448622703552,80.0,61285.0,1.0
14377.1439869,291863.1875,297604.8125,354894.65625,351222.28125,288320.8125,256697.09375,224042.1875,245141.875,0.011962890625,0.99462890625,0.1728515625,0.5493163466453552,-1.7089842557907104,-0.8850097060203552,80.0,61286.0,1.0
14377.221509,291875.875,297396.6875,354813.9375,351262.59375,288277.625,256672.0625,224039.234375,245158.59375,0.011962890625,0.99609375,0.1748046875,0.4882812201976776,-1.7395018339157104,-1.0070799589157104,80.0,61287.0,1.0
14377.2364962,291909.25,297546.875,354947.3125,351292.46875,288346.0,256715.515625,224079.46875,245174.953125,0.0126953125,0.99462890625,0.173828125,0.5798339247703552,-1.8615721464157104,-0.8239745497703552,80.0,61288.0,1.0
14377.2595752,291919.25,297840.9375,355108.71875,351271.90625,288430.78125,256760.484375,224101.375,245156.71875,0.01220703125,0.997802734375,0.17626953125,0.4272460639476776,-1.9531248807907104,-0.8239745497703552,80.0,61289.0,1.0
14377.2595935,291897.96875,297898.53125,355088.59375,351232.5625,288424.78125,256761.46875,224086.984375,245137.578125,0.013427734375,0.9990234375,0.173095703125,0.3051757514476776,-1.7395018339157104,-0.7629393935203552,80.0,61290.0,1.0
14377.2595947,291874.71875,297638.71875,354921.40625,351232.1875,288339.03125,256706.484375,224048.078125,245142.234375,0.013916015625,0.99853515625,0.173583984375,0.3356933295726776,-1.8920897245407104,-0.8239745497703552,80.0,61291.0,1.0
14377.2633854,291880.34375,297409.90625,354823.6875,351267.25,288284.15625,256678.765625,224034.859375,245156.453125,0.01416015625,0.995849609375,0.172607421875,0.3051757514476776,-1.8005369901657104,-0.7019042372703552,80.0,61292.0,1.0
14377.2634039,291909.6875,297547.59375,354939.375,351292.90625,288345.75,256722.578125,224075.0,245171.5625,0.011962890625,0.99462890625,0.173095703125,0.3967284858226776,-1.8615721464157104,-0.7629393935203552,80.0,61293.0,1.0
14377.2634114,291916.375,297837.8125,355091.90625,351269.65625,288428.53125,256761.75,224103.34375,245167.53125,0.01171875,0.99462890625,0.17138671875,0.4577636420726776,-1.8615721464157104,-0.6713866591453552,80.0,61294.0,1.0
14377.2673475,291887.5,297877.0625,355052.03125,351227.09375,288415.40625,256749.859375,224084.109375,245156.265625,0.014404296875,0.994873046875,0.172119140625,0.5493163466453552,-2.014159917831421,-0.7324218153953552,80.0,61295.0,1.0
14377.2673607,291863.5625,297630.65625,354889.9375,351226.75,288335.625,256709.890625,224056.578125,245159.40625,0.0166015625,0.996826171875,0.171875,0.5493163466453552,-2.014159917831421,-0.7629393935203552,80.0,61296.0,1.0
14377.267368,291872.3125,297418.6875,354813.40625,351268.21875,288291.65625,256692.28125,224053.359375,245182.734375,0.01611328125,0.99658203125,0.1728515625,0.4882812201976776,-1.9836424589157104,-0.7934569716453552,80.0,61297.0,1.0
14377.2697087,291908.0,297566.46875,354954.125,351293.625,288352.34375,256727.671875,224077.40625,245169.953125,0.018798828125,0.99755859375,0.1767578125,0.5187987685203552,-1.9226073026657104,-0.8544921278953552,80.0,61298.0,1.0
14377.2714976,291908.0,297566.46875,354954.125,351293.625,288352.34375,256727.671875,224077.40625,245169.953125,0.018798828125,0.99755859375,0.1767578125,0.5187987685203552,-1.9226073026657104,-0.8544921278953552,80.0,61299.0,0.0
14377.2714986,291908.0,297566.46875,354954.125,351293.625,288352.34375,256727.671875,224077.40625,245169.953125,0.018798828125,0.99755859375,0.1767578125,0.5187987685203552,-1.9226073026657104,-0.8544921278953552,80.0,61300.0,0.0
14377.2714988,291908.0,297566.46875,354954.125,351293.625,288352.34375,256727.671875,224077.40625,245169.953125,0.018798828125,0.99755859375,0.1767578125,0.5187987685203552,-1.9226073026657104,-0.8544921278953552,80.0,61301.0,0.0
14377.2714989,291908.0,297566.46875,354954.125,351293.625,288352.34375,256727.671875,224077.40625,245169.953125,0.018798828125,0.99755859375,0.1767578125,0.5187987685203552,-1.9226073026657104,-0.8544921278953552,80.0,61302.0,0.0
14377.2714991,291908.0,297566.46875,354954.125,351293.625,288352.34375,256727.671875,224077.40625,245169.953125,0.018798828125,0.99755859375,0.1767578125,0.5187987685203552,-1.9226073026657104,-0.8544921278953552,80.0,61303.0,0.0
14377.2714993,291908.0,297566.46875,354954.125,351293.625,288352.34375,256727.671875,224077.40625,245169.953125,0.018798828125,0.99755859375,0.1767578125,0.5187987685203552,-1.9226073026657104,-0.8544921278953552,80.0,61304.0,0.0
14377.2714994,291908.0,297566.46875,354954.125,351293.625,288352.34375,256727.671875,224077.40625,245169.953125,0.018798828125,0.99755859375,0.1767578125,0.5187987685203552,-1.9226073026657104,-0.8544921278953552,80.0,61305.0,0.0
14377.2714996,291908.0,297566.46875,354954.125,351293.625,288352.34375,256727.671875,224077.40625,245169.953125,0.018798828125,0.99755859375,0.1767578125,0.5187987685203552,-1.9226073026657104,-0.8544921278953552,80.0,61306.0,0.0
14377.2714998,291908.0,297566.46875,354954.125,351293.625,288352.34375,256727.671875,224077.40625,245169.953125,0.018798828125,0.99755859375,0.1767578125,0.5187987685203552,-1.9226073026657104,-0.8544921278953552,80.0,61307.0,0.0
14377.2714999,291908.0,297566.46875,354954.125,351293.625,288352.34375,256727.671875,224077.40625,245169.953125,0.018798828125,0.99755859375,0.1767578125,0.5187987685203552,-1.9226073026657104,-0.8544921278953552,80.0,61308.0,0.0
14377.2715001,291908.0,297566.46875,354954.125,351293.625,288352.34375,256727.671875,224077.40625,245169.953125,0.018798828125,0.99755859375,0.1767578125,0.5187987685203552,-1.9226073026657104,-0.8544921278953552,80.0,61309.0,0.0
14377.2715003,291908.0,297566.46875,354954.125,351293.625,288352.34375,256727.671875,224077.40625,245169.953125,0.018798828125,0.99755859375,0.1767578125,0.5187987685203552,-1.9226073026657104,-0.8544921278953552,80.0,61310.0,0.0
14377.2715004,291908.0,297566.46875,354954.125,351293.625,288352.34375,256727.671875,224077.40625,245169.953125,0.018798828125,0.99755859375,0.1767578125,0.5187987685203552,-1.9226073026657104,-0.8544921278953552,80.0,61311.0,0.0
14377.2715006,291908.0,297566.46875,354954.125,351293.625,288352.34375,256727.671875,224077.40625,245169.953125,0.018798828125,0.99755859375,0.1767578125,0.5187987685203552,-1.9226073026657104,-0.8544921278953552,80.0,61312.0,0.0
14377.2715008,291908.0,297566.46875,354954.125,351293.625,288352.34375,256727.671875,224077.40625,245169.953125,0.018798828125,0.99755859375,0.1767578125,0.5187987685203552,-1.9226073026657104,-0.8544921278953552,80.0,61313.0,0.0
14377.271501,291908.0,297566.46875,354954.125,351293.625,288352.34375,256727.671875,224077.40625,245169.953125,0.018798828125,0.99755859375,0.1767578125,0.5187987685203552,-1.9226073026657104,-0.8544921278953552,80.0,61314.0,0.0
14377.2715014,291908.0,297566.46875,354954.125,351293.625,288352.34375,256727.671875,224077.40625,245169.953125,0.018798828125,0.99755859375,0.1767578125,0.5187987685203552,-1.9226073026657104,-0.8544921278953552,80.0,61315.0,0.0
14377.2715016,291841.28125,297599.46875,354861.9375,351196.09375,288312.40625,256675.734375,224038.515625,245158.953125,0.013916015625,0.999755859375,0.1728515625,0.4882812201976776,-1.3122557401657104,-1.1291502714157104,80.0,61316.0,1.0
14377.2753097,291859.78125,297400.34375,354790.78125,351239.8125,288274.5625,256669.03125,224032.078125,245167.0,0.013427734375,1.001220703125,0.170166015625,0.5187987685203552,-1.4038084745407104,-1.2512205839157104,80.0,61317.0,1.0
14377.2777574,291896.0,297546.09375,354924.96875,351271.1875,288345.84375,256713.734375,224078.390625,245187.46875,0.011962890625,1.001708984375,0.17333984375,0.4882812201976776,-1.4953612089157104,-1.2817381620407104,80.0,61318.0,1.0
14377.2802863,291904.6875,297838.71875,355078.40625,351249.46875,288431.46875,256760.578125,224116.84375,245186.578125,0.012451171875,1.0,0.17333984375,0.4577636420726776,-1.5258787870407104,-1.2207030057907104,80.0,61319.0,1.0
14377.2827664,291878.84375,297890.28125,355054.15625,351207.25,288420.5625,256751.90625,224095.375,245165.65625,0.0126953125,0.997802734375,0.177001953125,0.3662109076976776,-1.5563963651657104,-1.1596678495407104,80.0,61320.0,1.0
14377.2889736,291860.96875,297643.96875,354900.9375,351209.59375,288338.6875,256706.046875,224057.828125,245162.890625,0.01171875,0.997314453125,0.1767578125,0.3356933295726776,-1.6784666776657104,-1.2512205839157104,80.0,61321.0,1.0
14377.3089593,291872.9375,297423.21875,354818.84375,351250.34375,288290.03125,256676.09375,224041.921875,245177.90625,0.01220703125,0.995849609375,0.177001953125,0.4272460639476776,-1.6784666776657104,-1.2512205839157104,80.0,61322.0,1.0
14377.3239751,291901.8125,297550.71875,354933.90625,351274.03125,288346.5625,256704.078125,224069.1875,245194.53125,0.0107421875,0.99609375,0.176513671875,0.3967284858226776,-1.7395018339157104,-1.2207030057907104,80.0,61323.0,1.0
14377.3303095,291899.21875,297817.59375,355060.25,351240.59375,288410.90625,256736.703125,224086.359375,245185.0625,0.010986328125,0.99658203125,0.177490234375,0.3356933295726776,-1.8005369901657104,-1.1901854276657104,80.0,61324.0,1.0
14377.341502,291873.46875,297875.375,355040.65625,351209.3125,288413.96875,256742.96875,224091.8125,245186.9375,0.010498046875,0.996337890625,0.178466796875,0.2746581733226776,-1.8920897245407104,-1.1291502714157104,80.0,61325.0,1.0
14377.3465002,291853.09375,297629.125,354890.375,351212.625,288341.1875,256710.609375,224061.5,245180.859375,0.00927734375,0.994384765625,0.177490234375,0.3356933295726776,-1.9531248807907104,-1.0070799589157104,80.0,61326.0,1.0
14377.3503002,291858.71875,297406.875,354800.0625,351242.5625,288283.96875,256681.546875,224039.140625,245180.5,0.01025390625,0.995849609375,0.175537109375,0.4272460639476776,-1.9836424589157104,-1.0375975370407104,80.0,61327.0,1.0
14377.3753064,291888.21875,297542.6875,354920.0625,351268.3125,288336.71875,256707.296875,224065.15625,245195.34375,0.01025390625,0.996337890625,0.173095703125,0.4272460639476776,-1.9226073026657104,-1.0986326932907104,80.0,61328.0,1.0
14377.4114981,291883.125,297813.59375,355053.71875,351237.65625,288401.0,256719.28125,224082.0625,245193.828125,0.009521484375,0.995849609375,0.172119140625,0.4577636420726776,-2.014159917831421,-1.0070799589157104,80.0,61329.0,1.0
14377.4239751,291852.09375,297855.25,355024.65625,351195.46875,288392.6875,256711.765625,224071.328125,245184.875,0.011962890625,0.997802734375,0.175048828125,0.5493163466453552,-2.044677495956421,-0.8239745497703552,80.0,61330.0,1.0
14377.4402309,291827.0625,297608.9375,354868.5625,351193.65625,288316.0625,256684.3125,224044.78125,245186.484375,0.011962890625,0.997314453125,0.1748046875,0.6408690810203552,-2.075195074081421,-0.8239745497703552,80.0,61331.0,1.0
14377.4889859,291834.21875,297392.03125,354782.625,351229.0625,288267.875,256655.890625,224038.15625,245199.28125,0.012939453125,0.99658203125,0.177734375,0.6408690810203552,-2.136230230331421,-0.8239745497703552,80.0,61332.0,1.0
14377.5153303,291861.3125,297518.625,354896.46875,351248.84375,288318.125,256672.6875,224058.90625,245202.3125,0.01171875,0.995849609375,0.17626953125,0.6103515028953552,-2.258300542831421,-0.7629393935203552,80.0,61333.0,1.0
14377.5253041,291867.9375,297780.9375,355019.9375,351222.625,288387.0625,256715.703125,224082.0625,245199.8125,0.011474609375,0.9970703125,0.1748046875,0.6103515028953552,-2.105712652206421,-0.6713866591453552,80.0,61334.0,1.0
14377.5339594,291839.78125,297837.8125,354992.5625,351182.84375,288385.25,256727.140625,224079.28125,245186.40625,0.013671875,0.997314453125,0.1767578125,0.4272460639476776,-2.197265386581421,-0.7019042372703552,80.0,61335.0,1.0
14377.5511927,291819.125,297609.03125,354864.4375,351189.09375,288320.96875,256695.3125,224047.734375,245190.25,0.014404296875,0.996337890625,0.177001953125,0.3967284858226776,-2.227782964706421,-0.6103515028953552,80.0,61336.0,1.0
14377.5512116,291831.4375,297396.3125,354791.40625,351226.84375,288274.75,256653.921875,224026.453125,245204.1875,0.01220703125,0.996337890625,0.177978515625,0.3051757514476776,-2.258300542831421,-0.6713866591453552,80.0,61337.0,1.0
14377.551213,291861.6875,297512.28125,354894.9375,351248.28125,288323.84375,256678.765625,224055.953125,245217.6875,0.013916015625,0.9931640625,0.1767578125,0.3662109076976776,-2.105712652206421,-0.6408690810203552,80.0,61338.0,1.0
14377.5512142,291858.0,297771.5625,355003.46875,351209.5,288376.59375,256707.203125,224072.40625,245203.125,0.015380859375,0.994873046875,0.1748046875,0.4577636420726776,-2.014159917831421,-0.7019042372703552,80.0,61339.0,1.0
14377.5512154,291837.34375,297847.28125,354990.96875,351176.15625,288382.5,256720.890625,224079.46875,245197.578125,0.013916015625,0.996337890625,0.1787109375,0.4272460639476776,-1.9531248807907104,-0.8239745497703552,80.0,61340.0,1.0
14377.5512167,291817.9375,297615.625,354853.4375,351179.8125,288315.53125,256692.0,224051.390625,245188.546875,0.015869140625,0.99658203125,0.17431640625,0.3356933295726776,-2.044677495956421,-0.8544921278953552,80.0,61341.0,1.0
14377.5512179,291835.46875,297409.65625,354781.3125,351224.0625,288274.9375,256664.921875,224039.40625,245207.234375,0.017822265625,0.99609375,0.175048828125,0.3356933295726776,-1.8920897245407104,-0.7934569716453552,80.0,61342.0,1.0
14377.5512191,291874.28125,297550.375,354917.90625,351257.875,288339.84375,256695.9375,224071.15625,245234.671875,0.018310546875,0.995361328125,0.179443359375,0.4577636420726776,-1.7395018339157104,-0.8850097060203552,80.0,61343.0,1.0
