Time,FZ,C3,CZ,C4,PZ,PO7,OZ,PO8,AccX,AccY,AccZ,Gyro1,Gyro2,Gyro3,Battery,Counter,Validation
15267.5025434,296283.21875,294110.625,320718.84375,313000.4375,284715.90625,254329.6875,219798.125,243965.546875,0.051025390625,0.9931640625,0.161865234375,-0.5798339247703552,-1.3122557401657104,-0.7934569716453552,73.33333587646484,283680.0,1.0
15267.5025447,296469.34375,294776.53125,321603.4375,313268.65625,285246.53125,254493.9375,220048.109375,244105.921875,0.0517578125,0.9931640625,0.16064453125,-0.5493163466453552,-1.3732908964157104,-0.8850097060203552,73.33333587646484,283681.0,1.0
15267.5025459,296527.375,295324.75,322512.8125,313347.875,285732.90625,254565.640625,220152.4375,244116.734375,0.051513671875,0.991943359375,0.162109375,-0.4577636420726776,-1.4343260526657104,-0.9155272841453552,73.33333587646484,283682.0,1.0
15267.5117241,296380.5625,295006.65625,322198.90625,313139.375,285512.78125,254469.34375,219993.390625,244007.125,0.051513671875,0.9912109375,0.16796875,-0.4577636420726776,-1.5258787870407104,-0.8850097060203552,73.33333587646484,283683.0,1.0
15267.5117298,296227.0625,294251.4375,321084.96875,312919.59375,284879.78125,254327.015625,219765.765625,243896.25,0.05322265625,0.990234375,0.1669921875,-0.4272460639476776,-1.5563963651657104,-0.7934569716453552,73.33333587646484,283684.0,1.0
15267.51468,296278.46875,294107.21875,320712.40625,312993.375,284711.4375,254325.046875,219789.0,243950.609375,0.054931640625,0.989501953125,0.1640625,-0.3051757514476776,-1.5869139432907104,-0.7629393935203552,73.33333587646484,283685.0,1.0
15267.5146865,296278.46875,294107.21875,320712.40625,312993.375,284711.4375,254325.046875,219789.0,243950.609375,0.054931640625,0.989501953125,0.1640625,-0.3051757514476776,-1.5869139432907104,-0.7629393935203552,73.33333587646484,283686.0,0.0
15267.5146867,296278.46875,294107.21875,320712.40625,312993.375,284711.4375,254325.046875,219789.0,243950.609375,0.054931640625,0.989501953125,0.1640625,-0.3051757514476776,-1.5869139432907104,-0.7629393935203552,73.33333587646484,283687.0,0.0
15267.5146869,296278.46875,294107.21875,320712.40625,312993.375,284711.4375,254325.046875,219789.0,243950.609375,0.054931640625,0.989501953125,0.1640625,-0.3051757514476776,-1.5869139432907104,-0.7629393935203552,73.33333587646484,283688.0,0.0
15267.5146871,296278.46875,294107.21875,320712.40625,312993.375,284711.4375,254325.046875,219789.0,243950.609375,0.054931640625,0.989501953125,0.1640625,-0.3051757514476776,-1.5869139432907104,-0.7629393935203552,73.33333587646484,283689.0,0.0
15267.5146873,296278.46875,294107.21875,320712.40625,312993.375,284711.4375,254325.046875,219789.0,243950.609375,0.054931640625,0.989501953125,0.1640625,-0.3051757514476776,-1.5869139432907104,-0.7629393935203552,73.33333587646484,283690.0,0.0
15267.5146875,296278.46875,294107.21875,320712.40625,312993.375,284711.4375,254325.046875,219789.0,243950.609375,0.054931640625,0.989501953125,0.1640625,-0.3051757514476776,-1.5869139432907104,-0.7629393935203552,73.33333587646484,283691.0,0.0
15267.5146877,296278.46875,294107.21875,320712.40625,312993.375,284711.4375,254325.046875,219789.0,243950.609375,0.054931640625,0.989501953125,0.1640625,-0.3051757514476776,-1.5869139432907104,-0.7629393935203552,73.33333587646484,283692.0,0.0
15267.5146879,296278.46875,294107.21875,320712.40625,312993.375,284711.4375,254325.046875,219789.0,243950.609375,0.054931640625,0.989501953125,0.1640625,-0.3051757514476776,-1.5869139432907104,-0.7629393935203552,73.33333587646484,283693.0,0.0
15267.514688,296278.46875,294107.21875,320712.40625,312993.375,284711.4375,254325.046875,219789.0,243950.609375,0.054931640625,0.989501953125,0.1640625,-0.3051757514476776,-1.5869139432907104,-0.7629393935203552,73.33333587646484,283694.0,0.0
15267.5146882,296278.46875,294107.21875,320712.40625,312993.375,284711.4375,254325.046875,219789.0,243950.609375,0.054931640625,0.989501953125,0.1640625,-0.3051757514476776,-1.5869139432907104,-0.7629393935203552,73.33333587646484,283695.0,0.0
15267.5146884,296278.46875,294107.21875,320712.40625,312993.375,284711.4375,254325.046875,219789.0,243950.609375,0.054931640625,0.989501953125,0.1640625,-0.3051757514476776,-1.5869139432907104,-0.7629393935203552,73.33333587646484,283696.0,0.0
15267.5146885,296278.46875,294107.21875,320712.40625,312993.375,284711.4375,254325.046875,219789.0,243950.609375,0.054931640625,0.989501953125,0.1640625,-0.3051757514476776,-1.5869139432907104,-0.7629393935203552,73.33333587646484,283697.0,0.0
15267.5146887,296278.46875,294107.21875,320712.40625,312993.375,284711.4375,254325.046875,219789.0,243950.609375,0.054931640625,0.989501953125,0.1640625,-0.3051757514476776,-1.5869139432907104,-0.7629393935203552,73.33333587646484,283698.0,0.0
15267.5146889,296278.46875,294107.21875,320712.40625,312993.375,284711.4375,254325.046875,219789.0,243950.609375,0.054931640625,0.989501953125,0.1640625,-0.3051757514476776,-1.5869139432907104,-0.7629393935203552,73.33333587646484,283699.0,0.0
15267.5146891,296278.46875,294107.21875,320712.40625,312993.375,284711.4375,254325.046875,219789.0,243950.609375,0.054931640625,0.989501953125,0.1640625,-0.3051757514476776,-1.5869139432907104,-0.7629393935203552,73.33333587646484,283700.0,0.0
15267.5146892,296278.46875,294107.21875,320712.40625,312993.375,284711.4375,254325.046875,219789.0,243950.609375,0.054931640625,0.989501953125,0.1640625,-0.3051757514476776,-1.5869139432907104,-0.7629393935203552,73.33333587646484,283701.0,0.0
15267.5146894,296278.46875,294107.21875,320712.40625,312993.375,284711.4375,254325.046875,219789.0,243950.609375,0.054931640625,0.989501953125,0.1640625,-0.3051757514476776,-1.5869139432907104,-0.7629393935203552,73.33333587646484,283702.0,0.0
15267.5146896,296278.46875,294107.21875,320712.40625,312993.375,284711.4375,254325.046875,219789.0,243950.609375,0.054931640625,0.989501953125,0.1640625,-0.3051757514476776,-1.5869139432907104,-0.7629393935203552,73.33333587646484,283703.0,0.0
15267.5146898,296278.46875,294107.21875,320712.40625,312993.375,284711.4375,254325.046875,219789.0,243950.609375,0.054931640625,0.989501953125,0.1640625,-0.3051757514476776,-1.5869139432907104,-0.7629393935203552,73.33333587646484,283704.0,0.0
15267.5146899,296278.46875,294107.21875,320712.40625,312993.375,284711.4375,254325.046875,219789.0,243950.609375,0.054931640625,0.989501953125,0.1640625,-0.3051757514476776,-1.5869139432907104,-0.7629393935203552,73.33333587646484,283705.0,0.0
15267.5146901,296278.46875,294107.21875,320712.40625,312993.375,284711.4375,254325.046875,219789.0,243950.609375,0.054931640625,0.989501953125,0.1640625,-0.3051757514476776,-1.5869139432907104,-0.7629393935203552,73.33333587646484,283706.0,0.0
15267.5146903,296278.46875,294107.21875,320712.40625,312993.375,284711.4375,254325.046875,219789.0,243950.609375,0.054931640625,0.989501953125,0.1640625,-0.3051757514476776,-1.5869139432907104,-0.7629393935203552,73.33333587646484,283707.0,0.0
15267.5146905,296278.46875,294107.21875,320712.40625,312993.375,284711.4375,254325.046875,219789.0,243950.609375,0.054931640625,0.989501953125,0.1640625,-0.3051757514476776,-1.5869139432907104,-0.7629393935203552,73.33333587646484,283708.0,0.0
15267.5146906,296278.46875,294107.21875,320712.40625,312993.375,284711.4375,254325.046875,219789.0,243950.609375,0.054931640625,0.989501953125,0.1640625,-0.3051757514476776,-1.5869139432907104,-0.7629393935203552,73.33333587646484,283709.0,0.0
15267.5146908,296278.46875,294107.21875,320712.40625,312993.375,284711.4375,254325.046875,219789.0,243950.609375,0.054931640625,0.989501953125,0.1640625,-0.3051757514476776,-1.5869139432907104,-0.7629393935203552,73.33333587646484,283710.0,0.0
15267.514691,296278.46875,294107.21875,320712.40625,312993.375,284711.4375,254325.046875,219789.0,243950.609375,0.054931640625,0.989501953125,0.1640625,-0.3051757514476776,-1.5869139432907104,-0.7629393935203552,73.33333587646484,283711.0,0.0
15267.5146912,296278.46875,294107.21875,320712.40625,312993.375,284711.4375,254325.046875,219789.0,243950.609375,0.054931640625,0.989501953125,0.1640625,-0.3051757514476776,-1.5869139432907104,-0.7629393935203552,73.33333587646484,283712.0,0.0
15267.5146913,296278.46875,294107.21875,320712.40625,312993.375,284711.4375,254325.046875,219789.0,243950.609375,0.054931640625,0.989501953125,0.1640625,-0.3051757514476776,-1.5869139432907104,-0.7629393935203552,73.33333587646484,283713.0,0.0
15267.5146915,296278.46875,294107.21875,320712.40625,312993.375,284711.4375,254325.046875,219789.0,243950.609375,0.054931640625,0.989501953125,0.1640625,-0.3051757514476776,-1.5869139432907104,-0.7629393935203552,73.33333587646484,283714.0,0.0
15267.5146917,296278.46875,294107.21875,320712.40625,312993.375,284711.4375,254325.046875,219789.0,243950.609375,0.054931640625,0.989501953125,0.1640625,-0.3051757514476776,-1.5869139432907104,-0.7629393935203552,73.33333587646484,283715.0,0.0
15267.5146919,296278.46875,294107.21875,320712.40625,312993.375,284711.4375,254325.046875,219789.0,243950.609375,0.054931640625,0.989501953125,0.1640625,-0.3051757514476776,-1.5869139432907104,-0.7629393935203552,73.33333587646484,283716.0,0.0
15267.514692,296278.46875,294107.21875,320712.40625,312993.375,284711.4375,254325.046875,219789.0,243950.609375,0.054931640625,0.989501953125,0.1640625,-0.3051757514476776,-1.5869139432907104,-0.7629393935203552,73.33333587646484,283717.0,0.0
15267.5146922,296278.46875,294107.21875,320712.40625,312993.375,284711.4375,254325.046875,219789.0,243950.609375,0.054931640625,0.989501953125,0.1640625,-0.3051757514476776,-1.5869139432907104,-0.7629393935203552,73.33333587646484,283718.0,0.0
15267.5146924,296278.46875,294107.21875,320712.40625,312993.375,284711.4375,254325.046875,219789.0,243950.609375,0.054931640625,0.989501953125,0.1640625,-0.3051757514476776,-1.5869139432907104,-0.7629393935203552,73.33333587646484,283719.0,0.0
15267.5146925,296278.46875,294107.21875,320712.40625,312993.375,284711.4375,254325.046875,219789.0,243950.609375,0.054931640625,0.989501953125,0.1640625,-0.3051757514476776,-1.5869139432907104,-0.7629393935203552,73.33333587646484,283720.0,0.0
15267.5146927,296278.46875,294107.21875,320712.40625,312993.375,284711.4375,254325.046875,219789.0,243950.609375,0.054931640625,0.989501953125,0.1640625,-0.3051757514476776,-1.5869139432907104,-0.7629393935203552,73.33333587646484,283721.0,0.0
15267.5146929,296278.46875,294107.21875,320712.40625,312993.375,284711.4375,254325.046875,219789.0,243950.609375,0.054931640625,0.989501953125,0.1640625,-0.3051757514476776,-1.5869139432907104,-0.7629393935203552,73.33333587646484,283722.0,0.0
15267.5146931,296278.46875,294107.21875,320712.40625,312993.375,284711.4375,254325.046875,219789.0,243950.609375,0.054931640625,0.989501953125,0.1640625,-0.3051757514476776,-1.5869139432907104,-0.7629393935203552,73.33333587646484,283723.0,0.0
15267.5146932,296233.125,294292.8125,321116.875,312928.5625,284905.28125,254344.359375,219761.5625,243910.46875,0.0537109375,0.996337890625,0.161376953125,0.2746581733226776,-1.8310545682907104,-1.0375975370407104,73.33333587646484,283724.0,1.0
15267.5166186,296286.96875,294125.53125,320721.625,313003.46875,284723.5,254351.15625,219788.375,243965.09375,0.05126953125,0.995361328125,0.16015625,0.1525878757238388,-1.7700194120407104,-0.8850097060203552,73.33333587646484,283725.0,1.0
15267.5706254,296472.3125,294779.5625,321583.78125,313273.3125,285243.3125,254521.65625,220040.953125,244114.953125,0.05126953125,0.994873046875,0.161865234375,-0.03051757626235485,-1.7700194120407104,-0.7934569716453552,73.33333587646484,283726.0,1.0
15267.5706421,296535.15625,295342.65625,322508.0625,313364.59375,285742.3125,254613.109375,220167.375,244151.609375,0.050537109375,0.992919921875,0.16064453125,0.0,-1.7395018339157104,-0.7324218153953552,73.33333587646484,283727.0,1.0
15267.5706442,296393.4375,295044.03125,322221.0625,313159.125,285539.875,254519.59375,220010.375,244037.4375,0.05224609375,0.99072265625,0.159912109375,0.0,-1.8005369901657104,-0.6408690810203552,73.33333587646484,283728.0,1.0
15267.5706459,296230.625,294280.9375,321113.03125,312927.46875,284902.5,254329.34375,219762.1875,243922.453125,0.050537109375,0.989501953125,0.1640625,0.0,-1.8615721464157104,-0.6713866591453552,73.33333587646484,283729.0,1.0
15267.5706491,296274.96875,294108.1875,320714.65625,312995.875,284715.90625,254313.78125,219775.421875,243974.125,0.048828125,0.990234375,0.16357421875,0.1220703050494194,-1.9836424589157104,-0.7629393935203552,73.33333587646484,283730.0,1.0
15267.5706508,296466.21875,294763.46875,321580.46875,313268.28125,285239.9375,254493.578125,220029.59375,244111.90625,0.050537109375,0.990234375,0.1572265625,0.3051757514476776,-2.014159917831421,-0.7629393935203552,73.33333587646484,283731.0,1.0
15267.5706525,296537.46875,295337.09375,322502.53125,313359.5,285736.9375,254589.59375,220158.078125,244142.390625,0.05126953125,0.990478515625,0.160400390625,0.2441406100988388,-2.044677495956421,-0.6713866591453552,73.33333587646484,283732.0,1.0
15267.5706543,296393.8125,295041.875,322215.6875,313151.09375,285529.875,254497.421875,220000.625,244033.765625,0.052001953125,0.99169921875,0.164794921875,0.1831054538488388,-2.105712652206421,-0.7019042372703552,73.33333587646484,283733.0,1.0
15267.5943289,296235.28125,294284.0625,321105.90625,312924.71875,284892.40625,254333.890625,219758.15625,243924.0625,0.05224609375,0.99267578125,0.16357421875,0.0610351525247097,-2.166747808456421,-0.7324218153953552,73.33333587646484,283734.0,1.0
15267.5943456,296235.28125,294284.0625,321105.90625,312924.71875,284892.40625,254333.890625,219758.15625,243924.0625,0.05224609375,0.99267578125,0.16357421875,0.0610351525247097,-2.166747808456421,-0.7324218153953552,73.33333587646484,283735.0,0.0
15267.5943458,296235.28125,294284.0625,321105.90625,312924.71875,284892.40625,254333.890625,219758.15625,243924.0625,0.05224609375,0.99267578125,0.16357421875,0.0610351525247097,-2.166747808456421,-0.7324218153953552,73.33333587646484,283736.0,0.0
15267.594346,296235.28125,294284.0625,321105.90625,312924.71875,284892.40625,254333.890625,219758.15625,243924.0625,0.05224609375,0.99267578125,0.16357421875,0.0610351525247097,-2.166747808456421,-0.7324218153953552,73.33333587646484,283737.0,0.0
15267.5943462,296235.28125,294284.0625,321105.90625,312924.71875,284892.40625,254333.890625,219758.15625,243924.0625,0.05224609375,0.99267578125,0.16357421875,0.0610351525247097,-2.166747808456421,-0.7324218153953552,73.33333587646484,283738.0,0.0
15267.5943464,296235.28125,294284.0625,321105.90625,312924.71875,284892.40625,254333.890625,219758.15625,243924.0625,0.05224609375,0.99267578125,0.16357421875,0.0610351525247097,-2.166747808456421,-0.7324218153953552,73.33333587646484,283739.0,0.0
15267.5943466,296235.28125,294284.0625,321105.90625,312924.71875,284892.40625,254333.890625,219758.15625,243924.0625,0.05224609375,0.99267578125,0.16357421875,0.0610351525247097,-2.166747808456421,-0.7324218153953552,73.33333587646484,283740.0,0.0
15267.5943468,296235.28125,294284.0625,321105.90625,312924.71875,284892.40625,254333.890625,219758.15625,243924.0625,0.05224609375,0.99267578125,0.16357421875,0.0610351525247097,-2.166747808456421,-0.7324218153953552,73.33333587646484,283741.0,0.0
15267.594347,296235.28125,294284.0625,321105.90625,312924.71875,284892.40625,254333.890625,219758.15625,243924.0625,0.05224609375,0.99267578125,0.16357421875,0.0610351525247097,-2.166747808456421,-0.7324218153953552,73.33333587646484,283742.0,0.0
15267.5943471,296235.28125,294284.0625,321105.90625,312924.71875,284892.40625,254333.890625,219758.15625,243924.0625,0.05224609375,0.99267578125,0.16357421875,0.0610351525247097,-2.166747808456421,-0.7324218153953552,73.33333587646484,283743.0,0.0
15267.5943473,296235.28125,294284.0625,321105.90625,312924.71875,284892.40625,254333.890625,219758.15625,243924.0625,0.05224609375,0.99267578125,0.16357421875,0.0610351525247097,-2.166747808456421,-0.7324218153953552,73.33333587646484,283744.0,0.0
15267.5943475,296235.28125,294284.0625,321105.90625,312924.71875,284892.40625,254333.890625,219758.15625,243924.0625,0.05224609375,0.99267578125,0.16357421875,0.0610351525247097,-2.166747808456421,-0.7324218153953552,73.33333587646484,283745.0,0.0
15267.5943477,296235.28125,294284.0625,321105.90625,312924.71875,284892.40625,254333.890625,219758.15625,243924.0625,0.05224609375,0.99267578125,0.16357421875,0.0610351525247097,-2.166747808456421,-0.7324218153953552,73.33333587646484,283746.0,0.0
15267.5943478,296235.28125,294284.0625,321105.90625,312924.71875,284892.40625,254333.890625,219758.15625,243924.0625,0.05224609375,0.99267578125,0.16357421875,0.0610351525247097,-2.166747808456421,-0.7324218153953552,73.33333587646484,283747.0,0.0
15267.5943481,296235.28125,294284.0625,321105.90625,312924.71875,284892.40625,254333.890625,219758.15625,243924.0625,0.05224609375,0.99267578125,0.16357421875,0.0610351525247097,-2.166747808456421,-0.7324218153953552,73.33333587646484,283748.0,0.0
15267.5943482,296235.28125,294284.0625,321105.90625,312924.71875,284892.40625,254333.890625,219758.15625,243924.0625,0.05224609375,0.99267578125,0.16357421875,0.0610351525247097,-2.166747808456421,-0.7324218153953552,73.33333587646484,283749.0,0.0
15267.5943485,296235.28125,294284.0625,321105.90625,312924.71875,284892.40625,254333.890625,219758.15625,243924.0625,0.05224609375,0.99267578125,0.16357421875,0.0610351525247097,-2.166747808456421,-0.7324218153953552,73.33333587646484,283750.0,0.0
15267.5943486,296235.28125,294284.0625,321105.90625,312924.71875,284892.40625,254333.890625,219758.15625,243924.0625,0.05224609375,0.99267578125,0.16357421875,0.0610351525247097,-2.166747808456421,-0.7324218153953552,73.33333587646484,283751.0,0.0
15267.594349,296235.28125,294284.0625,321105.90625,312924.71875,284892.40625,254333.890625,219758.15625,243924.0625,0.05224609375,0.99267578125,0.16357421875,0.0610351525247097,-2.166747808456421,-0.7324218153953552,73.33333587646484,283752.0,0.0
15267.5943492,296235.28125,294284.0625,321105.90625,312924.71875,284892.40625,254333.890625,219758.15625,243924.0625,0.05224609375,0.99267578125,0.16357421875,0.0610351525247097,-2.166747808456421,-0.7324218153953552,73.33333587646484,283753.0,0.0
15267.5943494,296235.28125,294284.0625,321105.90625,312924.71875,284892.40625,254333.890625,219758.15625,243924.0625,0.05224609375,0.99267578125,0.16357421875,0.0610351525247097,-2.166747808456421,-0.7324218153953552,73.33333587646484,283754.0,0.0
15267.5943496,296235.28125,294284.0625,321105.90625,312924.71875,284892.40625,254333.890625,219758.15625,243924.0625,0.05224609375,0.99267578125,0.16357421875,0.0610351525247097,-2.166747808456421,-0.7324218153953552,73.33333587646484,283755.0,0.0
15267.5943497,296235.28125,294284.0625,321105.90625,312924.71875,284892.40625,254333.890625,219758.15625,243924.0625,0.05224609375,0.99267578125,0.16357421875,0.0610351525247097,-2.166747808456421,-0.7324218153953552,73.33333587646484,283756.0,0.0
15267.5943499,296235.28125,294284.0625,321105.90625,312924.71875,284892.40625,254333.890625,219758.15625,243924.0625,0.05224609375,0.99267578125,0.16357421875,0.0610351525247097,-2.166747808456421,-0.7324218153953552,73.33333587646484,283757.0,0.0
15267.5943501,296235.28125,294284.0625,321105.90625,312924.71875,284892.40625,254333.890625,219758.15625,243924.0625,0.05224609375,0.99267578125,0.16357421875,0.0610351525247097,-2.166747808456421,-0.7324218153953552,73.33333587646484,283758.0,0.0
15267.5943502,296235.28125,294284.0625,321105.90625,312924.71875,284892.40625,254333.890625,219758.15625,243924.0625,0.05224609375,0.99267578125,0.16357421875,0.0610351525247097,-2.166747808456421,-0.7324218153953552,73.33333587646484,283759.0,0.0
15267.5943504,296235.28125,294284.0625,321105.90625,312924.71875,284892.40625,254333.890625,219758.15625,243924.0625,0.05224609375,0.99267578125,0.16357421875,0.0610351525247097,-2.166747808456421,-0.7324218153953552,73.33333587646484,283760.0,0.0
15267.5943506,296235.28125,294284.0625,321105.90625,312924.71875,284892.40625,254333.890625,219758.15625,243924.0625,0.05224609375,0.99267578125,0.16357421875,0.0610351525247097,-2.166747808456421,-0.7324218153953552,73.33333587646484,283761.0,0.0
15267.5943508,296235.28125,294284.0625,321105.90625,312924.71875,284892.40625,254333.890625,219758.15625,243924.0625,0.05224609375,0.99267578125,0.16357421875,0.0610351525247097,-2.166747808456421,-0.7324218153953552,73.33333587646484,283762.0,0.0
15267.5943509,296235.28125,294284.0625,321105.90625,312924.71875,284892.40625,254333.890625,219758.15625,243924.0625,0.05224609375,0.99267578125,0.16357421875,0.0610351525247097,-2.166747808456421,-0.7324218153953552,73.33333587646484,283763.0,0.0
15267.5943511,296235.28125,294284.0625,321105.90625,312924.71875,284892.40625,254333.890625,219758.15625,243924.0625,0.05224609375,0.99267578125,0.16357421875,0.0610351525247097,-2.166747808456421,-0.7324218153953552,73.33333587646484,283764.0,0.0
15267.5943513,296235.28125,294284.0625,321105.90625,312924.71875,284892.40625,254333.890625,219758.15625,243924.0625,0.05224609375,0.99267578125,0.16357421875,0.0610351525247097,-2.166747808456421,-0.7324218153953552,73.33333587646484,283765.0,0.0
15267.5943515,296235.28125,294284.0625,321105.90625,312924.71875,284892.40625,254333.890625,219758.15625,243924.0625,0.05224609375,0.99267578125,0.16357421875,0.0610351525247097,-2.166747808456421,-0.7324218153953552,73.33333587646484,283766.0,0.0
15267.5943516,296533.625,295336.125,322493.125,313351.28125,285732.46875,254616.25,220165.40625,244152.40625,0.0556640625,0.99755859375,0.157958984375,0.1831054538488388,-1.5563963651657104,-0.6713866591453552,73.33333587646484,283767.0,1.0
15267.6041498,296390.9375,295058.5,322233.65625,313151.625,285546.0625,254539.265625,220024.40625,244060.859375,0.052978515625,0.99462890625,0.1591796875,0.0915527269244194,-1.5869139432907104,-0.7629393935203552,73.33333587646484,283768.0,1.0
15267.6066046,296231.34375,294305.15625,321136.375,312921.40625,284918.40625,254365.28125,219778.015625,243942.921875,0.055419921875,0.9912109375,0.15869140625,0.1220703050494194,-1.6479490995407104,-0.6408690810203552,73.33333587646484,283769.0,1.0
15267.6159334,296277.9375,294127.34375,320725.09375,312985.3125,284727.0,254352.5,219788.203125,243982.796875,0.05224609375,0.989013671875,0.162841796875,0.2136230319738388,-1.5869139432907104,-0.7324218153953552,73.33333587646484,283770.0,1.0
15267.6159394,296468.625,294771.96875,321569.90625,313252.90625,285235.1875,254509.578125,220035.40625,244120.125,0.0537109375,0.988037109375,0.160888671875,0.2441406100988388,-1.5869139432907104,-0.7629393935203552,73.33333587646484,283771.0,1.0
15267.6184373,296538.65625,295350.4375,322501.34375,313352.34375,285741.75,254618.296875,220173.28125,244166.171875,0.053466796875,0.991943359375,0.160400390625,0.4272460639476776,-1.6479490995407104,-0.8850097060203552,73.33333587646484,283772.0,1.0
15267.6184491,296393.09375,295059.84375,322236.96875,313147.59375,285545.15625,254517.453125,220008.234375,244052.8125,0.052490234375,0.991943359375,0.162109375,0.4882812201976776,-1.6479490995407104,-0.8544921278953552,73.33333587646484,283773.0,1.0
15267.6203346,296237.15625,294306.5,321139.25,312920.59375,284917.0625,254354.90625,219774.796875,243940.421875,0.05224609375,0.993408203125,0.16015625,0.4882812201976776,-1.7089842557907104,-1.0070799589157104,73.33333587646484,283774.0,1.0
15267.6241237,296284.09375,294125.1875,320723.3125,312983.4375,284722.15625,254350.53125,219787.3125,243985.390625,0.052490234375,0.99755859375,0.15966796875,0.5493163466453552,-1.7395018339157104,-1.1291502714157104,73.33333587646484,283775.0,1.0
15267.6778374,296470.6875,294764.0,321559.625,313252.21875,285228.46875,254516.203125,220036.9375,244134.265625,0.0546875,0.99951171875,0.16015625,0.6103515028953552,-1.7395018339157104,-1.1901854276657104,73.33333587646484,283776.0,1.0
15267.6778498,296539.96875,295343.625,322493.40625,313352.59375,285737.375,254634.921875,220179.796875,244174.3125,0.054443359375,0.998046875,0.162353515625,0.5493163466453552,-1.8005369901657104,-1.2512205839157104,73.33333587646484,283777.0,1.0
15267.6778512,296396.3125,295057.875,322232.78125,313146.78125,285543.1875,254519.859375,220016.1875,244053.875,0.05419921875,0.998779296875,0.162841796875,0.5187987685203552,-1.8615721464157104,-1.2817381620407104,73.33333587646484,283778.0,1.0
15267.6778524,296240.75,294310.0,321139.875,312921.9375,284917.0625,254349.0,219777.828125,243938.71875,0.0546875,0.99609375,0.16259765625,0.4882812201976776,-1.8005369901657104,-1.2512205839157104,73.33333587646484,283779.0,1.0
15267.6778536,296291.875,294140.46875,320733.59375,312987.46875,284730.03125,254360.359375,219791.0625,243984.953125,0.0537109375,0.995849609375,0.164306640625,0.4577636420726776,-1.8005369901657104,-1.3427733182907104,73.33333587646484,283780.0,1.0
15267.6778548,296476.59375,294773.75,321569.90625,313259.625,285236.34375,254514.234375,220046.5,244142.84375,0.054443359375,0.99560546875,0.161865234375,0.4577636420726776,-1.8920897245407104,-1.3427733182907104,73.33333587646484,283781.0,1.0
15267.7028674,296545.34375,295350.4375,322505.375,313353.9375,285740.0625,254603.1875,220167.546875,244170.109375,0.055419921875,0.992919921875,0.162353515625,0.3967284858226776,-1.8310545682907104,-1.3427733182907104,73.33333587646484,283782.0,1.0
15267.7628714,296398.28125,295065.9375,322235.0,313143.5625,285540.875,254509.84375,219999.640625,244046.28125,0.05322265625,0.991455078125,0.1630859375,0.3967284858226776,-1.8310545682907104,-1.4648436307907104,73.33333587646484,283783.0,1.0
15267.7878399,296239.21875,294315.625,321135.03125,312921.21875,284913.3125,254355.4375,219771.390625,243942.65625,0.055419921875,0.9921875,0.159423828125,0.4272460639476776,-1.7700194120407104,-1.4343260526657104,73.33333587646484,283784.0,1.0
15267.8497566,296283.28125,294134.21875,320723.6875,312985.59375,284718.6875,254349.546875,219785.515625,243992.734375,0.053955078125,0.992919921875,0.16015625,0.4272460639476776,-1.7395018339157104,-1.4343260526657104,73.33333587646484,283785.0,1.0
15267.8497643,296471.84375,294767.9375,321552.03125,313255.34375,285217.9375,254512.625,220038.09375,244143.921875,0.052978515625,0.991943359375,0.162353515625,0.5493163466453552,-1.7089842557907104,-1.3732908964157104,73.33333587646484,283786.0,1.0
15267.8497656,296539.28125,295344.875,322481.25,313348.75,285721.125,254613.296875,220168.71875,244163.578125,0.0546875,0.994873046875,0.162109375,0.6713866591453552,-1.5869139432907104,-1.3122557401657104,73.33333587646484,283787.0,1.0
15267.8497688,296539.28125,295344.875,322481.25,313348.75,285721.125,254613.296875,220168.71875,244163.578125,0.0546875,0.994873046875,0.162109375,0.6713866591453552,-1.5869139432907104,-1.3122557401657104,73.33333587646484,283788.0,0.0
15267.849769,296539.28125,295344.875,322481.25,313348.75,285721.125,254613.296875,220168.71875,244163.578125,0.0546875,0.994873046875,0.162109375,0.6713866591453552,-1.5869139432907104,-1.3122557401657104,73.33333587646484,283789.0,0.0
15267.8497692,296539.28125,295344.875,322481.25,313348.75,285721.125,254613.296875,220168.71875,244163.578125,0.0546875,0.994873046875,0.162109375,0.6713866591453552,-1.5869139432907104,-1.3122557401657104,73.33333587646484,283790.0,0.0
15267.8497695,296539.28125,295344.875,322481.25,313348.75,285721.125,254613.296875,220168.71875,244163.578125,0.0546875,0.994873046875,0.162109375,0.6713866591453552,-1.5869139432907104,-1.3122557401657104,73.33333587646484,283791.0,0.0
15267.8497697,296539.28125,295344.875,322481.25,313348.75,285721.125,254613.296875,220168.71875,244163.578125,0.0546875,0.994873046875,0.162109375,0.6713866591453552,-1.5869139432907104,-1.3122557401657104,73.33333587646484,283792.0,0.0
15267.8497699,296539.28125,295344.875,322481.25,313348.75,285721.125,254613.296875,220168.71875,244163.578125,0.0546875,0.994873046875,0.162109375,0.6713866591453552,-1.5869139432907104,-1.3122557401657104,73.33333587646484,283793.0,0.0
15267.8497701,296539.28125,295344.875,322481.25,313348.75,285721.125,254613.296875,220168.71875,244163.578125,0.0546875,0.994873046875,0.162109375,0.6713866591453552,-1.5869139432907104,-1.3122557401657104,73.33333587646484,283794.0,0.0
15267.8497703,296539.28125,295344.875,322481.25,313348.75,285721.125,254613.296875,220168.71875,244163.578125,0.0546875,0.994873046875,0.162109375,0.6713866591453552,-1.5869139432907104,-1.3122557401657104,73.33333587646484,283795.0,0.0
15267.8497704,296539.28125,295344.875,322481.25,313348.75,285721.125,254613.296875,220168.71875,244163.578125,0.0546875,0.994873046875,0.162109375,0.6713866591453552,-1.5869139432907104,-1.3122557401657104,73.33333587646484,283796.0,0.0
15267.8497706,296539.28125,295344.875,322481.25,313348.75,285721.125,254613.296875,220168.71875,244163.578125,0.0546875,0.994873046875,0.162109375,0.6713866591453552,-1.5869139432907104,-1.3122557401657104,73.33333587646484,283797.0,0.0
15267.8497708,296539.28125,295344.875,322481.25,313348.75,285721.125,254613.296875,220168.71875,244163.578125,0.0546875,0.994873046875,0.162109375,0.6713866591453552,-1.5869139432907104,-1.3122557401657104,73.33333587646484,283798.0,0.0
15267.849771,296539.28125,295344.875,322481.25,313348.75,285721.125,254613.296875,220168.71875,244163.578125,0.0546875,0.994873046875,0.162109375,0.6713866591453552,-1.5869139432907104,-1.3122557401657104,73.33333587646484,283799.0,0.0
15267.8497712,296539.28125,295344.875,322481.25,313348.75,285721.125,254613.296875,220168.71875,244163.578125,0.0546875,0.994873046875,0.162109375,0.6713866591453552,-1.5869139432907104,-1.3122557401657104,73.33333587646484,283800.0,0.0
15267.8497713,296539.28125,295344.875,322481.25,313348.75,285721.125,254613.296875,220168.71875,244163.578125,0.0546875,0.994873046875,0.162109375,0.6713866591453552,-1.5869139432907104,-1.3122557401657104,73.33333587646484,283801.0,0.0
15267.8497715,296539.28125,295344.875,322481.25,313348.75,285721.125,254613.296875,220168.71875,244163.578125,0.0546875,0.994873046875,0.162109375,0.6713866591453552,-1.5869139432907104,-1.3122557401657104,73.33333587646484,283802.0,0.0
15267.8497717,296539.28125,295344.875,322481.25,313348.75,285721.125,254613.296875,220168.71875,244163.578125,0.0546875,0.994873046875,0.162109375,0.6713866591453552,-1.5869139432907104,-1.3122557401657104,73.33333587646484,283803.0,0.0
15267.8497718,296539.28125,295344.875,322481.25,313348.75,285721.125,254613.296875,220168.71875,244163.578125,0.0546875,0.994873046875,0.162109375,0.6713866591453552,-1.5869139432907104,-1.3122557401657104,73.33333587646484,283804.0,0.0
15267.849772,296539.28125,295344.875,322481.25,313348.75,285721.125,254613.296875,220168.71875,244163.578125,0.0546875,0.994873046875,0.162109375,0.6713866591453552,-1.5869139432907104,-1.3122557401657104,73.33333587646484,283805.0,0.0
15267.8497722,296539.28125,295344.875,322481.25,313348.75,285721.125,254613.296875,220168.71875,244163.578125,0.0546875,0.994873046875,0.162109375,0.6713866591453552,-1.5869139432907104,-1.3122557401657104,73.33333587646484,283806.0,0.0
15267.8497723,296539.28125,295344.875,322481.25,313348.75,285721.125,254613.296875,220168.71875,244163.578125,0.0546875,0.994873046875,0.162109375,0.6713866591453552,-1.5869139432907104,-1.3122557401657104,73.33333587646484,283807.0,0.0
15267.8497725,296539.28125,295344.875,322481.25,313348.75,285721.125,254613.296875,220168.71875,244163.578125,0.0546875,0.994873046875,0.162109375,0.6713866591453552,-1.5869139432907104,-1.3122557401657104,73.33333587646484,283808.0,0.0
15267.8497727,296539.28125,295344.875,322481.25,313348.75,285721.125,254613.296875,220168.71875,244163.578125,0.0546875,0.994873046875,0.162109375,0.6713866591453552,-1.5869139432907104,-1.3122557401657104,73.33333587646484,283809.0,0.0
15267.8497729,296539.28125,295344.875,322481.25,313348.75,285721.125,254613.296875,220168.71875,244163.578125,0.0546875,0.994873046875,0.162109375,0.6713866591453552,-1.5869139432907104,-1.3122557401657104,73.33333587646484,283810.0,0.0
15267.849773,296539.28125,295344.875,322481.25,313348.75,285721.125,254613.296875,220168.71875,244163.578125,0.0546875,0.994873046875,0.162109375,0.6713866591453552,-1.5869139432907104,-1.3122557401657104,73.33333587646484,283811.0,0.0
15267.8497732,296539.28125,295344.875,322481.25,313348.75,285721.125,254613.296875,220168.71875,244163.578125,0.0546875,0.994873046875,0.162109375,0.6713866591453552,-1.5869139432907104,-1.3122557401657104,73.33333587646484,283812.0,0.0
15267.8497734,296539.28125,295344.875,322481.25,313348.75,285721.125,254613.296875,220168.71875,244163.578125,0.0546875,0.994873046875,0.162109375,0.6713866591453552,-1.5869139432907104,-1.3122557401657104,73.33333587646484,283813.0,0.0
15267.8497736,296539.28125,295344.875,322481.25,313348.75,285721.125,254613.296875,220168.71875,244163.578125,0.0546875,0.994873046875,0.162109375,0.6713866591453552,-1.5869139432907104,-1.3122557401657104,73.33333587646484,283814.0,0.0
15267.8497741,296539.28125,295344.875,322481.25,313348.75,285721.125,254613.296875,220168.71875,244163.578125,0.0546875,0.994873046875,0.162109375,0.6713866591453552,-1.5869139432907104,-1.3122557401657104,73.33333587646484,283815.0,0.0
15267.8497743,296539.28125,295344.875,322481.25,313348.75,285721.125,254613.296875,220168.71875,244163.578125,0.0546875,0.994873046875,0.162109375,0.6713866591453552,-1.5869139432907104,-1.3122557401657104,73.33333587646484,283816.0,0.0
15267.8497744,296539.28125,295344.875,322481.25,313348.75,285721.125,254613.296875,220168.71875,244163.578125,0.0546875,0.994873046875,0.162109375,0.6713866591453552,-1.5869139432907104,-1.3122557401657104,73.33333587646484,283817.0,0.0
15267.8497746,296539.28125,295344.875,322481.25,313348.75,285721.125,254613.296875,220168.71875,244163.578125,0.0546875,0.994873046875,0.162109375,0.6713866591453552,-1.5869139432907104,-1.3122557401657104,73.33333587646484,283818.0,0.0
15267.8497748,296539.28125,295344.875,322481.25,313348.75,285721.125,254613.296875,220168.71875,244163.578125,0.0546875,0.994873046875,0.162109375,0.6713866591453552,-1.5869139432907104,-1.3122557401657104,73.33333587646484,283819.0,0.0
15267.8497749,296539.28125,295344.875,322481.25,313348.75,285721.125,254613.296875,220168.71875,244163.578125,0.0546875,0.994873046875,0.162109375,0.6713866591453552,-1.5869139432907104,-1.3122557401657104,73.33333587646484,283820.0,0.0
15267.8497751,296539.28125,295344.875,322481.25,313348.75,285721.125,254613.296875,220168.71875,244163.578125,0.0546875,0.994873046875,0.162109375,0.6713866591453552,-1.5869139432907104,-1.3122557401657104,73.33333587646484,283821.0,0.0
15267.8497753,296539.28125,295344.875,322481.25,313348.75,285721.125,254613.296875,220168.71875,244163.578125,0.0546875,0.994873046875,0.162109375,0.6713866591453552,-1.5869139432907104,-1.3122557401657104,73.33333587646484,283822.0,0.0
15267.8497755,296539.28125,295344.875,322481.25,313348.75,285721.125,254613.296875,220168.71875,244163.578125,0.0546875,0.994873046875,0.162109375,0.6713866591453552,-1.5869139432907104,-1.3122557401657104,73.33333587646484,283823.0,0.0
15267.8497756,296539.28125,295344.875,322481.25,313348.75,285721.125,254613.296875,220168.71875,244163.578125,0.0546875,0.994873046875,0.162109375,0.6713866591453552,-1.5869139432907104,-1.3122557401657104,73.33333587646484,283824.0,0.0
15267.8497758,296539.28125,295344.875,322481.25,313348.75,285721.125,254613.296875,220168.71875,244163.578125,0.0546875,0.994873046875,0.162109375,0.6713866591453552,-1.5869139432907104,-1.3122557401657104,73.33333587646484,283825.0,0.0
15267.849776,296539.28125,295344.875,322481.25,313348.75,285721.125,254613.296875,220168.71875,244163.578125,0.0546875,0.994873046875,0.162109375,0.6713866591453552,-1.5869139432907104,-1.3122557401657104,73.33333587646484,283826.0,0.0
15267.8497762,296539.28125,295344.875,322481.25,313348.75,285721.125,254613.296875,220168.71875,244163.578125,0.0546875,0.994873046875,0.162109375,0.6713866591453552,-1.5869139432907104,-1.3122557401657104,73.33333587646484,283827.0,0.0
15267.8497763,296539.28125,295344.875,322481.25,313348.75,285721.125,254613.296875,220168.71875,244163.578125,0.0546875,0.994873046875,0.162109375,0.6713866591453552,-1.5869139432907104,-1.3122557401657104,73.33333587646484,283828.0,0.0
15267.8497765,296238.0625,294319.5625,321154.15625,312937.03125,284931.1875,254367.875,219784.53125,243970.734375,0.052001953125,0.994873046875,0.162841796875,0.2136230319738388,-1.3122557401657104,-1.0681151151657104,73.33333587646484,283829.0,1.0
15267.8497777,296278.75,294125.625,320720.09375,312999.09375,284731.65625,254363.84375,219801.875,244021.6875,0.0517578125,0.993408203125,0.15966796875,0.2746581733226776,-1.3732908964157104,-1.1291502714157104,73.33333587646484,283830.0,1.0
15267.8497789,296463.53125,294756.03125,321543.375,313263.75,285229.1875,254512.0,220039.875,244149.28125,0.0517578125,0.994384765625,0.160888671875,0.2441406100988388,-1.4038084745407104,-1.0375975370407104,73.33333587646484,283831.0,1.0
15267.8497801,296532.46875,295335.5,322477.84375,313363.59375,285733.625,254606.59375,220170.140625,244191.484375,0.052490234375,0.99365234375,0.163818359375,0.2441406100988388,-1.4038084745407104,-1.0375975370407104,73.33333587646484,283832.0,1.0
15267.8741768,296389.875,295066.09375,322236.71875,313165.3125,285552.84375,254522.015625,220019.234375,244088.921875,0.051025390625,0.994140625,0.162109375,0.1220703050494194,-1.3732908964157104,-0.9765624403953552,73.33333587646484,283833.0,1.0
15267.901313,296234.03125,294318.21875,321150.3125,312940.8125,284931.75,254365.640625,219784.453125,243977.703125,0.05419921875,0.99462890625,0.162841796875,0.03051757626235485,-1.3427733182907104,-0.9155272841453552,73.33333587646484,283834.0,1.0
15267.9013298,296283.90625,294127.6875,320725.65625,313001.0625,284730.9375,254357.328125,219792.671875,244008.109375,0.0546875,0.996337890625,0.162109375,0.0,-1.3427733182907104,-0.8544921278953552,73.33333587646484,283835.0,1.0
15267.9013312,296467.5625,294747.90625,321540.9375,313262.65625,285223.84375,254512.984375,220029.328125,244146.0625,0.052001953125,0.995361328125,0.16357421875,-0.03051757626235485,-1.4038084745407104,-0.9765624403953552,73.33333587646484,283836.0,1.0
15267.9013324,296536.5,295332.09375,322477.46875,313361.46875,285731.5625,254616.0625,220169.796875,244187.90625,0.051513671875,0.996337890625,0.1640625,-0.0610351525247097,-1.3732908964157104,-0.8850097060203552,73.33333587646484,283837.0,1.0
15267.9241893,296400.5,295070.59375,322244.84375,313168.875,285556.6875,254534.34375,220025.484375,244086.78125,0.052734375,0.994384765625,0.162109375,-0.03051757626235485,-1.3732908964157104,-0.7629393935203552,73.33333587646484,283838.0,1.0
15267.924212,296244.03125,294322.40625,321156.6875,312941.59375,284934.5,254377.078125,219792.671875,243978.328125,0.05419921875,0.991943359375,0.163330078125,-0.0610351525247097,-1.2512205839157104,-0.8239745497703552,73.33333587646484,283839.0,1.0
15267.9859384,296287.6875,294124.75,320719.5625,312999.8125,284727.09375,254363.3125,219792.9375,244015.25,0.052978515625,0.995361328125,0.162353515625,-0.0915527269244194,-1.2817381620407104,-0.7629393935203552,73.33333587646484,283840.0,1.0
15267.9859544,296474.8125,294754.71875,321546.65625,313268.125,285227.59375,254517.1875,220036.84375,244161.890625,0.052734375,0.995849609375,0.163330078125,-0.1831054538488388,-1.2817381620407104,-0.7324218153953552,73.33333587646484,283841.0,1.0
15268.0103737,296541.0625,295329.40625,322485.4375,313362.4375,285736.125,254609.453125,220171.046875,244200.953125,0.054443359375,0.9951171875,0.163818359375,-0.0610351525247097,-1.2512205839157104,-0.7019042372703552,73.33333587646484,283842.0,1.0
15268.0389228,296404.875,295053.84375,322239.65625,313162.78125,285551.0625,254511.546875,220013.5,244085.625,0.055419921875,0.99560546875,0.161865234375,0.0,-1.3122557401657104,-0.7324218153953552,73.33333587646484,283843.0,1.0
15268.0389409,296404.875,295053.84375,322239.65625,313162.78125,285551.0625,254511.546875,220013.5,244085.625,0.055419921875,0.99560546875,0.161865234375,0.0,-1.3122557401657104,-0.7324218153953552,73.33333587646484,283844.0,0.0
15268.0389414,296404.875,295053.84375,322239.65625,313162.78125,285551.0625,254511.546875,220013.5,244085.625,0.055419921875,0.99560546875,0.161865234375,0.0,-1.3122557401657104,-0.7324218153953552,73.33333587646484,283845.0,0.0
15268.0389418,296404.875,295053.84375,322239.65625,313162.78125,285551.0625,254511.546875,220013.5,244085.625,0.055419921875,0.99560546875,0.161865234375,0.0,-1.3122557401657104,-0.7324218153953552,73.33333587646484,283846.0,0.0
15268.0389421,296404.875,295053.84375,322239.65625,313162.78125,285551.0625,254511.546875,220013.5,244085.625,0.055419921875,0.99560546875,0.161865234375,0.0,-1.3122557401657104,-0.7324218153953552,73.33333587646484,283847.0,0.0
15268.0389425,296404.875,295053.84375,322239.65625,313162.78125,285551.0625,254511.546875,220013.5,244085.625,0.055419921875,0.99560546875,0.161865234375,0.0,-1.3122557401657104,-0.7324218153953552,73.33333587646484,283848.0,0.0
15268.0389428,296404.875,295053.84375,322239.65625,313162.78125,285551.0625,254511.546875,220013.5,244085.625,0.055419921875,0.99560546875,0.161865234375,0.0,-1.3122557401657104,-0.7324218153953552,73.33333587646484,283849.0,0.0
15268.0389432,296404.875,295053.84375,322239.65625,313162.78125,285551.0625,254511.546875,220013.5,244085.625,0.055419921875,0.99560546875,0.161865234375,0.0,-1.3122557401657104,-0.7324218153953552,73.33333587646484,283850.0,0.0
15268.0389435,296404.875,295053.84375,322239.65625,313162.78125,285551.0625,254511.546875,220013.5,244085.625,0.055419921875,0.99560546875,0.161865234375,0.0,-1.3122557401657104,-0.7324218153953552,73.33333587646484,283851.0,0.0
15268.0389438,296404.875,295053.84375,322239.65625,313162.78125,285551.0625,254511.546875,220013.5,244085.625,0.055419921875,0.99560546875,0.161865234375,0.0,-1.3122557401657104,-0.7324218153953552,73.33333587646484,283852.0,0.0
15268.0389441,296404.875,295053.84375,322239.65625,313162.78125,285551.0625,254511.546875,220013.5,244085.625,0.055419921875,0.99560546875,0.161865234375,0.0,-1.3122557401657104,-0.7324218153953552,73.33333587646484,283853.0,0.0
15268.0389444,296404.875,295053.84375,322239.65625,313162.78125,285551.0625,254511.546875,220013.5,244085.625,0.055419921875,0.99560546875,0.161865234375,0.0,-1.3122557401657104,-0.7324218153953552,73.33333587646484,283854.0,0.0
15268.0389447,296404.875,295053.84375,322239.65625,313162.78125,285551.0625,254511.546875,220013.5,244085.625,0.055419921875,0.99560546875,0.161865234375,0.0,-1.3122557401657104,-0.7324218153953552,73.33333587646484,283855.0,0.0
15268.0389451,296404.875,295053.84375,322239.65625,313162.78125,285551.0625,254511.546875,220013.5,244085.625,0.055419921875,0.99560546875,0.161865234375,0.0,-1.3122557401657104,-0.7324218153953552,73.33333587646484,283856.0,0.0
15268.0389454,296404.875,295053.84375,322239.65625,313162.78125,285551.0625,254511.546875,220013.5,244085.625,0.055419921875,0.99560546875,0.161865234375,0.0,-1.3122557401657104,-0.7324218153953552,73.33333587646484,283857.0,0.0
15268.0389457,296404.875,295053.84375,322239.65625,313162.78125,285551.0625,254511.546875,220013.5,244085.625,0.055419921875,0.99560546875,0.161865234375,0.0,-1.3122557401657104,-0.7324218153953552,73.33333587646484,283858.0,0.0
15268.038946,296404.875,295053.84375,322239.65625,313162.78125,285551.0625,254511.546875,220013.5,244085.625,0.055419921875,0.99560546875,0.161865234375,0.0,-1.3122557401657104,-0.7324218153953552,73.33333587646484,283859.0,0.0
15268.0389464,296404.875,295053.84375,322239.65625,313162.78125,285551.0625,254511.546875,220013.5,244085.625,0.055419921875,0.99560546875,0.161865234375,0.0,-1.3122557401657104,-0.7324218153953552,73.33333587646484,283860.0,0.0
15268.0389467,296404.875,295053.84375,322239.65625,313162.78125,285551.0625,254511.546875,220013.5,244085.625,0.055419921875,0.99560546875,0.161865234375,0.0,-1.3122557401657104,-0.7324218153953552,73.33333587646484,283861.0,0.0
15268.038947,296404.875,295053.84375,322239.65625,313162.78125,285551.0625,254511.546875,220013.5,244085.625,0.055419921875,0.99560546875,0.161865234375,0.0,-1.3122557401657104,-0.7324218153953552,73.33333587646484,283862.0,0.0
15268.0389474,296404.875,295053.84375,322239.65625,313162.78125,285551.0625,254511.546875,220013.5,244085.625,0.055419921875,0.99560546875,0.161865234375,0.0,-1.3122557401657104,-0.7324218153953552,73.33333587646484,283863.0,0.0
15268.0389477,296404.875,295053.84375,322239.65625,313162.78125,285551.0625,254511.546875,220013.5,244085.625,0.055419921875,0.99560546875,0.161865234375,0.0,-1.3122557401657104,-0.7324218153953552,73.33333587646484,283864.0,0.0
15268.038948,296404.875,295053.84375,322239.65625,313162.78125,285551.0625,254511.546875,220013.5,244085.625,0.055419921875,0.99560546875,0.161865234375,0.0,-1.3122557401657104,-0.7324218153953552,73.33333587646484,283865.0,0.0
15268.0389483,296404.875,295053.84375,322239.65625,313162.78125,285551.0625,254511.546875,220013.5,244085.625,0.055419921875,0.99560546875,0.161865234375,0.0,-1.3122557401657104,-0.7324218153953552,73.33333587646484,283866.0,0.0
15268.0389486,296404.875,295053.84375,322239.65625,313162.78125,285551.0625,254511.546875,220013.5,244085.625,0.055419921875,0.99560546875,0.161865234375,0.0,-1.3122557401657104,-0.7324218153953552,73.33333587646484,283867.0,0.0
15268.038949,296404.875,295053.84375,322239.65625,313162.78125,285551.0625,254511.546875,220013.5,244085.625,0.055419921875,0.99560546875,0.161865234375,0.0,-1.3122557401657104,-0.7324218153953552,73.33333587646484,283868.0,0.0
15268.0389493,296404.875,295053.84375,322239.65625,313162.78125,285551.0625,254511.546875,220013.5,244085.625,0.055419921875,0.99560546875,0.161865234375,0.0,-1.3122557401657104,-0.7324218153953552,73.33333587646484,283869.0,0.0
15268.0389496,296404.875,295053.84375,322239.65625,313162.78125,285551.0625,254511.546875,220013.5,244085.625,0.055419921875,0.99560546875,0.161865234375,0.0,-1.3122557401657104,-0.7324218153953552,73.33333587646484,283870.0,0.0
15268.0389499,296404.875,295053.84375,322239.65625,313162.78125,285551.0625,254511.546875,220013.5,244085.625,0.055419921875,0.99560546875,0.161865234375,0.0,-1.3122557401657104,-0.7324218153953552,73.33333587646484,283871.0,0.0
15268.0389503,296404.875,295053.84375,322239.65625,313162.78125,285551.0625,254511.546875,220013.5,244085.625,0.055419921875,0.99560546875,0.161865234375,0.0,-1.3122557401657104,-0.7324218153953552,73.33333587646484,283872.0,0.0
15268.0389506,296404.875,295053.84375,322239.65625,313162.78125,285551.0625,254511.546875,220013.5,244085.625,0.055419921875,0.99560546875,0.161865234375,0.0,-1.3122557401657104,-0.7324218153953552,73.33333587646484,283873.0,0.0
15268.0389509,296404.875,295053.84375,322239.65625,313162.78125,285551.0625,254511.546875,220013.5,244085.625,0.055419921875,0.99560546875,0.161865234375,0.0,-1.3122557401657104,-0.7324218153953552,73.33333587646484,283874.0,0.0
15268.0389513,296284.71875,294099.4375,320716.4375,312981.3125,284715.375,254349.28125,219785.875,244009.890625,0.05419921875,0.994140625,0.162353515625,0.1220703050494194,-1.6174315214157104,-0.8850097060203552,73.33333587646484,283875.0,1.0
15268.0389538,296474.8125,294721.71875,321519.65625,313249.15625,285203.53125,254513.78125,220023.703125,244144.0,0.0546875,0.992431640625,0.162353515625,0.0915527269244194,-1.6479490995407104,-0.8850097060203552,73.33333587646484,283876.0,1.0
15268.0631595,296541.15625,295309.28125,322461.65625,313351.96875,285712.09375,254608.203125,220160.84375,244189.15625,0.054443359375,0.99462890625,0.16357421875,0.1220703050494194,-1.6174315214157104,-0.9155272841453552,73.33333587646484,283877.0,1.0
15268.0804531,296405.6875,295061.8125,322252.0,313163.25,285552.3125,254528.359375,220023.25,244095.1875,0.0546875,0.99560546875,0.16552734375,0.1831054538488388,-1.5869139432907104,-0.9155272841453552,73.33333587646484,283878.0,1.0
15268.0891269,296248.25,294317.78125,321168.21875,312941.25,284939.96875,254385.75,219803.3125,243995.234375,0.0546875,0.996337890625,0.164306640625,0.2746581733226776,-1.6784666776657104,-0.9155272841453552,73.33333587646484,283879.0,1.0
15268.0916075,296286.15625,294117.15625,320718.84375,312990.40625,284726.46875,254378.0625,219807.421875,244025.546875,0.053955078125,0.99609375,0.16650390625,0.2746581733226776,-1.6479490995407104,-1.0681151151657104,73.33333587646484,283880.0,1.0
15268.0941573,296475.78125,294742.53125,321530.5,313255.5,285215.4375,254528.09375,220035.40625,244161.609375,0.05224609375,0.996337890625,0.16796875,0.3051757514476776,-1.6174315214157104,-1.0681151151657104,73.33333587646484,283881.0,1.0
15268.100606,296545.78125,295330.3125,322479.8125,313357.0625,285730.15625,254626.703125,220173.546875,244198.453125,0.05419921875,0.996826171875,0.164794921875,0.3051757514476776,-1.6479490995407104,-1.0070799589157104,73.33333587646484,283882.0,1.0
15268.1006121,296408.5625,295077.28125,322260.40625,313161.0,285561.96875,254537.5625,220028.34375,244092.140625,0.0537109375,0.994140625,0.163818359375,0.2136230319738388,-1.6784666776657104,-1.0681151151657104,73.33333587646484,283883.0,1.0
15268.1006134,296250.75,294328.21875,321170.25,312931.9375,284937.0,254371.625,219788.640625,243985.03125,0.052734375,0.9931640625,0.167236328125,0.2441406100988388,-1.7700194120407104,-0.9765624403953552,73.33333587646484,283884.0,1.0
15268.1006146,296285.875,294115.71875,320711.875,312986.21875,284717.4375,254355.71875,219791.6875,244027.59375,0.054443359375,0.992919921875,0.163330078125,0.4272460639476776,-1.7700194120407104,-1.0375975370407104,73.33333587646484,283885.0,1.0
15268.1006158,296469.875,294731.90625,321519.3125,313251.5,285206.03125,254511.09375,220032.8125,244159.46875,0.0556640625,0.99267578125,0.1650390625,0.3967284858226776,-1.7700194120407104,-1.0986326932907104,73.33333587646484,283886.0,1.0
15268.100617,296546.15625,295331.5625,322479.71875,313359.125,285730.59375,254630.28125,220180.96875,244201.671875,0.05517578125,0.9912109375,0.16650390625,0.4577636420726776,-1.7395018339157104,-1.0986326932907104,73.33333587646484,283887.0,1.0
15268.1534598,296409.28125,295084.53125,322267.75,313169.6875,285571.8125,254548.03125,220042.921875,244114.671875,0.056640625,0.992431640625,0.16552734375,0.5493163466453552,-1.7395018339157104,-1.0681151151657104,73.33333587646484,283888.0,1.0
15268.1534748,296250.75,294344.25,321189.75,312941.78125,284956.5,254397.109375,219806.96875,243987.8125,0.05517578125,0.99072265625,0.166015625,0.4577636420726776,-1.7700194120407104,-0.9460448622703552,73.33333587646484,283889.0,1.0
15268.1785433,296283.75,294127.78125,320730.28125,312985.78125,284731.8125,254374.84375,219799.5625,244010.34375,0.05615234375,0.992431640625,0.1650390625,0.6103515028953552,-1.7089842557907104,-0.7934569716453552,73.33333587646484,283890.0,1.0
15268.1785612,296462.46875,294733.15625,321518.3125,313241.21875,285206.84375,254511.734375,220031.5625,244148.390625,0.0576171875,0.993896484375,0.16455078125,0.5187987685203552,-1.6784666776657104,-0.7934569716453552,73.33333587646484,283891.0,1.0
15268.2337714,296532.75,295319.21875,322464.78125,313348.0625,285719.15625,254620.71875,220175.328125,244199.171875,0.05712890625,0.9951171875,0.160888671875,0.5493163466453552,-1.6784666776657104,-0.7629393935203552,73.33333587646484,283892.0,1.0
15268.2337778,296399.4375,295071.125,322252.09375,313157.6875,285555.25,254540.25,220028.703125,244095.90625,0.057861328125,0.9921875,0.162109375,0.5798339247703552,-1.6174315214157104,-0.6713866591453552,73.33333587646484,283893.0,1.0
15268.2337791,296234.84375,294313.75,321155.0625,312925.15625,284927.90625,254372.15625,219789.71875,243984.59375,0.05712890625,0.991455078125,0.159912109375,0.5493163466453552,-1.4648436307907104,-0.6713866591453552,73.33333587646484,283894.0,1.0
15268.2337803,296280.78125,294108.375,320707.21875,312987.8125,284720.1875,254364.46875,219801.34375,244039.390625,0.056884765625,0.990478515625,0.160400390625,0.4882812201976776,-1.4038084745407104,-0.6408690810203552,73.33333587646484,283895.0,1.0
15268.2337816,296460.40625,294719.21875,321504.90625,313245.5,285199.34375,254503.6875,220025.484375,244163.859375,0.057373046875,0.990478515625,0.15966796875,0.4882812201976776,-1.3732908964157104,-0.6713866591453552,73.33333587646484,283896.0,1.0
15268.2593173,296531.03125,295314.125,322465.40625,313351.0,285721.46875,254613.734375,220173.90625,244203.640625,0.057373046875,0.98974609375,0.16015625,0.6103515028953552,-1.2817381620407104,-0.7324218153953552,73.33333587646484,283897.0,1.0
15268.2593236,296531.03125,295314.125,322465.40625,313351.0,285721.46875,254613.734375,220173.90625,244203.640625,0.057373046875,0.98974609375,0.16015625,0.6103515028953552,-1.2817381620407104,-0.7324218153953552,73.33333587646484,283898.0,0.0
15268.2593238,296531.03125,295314.125,322465.40625,313351.0,285721.46875,254613.734375,220173.90625,244203.640625,0.057373046875,0.98974609375,0.16015625,0.6103515028953552,-1.2817381620407104,-0.7324218153953552,73.33333587646484,283899.0,0.0
15268.259324,296531.03125,295314.125,322465.40625,313351.0,285721.46875,254613.734375,220173.90625,244203.640625,0.057373046875,0.98974609375,0.16015625,0.6103515028953552,-1.2817381620407104,-0.7324218153953552,73.33333587646484,283900.0,0.0
15268.2593242,296531.03125,295314.125,322465.40625,313351.0,285721.46875,254613.734375,220173.90625,244203.640625,0.057373046875,0.98974609375,0.16015625,0.6103515028953552,-1.2817381620407104,-0.7324218153953552,73.33333587646484,283901.0,0.0
15268.2593244,296531.03125,295314.125,322465.40625,313351.0,285721.46875,254613.734375,220173.90625,244203.640625,0.057373046875,0.98974609375,0.16015625,0.6103515028953552,-1.2817381620407104,-0.7324218153953552,73.33333587646484,283902.0,0.0
15268.2593245,296531.03125,295314.125,322465.40625,313351.0,285721.46875,254613.734375,220173.90625,244203.640625,0.057373046875,0.98974609375,0.16015625,0.6103515028953552,-1.2817381620407104,-0.7324218153953552,73.33333587646484,283903.0,0.0
15268.2593247,296531.03125,295314.125,322465.40625,313351.0,285721.46875,254613.734375,220173.90625,244203.640625,0.057373046875,0.98974609375,0.16015625,0.6103515028953552,-1.2817381620407104,-0.7324218153953552,73.33333587646484,283904.0,0.0
15268.2593249,296531.03125,295314.125,322465.40625,313351.0,285721.46875,254613.734375,220173.90625,244203.640625,0.057373046875,0.98974609375,0.16015625,0.6103515028953552,-1.2817381620407104,-0.7324218153953552,73.33333587646484,283905.0,0.0
15268.2593251,296531.03125,295314.125,322465.40625,313351.0,285721.46875,254613.734375,220173.90625,244203.640625,0.057373046875,0.98974609375,0.16015625,0.6103515028953552,-1.2817381620407104,-0.7324218153953552,73.33333587646484,283906.0,0.0
15268.2593253,296531.03125,295314.125,322465.40625,313351.0,285721.46875,254613.734375,220173.90625,244203.640625,0.057373046875,0.98974609375,0.16015625,0.6103515028953552,-1.2817381620407104,-0.7324218153953552,73.33333587646484,283907.0,0.0
15268.2593255,296531.03125,295314.125,322465.40625,313351.0,285721.46875,254613.734375,220173.90625,244203.640625,0.057373046875,0.98974609375,0.16015625,0.6103515028953552,-1.2817381620407104,-0.7324218153953552,73.33333587646484,283908.0,0.0
15268.2593256,296531.03125,295314.125,322465.40625,313351.0,285721.46875,254613.734375,220173.90625,244203.640625,0.057373046875,0.98974609375,0.16015625,0.6103515028953552,-1.2817381620407104,-0.7324218153953552,73.33333587646484,283909.0,0.0
15268.2593259,296531.03125,295314.125,322465.40625,313351.0,285721.46875,254613.734375,220173.90625,244203.640625,0.057373046875,0.98974609375,0.16015625,0.6103515028953552,-1.2817381620407104,-0.7324218153953552,73.33333587646484,283910.0,0.0
15268.2593261,296531.03125,295314.125,322465.40625,313351.0,285721.46875,254613.734375,220173.90625,244203.640625,0.057373046875,0.98974609375,0.16015625,0.6103515028953552,-1.2817381620407104,-0.7324218153953552,73.33333587646484,283911.0,0.0
15268.2593263,296531.03125,295314.125,322465.40625,313351.0,285721.46875,254613.734375,220173.90625,244203.640625,0.057373046875,0.98974609375,0.16015625,0.6103515028953552,-1.2817381620407104,-0.7324218153953552,73.33333587646484,283912.0,0.0
15268.2593265,296531.03125,295314.125,322465.40625,313351.0,285721.46875,254613.734375,220173.90625,244203.640625,0.057373046875,0.98974609375,0.16015625,0.6103515028953552,-1.2817381620407104,-0.7324218153953552,73.33333587646484,283913.0,0.0
15268.2593267,296531.03125,295314.125,322465.40625,313351.0,285721.46875,254613.734375,220173.90625,244203.640625,0.057373046875,0.98974609375,0.16015625,0.6103515028953552,-1.2817381620407104,-0.7324218153953552,73.33333587646484,283914.0,0.0
15268.2593268,296531.03125,295314.125,322465.40625,313351.0,285721.46875,254613.734375,220173.90625,244203.640625,0.057373046875,0.98974609375,0.16015625,0.6103515028953552,-1.2817381620407104,-0.7324218153953552,73.33333587646484,283915.0,0.0
15268.259327,296531.03125,295314.125,322465.40625,313351.0,285721.46875,254613.734375,220173.90625,244203.640625,0.057373046875,0.98974609375,0.16015625,0.6103515028953552,-1.2817381620407104,-0.7324218153953552,73.33333587646484,283916.0,0.0
15268.2593272,296531.03125,295314.125,322465.40625,313351.0,285721.46875,254613.734375,220173.90625,244203.640625,0.057373046875,0.98974609375,0.16015625,0.6103515028953552,-1.2817381620407104,-0.7324218153953552,73.33333587646484,283917.0,0.0
15268.2593274,296531.03125,295314.125,322465.40625,313351.0,285721.46875,254613.734375,220173.90625,244203.640625,0.057373046875,0.98974609375,0.16015625,0.6103515028953552,-1.2817381620407104,-0.7324218153953552,73.33333587646484,283918.0,0.0
15268.2593275,296531.03125,295314.125,322465.40625,313351.0,285721.46875,254613.734375,220173.90625,244203.640625,0.057373046875,0.98974609375,0.16015625,0.6103515028953552,-1.2817381620407104,-0.7324218153953552,73.33333587646484,283919.0,0.0
15268.2593277,296531.03125,295314.125,322465.40625,313351.0,285721.46875,254613.734375,220173.90625,244203.640625,0.057373046875,0.98974609375,0.16015625,0.6103515028953552,-1.2817381620407104,-0.7324218153953552,73.33333587646484,283920.0,0.0
15268.2593279,296531.03125,295314.125,322465.40625,313351.0,285721.46875,254613.734375,220173.90625,244203.640625,0.057373046875,0.98974609375,0.16015625,0.6103515028953552,-1.2817381620407104,-0.7324218153953552,73.33333587646484,283921.0,0.0
15268.2593281,296531.03125,295314.125,322465.40625,313351.0,285721.46875,254613.734375,220173.90625,244203.640625,0.057373046875,0.98974609375,0.16015625,0.6103515028953552,-1.2817381620407104,-0.7324218153953552,73.33333587646484,283922.0,0.0
15268.2593283,296531.03125,295314.125,322465.40625,313351.0,285721.46875,254613.734375,220173.90625,244203.640625,0.057373046875,0.98974609375,0.16015625,0.6103515028953552,-1.2817381620407104,-0.7324218153953552,73.33333587646484,283923.0,0.0
15268.2593285,296531.03125,295314.125,322465.40625,313351.0,285721.46875,254613.734375,220173.90625,244203.640625,0.057373046875,0.98974609375,0.16015625,0.6103515028953552,-1.2817381620407104,-0.7324218153953552,73.33333587646484,283924.0,0.0
15268.2593286,296531.03125,295314.125,322465.40625,313351.0,285721.46875,254613.734375,220173.90625,244203.640625,0.057373046875,0.98974609375,0.16015625,0.6103515028953552,-1.2817381620407104,-0.7324218153953552,73.33333587646484,283925.0,0.0
15268.2593288,296531.03125,295314.125,322465.40625,313351.0,285721.46875,254613.734375,220173.90625,244203.640625,0.057373046875,0.98974609375,0.16015625,0.6103515028953552,-1.2817381620407104,-0.7324218153953552,73.33333587646484,283926.0,0.0
15268.259329,296542.3125,295340.78125,322472.65625,313367.8125,285734.34375,254628.046875,220190.796875,244232.25,0.0498046875,0.993408203125,0.164306640625,0.1831054538488388,-1.6479490995407104,-0.8544921278953552,73.33333587646484,283927.0,1.0
15268.2841757,296402.65625,295097.65625,322267.28125,313164.59375,285571.625,254543.5625,220042.828125,244116.640625,0.051025390625,0.99462890625,0.164306640625,0.2136230319738388,-1.6174315214157104,-0.8850097060203552,73.33333587646484,283928.0,1.0
15268.3091525,296240.03125,294352.5625,321177.40625,312932.03125,284947.03125,254385.484375,219804.65625,243994.15625,0.05126953125,0.99560546875,0.164794921875,0.1220703050494194,-1.7089842557907104,-0.8544921278953552,73.33333587646484,283929.0,1.0
15268.3261188,296273.71875,294129.40625,320703.1875,312982.90625,284720.375,254383.0625,219809.65625,244035.46875,0.051025390625,0.9951171875,0.16259765625,0.1220703050494194,-1.7395018339157104,-0.8544921278953552,73.33333587646484,283930.0,1.0
15268.3261355,296456.65625,294730.5625,321480.3125,313242.1875,285187.71875,254531.390625,220034.25,244164.296875,0.052490234375,0.99267578125,0.16650390625,0.1525878757238388,-1.7700194120407104,-0.8239745497703552,73.33333587646484,283931.0,1.0
15268.3261368,296531.125,295329.5,322442.96875,313350.5625,285712.15625,254632.609375,220180.609375,244211.953125,0.0517578125,0.992919921875,0.1669921875,0.0915527269244194,-1.8005369901657104,-0.8544921278953552,73.33333587646484,283932.0,1.0
15268.326138,296403.1875,295099.375,322263.53125,313164.125,285568.40625,254559.015625,220043.1875,244112.890625,0.054443359375,0.990478515625,0.163818359375,0.1220703050494194,-1.7700194120407104,-0.8850097060203552,73.33333587646484,283933.0,1.0
15268.3261392,296246.5625,294354.875,321188.9375,312935.25,284950.875,254380.03125,219794.453125,243998.359375,0.053466796875,0.990966796875,0.1630859375,0.2136230319738388,-1.7089842557907104,-0.8850097060203552,73.33333587646484,283934.0,1.0
15268.3261404,296277.125,294119.375,320707.125,312980.21875,284718.0625,254354.90625,219790.34375,244034.03125,0.054931640625,0.990966796875,0.163330078125,0.2441406100988388,-1.6784666776657104,-0.8544921278953552,73.33333587646484,283935.0,1.0
15268.3261417,296462.28125,294720.09375,321486.125,313245.0625,285190.3125,254510.203125,220030.671875,244175.03125,0.057373046875,0.992919921875,0.1640625,0.3662109076976776,-1.5869139432907104,-0.9155272841453552,73.33333587646484,283936.0,1.0
15268.3278454,296541.9375,295330.3125,322453.625,313358.59375,285716.46875,254624.46875,220179.71875,244222.40625,0.056640625,0.991943359375,0.166748046875,0.3967284858226776,-1.5563963651657104,-0.8850097060203552,73.33333587646484,283937.0,1.0
15268.3554017,296408.8125,295098.375,322268.90625,313169.21875,285570.71875,254554.90625,220044.34375,244121.5625,0.057861328125,0.991455078125,0.1630859375,0.5798339247703552,-1.4343260526657104,-0.7934569716453552,73.33333587646484,283938.0,1.0
15268.3803916,296247.34375,294349.59375,321183.59375,312936.25,284953.375,254391.03125,219807.421875,244012.390625,0.059326171875,0.99169921875,0.1630859375,0.6713866591453552,-1.3122557401657104,-0.7019042372703552,73.33333587646484,283939.0,1.0
15268.4053865,296278.75,294119.375,320701.40625,312976.28125,284717.6875,254354.90625,219791.515625,244035.015625,0.05810546875,0.9912109375,0.161865234375,0.8239745497703552,-1.2817381620407104,-0.7019042372703552,73.33333587646484,283940.0,1.0
15268.4353941,296465.9375,294724.9375,321487.65625,313243.71875,285197.71875,254520.9375,220037.640625,244180.84375,0.056884765625,0.99267578125,0.16455078125,0.7629393935203552,-1.2207030057907104,-0.7019042372703552,73.33333587646484,283941.0,1.0
15268.4603971,296544.71875,295329.5,322461.9375,313362.0,285731.5625,254643.875,220195.1875,244232.421875,0.057861328125,0.992431640625,0.1630859375,0.8239745497703552,-1.1901854276657104,-0.7324218153953552,73.33333587646484,283942.0,1.0
15268.4853784,296408.8125,295099.90625,322275.25,313169.59375,285582.0,254559.5625,220055.4375,244130.859375,0.0556640625,0.994140625,0.16162109375,0.7324218153953552,-1.1596678495407104,-0.8850097060203552,73.33333587646484,283943.0,1.0
15268.6029137,296238.15625,294339.5,321173.21875,312930.34375,284950.59375,254385.75,219811.0,244022.140625,0.056640625,0.995849609375,0.16162109375,0.7629393935203552,-1.0986326932907104,-0.7629393935203552,73.33333587646484,283944.0,1.0
15268.6029237,296276.78125,294120.1875,320701.15625,312981.5625,284726.0,254385.9375,219807.328125,244050.65625,0.05517578125,0.99560546875,0.16259765625,0.7324218153953552,-1.1596678495407104,-0.7934569716453552,73.33333587646484,283945.0,1.0
15268.602925,296465.3125,294734.21875,321504.375,313249.15625,285212.5625,254533.984375,220042.203125,244180.84375,0.05517578125,0.996826171875,0.16357421875,0.6103515028953552,-1.0070799589157104,-0.7934569716453552,73.33333587646484,283946.0,1.0
15268.6029262,296534.25,295331.03125,322467.1875,313356.53125,285732.03125,254621.078125,220179.796875,244220.984375,0.052978515625,0.99560546875,0.164306640625,0.5798339247703552,-1.0681151151657104,-0.7934569716453552,73.33333587646484,283947.0,1.0
15268.6029274,296387.53125,295079.96875,322259.34375,313158.3125,285569.375,254534.796875,220037.375,244126.5625,0.051513671875,0.994384765625,0.16162109375,0.5798339247703552,-1.0070799589157104,-0.8544921278953552,73.33333587646484,283948.0,1.0
15268.6029286,296229.21875,294337.0,321169.71875,312929.625,284948.625,254385.9375,219807.328125,244016.15625,0.051513671875,0.994873046875,0.16357421875,0.6103515028953552,-1.0375975370407104,-0.8544921278953552,73.33333587646484,283949.0,1.0
15268.6029298,296269.09375,294122.875,320699.96875,312978.25,284722.0625,254382.359375,219804.921875,244044.5,0.049072265625,0.996826171875,0.162353515625,0.5493163466453552,-1.0986326932907104,-0.9460448622703552,73.33333587646484,283950.0,1.0
15268.602931,296456.9375,294736.1875,321497.3125,313245.78125,285207.5625,254544.71875,220047.296875,244186.296875,0.050048828125,0.99658203125,0.16064453125,0.4577636420726776,-1.1901854276657104,-1.0070799589157104,73.33333587646484,283951.0,1.0
15268.6272023,296525.59375,295323.6875,322451.09375,313346.34375,285720.75,254621.875,220177.484375,244233.953125,0.05029296875,0.992919921875,0.16259765625,0.4272460639476776,-1.3732908964157104,-1.0986326932907104,73.33333587646484,283952.0,1.0
15268.6272111,296390.6875,295081.125,322255.3125,313153.0625,285562.59375,254533.90625,220028.609375,244125.234375,0.0517578125,0.991943359375,0.16357421875,0.3662109076976776,-1.4343260526657104,-1.1291502714157104,73.33333587646484,283953.0,1.0
15268.6516169,296233.59375,294337.0,321171.96875,312924.25,284944.96875,254386.828125,219797.671875,244005.78125,0.053955078125,0.9921875,0.16259765625,0.4577636420726776,-1.4343260526657104,-1.1596678495407104,73.33333587646484,283954.0,1.0
15268.6621053,296265.59375,294109.0,320689.34375,312967.0,284708.75,254359.015625,219785.96875,244037.78125,0.055908203125,0.991943359375,0.158935546875,0.5187987685203552,-1.3732908964157104,-1.0986326932907104,73.33333587646484,283955.0,1.0
15268.6621211,296461.5625,294723.78125,321479.96875,313237.53125,285190.3125,254523.703125,220034.0625,244184.328125,0.05712890625,0.990478515625,0.16162109375,0.4577636420726776,-1.4038084745407104,-1.0375975370407104,73.33333587646484,283956.0,1.0
15268.6621228,296542.3125,295330.75,322452.09375,313356.8125,285720.9375,254634.03125,220188.03125,244240.734375,0.0556640625,0.9931640625,0.162109375,0.3356933295726776,-1.3427733182907104,-0.9765624403953552,73.33333587646484,283957.0,1.0
15268.6621246,296407.3125,295095.6875,322266.84375,313163.875,285569.75,254547.046875,220038.984375,244128.359375,0.052490234375,0.9931640625,0.158935546875,0.3356933295726776,-1.4038084745407104,-0.8850097060203552,73.33333587646484,283958.0,1.0
15268.6658875,296249.6875,294352.8125,321188.6875,312933.375,284953.375,254390.40625,219804.46875,244013.921875,0.051025390625,0.994384765625,0.160400390625,0.4577636420726776,-1.4038084745407104,-0.9765624403953552,73.33333587646484,283959.0,1.0
15268.6658973,296249.6875,294352.8125,321188.6875,312933.375,284953.375,254390.40625,219804.46875,244013.921875,0.051025390625,0.994384765625,0.160400390625,0.4577636420726776,-1.4038084745407104,-0.9765624403953552,73.33333587646484,283960.0,0.0
15268.6658975,296249.6875,294352.8125,321188.6875,312933.375,284953.375,254390.40625,219804.46875,244013.921875,0.051025390625,0.994384765625,0.160400390625,0.4577636420726776,-1.4038084745407104,-0.9765624403953552,73.33333587646484,283961.0,0.0
15268.6658977,296249.6875,294352.8125,321188.6875,312933.375,284953.375,254390.40625,219804.46875,244013.921875,0.051025390625,0.994384765625,0.160400390625,0.4577636420726776,-1.4038084745407104,-0.9765624403953552,73.33333587646484,283962.0,0.0
15268.6658979,296249.6875,294352.8125,321188.6875,312933.375,284953.375,254390.40625,219804.46875,244013.921875,0.051025390625,0.994384765625,0.160400390625,0.4577636420726776,-1.4038084745407104,-0.9765624403953552,73.33333587646484,283963.0,0.0
15268.6658982,296249.6875,294352.8125,321188.6875,312933.375,284953.375,254390.40625,219804.46875,244013.921875,0.051025390625,0.994384765625,0.160400390625,0.4577636420726776,-1.4038084745407104,-0.9765624403953552,73.33333587646484,283964.0,0.0
15268.6658984,296249.6875,294352.8125,321188.6875,312933.375,284953.375,254390.40625,219804.46875,244013.921875,0.051025390625,0.994384765625,0.160400390625,0.4577636420726776,-1.4038084745407104,-0.9765624403953552,73.33333587646484,283965.0,0.0
15268.6658986,296249.6875,294352.8125,321188.6875,312933.375,284953.375,254390.40625,219804.46875,244013.921875,0.051025390625,0.994384765625,0.160400390625,0.4577636420726776,-1.4038084745407104,-0.9765624403953552,73.33333587646484,283966.0,0.0
15268.6658988,296249.6875,294352.8125,321188.6875,312933.375,284953.375,254390.40625,219804.46875,244013.921875,0.051025390625,0.994384765625,0.160400390625,0.4577636420726776,-1.4038084745407104,-0.9765624403953552,73.33333587646484,283967.0,0.0
15268.6658989,296249.6875,294352.8125,321188.6875,312933.375,284953.375,254390.40625,219804.46875,244013.921875,0.051025390625,0.994384765625,0.160400390625,0.4577636420726776,-1.4038084745407104,-0.9765624403953552,73.33333587646484,283968.0,0.0
15268.6658991,296249.6875,294352.8125,321188.6875,312933.375,284953.375,254390.40625,219804.46875,244013.921875,0.051025390625,0.994384765625,0.160400390625,0.4577636420726776,-1.4038084745407104,-0.9765624403953552,73.33333587646484,283969.0,0.0
15268.6658993,296249.6875,294352.8125,321188.6875,312933.375,284953.375,254390.40625,219804.46875,244013.921875,0.051025390625,0.994384765625,0.160400390625,0.4577636420726776,-1.4038084745407104,-0.9765624403953552,73.33333587646484,283970.0,0.0
15268.6658995,296249.6875,294352.8125,321188.6875,312933.375,284953.375,254390.40625,219804.46875,244013.921875,0.051025390625,0.994384765625,0.160400390625,0.4577636420726776,-1.4038084745407104,-0.9765624403953552,73.33333587646484,283971.0,0.0
15268.6658997,296249.6875,294352.8125,321188.6875,312933.375,284953.375,254390.40625,219804.46875,244013.921875,0.051025390625,0.994384765625,0.160400390625,0.4577636420726776,-1.4038084745407104,-0.9765624403953552,73.33333587646484,283972.0,0.0
15268.6658999,296249.6875,294352.8125,321188.6875,312933.375,284953.375,254390.40625,219804.46875,244013.921875,0.051025390625,0.994384765625,0.160400390625,0.4577636420726776,-1.4038084745407104,-0.9765624403953552,73.33333587646484,283973.0,0.0
15268.6659001,296249.6875,294352.8125,321188.6875,312933.375,284953.375,254390.40625,219804.46875,244013.921875,0.051025390625,0.994384765625,0.160400390625,0.4577636420726776,-1.4038084745407104,-0.9765624403953552,73.33333587646484,283974.0,0.0
15268.6659003,296249.6875,294352.8125,321188.6875,312933.375,284953.375,254390.40625,219804.46875,244013.921875,0.051025390625,0.994384765625,0.160400390625,0.4577636420726776,-1.4038084745407104,-0.9765624403953552,73.33333587646484,283975.0,0.0
15268.6659006,296249.6875,294352.8125,321188.6875,312933.375,284953.375,254390.40625,219804.46875,244013.921875,0.051025390625,0.994384765625,0.160400390625,0.4577636420726776,-1.4038084745407104,-0.9765624403953552,73.33333587646484,283976.0,0.0
15268.6659007,296249.6875,294352.8125,321188.6875,312933.375,284953.375,254390.40625,219804.46875,244013.921875,0.051025390625,0.994384765625,0.160400390625,0.4577636420726776,-1.4038084745407104,-0.9765624403953552,73.33333587646484,283977.0,0.0
15268.6659009,296249.6875,294352.8125,321188.6875,312933.375,284953.375,254390.40625,219804.46875,244013.921875,0.051025390625,0.994384765625,0.160400390625,0.4577636420726776,-1.4038084745407104,-0.9765624403953552,73.33333587646484,283978.0,0.0
15268.6659011,296249.6875,294352.8125,321188.6875,312933.375,284953.375,254390.40625,219804.46875,244013.921875,0.051025390625,0.994384765625,0.160400390625,0.4577636420726776,-1.4038084745407104,-0.9765624403953552,73.33333587646484,283979.0,0.0
15268.6659013,296249.6875,294352.8125,321188.6875,312933.375,284953.375,254390.40625,219804.46875,244013.921875,0.051025390625,0.994384765625,0.160400390625,0.4577636420726776,-1.4038084745407104,-0.9765624403953552,73.33333587646484,283980.0,0.0
15268.6659015,296249.6875,294352.8125,321188.6875,312933.375,284953.375,254390.40625,219804.46875,244013.921875,0.051025390625,0.994384765625,0.160400390625,0.4577636420726776,-1.4038084745407104,-0.9765624403953552,73.33333587646484,283981.0,0.0
15268.6659017,296249.6875,294352.8125,321188.6875,312933.375,284953.375,254390.40625,219804.46875,244013.921875,0.051025390625,0.994384765625,0.160400390625,0.4577636420726776,-1.4038084745407104,-0.9765624403953552,73.33333587646484,283982.0,0.0
15268.6659019,296249.6875,294352.8125,321188.6875,312933.375,284953.375,254390.40625,219804.46875,244013.921875,0.051025390625,0.994384765625,0.160400390625,0.4577636420726776,-1.4038084745407104,-0.9765624403953552,73.33333587646484,283983.0,0.0
15268.665902,296249.6875,294352.8125,321188.6875,312933.375,284953.375,254390.40625,219804.46875,244013.921875,0.051025390625,0.994384765625,0.160400390625,0.4577636420726776,-1.4038084745407104,-0.9765624403953552,73.33333587646484,283984.0,0.0
15268.6659022,296249.6875,294352.8125,321188.6875,312933.375,284953.375,254390.40625,219804.46875,244013.921875,0.051025390625,0.994384765625,0.160400390625,0.4577636420726776,-1.4038084745407104,-0.9765624403953552,73.33333587646484,283985.0,0.0
15268.6659025,296249.6875,294352.8125,321188.6875,312933.375,284953.375,254390.40625,219804.46875,244013.921875,0.051025390625,0.994384765625,0.160400390625,0.4577636420726776,-1.4038084745407104,-0.9765624403953552,73.33333587646484,283986.0,0.0
15268.6659027,296249.6875,294352.8125,321188.6875,312933.375,284953.375,254390.40625,219804.46875,244013.921875,0.051025390625,0.994384765625,0.160400390625,0.4577636420726776,-1.4038084745407104,-0.9765624403953552,73.33333587646484,283987.0,0.0
15268.6659029,296249.6875,294352.8125,321188.6875,312933.375,284953.375,254390.40625,219804.46875,244013.921875,0.051025390625,0.994384765625,0.160400390625,0.4577636420726776,-1.4038084745407104,-0.9765624403953552,73.33333587646484,283988.0,0.0
15268.6659031,296249.6875,294352.8125,321188.6875,312933.375,284953.375,254390.40625,219804.46875,244013.921875,0.051025390625,0.994384765625,0.160400390625,0.4577636420726776,-1.4038084745407104,-0.9765624403953552,73.33333587646484,283989.0,0.0
15268.6659033,296249.6875,294352.8125,321188.6875,312933.375,284953.375,254390.40625,219804.46875,244013.921875,0.051025390625,0.994384765625,0.160400390625,0.4577636420726776,-1.4038084745407104,-0.9765624403953552,73.33333587646484,283990.0,0.0
15268.6659034,296249.6875,294352.8125,321188.6875,312933.375,284953.375,254390.40625,219804.46875,244013.921875,0.051025390625,0.994384765625,0.160400390625,0.4577636420726776,-1.4038084745407104,-0.9765624403953552,73.33333587646484,283991.0,0.0
15268.6659036,296249.6875,294352.8125,321188.6875,312933.375,284953.375,254390.40625,219804.46875,244013.921875,0.051025390625,0.994384765625,0.160400390625,0.4577636420726776,-1.4038084745407104,-0.9765624403953552,73.33333587646484,283992.0,0.0
15268.6659038,296249.6875,294352.8125,321188.6875,312933.375,284953.375,254390.40625,219804.46875,244013.921875,0.051025390625,0.994384765625,0.160400390625,0.4577636420726776,-1.4038084745407104,-0.9765624403953552,73.33333587646484,283993.0,0.0
15268.665904,296249.6875,294352.8125,321188.6875,312933.375,284953.375,254390.40625,219804.46875,244013.921875,0.051025390625,0.994384765625,0.160400390625,0.4577636420726776,-1.4038084745407104,-0.9765624403953552,73.33333587646484,283994.0,0.0
15268.6659042,296249.6875,294352.8125,321188.6875,312933.375,284953.375,254390.40625,219804.46875,244013.921875,0.051025390625,0.994384765625,0.160400390625,0.4577636420726776,-1.4038084745407104,-0.9765624403953552,73.33333587646484,283995.0,0.0
15268.6659044,296249.6875,294352.8125,321188.6875,312933.375,284953.375,254390.40625,219804.46875,244013.921875,0.051025390625,0.994384765625,0.160400390625,0.4577636420726776,-1.4038084745407104,-0.9765624403953552,73.33333587646484,283996.0,0.0
15268.6659046,296249.6875,294352.8125,321188.6875,312933.375,284953.375,254390.40625,219804.46875,244013.921875,0.051025390625,0.994384765625,0.160400390625,0.4577636420726776,-1.4038084745407104,-0.9765624403953552,73.33333587646484,283997.0,0.0
15268.6659048,296249.6875,294352.8125,321188.6875,312933.375,284953.375,254390.40625,219804.46875,244013.921875,0.051025390625,0.994384765625,0.160400390625,0.4577636420726776,-1.4038084745407104,-0.9765624403953552,73.33333587646484,283998.0,0.0
15268.6659049,296249.6875,294352.8125,321188.6875,312933.375,284953.375,254390.40625,219804.46875,244013.921875,0.051025390625,0.994384765625,0.160400390625,0.4577636420726776,-1.4038084745407104,-0.9765624403953552,73.33333587646484,283999.0,0.0
15268.6659051,296249.6875,294352.8125,321188.6875,312933.375,284953.375,254390.40625,219804.46875,244013.921875,0.051025390625,0.994384765625,0.160400390625,0.4577636420726776,-1.4038084745407104,-0.9765624403953552,73.33333587646484,284000.0,0.0
15268.6659053,296249.6875,294352.8125,321188.6875,312933.375,284953.375,254390.40625,219804.46875,244013.921875,0.051025390625,0.994384765625,0.160400390625,0.4577636420726776,-1.4038084745407104,-0.9765624403953552,73.33333587646484,284001.0,0.0
15268.6659055,296249.6875,294352.8125,321188.6875,312933.375,284953.375,254390.40625,219804.46875,244013.921875,0.051025390625,0.994384765625,0.160400390625,0.4577636420726776,-1.4038084745407104,-0.9765624403953552,73.33333587646484,284002.0,0.0
15268.6659057,296249.6875,294352.8125,321188.6875,312933.375,284953.375,254390.40625,219804.46875,244013.921875,0.051025390625,0.994384765625,0.160400390625,0.4577636420726776,-1.4038084745407104,-0.9765624403953552,73.33333587646484,284003.0,0.0
15268.6659059,296249.6875,294352.8125,321188.6875,312933.375,284953.375,254390.40625,219804.46875,244013.921875,0.051025390625,0.994384765625,0.160400390625,0.4577636420726776,-1.4038084745407104,-0.9765624403953552,73.33333587646484,284004.0,0.0
15268.6659061,296249.6875,294352.8125,321188.6875,312933.375,284953.375,254390.40625,219804.46875,244013.921875,0.051025390625,0.994384765625,0.160400390625,0.4577636420726776,-1.4038084745407104,-0.9765624403953552,73.33333587646484,284005.0,0.0
15268.6659063,296249.6875,294352.8125,321188.6875,312933.375,284953.375,254390.40625,219804.46875,244013.921875,0.051025390625,0.994384765625,0.160400390625,0.4577636420726776,-1.4038084745407104,-0.9765624403953552,73.33333587646484,284006.0,0.0
15268.6659065,296249.6875,294352.8125,321188.6875,312933.375,284953.375,254390.40625,219804.46875,244013.921875,0.051025390625,0.994384765625,0.160400390625,0.4577636420726776,-1.4038084745407104,-0.9765624403953552,73.33333587646484,284007.0,0.0
15268.6659068,296249.6875,294352.8125,321188.6875,312933.375,284953.375,254390.40625,219804.46875,244013.921875,0.051025390625,0.994384765625,0.160400390625,0.4577636420726776,-1.4038084745407104,-0.9765624403953552,73.33333587646484,284008.0,0.0
15268.6659069,296265.0625,294388.9375,321215.3125,312937.03125,284978.59375,254440.375,219828.96875,244056.109375,0.05517578125,0.9931640625,0.163818359375,0.2441406100988388,-1.6784666776657104,-0.9155272841453552,73.33333587646484,284009.0,1.0
15268.6659084,296284.53125,294134.03125,320701.3125,312967.0,284720.65625,254386.015625,219792.84375,244070.15625,0.053955078125,0.996337890625,0.164306640625,0.1220703050494194,-1.6479490995407104,-0.9155272841453552,73.33333587646484,284010.0,1.0
15268.6659097,296467.28125,294723.6875,321464.5,313228.875,285181.53125,254514.765625,220010.109375,244203.640625,0.0517578125,0.994873046875,0.16748046875,-0.03051757626235485,-1.6479490995407104,-0.9155272841453552,73.33333587646484,284011.0,1.0
15268.6684813,296561.25,295353.8125,322465.40625,313363.875,285733.0,254640.5625,220184.90625,244282.765625,0.05126953125,0.993896484375,0.16748046875,-0.0610351525247097,-1.6479490995407104,-0.9460448622703552,73.33333587646484,284012.0,1.0
15268.668488,296430.8125,295143.0,322314.3125,313168.96875,285598.4375,254569.21875,220042.75,244153.390625,0.05126953125,0.99267578125,0.166259765625,-0.1220703050494194,-1.7089842557907104,-1.0375975370407104,73.33333587646484,284013.0,1.0
15268.6765027,296263.53125,294385.1875,321222.46875,312931.21875,284971.625,254411.953125,219803.578125,244035.640625,0.05126953125,0.99169921875,0.159423828125,-0.1525878757238388,-1.6174315214157104,-1.0070799589157104,73.33333587646484,284014.0,1.0
15268.6765163,296295.71875,294137.53125,320712.6875,312973.0625,284722.15625,254390.84375,219788.203125,244068.8125,0.05224609375,0.9921875,0.162109375,-0.1525878757238388,-1.5869139432907104,-0.8850097060203552,73.33333587646484,284015.0,1.0
15268.6765179,296477.65625,294728.25,321473.8125,313235.03125,285184.125,254535.6875,220014.671875,244207.03125,0.05224609375,0.992919921875,0.162841796875,-0.2441406100988388,-1.5563963651657104,-0.9155272841453552,73.33333587646484,284016.0,1.0
15268.6765192,296565.5625,295355.15625,322468.46875,313362.1875,285730.78125,254658.171875,220179.984375,244262.921875,0.051025390625,0.994140625,0.162841796875,-0.1525878757238388,-1.5563963651657104,-0.9765624403953552,73.33333587646484,284017.0,1.0
15268.6765205,296433.59375,295140.125,322313.15625,313170.9375,285593.875,254564.125,220030.84375,244143.828125,0.05029296875,0.991455078125,0.1640625,0.0,-1.5258787870407104,-0.9155272841453552,73.33333587646484,284018.0,1.0
15268.6793169,296271.3125,294395.375,321234.1875,312936.0625,284978.3125,254408.28125,219804.828125,244038.234375,0.049560546875,0.992919921875,0.163330078125,-0.0915527269244194,-1.5563963651657104,-0.9460448622703552,73.33333587646484,284019.0,1.0
15268.6793256,296296.15625,294143.25,320717.40625,312971.71875,284725.03125,254381.375,219788.5625,244067.296875,0.049560546875,0.993408203125,0.15869140625,0.03051757626235485,-1.5258787870407104,-0.9460448622703552,73.33333587646484,284020.0,1.0
15268.6815858,296480.53125,294735.9375,321478.53125,313236.5625,285188.6875,254527.015625,220018.609375,244202.65625,0.051513671875,0.992919921875,0.159423828125,0.03051757626235485,-1.5563963651657104,-0.9765624403953552,73.33333587646484,284021.0,1.0
15268.7066464,296480.53125,294735.9375,321478.53125,313236.5625,285188.6875,254527.015625,220018.609375,244202.65625,0.051513671875,0.992919921875,0.159423828125,0.03051757626235485,-1.5563963651657104,-0.9765624403953552,73.33333587646484,284022.0,0.0
15268.7066493,296480.53125,294735.9375,321478.53125,313236.5625,285188.6875,254527.015625,220018.609375,244202.65625,0.051513671875,0.992919921875,0.159423828125,0.03051757626235485,-1.5563963651657104,-0.9765624403953552,73.33333587646484,284023.0,0.0
15268.7066496,296480.53125,294735.9375,321478.53125,313236.5625,285188.6875,254527.015625,220018.609375,244202.65625,0.051513671875,0.992919921875,0.159423828125,0.03051757626235485,-1.5563963651657104,-0.9765624403953552,73.33333587646484,284024.0,0.0
15268.7066498,296480.53125,294735.9375,321478.53125,313236.5625,285188.6875,254527.015625,220018.609375,244202.65625,0.051513671875,0.992919921875,0.159423828125,0.03051757626235485,-1.5563963651657104,-0.9765624403953552,73.33333587646484,284025.0,0.0
15268.70665,296480.53125,294735.9375,321478.53125,313236.5625,285188.6875,254527.015625,220018.609375,244202.65625,0.051513671875,0.992919921875,0.159423828125,0.03051757626235485,-1.5563963651657104,-0.9765624403953552,73.33333587646484,284026.0,0.0
15268.7066502,296480.53125,294735.9375,321478.53125,313236.5625,285188.6875,254527.015625,220018.609375,244202.65625,0.051513671875,0.992919921875,0.159423828125,0.03051757626235485,-1.5563963651657104,-0.9765624403953552,73.33333587646484,284027.0,0.0
15268.7066504,296480.53125,294735.9375,321478.53125,313236.5625,285188.6875,254527.015625,220018.609375,244202.65625,0.051513671875,0.992919921875,0.159423828125,0.03051757626235485,-1.5563963651657104,-0.9765624403953552,73.33333587646484,284028.0,0.0
15268.7066506,296480.53125,294735.9375,321478.53125,313236.5625,285188.6875,254527.015625,220018.609375,244202.65625,0.051513671875,0.992919921875,0.159423828125,0.03051757626235485,-1.5563963651657104,-0.9765624403953552,73.33333587646484,284029.0,0.0
15268.7066507,296480.53125,294735.9375,321478.53125,313236.5625,285188.6875,254527.015625,220018.609375,244202.65625,0.051513671875,0.992919921875,0.159423828125,0.03051757626235485,-1.5563963651657104,-0.9765624403953552,73.33333587646484,284030.0,0.0
15268.7066509,296480.53125,294735.9375,321478.53125,313236.5625,285188.6875,254527.015625,220018.609375,244202.65625,0.051513671875,0.992919921875,0.159423828125,0.03051757626235485,-1.5563963651657104,-0.9765624403953552,73.33333587646484,284031.0,0.0
15268.7066511,296480.53125,294735.9375,321478.53125,313236.5625,285188.6875,254527.015625,220018.609375,244202.65625,0.051513671875,0.992919921875,0.159423828125,0.03051757626235485,-1.5563963651657104,-0.9765624403953552,73.33333587646484,284032.0,0.0
15268.7066513,296480.53125,294735.9375,321478.53125,313236.5625,285188.6875,254527.015625,220018.609375,244202.65625,0.051513671875,0.992919921875,0.159423828125,0.03051757626235485,-1.5563963651657104,-0.9765624403953552,73.33333587646484,284033.0,0.0
15268.7066514,296480.53125,294735.9375,321478.53125,313236.5625,285188.6875,254527.015625,220018.609375,244202.65625,0.051513671875,0.992919921875,0.159423828125,0.03051757626235485,-1.5563963651657104,-0.9765624403953552,73.33333587646484,284034.0,0.0
15268.7066516,296480.53125,294735.9375,321478.53125,313236.5625,285188.6875,254527.015625,220018.609375,244202.65625,0.051513671875,0.992919921875,0.159423828125,0.03051757626235485,-1.5563963651657104,-0.9765624403953552,73.33333587646484,284035.0,0.0
15268.7066518,296480.53125,294735.9375,321478.53125,313236.5625,285188.6875,254527.015625,220018.609375,244202.65625,0.051513671875,0.992919921875,0.159423828125,0.03051757626235485,-1.5563963651657104,-0.9765624403953552,73.33333587646484,284036.0,0.0
15268.7066519,296480.53125,294735.9375,321478.53125,313236.5625,285188.6875,254527.015625,220018.609375,244202.65625,0.051513671875,0.992919921875,0.159423828125,0.03051757626235485,-1.5563963651657104,-0.9765624403953552,73.33333587646484,284037.0,0.0
15268.7066521,296440.75,295149.53125,322321.1875,313182.28125,285604.71875,254586.203125,220060.265625,244169.484375,0.05517578125,0.992919921875,0.166748046875,-0.1220703050494194,-1.2817381620407104,-0.6713866591453552,73.33333587646484,284038.0,1.0
15268.7536246,296281.25,294410.40625,321245.8125,312947.15625,284988.875,254430.71875,219823.6875,244043.59375,0.053466796875,0.994873046875,0.1650390625,-0.0610351525247097,-1.2817381620407104,-0.5798339247703552,73.33333587646484,284039.0,1.0
15268.7536331,296306.71875,294160.15625,320725.46875,312979.78125,284733.875,254413.921875,219811.890625,244077.03125,0.053955078125,0.993896484375,0.16552734375,0.0,-1.1901854276657104,-0.6408690810203552,73.33333587646484,284040.0,1.0
15268.7536344,296487.6875,294740.5,321474.15625,313238.625,285187.53125,254540.515625,220034.96875,244224.375,0.054443359375,0.99365234375,0.162353515625,-0.03051757626235485,-1.1291502714157104,-0.6713866591453552,73.33333587646484,284041.0,1.0
15268.7536356,296573.15625,295364.1875,322469.78125,313364.5,285733.90625,254652.453125,220197.953125,244287.765625,0.053466796875,0.992919921875,0.16357421875,0.0915527269244194,-1.0681151151657104,-0.7324218153953552,73.33333587646484,284042.0,1.0
15268.7536368,296439.9375,295158.71875,322331.75,313178.625,285609.875,254577.265625,220062.859375,244175.203125,0.052490234375,0.993896484375,0.16162109375,0.2441406100988388,-1.0986326932907104,-0.7629393935203552,73.33333587646484,284043.0,1.0
15268.7536381,296266.65625,294396.71875,321239.5625,312932.65625,284977.15625,254406.765625,219807.15625,244042.703125,0.05078125,0.992431640625,0.166015625,0.2136230319738388,-1.0375975370407104,-0.8239745497703552,73.33333587646484,284044.0,1.0
15268.7536393,296293.9375,294140.125,320711.875,312969.5,284718.3125,254393.265625,219799.28125,244083.125,0.05126953125,0.992919921875,0.165771484375,0.0915527269244194,-1.1291502714157104,-0.7324218153953552,73.33333587646484,284045.0,1.0
15268.7628547,296478.28125,294725.125,321457.8125,313231.46875,285173.9375,254533.71875,220030.84375,244223.578125,0.053466796875,0.993408203125,0.16650390625,0.1220703050494194,-1.0681151151657104,-0.7019042372703552,73.33333587646484,284046.0,1.0
15268.7653815,296569.5625,295353.71875,322455.75,313365.03125,285719.5,254645.75,220190.265625,244276.328125,0.052978515625,0.993896484375,0.168701171875,0.1525878757238388,-1.0375975370407104,-0.7324218153953552,73.33333587646484,284047.0,1.0
15268.7703901,296441.8125,295154.4375,322324.78125,313186.40625,285603.4375,254588.703125,220065.625,244176.546875,0.052001953125,0.993408203125,0.1650390625,0.1831054538488388,-1.0681151151657104,-0.8239745497703552,73.33333587646484,284048.0,1.0
15268.7728677,296264.6875,294394.5625,321236.0625,312936.0625,284978.9375,254420.0,219821.453125,244058.796875,0.052734375,0.9951171875,0.165283203125,0.2441406100988388,-1.0986326932907104,-0.7629393935203552,73.33333587646484,284049.0,1.0
15268.7753838,296289.375,294138.34375,320707.5,312969.6875,284721.09375,254398.0,219805.640625,244088.03125,0.05322265625,0.995849609375,0.166748046875,0.2441406100988388,-1.0375975370407104,-0.7019042372703552,73.33333587646484,284050.0,1.0
15268.8004044,296289.375,294138.34375,320707.5,312969.6875,284721.09375,254398.0,219805.640625,244088.03125,0.05322265625,0.995849609375,0.166748046875,0.2441406100988388,-1.0375975370407104,-0.7019042372703552,73.33333587646484,284051.0,0.0
15268.8004091,296289.375,294138.34375,320707.5,312969.6875,284721.09375,254398.0,219805.640625,244088.03125,0.05322265625,0.995849609375,0.166748046875,0.2441406100988388,-1.0375975370407104,-0.7019042372703552,73.33333587646484,284052.0,0.0
15268.8004105,296289.375,294138.34375,320707.5,312969.6875,284721.09375,254398.0,219805.640625,244088.03125,0.05322265625,0.995849609375,0.166748046875,0.2441406100988388,-1.0375975370407104,-0.7019042372703552,73.33333587646484,284053.0,0.0
15268.8004117,296289.375,294138.34375,320707.5,312969.6875,284721.09375,254398.0,219805.640625,244088.03125,0.05322265625,0.995849609375,0.166748046875,0.2441406100988388,-1.0375975370407104,-0.7019042372703552,73.33333587646484,284054.0,0.0
15268.8004131,296289.375,294138.34375,320707.5,312969.6875,284721.09375,254398.0,219805.640625,244088.03125,0.05322265625,0.995849609375,0.166748046875,0.2441406100988388,-1.0375975370407104,-0.7019042372703552,73.33333587646484,284055.0,0.0
15268.8004141,296289.375,294138.34375,320707.5,312969.6875,284721.09375,254398.0,219805.640625,244088.03125,0.05322265625,0.995849609375,0.166748046875,0.2441406100988388,-1.0375975370407104,-0.7019042372703552,73.33333587646484,284056.0,0.0
15268.8004152,296289.375,294138.34375,320707.5,312969.6875,284721.09375,254398.0,219805.640625,244088.03125,0.05322265625,0.995849609375,0.166748046875,0.2441406100988388,-1.0375975370407104,-0.7019042372703552,73.33333587646484,284057.0,0.0
15268.8004162,296289.375,294138.34375,320707.5,312969.6875,284721.09375,254398.0,219805.640625,244088.03125,0.05322265625,0.995849609375,0.166748046875,0.2441406100988388,-1.0375975370407104,-0.7019042372703552,73.33333587646484,284058.0,0.0
15268.8004173,296289.375,294138.34375,320707.5,312969.6875,284721.09375,254398.0,219805.640625,244088.03125,0.05322265625,0.995849609375,0.166748046875,0.2441406100988388,-1.0375975370407104,-0.7019042372703552,73.33333587646484,284059.0,0.0
15268.8004183,296289.375,294138.34375,320707.5,312969.6875,284721.09375,254398.0,219805.640625,244088.03125,0.05322265625,0.995849609375,0.166748046875,0.2441406100988388,-1.0375975370407104,-0.7019042372703552,73.33333587646484,284060.0,0.0
15268.8004196,296289.375,294138.34375,320707.5,312969.6875,284721.09375,254398.0,219805.640625,244088.03125,0.05322265625,0.995849609375,0.166748046875,0.2441406100988388,-1.0375975370407104,-0.7019042372703552,73.33333587646484,284061.0,0.0
15268.8004208,296289.375,294138.34375,320707.5,312969.6875,284721.09375,254398.0,219805.640625,244088.03125,0.05322265625,0.995849609375,0.166748046875,0.2441406100988388,-1.0375975370407104,-0.7019042372703552,73.33333587646484,284062.0,0.0
15268.8004209,296289.375,294138.34375,320707.5,312969.6875,284721.09375,254398.0,219805.640625,244088.03125,0.05322265625,0.995849609375,0.166748046875,0.2441406100988388,-1.0375975370407104,-0.7019042372703552,73.33333587646484,284063.0,0.0
15268.8004211,296289.375,294138.34375,320707.5,312969.6875,284721.09375,254398.0,219805.640625,244088.03125,0.05322265625,0.995849609375,0.166748046875,0.2441406100988388,-1.0375975370407104,-0.7019042372703552,73.33333587646484,284064.0,0.0
15268.8004213,296289.375,294138.34375,320707.5,312969.6875,284721.09375,254398.0,219805.640625,244088.03125,0.05322265625,0.995849609375,0.166748046875,0.2441406100988388,-1.0375975370407104,-0.7019042372703552,73.33333587646484,284065.0,0.0
15268.8004215,296289.375,294138.34375,320707.5,312969.6875,284721.09375,254398.0,219805.640625,244088.03125,0.05322265625,0.995849609375,0.166748046875,0.2441406100988388,-1.0375975370407104,-0.7019042372703552,73.33333587646484,284066.0,0.0
15268.8004217,296289.375,294138.34375,320707.5,312969.6875,284721.09375,254398.0,219805.640625,244088.03125,0.05322265625,0.995849609375,0.166748046875,0.2441406100988388,-1.0375975370407104,-0.7019042372703552,73.33333587646484,284067.0,0.0
15268.8004218,296289.375,294138.34375,320707.5,312969.6875,284721.09375,254398.0,219805.640625,244088.03125,0.05322265625,0.995849609375,0.166748046875,0.2441406100988388,-1.0375975370407104,-0.7019042372703552,73.33333587646484,284068.0,0.0
15268.800422,296289.375,294138.34375,320707.5,312969.6875,284721.09375,254398.0,219805.640625,244088.03125,0.05322265625,0.995849609375,0.166748046875,0.2441406100988388,-1.0375975370407104,-0.7019042372703552,73.33333587646484,284069.0,0.0
15268.8004222,296289.375,294138.34375,320707.5,312969.6875,284721.09375,254398.0,219805.640625,244088.03125,0.05322265625,0.995849609375,0.166748046875,0.2441406100988388,-1.0375975370407104,-0.7019042372703552,73.33333587646484,284070.0,0.0
15268.8004223,296289.375,294138.34375,320707.5,312969.6875,284721.09375,254398.0,219805.640625,244088.03125,0.05322265625,0.995849609375,0.166748046875,0.2441406100988388,-1.0375975370407104,-0.7019042372703552,73.33333587646484,284071.0,0.0
15268.8004225,296289.375,294138.34375,320707.5,312969.6875,284721.09375,254398.0,219805.640625,244088.03125,0.05322265625,0.995849609375,0.166748046875,0.2441406100988388,-1.0375975370407104,-0.7019042372703552,73.33333587646484,284072.0,0.0
15268.8004227,296412.84375,295138.78125,322308.875,313164.84375,285602.65625,254578.6875,220057.5,244170.734375,0.05419921875,0.996337890625,0.16943359375,0.03051757626235485,-1.6784666776657104,-0.7934569716453552,73.33333587646484,284073.0,1.0
15268.8253606,296250.3125,294394.46875,321230.25,312930.25,284985.125,254420.625,219817.171875,244058.359375,0.052734375,0.993408203125,0.169189453125,0.03051757626235485,-1.7089842557907104,-0.7629393935203552,73.33333587646484,284074.0,1.0
15268.851521,296275.53125,294131.90625,320699.53125,312961.625,284722.71875,254389.859375,219795.796875,244083.828125,0.05224609375,0.99072265625,0.16796875,0.03051757626235485,-1.6784666776657104,-0.8544921278953552,73.33333587646484,284075.0,1.0
15268.8515373,296460.6875,294711.0625,321444.75,313229.40625,285178.6875,254526.484375,220030.9375,244231.265625,0.05029296875,0.990478515625,0.165771484375,0.1525878757238388,-1.5869139432907104,-0.9460448622703552,73.33333587646484,284076.0,1.0
15268.8515386,296544.28125,295334.6875,322439.03125,313355.65625,285720.84375,254641.640625,220189.1875,244299.65625,0.051513671875,0.989990234375,0.16455078125,0.2136230319738388,-1.6479490995407104,-1.0375975370407104,73.33333587646484,284077.0,1.0
15268.8515398,296418.46875,295141.03125,322308.5,313175.59375,285601.40625,254576.8125,220059.109375,244198.453125,0.053955078125,0.991943359375,0.1689453125,0.2746581733226776,-1.7395018339157104,-1.0375975370407104,73.33333587646484,284078.0,1.0
15268.8515423,296255.65625,294395.03125,321234.46875,312935.0,284981.90625,254407.5625,219815.203125,244066.21875,0.053955078125,0.991943359375,0.1669921875,0.3356933295726776,-1.7395018339157104,-0.8544921278953552,73.33333587646484,284079.0,1.0
15268.8515436,296277.75,294122.96875,320697.21875,312959.75,284714.3125,254376.90625,219795.078125,244084.1875,0.0537109375,0.991455078125,0.1640625,0.4272460639476776,-1.7395018339157104,-0.8850097060203552,73.33333587646484,284080.0,1.0
15268.8515448,296460.84375,294701.59375,321440.53125,313219.3125,285171.0,254530.859375,220028.703125,244213.46875,0.055908203125,0.9921875,0.162353515625,0.5187987685203552,-1.7395018339157104,-0.9460448622703552,73.33333587646484,284081.0,1.0
15268.8515461,296547.84375,295331.75,322437.0625,313345.46875,285718.25,254640.5625,220175.875,244264.703125,0.056884765625,0.99267578125,0.164306640625,0.6408690810203552,-1.6479490995407104,-0.8850097060203552,73.33333587646484,284082.0,1.0
15268.8553296,296411.9375,295128.78125,322304.125,313160.125,285596.21875,254555.625,220039.703125,244171.265625,0.05712890625,0.991943359375,0.163818359375,0.7019042372703552,-1.5258787870407104,-0.7934569716453552,73.33333587646484,284083.0,1.0
15268.8553553,296411.9375,295128.78125,322304.125,313160.125,285596.21875,254555.625,220039.703125,244171.265625,0.05712890625,0.991943359375,0.163818359375,0.7019042372703552,-1.5258787870407104,-0.7934569716453552,73.33333587646484,284084.0,0.0
15268.8553556,296411.9375,295128.78125,322304.125,313160.125,285596.21875,254555.625,220039.703125,244171.265625,0.05712890625,0.991943359375,0.163818359375,0.7019042372703552,-1.5258787870407104,-0.7934569716453552,73.33333587646484,284085.0,0.0
15268.8553558,296411.9375,295128.78125,322304.125,313160.125,285596.21875,254555.625,220039.703125,244171.265625,0.05712890625,0.991943359375,0.163818359375,0.7019042372703552,-1.5258787870407104,-0.7934569716453552,73.33333587646484,284086.0,0.0
15268.8553561,296411.9375,295128.78125,322304.125,313160.125,285596.21875,254555.625,220039.703125,244171.265625,0.05712890625,0.991943359375,0.163818359375,0.7019042372703552,-1.5258787870407104,-0.7934569716453552,73.33333587646484,284087.0,0.0
15268.8553564,296411.9375,295128.78125,322304.125,313160.125,285596.21875,254555.625,220039.703125,244171.265625,0.05712890625,0.991943359375,0.163818359375,0.7019042372703552,-1.5258787870407104,-0.7934569716453552,73.33333587646484,284088.0,0.0
15268.8553567,296411.9375,295128.78125,322304.125,313160.125,285596.21875,254555.625,220039.703125,244171.265625,0.05712890625,0.991943359375,0.163818359375,0.7019042372703552,-1.5258787870407104,-0.7934569716453552,73.33333587646484,284089.0,0.0
15268.855357,296411.9375,295128.78125,322304.125,313160.125,285596.21875,254555.625,220039.703125,244171.265625,0.05712890625,0.991943359375,0.163818359375,0.7019042372703552,-1.5258787870407104,-0.7934569716453552,73.33333587646484,284090.0,0.0
15268.8553572,296411.9375,295128.78125,322304.125,313160.125,285596.21875,254555.625,220039.703125,244171.265625,0.05712890625,0.991943359375,0.163818359375,0.7019042372703552,-1.5258787870407104,-0.7934569716453552,73.33333587646484,284091.0,0.0
15268.8553575,296411.9375,295128.78125,322304.125,313160.125,285596.21875,254555.625,220039.703125,244171.265625,0.05712890625,0.991943359375,0.163818359375,0.7019042372703552,-1.5258787870407104,-0.7934569716453552,73.33333587646484,284092.0,0.0
15268.8553578,296411.9375,295128.78125,322304.125,313160.125,285596.21875,254555.625,220039.703125,244171.265625,0.05712890625,0.991943359375,0.163818359375,0.7019042372703552,-1.5258787870407104,-0.7934569716453552,73.33333587646484,284093.0,0.0
15268.855358,296411.9375,295128.78125,322304.125,313160.125,285596.21875,254555.625,220039.703125,244171.265625,0.05712890625,0.991943359375,0.163818359375,0.7019042372703552,-1.5258787870407104,-0.7934569716453552,73.33333587646484,284094.0,0.0
15268.8553582,296411.9375,295128.78125,322304.125,313160.125,285596.21875,254555.625,220039.703125,244171.265625,0.05712890625,0.991943359375,0.163818359375,0.7019042372703552,-1.5258787870407104,-0.7934569716453552,73.33333587646484,284095.0,0.0
15268.8553585,296411.9375,295128.78125,322304.125,313160.125,285596.21875,254555.625,220039.703125,244171.265625,0.05712890625,0.991943359375,0.163818359375,0.7019042372703552,-1.5258787870407104,-0.7934569716453552,73.33333587646484,284096.0,0.0
15268.8553588,296411.9375,295128.78125,322304.125,313160.125,285596.21875,254555.625,220039.703125,244171.265625,0.05712890625,0.991943359375,0.163818359375,0.7019042372703552,-1.5258787870407104,-0.7934569716453552,73.33333587646484,284097.0,0.0
15268.8553591,296411.9375,295128.78125,322304.125,313160.125,285596.21875,254555.625,220039.703125,244171.265625,0.05712890625,0.991943359375,0.163818359375,0.7019042372703552,-1.5258787870407104,-0.7934569716453552,73.33333587646484,284098.0,0.0
15268.8553593,296411.9375,295128.78125,322304.125,313160.125,285596.21875,254555.625,220039.703125,244171.265625,0.05712890625,0.991943359375,0.163818359375,0.7019042372703552,-1.5258787870407104,-0.7934569716453552,73.33333587646484,284099.0,0.0
15268.8553596,296411.9375,295128.78125,322304.125,313160.125,285596.21875,254555.625,220039.703125,244171.265625,0.05712890625,0.991943359375,0.163818359375,0.7019042372703552,-1.5258787870407104,-0.7934569716453552,73.33333587646484,284100.0,0.0
15268.8553598,296411.9375,295128.78125,322304.125,313160.125,285596.21875,254555.625,220039.703125,244171.265625,0.05712890625,0.991943359375,0.163818359375,0.7019042372703552,-1.5258787870407104,-0.7934569716453552,73.33333587646484,284101.0,0.0
15268.8553601,296411.9375,295128.78125,322304.125,313160.125,285596.21875,254555.625,220039.703125,244171.265625,0.05712890625,0.991943359375,0.163818359375,0.7019042372703552,-1.5258787870407104,-0.7934569716453552,73.33333587646484,284102.0,0.0
15268.8553605,296411.9375,295128.78125,322304.125,313160.125,285596.21875,254555.625,220039.703125,244171.265625,0.05712890625,0.991943359375,0.163818359375,0.7019042372703552,-1.5258787870407104,-0.7934569716453552,73.33333587646484,284103.0,0.0
15268.8553608,296411.9375,295128.78125,322304.125,313160.125,285596.21875,254555.625,220039.703125,244171.265625,0.05712890625,0.991943359375,0.163818359375,0.7019042372703552,-1.5258787870407104,-0.7934569716453552,73.33333587646484,284104.0,0.0
15268.8553611,296411.9375,295128.78125,322304.125,313160.125,285596.21875,254555.625,220039.703125,244171.265625,0.05712890625,0.991943359375,0.163818359375,0.7019042372703552,-1.5258787870407104,-0.7934569716453552,73.33333587646484,284105.0,0.0
15268.8553615,296411.9375,295128.78125,322304.125,313160.125,285596.21875,254555.625,220039.703125,244171.265625,0.05712890625,0.991943359375,0.163818359375,0.7019042372703552,-1.5258787870407104,-0.7934569716453552,73.33333587646484,284106.0,0.0
15268.8553618,296411.9375,295128.78125,322304.125,313160.125,285596.21875,254555.625,220039.703125,244171.265625,0.05712890625,0.991943359375,0.163818359375,0.7019042372703552,-1.5258787870407104,-0.7934569716453552,73.33333587646484,284107.0,0.0
15268.8553621,296411.9375,295128.78125,322304.125,313160.125,285596.21875,254555.625,220039.703125,244171.265625,0.05712890625,0.991943359375,0.163818359375,0.7019042372703552,-1.5258787870407104,-0.7934569716453552,73.33333587646484,284108.0,0.0
15268.8553623,296411.9375,295128.78125,322304.125,313160.125,285596.21875,254555.625,220039.703125,244171.265625,0.05712890625,0.991943359375,0.163818359375,0.7019042372703552,-1.5258787870407104,-0.7934569716453552,73.33333587646484,284109.0,0.0
15268.8553626,296411.9375,295128.78125,322304.125,313160.125,285596.21875,254555.625,220039.703125,244171.265625,0.05712890625,0.991943359375,0.163818359375,0.7019042372703552,-1.5258787870407104,-0.7934569716453552,73.33333587646484,284110.0,0.0
15268.8553629,296476.5,294725.125,321437.5,313235.65625,285187.1875,254558.390625,220049.171875,244247.171875,0.0546875,0.9931640625,0.16162109375,0.2136230319738388,-2.197265386581421,-1.0070799589157104,73.33333587646484,284111.0,1.0
15268.8553647,296563.6875,295362.5,322448.59375,313359.84375,285737.84375,254666.671875,220199.65625,244292.421875,0.05419921875,0.992919921875,0.165283203125,0.3051757514476776,-2.014159917831421,-0.9765624403953552,73.33333587646484,284112.0,1.0
15268.8608414,296422.15625,295161.15625,322328.71875,313166.1875,285615.96875,254575.5625,220052.578125,244179.046875,0.0546875,0.99365234375,0.16552734375,0.3051757514476776,-2.044677495956421,-0.9155272841453552,73.33333587646484,284113.0,1.0
15268.8608455,296255.3125,294409.9375,321249.65625,312925.6875,284998.6875,254415.796875,219811.09375,244061.65625,0.05517578125,0.99365234375,0.167724609375,0.2136230319738388,-1.9531248807907104,-1.0070799589157104,73.33333587646484,284114.0,1.0
15268.860847,296280.78125,294138.78125,320701.875,312956.4375,284732.09375,254387.8125,219793.65625,244095.984375,0.0556640625,0.99267578125,0.16845703125,0.1525878757238388,-1.9836424589157104,-0.8239745497703552,73.33333587646484,284115.0,1.0
15268.8608482,296468.28125,294720.1875,321441.15625,313225.46875,285191.8125,254563.84375,220046.9375,244255.5,0.0546875,0.9921875,0.16357421875,0.1525878757238388,-1.9226073026657104,-0.6103515028953552,73.33333587646484,284116.0,1.0
15268.8647363,296557.5,295355.875,322453.25,313360.28125,285747.3125,254685.890625,220214.5,244318.25,0.054443359375,0.9912109375,0.1650390625,0.2441406100988388,-1.8310545682907104,-0.6408690810203552,73.33333587646484,284117.0,1.0
15268.8647493,296421.0625,295155.5,322329.25,313168.15625,285622.59375,254583.96875,220059.1875,244193.359375,0.0537109375,0.990478515625,0.164306640625,0.2441406100988388,-1.7700194120407104,-0.6408690810203552,73.33333587646484,284118.0,1.0
15268.8647572,296250.5625,294405.375,321247.59375,312921.40625,284997.4375,254417.3125,219809.21875,244065.140625,0.056640625,0.991943359375,0.163330078125,0.3967284858226776,-1.8005369901657104,-0.6713866591453552,73.33333587646484,284119.0,1.0
15268.8647607,296275.34375,294128.84375,320693.90625,312951.09375,284721.1875,254385.578125,219779.265625,244081.859375,0.05419921875,0.990478515625,0.16259765625,0.4272460639476776,-1.7395018339157104,-0.5798339247703552,73.33333587646484,284120.0,1.0
15268.8673035,296455.9375,294695.53125,321416.84375,313211.78125,285162.75,254531.03125,220009.125,244220.171875,0.054931640625,0.990966796875,0.159423828125,0.4577636420726776,-1.5869139432907104,-0.5493163466453552,73.33333587646484,284121.0,1.0
15268.8673158,296551.15625,295341.21875,322436.71875,313352.78125,285726.46875,254661.9375,220187.21875,244294.65625,0.054931640625,0.99072265625,0.161376953125,0.4577636420726776,-1.5563963651657104,-0.7019042372703552,73.33333587646484,284122.0,1.0
15268.941344,296427.96875,295158.71875,322331.46875,313180.9375,285618.46875,254584.59375,220057.578125,244197.015625,0.05322265625,0.989990234375,0.1650390625,0.5798339247703552,-1.4953612089157104,-0.7324218153953552,73.33333587646484,284123.0,1.0
15268.9413612,296257.09375,294403.25,321242.0625,312938.375,284988.59375,254421.96875,219808.40625,244071.578125,0.05419921875,0.99072265625,0.16650390625,0.5187987685203552,-1.3427733182907104,-0.7934569716453552,73.33333587646484,284124.0,1.0
15268.9413624,296282.3125,294132.25,320691.03125,312964.65625,284714.375,254382.4375,219783.1875,244091.34375,0.054443359375,0.99267578125,0.164794921875,0.5798339247703552,-1.3122557401657104,-0.7934569716453552,73.33333587646484,284125.0,1.0
15268.9413637,296471.125,294709.03125,321425.78125,313227.4375,285165.53125,254529.96875,220019.046875,244234.75,0.053466796875,0.99267578125,0.162353515625,0.6713866591453552,-1.3122557401657104,-0.7629393935203552,73.33333587646484,284126.0,1.0
15268.9413649,296564.125,295350.59375,322442.15625,313362.96875,285723.0,254654.859375,220187.84375,244294.46875,0.054443359375,0.9931640625,0.164306640625,0.7629393935203552,-1.2207030057907104,-0.8544921278953552,73.33333587646484,284127.0,1.0
15269.0056071,296438.40625,295169.90625,322339.8125,313188.53125,285617.9375,254589.421875,220061.78125,244197.375,0.054443359375,0.994140625,0.1630859375,0.7324218153953552,-1.1596678495407104,-0.8850097060203552,73.33333587646484,284128.0,1.0
15269.0056211,296438.40625,295169.90625,322339.8125,313188.53125,285617.9375,254589.421875,220061.78125,244197.375,0.054443359375,0.994140625,0.1630859375,0.7324218153953552,-1.1596678495407104,-0.8850097060203552,73.33333587646484,284129.0,0.0
15269.0056215,296438.40625,295169.90625,322339.8125,313188.53125,285617.9375,254589.421875,220061.78125,244197.375,0.054443359375,0.994140625,0.1630859375,0.7324218153953552,-1.1596678495407104,-0.8850097060203552,73.33333587646484,284130.0,0.0
15269.0056218,296438.40625,295169.90625,322339.8125,313188.53125,285617.9375,254589.421875,220061.78125,244197.375,0.054443359375,0.994140625,0.1630859375,0.7324218153953552,-1.1596678495407104,-0.8850097060203552,73.33333587646484,284131.0,0.0
15269.0056221,296438.40625,295169.90625,322339.8125,313188.53125,285617.9375,254589.421875,220061.78125,244197.375,0.054443359375,0.994140625,0.1630859375,0.7324218153953552,-1.1596678495407104,-0.8850097060203552,73.33333587646484,284132.0,0.0
15269.0056224,296438.40625,295169.90625,322339.8125,313188.53125,285617.9375,254589.421875,220061.78125,244197.375,0.054443359375,0.994140625,0.1630859375,0.7324218153953552,-1.1596678495407104,-0.8850097060203552,73.33333587646484,284133.0,0.0
15269.0056227,296438.40625,295169.90625,322339.8125,313188.53125,285617.9375,254589.421875,220061.78125,244197.375,0.054443359375,0.994140625,0.1630859375,0.7324218153953552,-1.1596678495407104,-0.8850097060203552,73.33333587646484,284134.0,0.0
15269.0056231,296438.40625,295169.90625,322339.8125,313188.53125,285617.9375,254589.421875,220061.78125,244197.375,0.054443359375,0.994140625,0.1630859375,0.7324218153953552,-1.1596678495407104,-0.8850097060203552,73.33333587646484,284135.0,0.0
15269.0056234,296438.40625,295169.90625,322339.8125,313188.53125,285617.9375,254589.421875,220061.78125,244197.375,0.054443359375,0.994140625,0.1630859375,0.7324218153953552,-1.1596678495407104,-0.8850097060203552,73.33333587646484,284136.0,0.0
15269.0056237,296438.40625,295169.90625,322339.8125,313188.53125,285617.9375,254589.421875,220061.78125,244197.375,0.054443359375,0.994140625,0.1630859375,0.7324218153953552,-1.1596678495407104,-0.8850097060203552,73.33333587646484,284137.0,0.0
15269.005624,296438.40625,295169.90625,322339.8125,313188.53125,285617.9375,254589.421875,220061.78125,244197.375,0.054443359375,0.994140625,0.1630859375,0.7324218153953552,-1.1596678495407104,-0.8850097060203552,73.33333587646484,284138.0,0.0
15269.0056243,296438.40625,295169.90625,322339.8125,313188.53125,285617.9375,254589.421875,220061.78125,244197.375,0.054443359375,0.994140625,0.1630859375,0.7324218153953552,-1.1596678495407104,-0.8850097060203552,73.33333587646484,284139.0,0.0
15269.0056246,296438.40625,295169.90625,322339.8125,313188.53125,285617.9375,254589.421875,220061.78125,244197.375,0.054443359375,0.994140625,0.1630859375,0.7324218153953552,-1.1596678495407104,-0.8850097060203552,73.33333587646484,284140.0,0.0
15269.0056248,296438.40625,295169.90625,322339.8125,313188.53125,285617.9375,254589.421875,220061.78125,244197.375,0.054443359375,0.994140625,0.1630859375,0.7324218153953552,-1.1596678495407104,-0.8850097060203552,73.33333587646484,284141.0,0.0
15269.0056251,296438.40625,295169.90625,322339.8125,313188.53125,285617.9375,254589.421875,220061.78125,244197.375,0.054443359375,0.994140625,0.1630859375,0.7324218153953552,-1.1596678495407104,-0.8850097060203552,73.33333587646484,284142.0,0.0
15269.0056255,296438.40625,295169.90625,322339.8125,313188.53125,285617.9375,254589.421875,220061.78125,244197.375,0.054443359375,0.994140625,0.1630859375,0.7324218153953552,-1.1596678495407104,-0.8850097060203552,73.33333587646484,284143.0,0.0
15269.0056258,296251.90625,294400.5625,321250.1875,312917.28125,284986.8125,254410.78125,219803.046875,244068.1875,0.048583984375,0.9931640625,0.163330078125,0.3967284858226776,-1.3427733182907104,-1.1901854276657104,73.33333587646484,284144.0,1.0
15269.0304016,296269.34375,294114.1875,320685.78125,312944.375,284707.40625,254380.5625,219772.46875,244093.40625,0.052490234375,0.993408203125,0.167236328125,0.2441406100988388,-1.4343260526657104,-1.1291502714157104,73.33333587646484,284145.0,1.0
15269.0554144,296456.65625,294684.875,321412.5625,313212.25,285158.90625,254537.5625,220014.046875,244238.5,0.053466796875,0.99267578125,0.162109375,0.1831054538488388,-1.5563963651657104,-0.8850097060203552,73.33333587646484,284146.0,1.0
15269.105832,296545.875,295321.625,322425.0,313346.875,285715.125,254654.6875,220179.890625,244303.234375,0.052978515625,0.9912109375,0.1630859375,0.1525878757238388,-1.6174315214157104,-0.8544921278953552,73.33333587646484,284147.0,1.0
15269.1058374,296421.59375,295149.78125,322334.0625,313173.96875,285619.71875,254586.734375,220058.65625,244209.625,0.05419921875,0.993408203125,0.159423828125,0.0915527269244194,-1.5258787870407104,-0.6713866591453552,73.33333587646484,284148.0,1.0
15269.1058386,296250.84375,294398.9375,321253.9375,312928.71875,284997.53125,254426.4375,219817.4375,244085.359375,0.052001953125,0.99462890625,0.1630859375,0.2441406100988388,-1.4953612089157104,-0.7629393935203552,73.33333587646484,284149.0,1.0
15269.1058399,296267.65625,294109.53125,320683.875,312954.21875,284710.625,254388.078125,219786.40625,244117.09375,0.05224609375,0.996826171875,0.16796875,0.3356933295726776,-1.6784666776657104,-0.7019042372703552,73.33333587646484,284150.0,1.0
15269.1058411,296456.65625,294684.59375,321407.90625,313218.125,285153.65625,254532.5625,220010.015625,244250.75,0.05078125,1.0,0.1630859375,0.2136230319738388,-1.6479490995407104,-0.7324218153953552,73.33333587646484,284151.0,1.0
15269.1058423,296550.1875,295328.15625,322424.1875,313349.21875,285708.6875,254650.75,220168.453125,244293.671875,0.052490234375,0.99609375,0.16259765625,0.0915527269244194,-1.7395018339157104,-0.7324218153953552,73.33333587646484,284152.0,1.0
15269.1058435,296433.59375,295161.78125,322334.625,313179.96875,285612.5625,254588.078125,220051.0625,244205.875,0.053955078125,0.990234375,0.161865234375,0.0,-1.7395018339157104,-0.7629393935203552,73.33333587646484,284153.0,1.0
15269.1304045,296255.9375,294405.75,321250.71875,312925.875,284985.75,254424.640625,219805.1875,244080.171875,0.053955078125,0.990966796875,0.162353515625,0.1220703050494194,-1.6784666776657104,-0.7934569716453552,73.33333587646484,284154.0,1.0
15269.1559401,296282.125,294128.3125,320694.71875,312956.28125,284715.0,254402.734375,219792.84375,244110.65625,0.0537109375,0.989501953125,0.15966796875,0.1831054538488388,-1.5869139432907104,-0.7324218153953552,73.33333587646484,284155.0,1.0
15269.1559469,296470.5,294699.4375,321424.0,313222.4375,285164.375,254551.78125,220020.125,244245.5625,0.05029296875,0.9912109375,0.159423828125,0.2746581733226776,-1.5563963651657104,-0.8544921278953552,73.33333587646484,284156.0,1.0
15269.1804018,296566.1875,295338.96875,322434.21875,313359.125,285717.8125,254666.3125,220182.484375,244305.109375,0.046875,0.992919921875,0.159912109375,0.3356933295726776,-1.5563963651657104,-1.0986326932907104,73.33333587646484,284157.0,1.0
15269.2316771,296566.1875,295338.96875,322434.21875,313359.125,285717.8125,254666.3125,220182.484375,244305.109375,0.046875,0.992919921875,0.159912109375,0.3356933295726776,-1.5563963651657104,-1.0986326932907104,73.33333587646484,284158.0,0.0
15269.2316811,296566.1875,295338.96875,322434.21875,313359.125,285717.8125,254666.3125,220182.484375,244305.109375,0.046875,0.992919921875,0.159912109375,0.3356933295726776,-1.5563963651657104,-1.0986326932907104,73.33333587646484,284159.0,0.0
15269.2316813,296566.1875,295338.96875,322434.21875,313359.125,285717.8125,254666.3125,220182.484375,244305.109375,0.046875,0.992919921875,0.159912109375,0.3356933295726776,-1.5563963651657104,-1.0986326932907104,73.33333587646484,284160.0,0.0
15269.2316815,296566.1875,295338.96875,322434.21875,313359.125,285717.8125,254666.3125,220182.484375,244305.109375,0.046875,0.992919921875,0.159912109375,0.3356933295726776,-1.5563963651657104,-1.0986326932907104,73.33333587646484,284161.0,0.0
15269.2316817,296566.1875,295338.96875,322434.21875,313359.125,285717.8125,254666.3125,220182.484375,244305.109375,0.046875,0.992919921875,0.159912109375,0.3356933295726776,-1.5563963651657104,-1.0986326932907104,73.33333587646484,284162.0,0.0
15269.2316819,296566.1875,295338.96875,322434.21875,313359.125,285717.8125,254666.3125,220182.484375,244305.109375,0.046875,0.992919921875,0.159912109375,0.3356933295726776,-1.5563963651657104,-1.0986326932907104,73.33333587646484,284163.0,0.0
15269.2316821,296566.1875,295338.96875,322434.21875,313359.125,285717.8125,254666.3125,220182.484375,244305.109375,0.046875,0.992919921875,0.159912109375,0.3356933295726776,-1.5563963651657104,-1.0986326932907104,73.33333587646484,284164.0,0.0
15269.2316823,296566.1875,295338.96875,322434.21875,313359.125,285717.8125,254666.3125,220182.484375,244305.109375,0.046875,0.992919921875,0.159912109375,0.3356933295726776,-1.5563963651657104,-1.0986326932907104,73.33333587646484,284165.0,0.0
15269.2316824,296566.1875,295338.96875,322434.21875,313359.125,285717.8125,254666.3125,220182.484375,244305.109375,0.046875,0.992919921875,0.159912109375,0.3356933295726776,-1.5563963651657104,-1.0986326932907104,73.33333587646484,284166.0,0.0
15269.2316826,296566.1875,295338.96875,322434.21875,313359.125,285717.8125,254666.3125,220182.484375,244305.109375,0.046875,0.992919921875,0.159912109375,0.3356933295726776,-1.5563963651657104,-1.0986326932907104,73.33333587646484,284167.0,0.0
15269.2316828,296566.1875,295338.96875,322434.21875,313359.125,285717.8125,254666.3125,220182.484375,244305.109375,0.046875,0.992919921875,0.159912109375,0.3356933295726776,-1.5563963651657104,-1.0986326932907104,73.33333587646484,284168.0,0.0
15269.2316829,296566.1875,295338.96875,322434.21875,313359.125,285717.8125,254666.3125,220182.484375,244305.109375,0.046875,0.992919921875,0.159912109375,0.3356933295726776,-1.5563963651657104,-1.0986326932907104,73.33333587646484,284169.0,0.0
15269.2316831,296566.1875,295338.96875,322434.21875,313359.125,285717.8125,254666.3125,220182.484375,244305.109375,0.046875,0.992919921875,0.159912109375,0.3356933295726776,-1.5563963651657104,-1.0986326932907104,73.33333587646484,284170.0,0.0
15269.2316833,296566.1875,295338.96875,322434.21875,313359.125,285717.8125,254666.3125,220182.484375,244305.109375,0.046875,0.992919921875,0.159912109375,0.3356933295726776,-1.5563963651657104,-1.0986326932907104,73.33333587646484,284171.0,0.0
