Time,FZ,C3,CZ,C4,PZ,PO7,OZ,PO8,AccX,AccY,AccZ,Gyro1,Gyro2,Gyro3,Battery,Counter,Validation
14353.39991,292032.09375,298043.375,358501.53125,354891.71875,288654.8125,257864.125,223495.546875,244668.734375,0.006103515625,0.994873046875,0.20166015625,-0.3051757514476776,-1.5258787870407104,-0.7324218153953552,80.0,55301.0,1.0
14353.3999113,292048.71875,298341.34375,358665.3125,354881.875,288749.15625,257930.921875,223543.203125,244669.453125,0.005859375,0.994384765625,0.195556640625,-0.4272460639476776,-1.4648436307907104,-0.7324218153953552,80.0,55302.0,1.0
14353.4250881,292024.46875,298445.6875,358668.09375,354842.90625,288764.96875,257949.328125,223549.375,244659.796875,0.00634765625,0.99462890625,0.1953125,-0.4272460639476776,-1.4343260526657104,-0.7019042372703552,80.0,55303.0,1.0
14353.4251102,291995.875,298205.28125,358503.65625,354828.25,288678.0625,257896.859375,223494.75,244638.875,0.005859375,0.996337890625,0.20068359375,-0.3051757514476776,-1.4648436307907104,-0.6103515028953552,80.0,55304.0,1.0
14353.4251128,292016.15625,297958.5,358400.59375,354875.09375,288624.4375,257863.421875,223483.21875,244664.796875,0.006591796875,0.994873046875,0.201904296875,-0.1220703050494194,-1.4953612089157104,-0.6713866591453552,80.0,55305.0,1.0
14353.425115,292052.09375,298047.84375,358504.46875,354911.21875,288675.46875,257895.328125,223522.90625,244677.140625,0.00537109375,0.993408203125,0.202392578125,-0.0915527269244194,-1.6174315214157104,-0.6103515028953552,80.0,55306.0,1.0
14353.4251171,292072.75,298345.1875,358668.28125,354896.71875,288765.5,257953.359375,223561.359375,244666.046875,0.007080078125,0.99267578125,0.206298828125,-0.1220703050494194,-1.5563963651657104,-0.6408690810203552,80.0,55307.0,1.0
14353.4483137,292055.96875,298458.21875,358679.1875,354860.4375,288780.15625,257964.359375,223547.3125,244648.265625,0.0078125,0.9921875,0.2041015625,0.03051757626235485,-1.5563963651657104,-0.6408690810203552,80.0,55308.0,1.0
14353.4753648,292037.4375,298236.03125,358538.4375,354865.875,288715.53125,257933.59375,223523.796875,244657.734375,0.00830078125,0.99365234375,0.206298828125,0.0915527269244194,-1.4953612089157104,-0.6103515028953552,80.0,55309.0,1.0
14353.4753792,292048.71875,297984.875,358431.6875,354902.8125,288653.125,257894.625,223497.875,244656.03125,0.009765625,0.993896484375,0.207763671875,0.0915527269244194,-1.4648436307907104,-0.6103515028953552,80.0,55310.0,1.0
14353.4753805,292088.0625,298083.25,358543.71875,354940.25,288706.84375,257934.5,223534.265625,244660.328125,0.011474609375,0.992431640625,0.2021484375,0.1220703050494194,-1.3732908964157104,-0.5493163466453552,80.0,55311.0,1.0
14353.4753817,292099.0625,298374.875,358700.09375,354925.96875,288796.875,258004.140625,223587.734375,244663.015625,0.01171875,0.991455078125,0.20166015625,0.2441406100988388,-1.3427733182907104,-0.5798339247703552,80.0,55312.0,1.0
14353.4753829,292070.625,298472.59375,358694.375,354882.34375,288802.53125,257991.265625,223568.234375,244652.734375,0.012451171875,0.994384765625,0.200439453125,0.3356933295726776,-1.2817381620407104,-0.5798339247703552,80.0,55313.0,1.0
14353.4753851,292036.71875,298241.75,358538.625,354865.4375,288716.4375,257919.921875,223509.3125,244633.59375,0.011474609375,0.995361328125,0.20166015625,0.4272460639476776,-1.2207030057907104,-0.5798339247703552,80.0,55314.0,1.0
14353.497806,292045.59375,297988.03125,358425.78125,354901.71875,288653.46875,257893.1875,223494.390625,244641.546875,0.013916015625,0.996337890625,0.203369140625,0.4577636420726776,-1.1291502714157104,-0.5798339247703552,80.0,55315.0,1.0
14353.4995572,292045.59375,297988.03125,358425.78125,354901.71875,288653.46875,257893.1875,223494.390625,244641.546875,0.013916015625,0.996337890625,0.203369140625,0.4577636420726776,-1.1291502714157104,-0.5798339247703552,80.0,55316.0,0.0
14353.4995596,292045.59375,297988.03125,358425.78125,354901.71875,288653.46875,257893.1875,223494.390625,244641.546875,0.013916015625,0.996337890625,0.203369140625,0.4577636420726776,-1.1291502714157104,-0.5798339247703552,80.0,55317.0,0.0
14353.4995598,292045.59375,297988.03125,358425.78125,354901.71875,288653.46875,257893.1875,223494.390625,244641.546875,0.013916015625,0.996337890625,0.203369140625,0.4577636420726776,-1.1291502714157104,-0.5798339247703552,80.0,55318.0,0.0
14353.4995601,292045.59375,297988.03125,358425.78125,354901.71875,288653.46875,257893.1875,223494.390625,244641.546875,0.013916015625,0.996337890625,0.203369140625,0.4577636420726776,-1.1291502714157104,-0.5798339247703552,80.0,55319.0,0.0
14353.4995603,292045.59375,297988.03125,358425.78125,354901.71875,288653.46875,257893.1875,223494.390625,244641.546875,0.013916015625,0.996337890625,0.203369140625,0.4577636420726776,-1.1291502714157104,-0.5798339247703552,80.0,55320.0,0.0
14353.4995604,292045.59375,297988.03125,358425.78125,354901.71875,288653.46875,257893.1875,223494.390625,244641.546875,0.013916015625,0.996337890625,0.203369140625,0.4577636420726776,-1.1291502714157104,-0.5798339247703552,80.0,55321.0,0.0
14353.4995606,292045.59375,297988.03125,358425.78125,354901.71875,288653.46875,257893.1875,223494.390625,244641.546875,0.013916015625,0.996337890625,0.203369140625,0.4577636420726776,-1.1291502714157104,-0.5798339247703552,80.0,55322.0,0.0
14353.4995608,292105.21875,298493.96875,358693.9375,354911.3125,288832.375,258031.765625,223602.296875,244627.96875,0.0087890625,0.995361328125,0.20361328125,0.8544921278953552,-0.7629393935203552,-0.5493163466453552,80.0,55323.0,1.0
14353.5245891,292091.1875,298285.75,358561.59375,354913.25,288770.96875,257996.90625,223570.921875,244614.28125,0.00830078125,0.99462890625,0.2021484375,0.9155272841453552,-0.7019042372703552,-0.5798339247703552,80.0,55324.0,1.0
14353.5495541,292102.09375,298046.125,358465.5,354952.6875,288718.9375,257963.46875,223549.109375,244626.265625,0.00732421875,0.9970703125,0.201904296875,0.8850097060203552,-0.8239745497703552,-0.6713866591453552,80.0,55325.0,1.0
14353.5926478,292140.0,298144.21875,358580.03125,354987.84375,288771.84375,257998.515625,223573.421875,244636.28125,0.00634765625,0.997314453125,0.201904296875,0.8239745497703552,-0.9155272841453552,-0.5798339247703552,80.0,55326.0,1.0
14353.5926546,292151.09375,298433.4375,358735.6875,354969.6875,288853.5,258046.25,223611.78125,244632.078125,0.005615234375,0.9970703125,0.200439453125,0.7629393935203552,-0.9765624403953552,-0.5187987685203552,80.0,55327.0,1.0
14353.592656,292129.4375,298531.0625,358727.53125,354930.34375,288860.46875,258043.84375,223608.46875,244625.375,0.005859375,0.99951171875,0.20068359375,0.8239745497703552,-0.9460448622703552,-0.7019042372703552,80.0,55328.0,1.0
14353.6170868,292112.5625,298312.84375,358587.1875,354932.125,288794.21875,258016.5625,223582.90625,244620.8125,0.006591796875,1.0009765625,0.19970703125,0.8850097060203552,-0.9155272841453552,-0.7629393935203552,80.0,55329.0,1.0
14353.6432985,292127.46875,298064.46875,358478.71875,354975.03125,288743.4375,258010.125,223579.6875,244639.5,0.005859375,1.001953125,0.199462890625,0.8239745497703552,-0.9765624403953552,-0.8239745497703552,80.0,55330.0,1.0
14353.6648619,292166.71875,298167.375,358593.78125,355010.375,288798.84375,258042.234375,223611.328125,244643.515625,0.006103515625,1.00146484375,0.197021484375,0.7019042372703552,-1.0375975370407104,-0.7934569716453552,80.0,55331.0,1.0
14353.6707568,292179.15625,298460.4375,358759.03125,354992.03125,288881.75,258070.578125,223628.40625,244636.90625,0.007080078125,1.00146484375,0.197998046875,0.5798339247703552,-1.0681151151657104,-0.8544921278953552,80.0,55332.0,1.0
14353.6707624,292157.25,298557.0,358751.3125,354950.46875,288885.84375,258075.40625,223613.390625,244614.828125,0.005859375,1.001220703125,0.1982421875,0.5187987685203552,-1.1291502714157104,-0.9460448622703552,80.0,55333.0,1.0
14353.6707636,292145.375,298344.84375,358614.4375,354955.8125,288819.78125,258036.859375,223585.9375,244612.9375,0.006103515625,0.999267578125,0.2021484375,0.3967284858226776,-1.1901854276657104,-0.9460448622703552,80.0,55334.0,1.0
14353.6707648,292159.03125,298097.4375,358514.5,354998.5625,288762.03125,257996.1875,223566.1875,244624.921875,0.0078125,0.995361328125,0.19873046875,0.4272460639476776,-1.2512205839157104,-0.8850097060203552,80.0,55335.0,1.0
14353.670766,292191.0625,298181.84375,358609.625,355031.28125,288807.1875,258018.984375,223593.359375,244641.90625,0.00830078125,0.996337890625,0.199951171875,0.4577636420726776,-1.3122557401657104,-0.8239745497703552,80.0,55336.0,1.0
14353.6707673,292206.875,298481.0,358771.71875,355017.96875,288898.375,258072.625,223644.5,244652.015625,0.008056640625,0.99560546875,0.201904296875,0.5493163466453552,-1.2817381620407104,-0.7324218153953552,80.0,55337.0,1.0
14353.6707685,292183.4375,298587.65625,358773.59375,354972.8125,288906.5,258082.46875,223640.5625,244628.234375,0.008056640625,0.99462890625,0.20068359375,0.6103515028953552,-1.3122557401657104,-0.7019042372703552,80.0,55338.0,1.0
14353.6707697,292156.4375,298355.9375,358615.0625,354965.65625,288828.09375,258040.890625,223608.203125,244626.359375,0.007568359375,0.995849609375,0.200927734375,0.5493163466453552,-1.3427733182907104,-0.6408690810203552,80.0,55339.0,1.0
14353.6707709,292165.375,298100.75,358499.1875,354996.5,288760.5,258015.765625,223582.984375,244606.328125,0.010498046875,0.994140625,0.202880859375,0.5187987685203552,-1.4648436307907104,-0.6408690810203552,80.0,55340.0,1.0
14353.6733253,292205.625,298203.03125,358611.3125,355037.0,288817.09375,258057.875,223621.53125,244621.171875,0.009033203125,0.99462890625,0.200927734375,0.3967284858226776,-1.3732908964157104,-0.5187987685203552,80.0,55341.0,1.0
14353.6758704,292225.28125,298510.875,358787.4375,355029.75,288914.0,258111.078125,223668.828125,244628.234375,0.009521484375,0.99365234375,0.19873046875,0.3662109076976776,-1.4343260526657104,-0.5493163466453552,80.0,55342.0,1.0
14353.6834721,292207.21875,298629.5,358811.40625,354997.21875,288936.09375,258122.609375,223672.75,244618.21875,0.007568359375,0.99365234375,0.2021484375,0.4577636420726776,-1.3427733182907104,-0.4272460639476776,80.0,55343.0,1.0
14353.6834752,292177.09375,298401.25,358654.78125,354983.625,288852.78125,258070.921875,223621.25,244604.1875,0.00732421875,0.993408203125,0.200439453125,0.5798339247703552,-1.3732908964157104,-0.3967284858226776,80.0,55344.0,1.0
14353.6834781,292177.09375,298401.25,358654.78125,354983.625,288852.78125,258070.921875,223621.25,244604.1875,0.00732421875,0.993408203125,0.200439453125,0.5798339247703552,-1.3732908964157104,-0.3967284858226776,80.0,55345.0,0.0
14353.6834783,292177.09375,298401.25,358654.78125,354983.625,288852.78125,258070.921875,223621.25,244604.1875,0.00732421875,0.993408203125,0.200439453125,0.5798339247703552,-1.3732908964157104,-0.3967284858226776,80.0,55346.0,0.0
14353.6834785,292177.09375,298401.25,358654.78125,354983.625,288852.78125,258070.921875,223621.25,244604.1875,0.00732421875,0.993408203125,0.200439453125,0.5798339247703552,-1.3732908964157104,-0.3967284858226776,80.0,55347.0,0.0
14353.6834787,292177.09375,298401.25,358654.78125,354983.625,288852.78125,258070.921875,223621.25,244604.1875,0.00732421875,0.993408203125,0.200439453125,0.5798339247703552,-1.3732908964157104,-0.3967284858226776,80.0,55348.0,0.0
14353.6834789,292177.09375,298401.25,358654.78125,354983.625,288852.78125,258070.921875,223621.25,244604.1875,0.00732421875,0.993408203125,0.200439453125,0.5798339247703552,-1.3732908964157104,-0.3967284858226776,80.0,55349.0,0.0
14353.6834791,292177.09375,298401.25,358654.78125,354983.625,288852.78125,258070.921875,223621.25,244604.1875,0.00732421875,0.993408203125,0.200439453125,0.5798339247703552,-1.3732908964157104,-0.3967284858226776,80.0,55350.0,0.0
14353.6834793,292177.09375,298401.25,358654.78125,354983.625,288852.78125,258070.921875,223621.25,244604.1875,0.00732421875,0.993408203125,0.200439453125,0.5798339247703552,-1.3732908964157104,-0.3967284858226776,80.0,55351.0,0.0
14353.6834794,292177.09375,298401.25,358654.78125,354983.625,288852.78125,258070.921875,223621.25,244604.1875,0.00732421875,0.993408203125,0.200439453125,0.5798339247703552,-1.3732908964157104,-0.3967284858226776,80.0,55352.0,0.0
14353.6834796,292177.09375,298401.25,358654.78125,354983.625,288852.78125,258070.921875,223621.25,244604.1875,0.00732421875,0.993408203125,0.200439453125,0.5798339247703552,-1.3732908964157104,-0.3967284858226776,80.0,55353.0,0.0
14353.6834798,292177.09375,298401.25,358654.78125,354983.625,288852.78125,258070.921875,223621.25,244604.1875,0.00732421875,0.993408203125,0.200439453125,0.5798339247703552,-1.3732908964157104,-0.3967284858226776,80.0,55354.0,0.0
14353.6834799,292177.09375,298401.25,358654.78125,354983.625,288852.78125,258070.921875,223621.25,244604.1875,0.00732421875,0.993408203125,0.200439453125,0.5798339247703552,-1.3732908964157104,-0.3967284858226776,80.0,55355.0,0.0
14353.6834801,292177.09375,298401.25,358654.78125,354983.625,288852.78125,258070.921875,223621.25,244604.1875,0.00732421875,0.993408203125,0.200439453125,0.5798339247703552,-1.3732908964157104,-0.3967284858226776,80.0,55356.0,0.0
14353.6834803,292177.09375,298401.25,358654.78125,354983.625,288852.78125,258070.921875,223621.25,244604.1875,0.00732421875,0.993408203125,0.200439453125,0.5798339247703552,-1.3732908964157104,-0.3967284858226776,80.0,55357.0,0.0
14353.6834805,292177.09375,298401.25,358654.78125,354983.625,288852.78125,258070.921875,223621.25,244604.1875,0.00732421875,0.993408203125,0.200439453125,0.5798339247703552,-1.3732908964157104,-0.3967284858226776,80.0,55358.0,0.0
14353.6834807,292177.09375,298401.25,358654.78125,354983.625,288852.78125,258070.921875,223621.25,244604.1875,0.00732421875,0.993408203125,0.200439453125,0.5798339247703552,-1.3732908964157104,-0.3967284858226776,80.0,55359.0,0.0
14353.6834808,292177.09375,298401.25,358654.78125,354983.625,288852.78125,258070.921875,223621.25,244604.1875,0.00732421875,0.993408203125,0.200439453125,0.5798339247703552,-1.3732908964157104,-0.3967284858226776,80.0,55360.0,0.0
14353.683481,292177.09375,298401.25,358654.78125,354983.625,288852.78125,258070.921875,223621.25,244604.1875,0.00732421875,0.993408203125,0.200439453125,0.5798339247703552,-1.3732908964157104,-0.3967284858226776,80.0,55361.0,0.0
14353.6834812,292177.09375,298401.25,358654.78125,354983.625,288852.78125,258070.921875,223621.25,244604.1875,0.00732421875,0.993408203125,0.200439453125,0.5798339247703552,-1.3732908964157104,-0.3967284858226776,80.0,55362.0,0.0
14353.6834814,292177.09375,298401.25,358654.78125,354983.625,288852.78125,258070.921875,223621.25,244604.1875,0.00732421875,0.993408203125,0.200439453125,0.5798339247703552,-1.3732908964157104,-0.3967284858226776,80.0,55363.0,0.0
14353.6834815,292177.09375,298401.25,358654.78125,354983.625,288852.78125,258070.921875,223621.25,244604.1875,0.00732421875,0.993408203125,0.200439453125,0.5798339247703552,-1.3732908964157104,-0.3967284858226776,80.0,55364.0,0.0
14353.6834817,292177.09375,298401.25,358654.78125,354983.625,288852.78125,258070.921875,223621.25,244604.1875,0.00732421875,0.993408203125,0.200439453125,0.5798339247703552,-1.3732908964157104,-0.3967284858226776,80.0,55365.0,0.0
14353.6834819,292177.09375,298401.25,358654.78125,354983.625,288852.78125,258070.921875,223621.25,244604.1875,0.00732421875,0.993408203125,0.200439453125,0.5798339247703552,-1.3732908964157104,-0.3967284858226776,80.0,55366.0,0.0
14353.6834821,292177.09375,298401.25,358654.78125,354983.625,288852.78125,258070.921875,223621.25,244604.1875,0.00732421875,0.993408203125,0.200439453125,0.5798339247703552,-1.3732908964157104,-0.3967284858226776,80.0,55367.0,0.0
14353.6834822,292177.09375,298401.25,358654.78125,354983.625,288852.78125,258070.921875,223621.25,244604.1875,0.00732421875,0.993408203125,0.200439453125,0.5798339247703552,-1.3732908964157104,-0.3967284858226776,80.0,55368.0,0.0
14353.6834824,292177.09375,298401.25,358654.78125,354983.625,288852.78125,258070.921875,223621.25,244604.1875,0.00732421875,0.993408203125,0.200439453125,0.5798339247703552,-1.3732908964157104,-0.3967284858226776,80.0,55369.0,0.0
14353.6834826,292177.09375,298401.25,358654.78125,354983.625,288852.78125,258070.921875,223621.25,244604.1875,0.00732421875,0.993408203125,0.200439453125,0.5798339247703552,-1.3732908964157104,-0.3967284858226776,80.0,55370.0,0.0
14353.6834828,292177.09375,298401.25,358654.78125,354983.625,288852.78125,258070.921875,223621.25,244604.1875,0.00732421875,0.993408203125,0.200439453125,0.5798339247703552,-1.3732908964157104,-0.3967284858226776,80.0,55371.0,0.0
14353.6834829,292177.09375,298401.25,358654.78125,354983.625,288852.78125,258070.921875,223621.25,244604.1875,0.00732421875,0.993408203125,0.200439453125,0.5798339247703552,-1.3732908964157104,-0.3967284858226776,80.0,55372.0,0.0
14353.6834831,292177.09375,298401.25,358654.78125,354983.625,288852.78125,258070.921875,223621.25,244604.1875,0.00732421875,0.993408203125,0.200439453125,0.5798339247703552,-1.3732908964157104,-0.3967284858226776,80.0,55373.0,0.0
14353.6834833,292177.09375,298401.25,358654.78125,354983.625,288852.78125,258070.921875,223621.25,244604.1875,0.00732421875,0.993408203125,0.200439453125,0.5798339247703552,-1.3732908964157104,-0.3967284858226776,80.0,55374.0,0.0
14353.6834835,292177.09375,298401.25,358654.78125,354983.625,288852.78125,258070.921875,223621.25,244604.1875,0.00732421875,0.993408203125,0.200439453125,0.5798339247703552,-1.3732908964157104,-0.3967284858226776,80.0,55375.0,0.0
14353.6834836,292356.90625,298362.09375,358765.0,355169.59375,288977.3125,258182.59375,223697.96875,244773.875,0.00634765625,0.9951171875,0.19580078125,0.3356933295726776,-1.6479490995407104,-0.8239745497703552,80.0,55376.0,1.0
14353.6834849,292373.4375,298663.5625,358939.4375,355159.03125,289070.75,258241.78125,223739.1875,244782.90625,0.010498046875,0.99365234375,0.19580078125,0.2746581733226776,-1.7700194120407104,-0.7629393935203552,80.0,55377.0,1.0
14353.6834861,292346.625,298764.6875,358939.875,355116.5625,289079.40625,258243.125,223732.484375,244784.96875,0.012451171875,0.991455078125,0.196044921875,0.3356933295726776,-1.7089842557907104,-0.6103515028953552,80.0,55378.0,1.0
14353.6834874,292321.125,298529.28125,358771.34375,355109.4375,288998.9375,258220.15625,223702.703125,244786.578125,0.0126953125,0.993408203125,0.1943359375,0.2746581733226776,-1.8310545682907104,-0.5187987685203552,80.0,55379.0,1.0
14353.6834886,292329.90625,298271.625,358652.625,355143.5625,288933.25,258181.609375,223674.625,244794.890625,0.013916015625,0.99365234375,0.1962890625,0.3967284858226776,-1.8615721464157104,-0.4577636420726776,80.0,55380.0,1.0
14353.6834898,292368.25,298355.84375,358756.5,355182.03125,288982.84375,258188.234375,223699.578125,244819.03125,0.01318359375,0.99560546875,0.19482421875,0.3967284858226776,-1.8005369901657104,-0.5187987685203552,80.0,55381.0,1.0
14353.683491,292384.34375,298650.53125,358918.78125,355169.0625,289069.75,258235.4375,223729.890625,244816.703125,0.012451171875,0.998779296875,0.196533203125,0.3662109076976776,-1.8005369901657104,-0.5493163466453552,80.0,55382.0,1.0
14353.6834922,292356.4375,298757.1875,358923.875,355122.3125,289077.4375,258231.953125,223715.3125,244801.5,0.012939453125,0.99853515625,0.197021484375,0.2746581733226776,-1.8005369901657104,-0.6408690810203552,80.0,55383.0,1.0
14353.6834934,292334.90625,298542.4375,358788.78125,355117.46875,289008.78125,258194.765625,223678.296875,244796.140625,0.01513671875,0.995361328125,0.1943359375,0.1831054538488388,-1.8310545682907104,-0.6713866591453552,80.0,55384.0,1.0
14353.6834946,292343.125,298282.6875,358672.90625,355151.4375,288943.0625,258165.875,223660.59375,244810.984375,0.016357421875,0.9912109375,0.194091796875,0.0915527269244194,-1.8920897245407104,-0.6408690810203552,80.0,55385.0,1.0
14353.6834959,292385.78125,298373.71875,358783.59375,355192.5625,288995.375,258198.6875,223690.375,244829.21875,0.015380859375,0.989013671875,0.194091796875,0.2136230319738388,-1.8310545682907104,-0.5798339247703552,80.0,55386.0,1.0
14353.6858282,292403.375,298673.3125,358948.75,355180.6875,289084.4375,258249.03125,223730.0625,244839.953125,0.015380859375,0.987060546875,0.195068359375,0.3356933295726776,-1.7395018339157104,-0.6408690810203552,80.0,55387.0,1.0
14353.7108396,292392.46875,298798.9375,358967.0625,355151.4375,289109.375,258268.25,223739.984375,244846.296875,0.0146484375,0.98876953125,0.1953125,0.4577636420726776,-1.5563963651657104,-0.7019042372703552,80.0,55388.0,1.0
14353.7358417,292369.25,298582.5625,358824.65625,355144.5625,289039.8125,258229.8125,223703.6875,244840.84375,0.012451171875,0.992431640625,0.194091796875,0.7019042372703552,-1.5563963651657104,-0.7629393935203552,80.0,55389.0,1.0
14353.7608443,292374.0625,298324.1875,358713.15625,355177.5625,288977.59375,258204.5,223685.546875,244853.984375,0.01123046875,0.99658203125,0.1953125,0.6713866591453552,-1.5869139432907104,-1.0986326932907104,80.0,55390.0,1.0
14353.7695837,292414.46875,298416.28125,358824.28125,355217.78125,289032.5625,258239.28125,223720.671875,244872.140625,0.010009765625,0.999267578125,0.193359375,0.6713866591453552,-1.5869139432907104,-1.1291502714157104,80.0,55391.0,1.0
14353.7720387,292428.4375,298710.15625,358986.125,355203.5625,289121.71875,258300.265625,223760.375,244875.53125,0.01171875,0.998046875,0.194580078125,0.7324218153953552,-1.6784666776657104,-1.1901854276657104,80.0,55392.0,1.0
14353.774584,292403.65625,298806.28125,358973.78125,355163.6875,289129.9375,258298.5625,223760.46875,244876.34375,0.012939453125,0.998046875,0.19287109375,0.7324218153953552,-1.6479490995407104,-1.2207030057907104,80.0,55393.0,1.0
14353.7784531,292373.4375,298577.125,358817.3125,355148.6875,289049.46875,258234.359375,223713.96875,244871.0625,0.011962890625,0.99755859375,0.1962890625,0.7019042372703552,-1.6174315214157104,-1.2512205839157104,80.0,55394.0,1.0
14353.7784696,292380.84375,298324.46875,358707.59375,355184.4375,288989.46875,258200.125,223696.09375,244892.25,0.01123046875,0.99755859375,0.193115234375,0.6713866591453552,-1.6174315214157104,-1.3122557401657104,80.0,55395.0,1.0
14353.7784708,292422.0,298418.15625,358816.875,355225.03125,289042.84375,258229.453125,223726.75,244906.5625,0.01318359375,0.99658203125,0.191650390625,0.6103515028953552,-1.5563963651657104,-1.2512205839157104,80.0,55396.0,1.0
14353.778472,292435.125,298715.78125,358984.9375,355208.84375,289131.53125,258288.28125,223767.609375,244900.390625,0.0146484375,0.996826171875,0.194091796875,0.5493163466453552,-1.4648436307907104,-1.2817381620407104,80.0,55397.0,1.0
14353.7784733,292414.375,298817.34375,358977.25,355169.3125,289140.5625,258310.09375,223771.453125,244897.890625,0.010986328125,0.9970703125,0.1953125,0.5798339247703552,-1.4343260526657104,-1.2817381620407104,80.0,55398.0,1.0
14353.7820445,292397.40625,298613.40625,358849.125,355170.5,289077.4375,258278.984375,223740.4375,244896.1875,0.01318359375,0.99560546875,0.19091796875,0.6103515028953552,-1.5563963651657104,-1.3732908964157104,80.0,55399.0,1.0
14353.7845449,292406.34375,298351.0,358730.40625,355209.5625,289016.28125,258246.53125,223731.40625,244924.171875,0.01318359375,0.994384765625,0.1923828125,0.6103515028953552,-1.4648436307907104,-1.4038084745407104,80.0,55400.0,1.0
14353.7888782,292437.09375,298419.75,358812.46875,355238.15625,289050.34375,258241.25,223745.078125,244940.0,0.01123046875,0.995849609375,0.193359375,0.6103515028953552,-1.4038084745407104,-1.4038084745407104,80.0,55401.0,1.0
14353.7888834,292449.78125,298714.4375,358975.1875,355218.21875,289129.9375,258279.875,223762.25,244924.078125,0.010009765625,0.995361328125,0.193603515625,0.5493163466453552,-1.3122557401657104,-1.2512205839157104,80.0,55402.0,1.0
14353.7888849,292430.03125,298828.96875,358985.03125,355180.21875,289140.65625,258286.9375,223747.59375,244919.515625,0.0107421875,0.99365234375,0.1943359375,0.6713866591453552,-1.4343260526657104,-1.1901854276657104,80.0,55403.0,1.0
14353.7888861,292411.15625,298614.75,358845.65625,355181.9375,289074.15625,258256.625,223719.609375,244931.046875,0.01123046875,0.997314453125,0.19287109375,0.7019042372703552,-1.4648436307907104,-1.0986326932907104,80.0,55404.0,1.0
14353.790827,292424.59375,298368.96875,358740.96875,355221.375,289020.75,258239.015625,223704.5,244943.390625,0.0107421875,0.996826171875,0.193359375,0.7019042372703552,-1.4343260526657104,-1.0070799589157104,80.0,55405.0,1.0
14353.8161051,292458.03125,298451.25,358844.84375,355256.0625,289072.625,258271.921875,223735.515625,244961.09375,0.010986328125,0.995849609375,0.194580078125,0.7019042372703552,-1.3427733182907104,-0.9460448622703552,80.0,55406.0,1.0
14353.8426327,292471.53125,298747.96875,359011.9375,355242.71875,289159.96875,258304.90625,223766.8125,244971.640625,0.00830078125,0.997314453125,0.194580078125,0.7324218153953552,-1.2817381620407104,-0.8850097060203552,80.0,55407.0,1.0
14353.8426527,292449.25,298866.25,359031.53125,355203.21875,289179.5625,258314.921875,223762.609375,244960.921875,0.0068359375,0.9970703125,0.193115234375,0.7629393935203552,-1.2817381620407104,-0.7934569716453552,80.0,55408.0,1.0
14353.842654,292423.3125,298644.25,358881.6875,355193.65625,289101.3125,258271.828125,223714.953125,244945.265625,0.0068359375,0.99658203125,0.1953125,0.7019042372703552,-1.3122557401657104,-0.7324218153953552,80.0,55409.0,1.0
14353.8426553,292431.8125,298378.375,358756.34375,355229.0625,289029.96875,258237.21875,223690.546875,244956.71875,0.006103515625,0.994140625,0.193115234375,0.5798339247703552,-1.3732908964157104,-0.6713866591453552,80.0,55410.0,1.0
14353.8678426,292465.34375,298450.25,358843.5,355263.84375,289070.9375,258258.6875,223722.28125,244976.921875,0.006591796875,0.99365234375,0.197509765625,0.6103515028953552,-1.4953612089157104,-0.7019042372703552,80.0,55411.0,1.0
14353.8695149,292465.34375,298450.25,358843.5,355263.84375,289070.9375,258258.6875,223722.28125,244976.921875,0.006591796875,0.99365234375,0.197509765625,0.6103515028953552,-1.4953612089157104,-0.7019042372703552,80.0,55412.0,0.0
14353.8695155,292465.34375,298450.25,358843.5,355263.84375,289070.9375,258258.6875,223722.28125,244976.921875,0.006591796875,0.99365234375,0.197509765625,0.6103515028953552,-1.4953612089157104,-0.7019042372703552,80.0,55413.0,0.0
14353.8695157,292465.34375,298450.25,358843.5,355263.84375,289070.9375,258258.6875,223722.28125,244976.921875,0.006591796875,0.99365234375,0.197509765625,0.6103515028953552,-1.4953612089157104,-0.7019042372703552,80.0,55414.0,0.0
14353.8695159,292465.34375,298450.25,358843.5,355263.84375,289070.9375,258258.6875,223722.28125,244976.921875,0.006591796875,0.99365234375,0.197509765625,0.6103515028953552,-1.4953612089157104,-0.7019042372703552,80.0,55415.0,0.0
14353.8695161,292465.34375,298450.25,358843.5,355263.84375,289070.9375,258258.6875,223722.28125,244976.921875,0.006591796875,0.99365234375,0.197509765625,0.6103515028953552,-1.4953612089157104,-0.7019042372703552,80.0,55416.0,0.0
14353.8695163,292465.34375,298450.25,358843.5,355263.84375,289070.9375,258258.6875,223722.28125,244976.921875,0.006591796875,0.99365234375,0.197509765625,0.6103515028953552,-1.4953612089157104,-0.7019042372703552,80.0,55417.0,0.0
14353.8695165,292465.34375,298450.25,358843.5,355263.84375,289070.9375,258258.6875,223722.28125,244976.921875,0.006591796875,0.99365234375,0.197509765625,0.6103515028953552,-1.4953612089157104,-0.7019042372703552,80.0,55418.0,0.0
14353.8695166,292465.34375,298450.25,358843.5,355263.84375,289070.9375,258258.6875,223722.28125,244976.921875,0.006591796875,0.99365234375,0.197509765625,0.6103515028953552,-1.4953612089157104,-0.7019042372703552,80.0,55419.0,0.0
14353.8695168,292465.34375,298450.25,358843.5,355263.84375,289070.9375,258258.6875,223722.28125,244976.921875,0.006591796875,0.99365234375,0.197509765625,0.6103515028953552,-1.4953612089157104,-0.7019042372703552,80.0,55420.0,0.0
14353.869517,292465.34375,298450.25,358843.5,355263.84375,289070.9375,258258.6875,223722.28125,244976.921875,0.006591796875,0.99365234375,0.197509765625,0.6103515028953552,-1.4953612089157104,-0.7019042372703552,80.0,55421.0,0.0
14353.8695172,292465.34375,298450.25,358843.5,355263.84375,289070.9375,258258.6875,223722.28125,244976.921875,0.006591796875,0.99365234375,0.197509765625,0.6103515028953552,-1.4953612089157104,-0.7019042372703552,80.0,55422.0,0.0
14353.8695173,292465.34375,298450.25,358843.5,355263.84375,289070.9375,258258.6875,223722.28125,244976.921875,0.006591796875,0.99365234375,0.197509765625,0.6103515028953552,-1.4953612089157104,-0.7019042372703552,80.0,55423.0,0.0
14353.8695175,292465.34375,298450.25,358843.5,355263.84375,289070.9375,258258.6875,223722.28125,244976.921875,0.006591796875,0.99365234375,0.197509765625,0.6103515028953552,-1.4953612089157104,-0.7019042372703552,80.0,55424.0,0.0
14353.8695177,292465.34375,298450.25,358843.5,355263.84375,289070.9375,258258.6875,223722.28125,244976.921875,0.006591796875,0.99365234375,0.197509765625,0.6103515028953552,-1.4953612089157104,-0.7019042372703552,80.0,55425.0,0.0
14353.8695179,292465.34375,298450.25,358843.5,355263.84375,289070.9375,258258.6875,223722.28125,244976.921875,0.006591796875,0.99365234375,0.197509765625,0.6103515028953552,-1.4953612089157104,-0.7019042372703552,80.0,55426.0,0.0
14353.869518,292465.34375,298450.25,358843.5,355263.84375,289070.9375,258258.6875,223722.28125,244976.921875,0.006591796875,0.99365234375,0.197509765625,0.6103515028953552,-1.4953612089157104,-0.7019042372703552,80.0,55427.0,0.0
14353.8695182,292465.34375,298450.25,358843.5,355263.84375,289070.9375,258258.6875,223722.28125,244976.921875,0.006591796875,0.99365234375,0.197509765625,0.6103515028953552,-1.4953612089157104,-0.7019042372703552,80.0,55428.0,0.0
14353.8695184,292465.34375,298450.25,358843.5,355263.84375,289070.9375,258258.6875,223722.28125,244976.921875,0.006591796875,0.99365234375,0.197509765625,0.6103515028953552,-1.4953612089157104,-0.7019042372703552,80.0,55429.0,0.0
14353.8695185,292465.34375,298450.25,358843.5,355263.84375,289070.9375,258258.6875,223722.28125,244976.921875,0.006591796875,0.99365234375,0.197509765625,0.6103515028953552,-1.4953612089157104,-0.7019042372703552,80.0,55430.0,0.0
14353.8695187,292465.34375,298450.25,358843.5,355263.84375,289070.9375,258258.6875,223722.28125,244976.921875,0.006591796875,0.99365234375,0.197509765625,0.6103515028953552,-1.4953612089157104,-0.7019042372703552,80.0,55431.0,0.0
14353.8695189,292465.34375,298450.25,358843.5,355263.84375,289070.9375,258258.6875,223722.28125,244976.921875,0.006591796875,0.99365234375,0.197509765625,0.6103515028953552,-1.4953612089157104,-0.7019042372703552,80.0,55432.0,0.0
14353.8695191,292465.34375,298450.25,358843.5,355263.84375,289070.9375,258258.6875,223722.28125,244976.921875,0.006591796875,0.99365234375,0.197509765625,0.6103515028953552,-1.4953612089157104,-0.7019042372703552,80.0,55433.0,0.0
14353.8695192,292465.34375,298450.25,358843.5,355263.84375,289070.9375,258258.6875,223722.28125,244976.921875,0.006591796875,0.99365234375,0.197509765625,0.6103515028953552,-1.4953612089157104,-0.7019042372703552,80.0,55434.0,0.0
14353.8695194,292465.34375,298450.25,358843.5,355263.84375,289070.9375,258258.6875,223722.28125,244976.921875,0.006591796875,0.99365234375,0.197509765625,0.6103515028953552,-1.4953612089157104,-0.7019042372703552,80.0,55435.0,0.0
14353.8695196,292465.34375,298450.25,358843.5,355263.84375,289070.9375,258258.6875,223722.28125,244976.921875,0.006591796875,0.99365234375,0.197509765625,0.6103515028953552,-1.4953612089157104,-0.7019042372703552,80.0,55436.0,0.0
14353.8695197,292465.34375,298450.25,358843.5,355263.84375,289070.9375,258258.6875,223722.28125,244976.921875,0.006591796875,0.99365234375,0.197509765625,0.6103515028953552,-1.4953612089157104,-0.7019042372703552,80.0,55437.0,0.0
14353.8695199,292465.34375,298450.25,358843.5,355263.84375,289070.9375,258258.6875,223722.28125,244976.921875,0.006591796875,0.99365234375,0.197509765625,0.6103515028953552,-1.4953612089157104,-0.7019042372703552,80.0,55438.0,0.0
14353.8695201,292465.34375,298450.25,358843.5,355263.84375,289070.9375,258258.6875,223722.28125,244976.921875,0.006591796875,0.99365234375,0.197509765625,0.6103515028953552,-1.4953612089157104,-0.7019042372703552,80.0,55439.0,0.0
14353.8695202,292465.34375,298450.25,358843.5,355263.84375,289070.9375,258258.6875,223722.28125,244976.921875,0.006591796875,0.99365234375,0.197509765625,0.6103515028953552,-1.4953612089157104,-0.7019042372703552,80.0,55440.0,0.0
14353.8695204,292465.34375,298450.25,358843.5,355263.84375,289070.9375,258258.6875,223722.28125,244976.921875,0.006591796875,0.99365234375,0.197509765625,0.6103515028953552,-1.4953612089157104,-0.7019042372703552,80.0,55441.0,0.0
14353.8695206,292465.34375,298450.25,358843.5,355263.84375,289070.9375,258258.6875,223722.28125,244976.921875,0.006591796875,0.99365234375,0.197509765625,0.6103515028953552,-1.4953612089157104,-0.7019042372703552,80.0,55442.0,0.0
14353.8695208,292465.34375,298450.25,358843.5,355263.84375,289070.9375,258258.6875,223722.28125,244976.921875,0.006591796875,0.99365234375,0.197509765625,0.6103515028953552,-1.4953612089157104,-0.7019042372703552,80.0,55443.0,0.0
14353.8695209,292465.34375,298450.25,358843.5,355263.84375,289070.9375,258258.6875,223722.28125,244976.921875,0.006591796875,0.99365234375,0.197509765625,0.6103515028953552,-1.4953612089157104,-0.7019042372703552,80.0,55444.0,0.0
14353.8695211,292465.34375,298450.25,358843.5,355263.84375,289070.9375,258258.6875,223722.28125,244976.921875,0.006591796875,0.99365234375,0.197509765625,0.6103515028953552,-1.4953612089157104,-0.7019042372703552,80.0,55445.0,0.0
14353.8695213,292465.34375,298450.25,358843.5,355263.84375,289070.9375,258258.6875,223722.28125,244976.921875,0.006591796875,0.99365234375,0.197509765625,0.6103515028953552,-1.4953612089157104,-0.7019042372703552,80.0,55446.0,0.0
14353.8695214,292543.5,298802.5,359049.6875,355290.03125,289236.78125,258348.984375,223693.046875,245099.234375,0.008544921875,0.996826171875,0.19580078125,0.0,-2.166747808456421,-0.9460448622703552,80.0,55447.0,1.0
14353.8946337,292522.3125,298924.46875,359058.625,355248.625,289249.75,258359.0,223684.5625,245095.46875,0.0087890625,0.995849609375,0.194580078125,-0.0915527269244194,-2.075195074081421,-0.9155272841453552,80.0,55448.0,1.0
14353.9196138,292497.28125,298711.6875,358914.21875,355238.34375,289175.71875,258316.53125,223644.6875,245081.609375,0.007080078125,0.99609375,0.19189453125,-0.0915527269244194,-2.166747808456421,-0.9155272841453552,80.0,55449.0,1.0
14353.9452497,292501.28125,298444.4375,358793.0,355268.03125,289106.15625,258276.03125,223616.078125,245083.84375,0.006591796875,0.995361328125,0.19580078125,-0.03051757626235485,-2.227782964706421,-0.9155272841453552,80.0,55450.0,1.0
14353.9452554,292532.03125,298516.21875,358889.1875,355300.75,289147.0,258290.0625,223640.296875,245103.703125,0.006103515625,0.994384765625,0.192138671875,-0.0915527269244194,-2.288818120956421,-0.8544921278953552,80.0,55451.0,1.0
14353.9452567,292549.21875,298819.40625,359065.6875,355287.6875,289238.5625,258338.609375,223666.9375,245105.671875,0.00732421875,0.996337890625,0.1943359375,-0.1220703050494194,-2.258300542831421,-0.9765624403953552,80.0,55452.0,1.0
14353.9976528,292524.0,298929.21875,359067.46875,355242.8125,289249.28125,258348.625,223660.78125,245092.609375,0.009521484375,0.995849609375,0.191650390625,-0.1220703050494194,-2.258300542831421,-0.8544921278953552,80.0,55453.0,1.0
14353.9976715,292498.4375,298702.03125,358903.78125,355235.5,289169.8125,258313.484375,223626.703125,245097.890625,0.011474609375,0.99560546875,0.19482421875,-0.2136230319738388,-2.166747808456421,-0.9155272841453552,80.0,55454.0,1.0
14353.9976727,292509.15625,298450.96875,358790.9375,355276.71875,289111.25,258291.046875,223613.65625,245122.921875,0.010498046875,0.9970703125,0.194580078125,-0.2746581733226776,-2.227782964706421,-0.9155272841453552,80.0,55455.0,1.0
14353.997674,292542.59375,298524.90625,358886.6875,355308.1875,289149.6875,258309.109375,223618.21875,245115.765625,0.01171875,0.997314453125,0.193359375,-0.2136230319738388,-2.136230230331421,-0.8544921278953552,80.0,55456.0,1.0
14353.9976753,292550.09375,298801.96875,359037.59375,355290.375,289227.21875,258333.96875,223637.53125,245116.9375,0.011474609375,0.994873046875,0.194091796875,-0.1525878757238388,-2.075195074081421,-0.9155272841453552,80.0,55457.0,1.0
14353.9976766,292532.5,298918.9375,359047.8125,355251.84375,289242.21875,258326.90625,223619.640625,245096.453125,0.01220703125,0.9951171875,0.193603515625,-0.2441406100988388,-2.044677495956421,-0.8239745497703552,80.0,55458.0,1.0
14353.9976778,292510.5,298695.40625,358895.09375,355246.46875,289171.78125,258294.09375,223584.875,245097.0,0.01318359375,0.99365234375,0.195556640625,-0.2746581733226776,-2.014159917831421,-0.8544921278953552,80.0,55459.0,1.0
14353.997679,292517.46875,298430.65625,358771.25,355276.4375,289101.78125,258265.65625,223559.65625,245091.453125,0.013916015625,0.994873046875,0.19873046875,-0.1525878757238388,-1.8615721464157104,-0.8544921278953552,80.0,55460.0,1.0
14353.9976801,292557.34375,298517.5,358875.25,355314.0625,289153.4375,258301.875,223598.453125,245108.609375,0.014404296875,0.99462890625,0.197265625,-0.1831054538488388,-1.6784666776657104,-0.9765624403953552,80.0,55461.0,1.0
14353.9976813,292568.15625,298811.1875,359039.125,355300.125,289242.6875,258343.625,223634.21875,245113.359375,0.014892578125,0.992919921875,0.195556640625,-0.2441406100988388,-1.5869139432907104,-0.9765624403953552,80.0,55462.0,1.0
14353.9976849,292541.6875,298927.78125,359050.3125,355261.15625,289257.875,258348.359375,223631.8125,245109.15625,0.01318359375,0.99462890625,0.195556640625,-0.2441406100988388,-1.4648436307907104,-0.8850097060203552,80.0,55463.0,1.0
14354.0208238,292517.125,298711.6875,358906.1875,355252.46875,289183.5,258307.59375,223585.9375,245089.296875,0.0146484375,0.99560546875,0.19970703125,-0.1525878757238388,-1.4343260526657104,-0.8850097060203552,80.0,55464.0,1.0
14354.0208314,292517.125,298711.6875,358906.1875,355252.46875,289183.5,258307.59375,223585.9375,245089.296875,0.0146484375,0.99560546875,0.19970703125,-0.1525878757238388,-1.4343260526657104,-0.8850097060203552,80.0,55465.0,0.0
14354.0208316,292517.125,298711.6875,358906.1875,355252.46875,289183.5,258307.59375,223585.9375,245089.296875,0.0146484375,0.99560546875,0.19970703125,-0.1525878757238388,-1.4343260526657104,-0.8850097060203552,80.0,55466.0,0.0
14354.0208318,292517.125,298711.6875,358906.1875,355252.46875,289183.5,258307.59375,223585.9375,245089.296875,0.0146484375,0.99560546875,0.19970703125,-0.1525878757238388,-1.4343260526657104,-0.8850097060203552,80.0,55467.0,0.0
14354.020832,292517.125,298711.6875,358906.1875,355252.46875,289183.5,258307.59375,223585.9375,245089.296875,0.0146484375,0.99560546875,0.19970703125,-0.1525878757238388,-1.4343260526657104,-0.8850097060203552,80.0,55468.0,0.0
14354.0208323,292517.125,298711.6875,358906.1875,355252.46875,289183.5,258307.59375,223585.9375,245089.296875,0.0146484375,0.99560546875,0.19970703125,-0.1525878757238388,-1.4343260526657104,-0.8850097060203552,80.0,55469.0,0.0
14354.0208325,292517.125,298711.6875,358906.1875,355252.46875,289183.5,258307.59375,223585.9375,245089.296875,0.0146484375,0.99560546875,0.19970703125,-0.1525878757238388,-1.4343260526657104,-0.8850097060203552,80.0,55470.0,0.0
14354.0208326,292517.125,298711.6875,358906.1875,355252.46875,289183.5,258307.59375,223585.9375,245089.296875,0.0146484375,0.99560546875,0.19970703125,-0.1525878757238388,-1.4343260526657104,-0.8850097060203552,80.0,55471.0,0.0
14354.0208328,292517.125,298711.6875,358906.1875,355252.46875,289183.5,258307.59375,223585.9375,245089.296875,0.0146484375,0.99560546875,0.19970703125,-0.1525878757238388,-1.4343260526657104,-0.8850097060203552,80.0,55472.0,0.0
14354.020833,292517.125,298711.6875,358906.1875,355252.46875,289183.5,258307.59375,223585.9375,245089.296875,0.0146484375,0.99560546875,0.19970703125,-0.1525878757238388,-1.4343260526657104,-0.8850097060203552,80.0,55473.0,0.0
14354.0208331,292517.125,298711.6875,358906.1875,355252.46875,289183.5,258307.59375,223585.9375,245089.296875,0.0146484375,0.99560546875,0.19970703125,-0.1525878757238388,-1.4343260526657104,-0.8850097060203552,80.0,55474.0,0.0
14354.0208333,292517.125,298711.6875,358906.1875,355252.46875,289183.5,258307.59375,223585.9375,245089.296875,0.0146484375,0.99560546875,0.19970703125,-0.1525878757238388,-1.4343260526657104,-0.8850097060203552,80.0,55475.0,0.0
14354.0208335,292598.46875,298596.25,358953.46875,355363.96875,289231.40625,258380.28125,223638.875,245115.59375,0.0048828125,0.99755859375,0.201416015625,-0.3051757514476776,-1.3122557401657104,-1.1901854276657104,80.0,55476.0,1.0
14354.0488221,292622.25,298905.4375,359138.90625,355351.53125,289320.625,258420.25,223653.171875,245101.546875,0.005859375,0.997802734375,0.199462890625,-0.3356933295726776,-1.3732908964157104,-1.0681151151657104,80.0,55477.0,1.0
14354.0488273,292599.46875,299023.96875,359153.5625,355308.25,289330.03125,258394.3125,223632.875,245092.34375,0.005615234375,0.996826171875,0.201416015625,-0.4272460639476776,-1.4038084745407104,-1.0070799589157104,80.0,55478.0,1.0
14354.0488286,292564.0625,298784.625,358978.25,355290.65625,289242.40625,258344.0625,223592.640625,245088.140625,0.006591796875,0.99560546875,0.19873046875,-0.3967284858226776,-1.4953612089157104,-0.9460448622703552,80.0,55479.0,1.0
14354.0488298,292565.46875,298501.40625,358825.0,355313.09375,289158.8125,258309.5625,223561.0,245079.375,0.006591796875,0.99560546875,0.19873046875,-0.3662109076976776,-1.6479490995407104,-1.0070799589157104,80.0,55480.0,1.0
14354.0733355,292609.03125,298585.25,358926.375,355357.53125,289213.53125,258346.65625,223598.015625,245104.40625,0.006591796875,0.9951171875,0.201416015625,-0.3356933295726776,-1.6479490995407104,-0.8544921278953552,80.0,55481.0,1.0
14354.1005244,292623.78125,298878.25,359092.6875,355340.625,289302.65625,258398.96875,223637.078125,245088.953125,0.0087890625,0.994384765625,0.202392578125,-0.3967284858226776,-1.6784666776657104,-0.7324218153953552,80.0,55482.0,1.0
14354.1005415,292600.96875,298999.125,359102.78125,355298.96875,289320.5625,258420.953125,223636.015625,245066.421875,0.008544921875,0.99365234375,0.202392578125,-0.3967284858226776,-1.6479490995407104,-0.7629393935203552,80.0,55483.0,1.0
14354.1005428,292580.6875,298796.15625,358966.25,355294.5,289249.8125,258359.625,223584.515625,245046.65625,0.00634765625,0.994140625,0.203369140625,-0.4577636420726776,-1.6479490995407104,-0.6713866591453552,80.0,55484.0,1.0
14354.1005441,292593.8125,298535.09375,358849.3125,355330.875,289183.125,258316.078125,223554.65625,245023.40625,0.00634765625,0.993896484375,0.2041015625,-0.4272460639476776,-1.6784666776657104,-0.7324218153953552,80.0,55485.0,1.0
14354.1005453,292639.15625,298615.46875,358948.28125,355374.15625,289235.875,258359.0,223601.140625,245041.03125,0.005615234375,0.995361328125,0.20263671875,-0.3356933295726776,-1.8005369901657104,-0.7629393935203552,80.0,55486.0,1.0
14354.1005465,292652.46875,298907.46875,359105.28125,355358.25,289321.34375,258416.578125,223641.015625,245043.171875,0.00732421875,0.99365234375,0.200927734375,-0.3662109076976776,-1.8005369901657104,-0.7629393935203552,80.0,55487.0,1.0
14354.1005477,292627.875,299026.3125,359120.84375,355318.28125,289338.53125,258426.59375,223638.78125,245048.265625,0.009033203125,0.9931640625,0.199951171875,-0.2746581733226776,-1.8615721464157104,-0.8544921278953552,80.0,55488.0,1.0
14354.124565,292603.65625,298806.4375,358975.65625,355312.375,289268.59375,258379.390625,223598.1875,245060.25,0.008544921875,0.9931640625,0.19873046875,-0.1831054538488388,-1.8310545682907104,-0.8239745497703552,80.0,55489.0,1.0
14354.1495941,292607.0625,298538.40625,358843.875,355344.375,289196.375,258334.40625,223563.59375,245077.59375,0.010498046875,0.994140625,0.197998046875,0.0,-1.8005369901657104,-0.8239745497703552,80.0,55490.0,1.0
14354.1776265,292636.125,298611.53125,358931.3125,355374.0625,289234.1875,258344.421875,223580.75,245089.21875,0.010986328125,0.99560546875,0.197998046875,0.03051757626235485,-1.8005369901657104,-0.9155272841453552,80.0,55491.0,1.0
14354.1776435,292647.1875,298893.71875,359089.71875,355359.21875,289318.59375,258391.359375,223618.65625,245103.34375,0.009765625,0.995849609375,0.20166015625,0.0610351525247097,-1.7395018339157104,-0.9155272841453552,80.0,55492.0,1.0
14354.1776448,292625.21875,299015.03125,359101.53125,355316.65625,289333.0625,258409.6875,223616.15625,245080.359375,0.009765625,0.994873046875,0.201416015625,0.0,-1.7395018339157104,-1.0070799589157104,80.0,55493.0,1.0
14354.177646,292605.71875,298815.375,358963.59375,355309.875,289264.84375,258377.5,223577.265625,245074.1875,0.0078125,0.99560546875,0.201416015625,0.1220703050494194,-1.8005369901657104,-0.9765624403953552,80.0,55494.0,1.0
14354.2008328,292613.125,298554.59375,358846.09375,355346.09375,289203.5,258344.421875,223557.59375,245094.75,0.007568359375,0.991455078125,0.203369140625,0.1525878757238388,-1.7700194120407104,-1.0986326932907104,80.0,55495.0,1.0
14354.2261608,292650.96875,298623.15625,358931.75,355383.90625,289247.15625,258372.5,223588.171875,245117.203125,0.00830078125,0.9912109375,0.204833984375,0.1525878757238388,-1.6479490995407104,-1.0070799589157104,80.0,55496.0,1.0
14354.2523475,292667.6875,298912.21875,359083.75,355371.84375,289332.96875,258419.078125,223617.953125,245126.9375,0.010009765625,0.992431640625,0.205078125,0.3356933295726776,-1.7089842557907104,-1.0375975370407104,80.0,55497.0,1.0
14354.2523515,292640.75,299020.21875,359076.15625,355323.28125,289337.53125,258410.40625,223597.203125,245117.640625,0.0107421875,0.99365234375,0.207763671875,0.3356933295726776,-1.6174315214157104,-1.0681151151657104,80.0,55498.0,1.0
14354.2523532,292627.34375,298818.25,358941.21875,355319.25,289274.21875,258374.828125,223557.328125,245105.3125,0.01123046875,0.994140625,0.205322265625,0.3967284858226776,-1.6479490995407104,-1.0070799589157104,80.0,55499.0,1.0
14354.2523545,292636.21875,298561.75,358830.90625,355355.375,289217.375,258356.578125,223539.71875,245119.796875,0.01318359375,0.993896484375,0.206298828125,0.3967284858226776,-1.4953612089157104,-0.9155272841453552,80.0,55500.0,1.0
14354.2523558,292669.71875,298640.6875,358933.375,355391.40625,289263.15625,258374.203125,223560.90625,245139.546875,0.012451171875,0.99365234375,0.204833984375,0.3967284858226776,-1.4038084745407104,-0.9155272841453552,80.0,55501.0,1.0
14354.2523571,292681.96875,298931.71875,359101.1875,355375.6875,289346.375,258405.21875,223587.109375,245144.015625,0.01123046875,0.994873046875,0.203125,0.3662109076976776,-1.4038084745407104,-0.9765624403953552,80.0,55502.0,1.0
14354.27139,292659.28125,299047.03125,359104.125,355335.90625,289362.5625,258427.21875,223593.0,245150.90625,0.011962890625,0.994384765625,0.19970703125,0.3967284858226776,-1.1596678495407104,-0.8544921278953552,80.0,55503.0,1.0
14354.2714037,292659.28125,299047.03125,359104.125,355335.90625,289362.5625,258427.21875,223593.0,245150.90625,0.011962890625,0.994384765625,0.19970703125,0.3967284858226776,-1.1596678495407104,-0.8544921278953552,80.0,55504.0,0.0
14354.2714039,292659.28125,299047.03125,359104.125,355335.90625,289362.5625,258427.21875,223593.0,245150.90625,0.011962890625,0.994384765625,0.19970703125,0.3967284858226776,-1.1596678495407104,-0.8544921278953552,80.0,55505.0,0.0
14354.2714041,292659.28125,299047.03125,359104.125,355335.90625,289362.5625,258427.21875,223593.0,245150.90625,0.011962890625,0.994384765625,0.19970703125,0.3967284858226776,-1.1596678495407104,-0.8544921278953552,80.0,55506.0,0.0
14354.2714043,292659.28125,299047.03125,359104.125,355335.90625,289362.5625,258427.21875,223593.0,245150.90625,0.011962890625,0.994384765625,0.19970703125,0.3967284858226776,-1.1596678495407104,-0.8544921278953552,80.0,55507.0,0.0
14354.2714045,292659.28125,299047.03125,359104.125,355335.90625,289362.5625,258427.21875,223593.0,245150.90625,0.011962890625,0.994384765625,0.19970703125,0.3967284858226776,-1.1596678495407104,-0.8544921278953552,80.0,55508.0,0.0
14354.2714047,292659.28125,299047.03125,359104.125,355335.90625,289362.5625,258427.21875,223593.0,245150.90625,0.011962890625,0.994384765625,0.19970703125,0.3967284858226776,-1.1596678495407104,-0.8544921278953552,80.0,55509.0,0.0
14354.2714049,292659.28125,299047.03125,359104.125,355335.90625,289362.5625,258427.21875,223593.0,245150.90625,0.011962890625,0.994384765625,0.19970703125,0.3967284858226776,-1.1596678495407104,-0.8544921278953552,80.0,55510.0,0.0
14354.2714051,292659.28125,299047.03125,359104.125,355335.90625,289362.5625,258427.21875,223593.0,245150.90625,0.011962890625,0.994384765625,0.19970703125,0.3967284858226776,-1.1596678495407104,-0.8544921278953552,80.0,55511.0,0.0
14354.2714053,292659.28125,299047.03125,359104.125,355335.90625,289362.5625,258427.21875,223593.0,245150.90625,0.011962890625,0.994384765625,0.19970703125,0.3967284858226776,-1.1596678495407104,-0.8544921278953552,80.0,55512.0,0.0
14354.2714056,292659.28125,299047.03125,359104.125,355335.90625,289362.5625,258427.21875,223593.0,245150.90625,0.011962890625,0.994384765625,0.19970703125,0.3967284858226776,-1.1596678495407104,-0.8544921278953552,80.0,55513.0,0.0
14354.2714058,292659.28125,299047.03125,359104.125,355335.90625,289362.5625,258427.21875,223593.0,245150.90625,0.011962890625,0.994384765625,0.19970703125,0.3967284858226776,-1.1596678495407104,-0.8544921278953552,80.0,55514.0,0.0
14354.271406,292659.28125,299047.03125,359104.125,355335.90625,289362.5625,258427.21875,223593.0,245150.90625,0.011962890625,0.994384765625,0.19970703125,0.3967284858226776,-1.1596678495407104,-0.8544921278953552,80.0,55515.0,0.0
14354.2714061,292681.625,298645.0625,358952.3125,355414.03125,289286.3125,258378.671875,223564.484375,245169.953125,0.009033203125,0.99658203125,0.19677734375,0.7934569716453552,-0.9765624403953552,-0.7629393935203552,80.0,55516.0,1.0
14354.2714075,292693.25,298941.53125,359122.71875,355398.75,289370.875,258420.421875,223587.453125,245149.828125,0.0078125,0.99951171875,0.201416015625,0.7324218153953552,-1.0986326932907104,-0.9460448622703552,80.0,55517.0,1.0
14354.2755018,292676.15625,299083.4375,359155.09375,355357.96875,289395.375,258434.546875,223583.078125,245126.40625,0.009033203125,1.0009765625,0.198974609375,0.6408690810203552,-1.2512205839157104,-0.9155272841453552,80.0,55518.0,1.0
14354.2755044,292647.90625,298867.875,359015.625,355343.9375,289321.4375,258379.390625,223534.53125,245111.75,0.007568359375,1.0009765625,0.19921875,0.6408690810203552,-1.2512205839157104,-0.9765624403953552,80.0,55519.0,1.0
14354.2755057,292655.6875,298604.5625,358896.0625,355376.84375,289256.1875,258342.8125,223515.484375,245123.09375,0.00634765625,0.997802734375,0.201171875,0.4577636420726776,-1.2512205839157104,-1.0070799589157104,80.0,55520.0,1.0
14354.2755069,292694.6875,298680.5625,358991.03125,355412.25,289301.6875,258375.53125,223553.75,245133.65625,0.008056640625,0.997802734375,0.202392578125,0.4577636420726776,-1.3122557401657104,-0.9765624403953552,80.0,55521.0,1.0
14354.2755083,292700.03125,298963.0,359145.6875,355387.84375,289377.40625,258409.25,223579.953125,245120.59375,0.00927734375,0.9990234375,0.197998046875,0.4577636420726776,-1.2817381620407104,-0.9765624403953552,80.0,55522.0,1.0
14354.2755095,292681.1875,299084.3125,359152.21875,355349.65625,289392.96875,258418.90625,223590.234375,245115.765625,0.01123046875,0.996337890625,0.205322265625,0.4272460639476776,-1.3427733182907104,-0.9460448622703552,80.0,55523.0,1.0
14354.2755108,292658.375,298876.1875,359005.96875,355338.21875,289317.5,258382.25,223550.890625,245073.484375,0.011962890625,0.997802734375,0.2021484375,0.3967284858226776,-1.3427733182907104,-0.9155272841453552,80.0,55524.0,1.0
14354.2788403,292662.65625,298613.34375,358884.375,355371.84375,289252.40625,258350.234375,223528.90625,245074.28125,0.010986328125,0.996826171875,0.200439453125,0.3662109076976776,-1.4648436307907104,-0.8850097060203552,80.0,55525.0,1.0
14354.2788477,292695.21875,298677.0625,358972.15625,355407.0625,289296.75,258370.359375,223558.21875,245091.1875,0.0107421875,0.99609375,0.196533203125,0.2746581733226776,-1.4953612089157104,-0.8544921278953552,80.0,55526.0,1.0
14354.2788489,292706.75,298967.46875,359133.375,355389.28125,289380.90625,258412.015625,223596.140625,245077.0625,0.01220703125,0.996826171875,0.19873046875,0.2136230319738388,-1.4038084745407104,-0.7934569716453552,80.0,55527.0,1.0
14354.2788501,292683.40625,299096.5,359150.34375,355346.34375,289398.15625,258426.328125,223589.421875,245050.328125,0.010009765625,0.99658203125,0.195068359375,0.1831054538488388,-1.4953612089157104,-0.8239745497703552,80.0,55528.0,1.0
14354.2833541,292658.46875,298886.125,359006.21875,355336.78125,289324.03125,258380.1875,223547.671875,245024.9375,0.009765625,0.997314453125,0.196533203125,0.1831054538488388,-1.3732908964157104,-0.6713866591453552,80.0,55529.0,1.0
14354.3083606,292663.75,298623.78125,358891.59375,355368.875,289257.59375,258335.9375,223522.734375,245017.6875,0.009765625,0.998046875,0.196044921875,0.0915527269244194,-1.4343260526657104,-0.7324218153953552,80.0,55530.0,1.0
14354.3333411,292698.15625,298692.71875,358994.875,355404.90625,289304.09375,258359.453125,223555.90625,245032.53125,0.01025390625,0.99658203125,0.198974609375,0.03051757626235485,-1.4648436307907104,-0.6408690810203552,80.0,55531.0,1.0
14354.3583679,292709.78125,298978.75,359156.6875,355394.625,289393.875,258415.5,223603.015625,245041.203125,0.010009765625,0.994384765625,0.19677734375,0.03051757626235485,-1.4648436307907104,-0.6103515028953552,80.0,55532.0,1.0
14354.3946722,292680.46875,299097.03125,359161.78125,355346.53125,289404.5,258424.796875,223596.21875,245019.484375,0.011962890625,0.9951171875,0.197021484375,0.03051757626235485,-1.4038084745407104,-0.7019042372703552,80.0,55533.0,1.0
14354.3946774,292653.46875,298895.3125,359023.84375,355332.21875,289329.40625,258381.96875,223545.4375,244983.625,0.010986328125,0.99755859375,0.200927734375,-0.0915527269244194,-1.4343260526657104,-0.5798339247703552,80.0,55534.0,1.0
14354.3946787,292657.21875,298630.125,358908.15625,355369.875,289268.6875,258353.1875,223530.78125,245010.09375,0.012939453125,0.996826171875,0.20166015625,-0.1525878757238388,-1.4953612089157104,-0.5493163466453552,80.0,55535.0,1.0
14354.39468,292687.78125,298693.34375,358996.5625,355402.21875,289306.0625,258368.828125,223548.75,245021.984375,0.011962890625,0.99609375,0.200439453125,-0.1525878757238388,-1.4648436307907104,-0.4882812201976776,80.0,55536.0,1.0
14354.3946813,292700.125,298977.40625,359155.09375,355383.46875,289384.375,258396.109375,223567.796875,245014.5625,0.010986328125,0.9951171875,0.197509765625,-0.0610351525247097,-1.4343260526657104,-0.4882812201976776,80.0,55537.0,1.0
14354.420522,292675.71875,299098.625,359164.75,355340.53125,289401.625,258400.65625,223570.46875,245015.90625,0.008544921875,0.993408203125,0.200439453125,-0.03051757626235485,-1.3732908964157104,-0.5187987685203552,80.0,55538.0,1.0
14354.4205266,292654.90625,298889.59375,359022.59375,355334.09375,289336.09375,258371.6875,223538.109375,245014.46875,0.01025390625,0.99462890625,0.1982421875,0.03051757626235485,-1.4343260526657104,-0.4577636420726776,80.0,55539.0,1.0
14354.4205279,292655.6875,298619.78125,358892.84375,355359.75,289262.15625,258334.5,223503.15625,245010.359375,0.01123046875,0.993408203125,0.202880859375,0.0610351525247097,-1.4343260526657104,-0.4882812201976776,80.0,55540.0,1.0
14354.4205291,292690.03125,298689.5,358982.90625,355396.59375,289304.71875,258356.765625,223530.78125,245020.8125,0.01123046875,0.994384765625,0.201416015625,0.0610351525247097,-1.4343260526657104,-0.4577636420726776,80.0,55541.0,1.0
14354.4205303,292704.59375,298988.21875,359154.46875,355385.15625,289394.9375,258403.4375,223567.25,245019.75,0.010986328125,0.99462890625,0.203857421875,0.03051757626235485,-1.3732908964157104,-0.5493163466453552,80.0,55542.0,1.0
14354.4205316,292680.46875,299107.75,359161.4375,355342.15625,289410.40625,258416.84375,223563.140625,245018.5,0.010986328125,0.9951171875,0.19873046875,0.1525878757238388,-1.3122557401657104,-0.5187987685203552,80.0,55543.0,1.0
14354.4205328,292660.625,298899.25,359017.03125,355335.4375,289344.0625,258388.5,223535.34375,245017.234375,0.010498046875,0.9951171875,0.198974609375,0.1525878757238388,-1.2512205839157104,-0.6713866591453552,80.0,55544.0,1.0
14354.4446075,292668.5625,298638.1875,358903.84375,355370.3125,289281.75,258353.359375,223518.4375,245024.125,0.013671875,0.996826171875,0.197509765625,0.2136230319738388,-1.2512205839157104,-0.6103515028953552,80.0,55545.0,1.0
14354.4971082,292701.28125,298706.3125,359007.65625,355402.3125,289322.78125,258353.984375,223539.625,245026.8125,0.013671875,0.995361328125,0.19921875,0.2441406100988388,-1.2512205839157104,-0.6103515028953552,80.0,55546.0,1.0
14354.5238872,292718.0,298992.875,359168.78125,355388.65625,289407.53125,258398.875,223571.8125,245029.125,0.011962890625,0.9931640625,0.198486328125,0.4272460639476776,-1.2207030057907104,-0.5187987685203552,80.0,55547.0,1.0
14354.5239061,292694.40625,299105.78125,359167.34375,355342.59375,289416.84375,258412.46875,223573.25,245022.703125,0.013427734375,0.992431640625,0.198974609375,0.5187987685203552,-1.1596678495407104,-0.4882812201976776,80.0,55548.0,1.0
14354.5239082,292668.9375,298899.96875,359026.96875,355335.8125,289349.5,258382.25,223544.015625,245026.453125,0.012939453125,0.994384765625,0.19873046875,0.5187987685203552,-1.0681151151657104,-0.4577636420726776,80.0,55549.0,1.0
14354.52391,292672.6875,298637.75,358910.84375,355369.40625,289284.25,258346.296875,223518.96875,245029.484375,0.01318359375,0.994140625,0.202880859375,0.4882812201976776,-1.0070799589157104,-0.4272460639476776,80.0,55550.0,1.0
14354.5474696,292672.6875,298637.75,358910.84375,355369.40625,289284.25,258346.296875,223518.96875,245029.484375,0.01318359375,0.994140625,0.202880859375,0.4882812201976776,-1.0070799589157104,-0.4272460639476776,80.0,55551.0,0.0
14354.547474,292672.6875,298637.75,358910.84375,355369.40625,289284.25,258346.296875,223518.96875,245029.484375,0.01318359375,0.994140625,0.202880859375,0.4882812201976776,-1.0070799589157104,-0.4272460639476776,80.0,55552.0,0.0
14354.5474742,292672.6875,298637.75,358910.84375,355369.40625,289284.25,258346.296875,223518.96875,245029.484375,0.01318359375,0.994140625,0.202880859375,0.4882812201976776,-1.0070799589157104,-0.4272460639476776,80.0,55553.0,0.0
14354.5474744,292672.6875,298637.75,358910.84375,355369.40625,289284.25,258346.296875,223518.96875,245029.484375,0.01318359375,0.994140625,0.202880859375,0.4882812201976776,-1.0070799589157104,-0.4272460639476776,80.0,55554.0,0.0
14354.5474746,292672.6875,298637.75,358910.84375,355369.40625,289284.25,258346.296875,223518.96875,245029.484375,0.01318359375,0.994140625,0.202880859375,0.4882812201976776,-1.0070799589157104,-0.4272460639476776,80.0,55555.0,0.0
14354.5474748,292672.6875,298637.75,358910.84375,355369.40625,289284.25,258346.296875,223518.96875,245029.484375,0.01318359375,0.994140625,0.202880859375,0.4882812201976776,-1.0070799589157104,-0.4272460639476776,80.0,55556.0,0.0
14354.5474751,292672.6875,298637.75,358910.84375,355369.40625,289284.25,258346.296875,223518.96875,245029.484375,0.01318359375,0.994140625,0.202880859375,0.4882812201976776,-1.0070799589157104,-0.4272460639476776,80.0,55557.0,0.0
14354.5474752,292672.6875,298637.75,358910.84375,355369.40625,289284.25,258346.296875,223518.96875,245029.484375,0.01318359375,0.994140625,0.202880859375,0.4882812201976776,-1.0070799589157104,-0.4272460639476776,80.0,55558.0,0.0
14354.5474755,292672.6875,298637.75,358910.84375,355369.40625,289284.25,258346.296875,223518.96875,245029.484375,0.01318359375,0.994140625,0.202880859375,0.4882812201976776,-1.0070799589157104,-0.4272460639476776,80.0,55559.0,0.0
14354.5474757,292672.6875,298637.75,358910.84375,355369.40625,289284.25,258346.296875,223518.96875,245029.484375,0.01318359375,0.994140625,0.202880859375,0.4882812201976776,-1.0070799589157104,-0.4272460639476776,80.0,55560.0,0.0
14354.5474759,292672.6875,298637.75,358910.84375,355369.40625,289284.25,258346.296875,223518.96875,245029.484375,0.01318359375,0.994140625,0.202880859375,0.4882812201976776,-1.0070799589157104,-0.4272460639476776,80.0,55561.0,0.0
14354.547476,292672.6875,298637.75,358910.84375,355369.40625,289284.25,258346.296875,223518.96875,245029.484375,0.01318359375,0.994140625,0.202880859375,0.4882812201976776,-1.0070799589157104,-0.4272460639476776,80.0,55562.0,0.0
14354.5474762,292672.6875,298637.75,358910.84375,355369.40625,289284.25,258346.296875,223518.96875,245029.484375,0.01318359375,0.994140625,0.202880859375,0.4882812201976776,-1.0070799589157104,-0.4272460639476776,80.0,55563.0,0.0
14354.5474764,292672.6875,298637.75,358910.84375,355369.40625,289284.25,258346.296875,223518.96875,245029.484375,0.01318359375,0.994140625,0.202880859375,0.4882812201976776,-1.0070799589157104,-0.4272460639476776,80.0,55564.0,0.0
14354.5474766,292672.6875,298637.75,358910.84375,355369.40625,289284.25,258346.296875,223518.96875,245029.484375,0.01318359375,0.994140625,0.202880859375,0.4882812201976776,-1.0070799589157104,-0.4272460639476776,80.0,55565.0,0.0
14354.5474768,292672.6875,298637.75,358910.84375,355369.40625,289284.25,258346.296875,223518.96875,245029.484375,0.01318359375,0.994140625,0.202880859375,0.4882812201976776,-1.0070799589157104,-0.4272460639476776,80.0,55566.0,0.0
14354.547477,292672.6875,298637.75,358910.84375,355369.40625,289284.25,258346.296875,223518.96875,245029.484375,0.01318359375,0.994140625,0.202880859375,0.4882812201976776,-1.0070799589157104,-0.4272460639476776,80.0,55567.0,0.0
14354.5474771,292672.6875,298637.75,358910.84375,355369.40625,289284.25,258346.296875,223518.96875,245029.484375,0.01318359375,0.994140625,0.202880859375,0.4882812201976776,-1.0070799589157104,-0.4272460639476776,80.0,55568.0,0.0
14354.5474773,292672.6875,298637.75,358910.84375,355369.40625,289284.25,258346.296875,223518.96875,245029.484375,0.01318359375,0.994140625,0.202880859375,0.4882812201976776,-1.0070799589157104,-0.4272460639476776,80.0,55569.0,0.0
14354.5474775,292682.34375,298646.6875,358914.3125,355370.59375,289286.5625,258313.21875,223505.921875,244988.625,0.013916015625,0.99560546875,0.20068359375,0.9460448622703552,-1.3427733182907104,-0.7934569716453552,80.0,55570.0,1.0
14354.5474867,292720.34375,298710.0625,359012.21875,355410.28125,289332.96875,258343.796875,223543.296875,245004.90625,0.012451171875,0.998046875,0.200927734375,1.0681151151657104,-1.3732908964157104,-0.7324218153953552,80.0,55571.0,1.0
14354.5735335,292733.03125,299004.9375,359183.875,355394.375,289423.90625,258394.9375,223591.125,245008.125,0.01123046875,1.0,0.2001953125,0.9460448622703552,-1.4038084745407104,-0.7629393935203552,80.0,55572.0,1.0
14354.5735459,292720.96875,299146.46875,359215.34375,355361.0,289451.4375,258427.03125,223605.15625,244999.1875,0.012939453125,0.999755859375,0.201171875,0.8850097060203552,-1.4953612089157104,-0.7629393935203552,80.0,55573.0,1.0
14354.5735472,292688.96875,298924.65625,359058.25,355344.03125,289363.28125,258371.96875,223549.640625,244966.375,0.01513671875,0.997314453125,0.19482421875,0.8239745497703552,-1.4648436307907104,-0.7019042372703552,80.0,55574.0,1.0
14354.5735485,292684.5,298645.0625,358922.90625,355368.0625,289281.9375,258301.59375,223507.359375,244964.484375,0.016357421875,0.9951171875,0.19482421875,0.7324218153953552,-1.4343260526657104,-0.7019042372703552,80.0,55575.0,1.0
14354.5735498,292717.9375,298699.59375,359007.375,355401.59375,289317.34375,258314.203125,223530.328125,244976.109375,0.01416015625,0.990966796875,0.193359375,0.7324218153953552,-1.4953612089157104,-0.7934569716453552,80.0,55576.0,1.0
14354.5735511,292724.28125,298977.3125,359162.6875,355383.71875,289398.59375,258360.15625,223576.828125,244984.609375,0.01513671875,0.993408203125,0.197509765625,0.7934569716453552,-1.3427733182907104,-0.7629393935203552,80.0,55577.0,1.0
14354.6004365,292700.75,299106.6875,359181.5625,355337.21875,289414.4375,258370.078125,223563.046875,244953.765625,0.012451171875,0.994140625,0.198974609375,0.7934569716453552,-1.2512205839157104,-0.8239745497703552,80.0,55578.0,1.0
14354.6004483,292690.5625,298920.625,359055.65625,355343.5,289364.625,258357.5625,223546.421875,244960.296875,0.011962890625,0.997314453125,0.195068359375,0.7019042372703552,-1.2207030057907104,-0.9765624403953552,80.0,55579.0,1.0
14354.6004504,292698.6875,298659.8125,358939.09375,355372.71875,289298.28125,258326.359375,223518.078125,244942.234375,0.01025390625,0.99755859375,0.19384765625,0.5798339247703552,-1.3122557401657104,-0.9155272841453552,80.0,55580.0,1.0
14354.6004525,292728.125,298716.875,359031.09375,355406.34375,289334.75,258322.515625,223537.484375,244967.890625,0.010009765625,0.99560546875,0.1962890625,0.5187987685203552,-1.3732908964157104,-0.9155272841453552,80.0,55581.0,1.0
14354.625141,292734.71875,299001.625,359195.78125,355386.5,289410.40625,258352.109375,223558.3125,244960.640625,0.011474609375,0.9951171875,0.197998046875,0.4882812201976776,-1.4038084745407104,-1.0375975370407104,80.0,55582.0,1.0
14354.625152,292734.71875,299001.625,359195.78125,355386.5,289410.40625,258352.109375,223558.3125,244960.640625,0.011474609375,0.9951171875,0.197998046875,0.4882812201976776,-1.4038084745407104,-1.0375975370407104,80.0,55583.0,0.0
14354.6251523,292734.71875,299001.625,359195.78125,355386.5,289410.40625,258352.109375,223558.3125,244960.640625,0.011474609375,0.9951171875,0.197998046875,0.4882812201976776,-1.4038084745407104,-1.0375975370407104,80.0,55584.0,0.0
14354.6251524,292734.71875,299001.625,359195.78125,355386.5,289410.40625,258352.109375,223558.3125,244960.640625,0.011474609375,0.9951171875,0.197998046875,0.4882812201976776,-1.4038084745407104,-1.0375975370407104,80.0,55585.0,0.0
14354.6251527,292734.71875,299001.625,359195.78125,355386.5,289410.40625,258352.109375,223558.3125,244960.640625,0.011474609375,0.9951171875,0.197998046875,0.4882812201976776,-1.4038084745407104,-1.0375975370407104,80.0,55586.0,0.0
14354.6251532,292734.71875,299001.625,359195.78125,355386.5,289410.40625,258352.109375,223558.3125,244960.640625,0.011474609375,0.9951171875,0.197998046875,0.4882812201976776,-1.4038084745407104,-1.0375975370407104,80.0,55587.0,0.0
14354.6251534,292734.71875,299001.625,359195.78125,355386.5,289410.40625,258352.109375,223558.3125,244960.640625,0.011474609375,0.9951171875,0.197998046875,0.4882812201976776,-1.4038084745407104,-1.0375975370407104,80.0,55588.0,0.0
14354.6251536,292734.71875,299001.625,359195.78125,355386.5,289410.40625,258352.109375,223558.3125,244960.640625,0.011474609375,0.9951171875,0.197998046875,0.4882812201976776,-1.4038084745407104,-1.0375975370407104,80.0,55589.0,0.0
14354.6251538,292734.71875,299001.625,359195.78125,355386.5,289410.40625,258352.109375,223558.3125,244960.640625,0.011474609375,0.9951171875,0.197998046875,0.4882812201976776,-1.4038084745407104,-1.0375975370407104,80.0,55590.0,0.0
14354.625154,292734.71875,299001.625,359195.78125,355386.5,289410.40625,258352.109375,223558.3125,244960.640625,0.011474609375,0.9951171875,0.197998046875,0.4882812201976776,-1.4038084745407104,-1.0375975370407104,80.0,55591.0,0.0
14354.6251541,292734.71875,299001.625,359195.78125,355386.5,289410.40625,258352.109375,223558.3125,244960.640625,0.011474609375,0.9951171875,0.197998046875,0.4882812201976776,-1.4038084745407104,-1.0375975370407104,80.0,55592.0,0.0
14354.6251543,292734.71875,299001.625,359195.78125,355386.5,289410.40625,258352.109375,223558.3125,244960.640625,0.011474609375,0.9951171875,0.197998046875,0.4882812201976776,-1.4038084745407104,-1.0375975370407104,80.0,55593.0,0.0
14354.6251545,292734.71875,299001.625,359195.78125,355386.5,289410.40625,258352.109375,223558.3125,244960.640625,0.011474609375,0.9951171875,0.197998046875,0.4882812201976776,-1.4038084745407104,-1.0375975370407104,80.0,55594.0,0.0
14354.6251547,292734.71875,299001.625,359195.78125,355386.5,289410.40625,258352.109375,223558.3125,244960.640625,0.011474609375,0.9951171875,0.197998046875,0.4882812201976776,-1.4038084745407104,-1.0375975370407104,80.0,55595.0,0.0
14354.6251548,292734.71875,299001.625,359195.78125,355386.5,289410.40625,258352.109375,223558.3125,244960.640625,0.011474609375,0.9951171875,0.197998046875,0.4882812201976776,-1.4038084745407104,-1.0375975370407104,80.0,55596.0,0.0
14354.625155,292734.71875,299001.625,359195.78125,355386.5,289410.40625,258352.109375,223558.3125,244960.640625,0.011474609375,0.9951171875,0.197998046875,0.4882812201976776,-1.4038084745407104,-1.0375975370407104,80.0,55597.0,0.0
14354.6251551,292734.71875,299001.625,359195.78125,355386.5,289410.40625,258352.109375,223558.3125,244960.640625,0.011474609375,0.9951171875,0.197998046875,0.4882812201976776,-1.4038084745407104,-1.0375975370407104,80.0,55598.0,0.0
14354.6251553,292734.71875,299001.625,359195.78125,355386.5,289410.40625,258352.109375,223558.3125,244960.640625,0.011474609375,0.9951171875,0.197998046875,0.4882812201976776,-1.4038084745407104,-1.0375975370407104,80.0,55599.0,0.0
14354.6251555,292734.71875,299001.625,359195.78125,355386.5,289410.40625,258352.109375,223558.3125,244960.640625,0.011474609375,0.9951171875,0.197998046875,0.4882812201976776,-1.4038084745407104,-1.0375975370407104,80.0,55600.0,0.0
14354.6251557,292734.71875,299001.625,359195.78125,355386.5,289410.40625,258352.109375,223558.3125,244960.640625,0.011474609375,0.9951171875,0.197998046875,0.4882812201976776,-1.4038084745407104,-1.0375975370407104,80.0,55601.0,0.0
14354.6251558,292734.71875,299001.625,359195.78125,355386.5,289410.40625,258352.109375,223558.3125,244960.640625,0.011474609375,0.9951171875,0.197998046875,0.4882812201976776,-1.4038084745407104,-1.0375975370407104,80.0,55602.0,0.0
14354.625156,292694.0625,299119.03125,359185.84375,355311.3125,289410.21875,258356.578125,223560.8125,244967.0,0.00927734375,0.99609375,0.196044921875,0.5187987685203552,-1.4648436307907104,-1.0070799589157104,80.0,55603.0,1.0
14354.649615,292664.0,298912.84375,359045.125,355298.0625,289334.75,258293.109375,223513.96875,244950.1875,0.00927734375,0.996826171875,0.19482421875,0.4882812201976776,-1.6174315214157104,-0.9155272841453552,80.0,55604.0,1.0
14354.6749019,292657.03125,298629.25,358903.40625,355322.03125,289255.375,258249.390625,223486.78125,244953.046875,0.009521484375,0.99755859375,0.19482421875,0.4577636420726776,-1.5563963651657104,-0.8850097060203552,80.0,55605.0,1.0
14354.697721,292697.625,298684.0625,358981.5625,355362.1875,289295.25,258287.109375,223520.40625,244964.21875,0.010009765625,0.99462890625,0.195556640625,0.4577636420726776,-1.5563963651657104,-1.0070799589157104,80.0,55606.0,1.0
14354.6977332,292717.9375,298979.4375,359147.5,355352.34375,289385.375,258341.46875,223564.03125,244960.296875,0.010986328125,0.996337890625,0.194091796875,0.5187987685203552,-1.5563963651657104,-1.0070799589157104,80.0,55607.0,1.0
14354.6977349,292696.03125,299115.09375,359171.71875,355308.4375,289406.65625,258346.84375,223557.328125,244944.546875,0.010498046875,0.995849609375,0.1982421875,0.4272460639476776,-1.5563963651657104,-0.9765624403953552,80.0,55608.0,1.0
14354.7021057,292658.65625,298896.9375,359018.75,355290.65625,289325.8125,258300.265625,223512.53125,244935.796875,0.009033203125,0.99560546875,0.197998046875,0.3967284858226776,-1.5563963651657104,-0.9765624403953552,80.0,55609.0,1.0
14354.7045554,292663.375,298622.1875,358891.4375,355323.09375,289252.0625,258257.078125,223492.515625,244940.984375,0.010498046875,0.994384765625,0.19189453125,0.4577636420726776,-1.6174315214157104,-1.0070799589157104,80.0,55610.0,1.0
14354.7071058,292709.4375,298694.34375,358993.96875,355372.90625,289303.125,258289.265625,223535.96875,244967.984375,0.013671875,0.99560546875,0.1923828125,0.5798339247703552,-1.6174315214157104,-1.0070799589157104,80.0,55611.0,1.0
14354.7102805,292721.78125,298984.1875,359159.90625,355353.875,289386.53125,258338.703125,223558.40625,244943.65625,0.013427734375,0.994384765625,0.197998046875,0.4577636420726776,-1.6174315214157104,-0.9155272841453552,80.0,55612.0,1.0
14354.7103104,292699.78125,299117.59375,359181.375,355311.03125,289410.9375,258359.625,223561.984375,244934.359375,0.01171875,0.99609375,0.1923828125,0.4882812201976776,-1.6784666776657104,-0.9460448622703552,80.0,55613.0,1.0
14354.7103119,292669.375,298903.28125,359027.875,355296.09375,289338.6875,258321.71875,223526.3125,244937.84375,0.01416015625,0.99658203125,0.19482421875,0.4272460639476776,-1.6784666776657104,-1.0375975370407104,80.0,55614.0,1.0
14354.7121085,292667.3125,298628.625,358897.5,355323.46875,289265.46875,258279.78125,223492.0625,244940.4375,0.01318359375,0.995361328125,0.19384765625,0.4882812201976776,-1.6174315214157104,-1.0070799589157104,80.0,55615.0,1.0
14354.7618109,292701.125,298687.71875,358992.8125,355358.5,289306.5,258307.40625,223522.28125,244939.015625,0.01318359375,0.9970703125,0.19287109375,0.4272460639476776,-1.6784666776657104,-1.0070799589157104,80.0,55616.0,1.0
14354.7618304,292709.34375,298968.53125,359148.375,355340.90625,289384.375,258332.71875,223545.078125,244942.765625,0.011962890625,0.996337890625,0.193603515625,0.4272460639476776,-1.6479490995407104,-0.8544921278953552,80.0,55617.0,1.0
14354.7618317,292691.375,299108.8125,359176.28125,355301.46875,289403.96875,258324.84375,223533.453125,244929.625,0.011962890625,0.998779296875,0.194091796875,0.3051757514476776,-1.5258787870407104,-0.9765624403953552,80.0,55618.0,1.0
14354.7618329,292669.09375,298904.15625,359033.125,355296.5625,289339.6875,258302.21875,223508.6875,244938.109375,0.011962890625,0.997314453125,0.18994140625,0.3662109076976776,-1.5869139432907104,-0.9155272841453552,80.0,55619.0,1.0
14354.7618341,292668.65625,298628.625,358899.375,355322.46875,289265.90625,258256.0,223472.84375,244944.375,0.010986328125,0.998046875,0.191650390625,0.3662109076976776,-1.6174315214157104,-0.9460448622703552,80.0,55620.0,1.0
14354.7841881,292703.25,298689.875,358991.21875,355358.40625,289302.65625,258261.640625,223491.96875,244960.46875,0.010986328125,0.996826171875,0.19580078125,0.3356933295726776,-1.6174315214157104,-0.9765624403953552,80.0,55621.0,1.0
14354.7842091,292717.75,298981.25,359162.6875,355343.65625,289390.09375,258304.546875,223529.796875,244959.484375,0.0126953125,0.997802734375,0.193115234375,0.3051757514476776,-1.6174315214157104,-0.9765624403953552,80.0,55622.0,1.0
14354.7842172,292699.59375,299118.21875,359185.75,355301.90625,289414.5,258324.84375,223535.875,244952.59375,0.011962890625,0.997314453125,0.19384765625,0.3662109076976776,-1.5869139432907104,-0.9765624403953552,80.0,55623.0,1.0
14354.7842213,292669.375,298906.59375,359032.59375,355283.78125,289332.875,258281.921875,223494.75,244943.03125,0.010498046875,0.996337890625,0.196044921875,0.3967284858226776,-1.6784666776657104,-0.8850097060203552,80.0,55624.0,1.0
14354.7842227,292667.21875,298628.34375,358896.25,355310.40625,289256.1875,258243.84375,223470.515625,244958.953125,0.0107421875,0.994384765625,0.196533203125,0.3356933295726776,-1.6479490995407104,-0.8544921278953552,80.0,55625.0,1.0
14354.7864089,292703.625,298694.5,358992.90625,355347.0625,289299.625,258261.640625,223488.671875,244970.296875,0.010498046875,0.99658203125,0.19287109375,0.3356933295726776,-1.5869139432907104,-0.9460448622703552,80.0,55626.0,1.0
14354.7864128,292703.625,298694.5,358992.90625,355347.0625,289299.625,258261.640625,223488.671875,244970.296875,0.010498046875,0.99658203125,0.19287109375,0.3356933295726776,-1.5869139432907104,-0.9460448622703552,80.0,55627.0,0.0
14354.786413,292703.625,298694.5,358992.90625,355347.0625,289299.625,258261.640625,223488.671875,244970.296875,0.010498046875,0.99658203125,0.19287109375,0.3356933295726776,-1.5869139432907104,-0.9460448622703552,80.0,55628.0,0.0
14354.7864133,292703.625,298694.5,358992.90625,355347.0625,289299.625,258261.640625,223488.671875,244970.296875,0.010498046875,0.99658203125,0.19287109375,0.3356933295726776,-1.5869139432907104,-0.9460448622703552,80.0,55629.0,0.0
14354.7864134,292703.625,298694.5,358992.90625,355347.0625,289299.625,258261.640625,223488.671875,244970.296875,0.010498046875,0.99658203125,0.19287109375,0.3356933295726776,-1.5869139432907104,-0.9460448622703552,80.0,55630.0,0.0
14354.7864137,292703.625,298694.5,358992.90625,355347.0625,289299.625,258261.640625,223488.671875,244970.296875,0.010498046875,0.99658203125,0.19287109375,0.3356933295726776,-1.5869139432907104,-0.9460448622703552,80.0,55631.0,0.0
14354.7864139,292703.625,298694.5,358992.90625,355347.0625,289299.625,258261.640625,223488.671875,244970.296875,0.010498046875,0.99658203125,0.19287109375,0.3356933295726776,-1.5869139432907104,-0.9460448622703552,80.0,55632.0,0.0
14354.786414,292703.625,298694.5,358992.90625,355347.0625,289299.625,258261.640625,223488.671875,244970.296875,0.010498046875,0.99658203125,0.19287109375,0.3356933295726776,-1.5869139432907104,-0.9460448622703552,80.0,55633.0,0.0
14354.7864142,292703.625,298694.5,358992.90625,355347.0625,289299.625,258261.640625,223488.671875,244970.296875,0.010498046875,0.99658203125,0.19287109375,0.3356933295726776,-1.5869139432907104,-0.9460448622703552,80.0,55634.0,0.0
14354.7864144,292703.625,298694.5,358992.90625,355347.0625,289299.625,258261.640625,223488.671875,244970.296875,0.010498046875,0.99658203125,0.19287109375,0.3356933295726776,-1.5869139432907104,-0.9460448622703552,80.0,55635.0,0.0
14354.7864146,292703.625,298694.5,358992.90625,355347.0625,289299.625,258261.640625,223488.671875,244970.296875,0.010498046875,0.99658203125,0.19287109375,0.3356933295726776,-1.5869139432907104,-0.9460448622703552,80.0,55636.0,0.0
14354.7864147,292703.625,298694.5,358992.90625,355347.0625,289299.625,258261.640625,223488.671875,244970.296875,0.010498046875,0.99658203125,0.19287109375,0.3356933295726776,-1.5869139432907104,-0.9460448622703552,80.0,55637.0,0.0
14354.7864149,292703.625,298694.5,358992.90625,355347.0625,289299.625,258261.640625,223488.671875,244970.296875,0.010498046875,0.99658203125,0.19287109375,0.3356933295726776,-1.5869139432907104,-0.9460448622703552,80.0,55638.0,0.0
14354.7864151,292703.625,298694.5,358992.90625,355347.0625,289299.625,258261.640625,223488.671875,244970.296875,0.010498046875,0.99658203125,0.19287109375,0.3356933295726776,-1.5869139432907104,-0.9460448622703552,80.0,55639.0,0.0
14354.7864153,292703.625,298694.5,358992.90625,355347.0625,289299.625,258261.640625,223488.671875,244970.296875,0.010498046875,0.99658203125,0.19287109375,0.3356933295726776,-1.5869139432907104,-0.9460448622703552,80.0,55640.0,0.0
14354.7864155,292677.40625,298651.40625,358967.0625,355317.28125,289274.15625,258218.359375,223443.96875,244966.734375,0.01123046875,0.99365234375,0.1962890625,0.1220703050494194,-1.7395018339157104,-0.9765624403953552,80.0,55641.0,1.0
14354.788357,292689.5,298944.84375,359131.65625,355298.6875,289356.65625,258269.234375,223478.65625,244960.203125,0.01220703125,0.997314453125,0.19580078125,0.2136230319738388,-1.7089842557907104,-0.8850097060203552,80.0,55642.0,1.0
14354.7933401,292662.84375,299072.53125,359144.09375,355252.125,289366.0625,258278.71875,223469.171875,244936.15625,0.012939453125,0.999267578125,0.195068359375,0.1220703050494194,-1.7089842557907104,-0.9155272841453552,80.0,55643.0,1.0
14354.7976314,292626.375,298851.5,358983.15625,355230.125,289279.96875,258221.578125,223413.203125,244916.296875,0.013671875,0.99755859375,0.197509765625,0.0915527269244194,-1.6479490995407104,-1.0681151151657104,80.0,55644.0,1.0
14354.7976375,292628.25,298575.96875,358850.9375,355259.71875,289209.0625,258180.0,223382.71875,244925.78125,0.01513671875,0.9970703125,0.195068359375,0.03051757626235485,-1.6784666776657104,-0.8850097060203552,80.0,55645.0,1.0
14354.7976387,292675.1875,298648.1875,358955.96875,355308.875,289262.34375,258208.171875,223420.359375,244952.25,0.01318359375,0.995361328125,0.195556640625,0.0915527269244194,-1.5869139432907104,-0.9155272841453552,80.0,55646.0,1.0
14354.79764,292694.6875,298941.90625,359125.125,355298.78125,289353.09375,258263.515625,223459.4375,244958.234375,0.013916015625,0.99560546875,0.1923828125,0.0,-1.5258787870407104,-0.9460448622703552,80.0,55647.0,1.0
14354.8004206,292675.8125,299081.375,359146.40625,355257.75,289377.40625,258285.0625,223464.53125,244955.1875,0.01171875,0.99560546875,0.192626953125,0.0,-1.5563963651657104,-0.9155272841453552,80.0,55648.0,1.0
14354.8004228,292647.28125,298877.625,359001.9375,355246.84375,289310.8125,258245.90625,223434.21875,244962.078125,0.0107421875,0.994384765625,0.19384765625,0.0610351525247097,-1.5563963651657104,-0.8850097060203552,80.0,55649.0,1.0
14354.8280119,292646.40625,298601.53125,358869.875,355276.875,289240.0,258202.265625,223408.296875,244980.9375,0.010986328125,0.99560546875,0.197021484375,0.03051757626235485,-1.5869139432907104,-0.8544921278953552,80.0,55650.0,1.0
14354.8280295,292674.375,298648.375,358951.96875,355304.34375,289271.46875,258219.4375,223417.765625,244980.40625,0.011474609375,0.997314453125,0.19921875,-0.0915527269244194,-1.5563963651657104,-0.7934569716453552,80.0,55651.0,1.0
14354.8280307,292687.15625,298945.46875,359125.5,355283.59375,289355.25,258273.796875,223435.5625,244943.75,0.0126953125,0.9970703125,0.19677734375,-0.0915527269244194,-1.5869139432907104,-0.8544921278953552,80.0,55652.0,1.0
14354.8280319,292657.3125,299071.8125,359136.65625,355232.8125,289366.5,258275.671875,223427.25,244929.625,0.01318359375,0.9970703125,0.198974609375,-0.2136230319738388,-1.5869139432907104,-0.8239745497703552,80.0,55653.0,1.0
14354.8280331,292625.375,298862.96875,358994.4375,355214.84375,289286.03125,258203.875,223365.109375,244918.984375,0.013671875,0.995849609375,0.195556640625,-0.3051757514476776,-1.5869139432907104,-0.7629393935203552,80.0,55654.0,1.0
14354.8280343,292628.6875,298585.25,358863.0,355243.1875,289210.84375,258159.890625,223337.84375,244928.453125,0.010009765625,0.993896484375,0.1943359375,-0.3051757514476776,-1.4648436307907104,-0.9155272841453552,80.0,55655.0,1.0
14354.8550153,292658.8125,298627.0,358931.125,355275.4375,289241.40625,258185.546875,223373.875,244945.625,0.0107421875,0.992919921875,0.19580078125,-0.1525878757238388,-1.3732908964157104,-0.9765624403953552,80.0,55656.0,1.0
14354.8550307,292664.71875,298909.71875,359084.90625,355253.375,289319.28125,258227.390625,223407.75,244942.671875,0.01171875,0.9921875,0.19775390625,-0.1525878757238388,-1.3427733182907104,-1.0375975370407104,80.0,55657.0,1.0
14354.8550319,292634.3125,299042.65625,359101.0,355201.96875,289333.25,258229.53125,223404.171875,244920.5,0.0126953125,0.993408203125,0.19482421875,-0.1525878757238388,-1.3732908964157104,-0.9765624403953552,80.0,55658.0,1.0
14354.8550332,292603.75,298836.5,358955.875,355189.1875,289264.125,258199.140625,223373.421875,244915.046875,0.013427734375,0.994140625,0.196044921875,-0.1220703050494194,-1.4343260526657104,-0.9765624403953552,80.0,55659.0,1.0
14354.8814192,292604.71875,298560.21875,358827.84375,355219.03125,289197.4375,258173.484375,223348.75,244929.625,0.011962890625,0.9951171875,0.196044921875,-0.0610351525247097,-1.4953612089157104,-0.9765624403953552,80.0,55660.0,1.0
14354.8814249,292604.71875,298560.21875,358827.84375,355219.03125,289197.4375,258173.484375,223348.75,244929.625,0.011962890625,0.9951171875,0.196044921875,-0.0610351525247097,-1.4953612089157104,-0.9765624403953552,80.0,55661.0,0.0
14354.8814251,292604.71875,298560.21875,358827.84375,355219.03125,289197.4375,258173.484375,223348.75,244929.625,0.011962890625,0.9951171875,0.196044921875,-0.0610351525247097,-1.4953612089157104,-0.9765624403953552,80.0,55662.0,0.0
14354.8814253,292604.71875,298560.21875,358827.84375,355219.03125,289197.4375,258173.484375,223348.75,244929.625,0.011962890625,0.9951171875,0.196044921875,-0.0610351525247097,-1.4953612089157104,-0.9765624403953552,80.0,55663.0,0.0
14354.8814255,292604.71875,298560.21875,358827.84375,355219.03125,289197.4375,258173.484375,223348.75,244929.625,0.011962890625,0.9951171875,0.196044921875,-0.0610351525247097,-1.4953612089157104,-0.9765624403953552,80.0,55664.0,0.0
14354.8814258,292604.71875,298560.21875,358827.84375,355219.03125,289197.4375,258173.484375,223348.75,244929.625,0.011962890625,0.9951171875,0.196044921875,-0.0610351525247097,-1.4953612089157104,-0.9765624403953552,80.0,55665.0,0.0
14354.881426,292604.71875,298560.21875,358827.84375,355219.03125,289197.4375,258173.484375,223348.75,244929.625,0.011962890625,0.9951171875,0.196044921875,-0.0610351525247097,-1.4953612089157104,-0.9765624403953552,80.0,55666.0,0.0
14354.8814262,292604.71875,298560.21875,358827.84375,355219.03125,289197.4375,258173.484375,223348.75,244929.625,0.011962890625,0.9951171875,0.196044921875,-0.0610351525247097,-1.4953612089157104,-0.9765624403953552,80.0,55667.0,0.0
14354.8814263,292604.71875,298560.21875,358827.84375,355219.03125,289197.4375,258173.484375,223348.75,244929.625,0.011962890625,0.9951171875,0.196044921875,-0.0610351525247097,-1.4953612089157104,-0.9765624403953552,80.0,55668.0,0.0
14354.8814265,292604.71875,298560.21875,358827.84375,355219.03125,289197.4375,258173.484375,223348.75,244929.625,0.011962890625,0.9951171875,0.196044921875,-0.0610351525247097,-1.4953612089157104,-0.9765624403953552,80.0,55669.0,0.0
14354.8814267,292604.71875,298560.21875,358827.84375,355219.03125,289197.4375,258173.484375,223348.75,244929.625,0.011962890625,0.9951171875,0.196044921875,-0.0610351525247097,-1.4953612089157104,-0.9765624403953552,80.0,55670.0,0.0
14354.8814269,292604.71875,298560.21875,358827.84375,355219.03125,289197.4375,258173.484375,223348.75,244929.625,0.011962890625,0.9951171875,0.196044921875,-0.0610351525247097,-1.4953612089157104,-0.9765624403953552,80.0,55671.0,0.0
14354.8814271,292604.71875,298560.21875,358827.84375,355219.03125,289197.4375,258173.484375,223348.75,244929.625,0.011962890625,0.9951171875,0.196044921875,-0.0610351525247097,-1.4953612089157104,-0.9765624403953552,80.0,55672.0,0.0
14354.8814274,292604.71875,298560.21875,358827.84375,355219.03125,289197.4375,258173.484375,223348.75,244929.625,0.011962890625,0.9951171875,0.196044921875,-0.0610351525247097,-1.4953612089157104,-0.9765624403953552,80.0,55673.0,0.0
14354.8814275,292604.71875,298560.21875,358827.84375,355219.03125,289197.4375,258173.484375,223348.75,244929.625,0.011962890625,0.9951171875,0.196044921875,-0.0610351525247097,-1.4953612089157104,-0.9765624403953552,80.0,55674.0,0.0
14354.8814277,292604.71875,298560.21875,358827.84375,355219.03125,289197.4375,258173.484375,223348.75,244929.625,0.011962890625,0.9951171875,0.196044921875,-0.0610351525247097,-1.4953612089157104,-0.9765624403953552,80.0,55675.0,0.0
14354.8814279,292594.09375,298574.25,358872.5625,355215.28125,289209.5,258141.921875,223300.28125,244913.34375,0.0107421875,0.994384765625,0.2001953125,0.0,-1.3732908964157104,-1.0986326932907104,80.0,55676.0,1.0
14354.8814292,292602.9375,298853.65625,359033.75,355196.875,289290.40625,258178.03125,223321.03125,244898.421875,0.009033203125,0.994384765625,0.201904296875,0.0610351525247097,-1.3732908964157104,-1.0681151151657104,80.0,55677.0,1.0
14354.8814304,292584.625,299001.90625,359057.0,355157.875,289317.34375,258195.203125,223326.296875,244901.453125,0.009521484375,0.99462890625,0.203125,0.0915527269244194,-1.4038084745407104,-1.0681151151657104,80.0,55678.0,1.0
14354.8945092,292561.90625,298806.90625,358921.28125,355150.28125,289251.625,258160.421875,223291.4375,244902.625,0.00927734375,0.99169921875,0.20263671875,0.1831054538488388,-1.4038084745407104,-1.1291502714157104,80.0,55679.0,1.0
14354.8945134,292567.1875,298534.03125,358795.21875,355184.25,289182.3125,258126.71875,223263.546875,244913.796875,0.008544921875,0.993896484375,0.201904296875,0.1220703050494194,-1.3427733182907104,-1.0986326932907104,80.0,55680.0,1.0
14354.8945146,292609.90625,298593.03125,358885.0,355222.6875,289223.90625,258157.125,223289.109375,244920.140625,0.00927734375,0.994873046875,0.19921875,0.1525878757238388,-1.4953612089157104,-1.1291502714157104,80.0,55681.0,1.0
14354.8971078,292614.375,298873.25,359044.65625,355197.75,289295.96875,258177.5,223303.421875,244902.53125,0.011962890625,0.99658203125,0.20068359375,0.2136230319738388,-1.4648436307907104,-0.9765624403953552,80.0,55682.0,1.0
14354.8995469,292598.46875,299016.375,359076.21875,355159.65625,289322.875,258192.515625,223304.046875,244894.9375,0.0107421875,0.9951171875,0.203369140625,0.3356933295726776,-1.4648436307907104,-1.0070799589157104,80.0,55683.0,1.0
14354.9021205,292567.90625,298813.6875,358930.84375,355142.5,289248.5625,258153.90625,223262.015625,244883.125,0.01171875,0.99658203125,0.19970703125,0.3356933295726776,-1.4953612089157104,-1.0986326932907104,80.0,55684.0,1.0
14354.9064177,292564.9375,298535.1875,358798.1875,355171.125,289174.46875,258114.296875,223234.84375,244895.828125,0.010498046875,0.996337890625,0.200927734375,0.3662109076976776,-1.4648436307907104,-0.9765624403953552,80.0,55685.0,1.0
14354.9064219,292593.375,298572.125,358866.46875,355202.59375,289204.6875,258130.203125,223256.125,244917.375,0.00830078125,0.99853515625,0.198974609375,0.5187987685203552,-1.3732908964157104,-1.0070799589157104,80.0,55686.0,1.0
14354.9064231,292612.78125,298868.40625,359036.4375,355193.65625,289295.4375,258184.921875,223290.453125,244910.125,0.009033203125,0.99853515625,0.197998046875,0.5187987685203552,-1.4038084745407104,-1.0070799589157104,80.0,55687.0,1.0
14354.9064243,292589.96875,299006.0,359060.5,355148.5,289315.71875,258196.1875,223280.4375,244891.890625,0.00927734375,0.9970703125,0.197509765625,0.4882812201976776,-1.4953612089157104,-0.9155272841453552,80.0,55688.0,1.0
14354.9116512,292556.46875,298796.78125,358913.78125,355130.875,289239.28125,258134.40625,223228.765625,244886.4375,0.00927734375,0.99755859375,0.198486328125,0.4272460639476776,-1.5869139432907104,-0.8850097060203552,80.0,55689.0,1.0
14354.9116539,292557.875,298516.78125,358781.1875,355159.5,289165.25,258084.25,223196.21875,244887.59375,0.009521484375,0.995849609375,0.2001953125,0.4882812201976776,-1.5258787870407104,-1.0070799589157104,80.0,55690.0,1.0
14354.9116551,292594.625,298563.4375,358857.90625,355196.78125,289200.5625,258104.8125,223220.796875,244902.359375,0.0107421875,0.994873046875,0.198486328125,0.6408690810203552,-1.4343260526657104,-1.0375975370407104,80.0,55691.0,1.0
14354.9116563,292615.8125,298864.125,359036.96875,355192.21875,289298.5625,258165.609375,223266.046875,244903.421875,0.011962890625,0.996826171875,0.199462890625,0.5187987685203552,-1.4648436307907104,-0.9460448622703552,80.0,55692.0,1.0
14354.9116576,292595.625,299007.4375,359067.03125,355150.09375,289322.15625,258179.015625,223258.71875,244887.78125,0.0126953125,0.997314453125,0.197998046875,0.4882812201976776,-1.6174315214157104,-0.8544921278953552,80.0,55693.0,1.0
14354.9629532,292567.375,298802.96875,358921.1875,355134.8125,289248.125,258140.9375,223225.984375,244881.875,0.014892578125,0.996337890625,0.201904296875,0.4577636420726776,-1.4953612089157104,-0.8239745497703552,80.0,55694.0,1.0
14354.9629676,292567.375,298802.96875,358921.1875,355134.8125,289248.125,258140.9375,223225.984375,244881.875,0.014892578125,0.996337890625,0.201904296875,0.4577636420726776,-1.4953612089157104,-0.8239745497703552,80.0,55695.0,0.0
14354.9629678,292567.375,298802.96875,358921.1875,355134.8125,289248.125,258140.9375,223225.984375,244881.875,0.014892578125,0.996337890625,0.201904296875,0.4577636420726776,-1.4953612089157104,-0.8239745497703552,80.0,55696.0,0.0
14354.962968,292567.375,298802.96875,358921.1875,355134.8125,289248.125,258140.9375,223225.984375,244881.875,0.014892578125,0.996337890625,0.201904296875,0.4577636420726776,-1.4953612089157104,-0.8239745497703552,80.0,55697.0,0.0
14354.9629682,292567.375,298802.96875,358921.1875,355134.8125,289248.125,258140.9375,223225.984375,244881.875,0.014892578125,0.996337890625,0.201904296875,0.4577636420726776,-1.4953612089157104,-0.8239745497703552,80.0,55698.0,0.0
14354.9629684,292567.375,298802.96875,358921.1875,355134.8125,289248.125,258140.9375,223225.984375,244881.875,0.014892578125,0.996337890625,0.201904296875,0.4577636420726776,-1.4953612089157104,-0.8239745497703552,80.0,55699.0,0.0
14354.9629686,292567.375,298802.96875,358921.1875,355134.8125,289248.125,258140.9375,223225.984375,244881.875,0.014892578125,0.996337890625,0.201904296875,0.4577636420726776,-1.4953612089157104,-0.8239745497703552,80.0,55700.0,0.0
14354.9629688,292567.375,298802.96875,358921.1875,355134.8125,289248.125,258140.9375,223225.984375,244881.875,0.014892578125,0.996337890625,0.201904296875,0.4577636420726776,-1.4953612089157104,-0.8239745497703552,80.0,55701.0,0.0
14354.962969,292567.375,298802.96875,358921.1875,355134.8125,289248.125,258140.9375,223225.984375,244881.875,0.014892578125,0.996337890625,0.201904296875,0.4577636420726776,-1.4953612089157104,-0.8239745497703552,80.0,55702.0,0.0
14354.9629692,292567.375,298802.96875,358921.1875,355134.8125,289248.125,258140.9375,223225.984375,244881.875,0.014892578125,0.996337890625,0.201904296875,0.4577636420726776,-1.4953612089157104,-0.8239745497703552,80.0,55703.0,0.0
14354.9629694,292567.375,298802.96875,358921.1875,355134.8125,289248.125,258140.9375,223225.984375,244881.875,0.014892578125,0.996337890625,0.201904296875,0.4577636420726776,-1.4953612089157104,-0.8239745497703552,80.0,55704.0,0.0
14354.9629696,292567.375,298802.96875,358921.1875,355134.8125,289248.125,258140.9375,223225.984375,244881.875,0.014892578125,0.996337890625,0.201904296875,0.4577636420726776,-1.4953612089157104,-0.8239745497703552,80.0,55705.0,0.0
14354.9629699,292567.375,298802.96875,358921.1875,355134.8125,289248.125,258140.9375,223225.984375,244881.875,0.014892578125,0.996337890625,0.201904296875,0.4577636420726776,-1.4953612089157104,-0.8239745497703552,80.0,55706.0,0.0
14354.96297,292567.375,298802.96875,358921.1875,355134.8125,289248.125,258140.9375,223225.984375,244881.875,0.014892578125,0.996337890625,0.201904296875,0.4577636420726776,-1.4953612089157104,-0.8239745497703552,80.0,55707.0,0.0
14354.9629702,292567.375,298802.96875,358921.1875,355134.8125,289248.125,258140.9375,223225.984375,244881.875,0.014892578125,0.996337890625,0.201904296875,0.4577636420726776,-1.4953612089157104,-0.8239745497703552,80.0,55708.0,0.0
14354.9629704,292567.375,298802.96875,358921.1875,355134.8125,289248.125,258140.9375,223225.984375,244881.875,0.014892578125,0.996337890625,0.201904296875,0.4577636420726776,-1.4953612089157104,-0.8239745497703552,80.0,55709.0,0.0
14354.9629705,292567.375,298802.96875,358921.1875,355134.8125,289248.125,258140.9375,223225.984375,244881.875,0.014892578125,0.996337890625,0.201904296875,0.4577636420726776,-1.4953612089157104,-0.8239745497703552,80.0,55710.0,0.0
14354.9629707,292567.375,298802.96875,358921.1875,355134.8125,289248.125,258140.9375,223225.984375,244881.875,0.014892578125,0.996337890625,0.201904296875,0.4577636420726776,-1.4953612089157104,-0.8239745497703552,80.0,55711.0,0.0
14354.9629709,292567.375,298802.96875,358921.1875,355134.8125,289248.125,258140.9375,223225.984375,244881.875,0.014892578125,0.996337890625,0.201904296875,0.4577636420726776,-1.4953612089157104,-0.8239745497703552,80.0,55712.0,0.0
14354.9629711,292567.375,298802.96875,358921.1875,355134.8125,289248.125,258140.9375,223225.984375,244881.875,0.014892578125,0.996337890625,0.201904296875,0.4577636420726776,-1.4953612089157104,-0.8239745497703552,80.0,55713.0,0.0
14354.9629712,292567.375,298802.96875,358921.1875,355134.8125,289248.125,258140.9375,223225.984375,244881.875,0.014892578125,0.996337890625,0.201904296875,0.4577636420726776,-1.4953612089157104,-0.8239745497703552,80.0,55714.0,0.0
14354.9629714,292567.375,298802.96875,358921.1875,355134.8125,289248.125,258140.9375,223225.984375,244881.875,0.014892578125,0.996337890625,0.201904296875,0.4577636420726776,-1.4953612089157104,-0.8239745497703552,80.0,55715.0,0.0
14354.9629716,292567.375,298802.96875,358921.1875,355134.8125,289248.125,258140.9375,223225.984375,244881.875,0.014892578125,0.996337890625,0.201904296875,0.4577636420726776,-1.4953612089157104,-0.8239745497703552,80.0,55716.0,0.0
14354.9629718,292567.375,298802.96875,358921.1875,355134.8125,289248.125,258140.9375,223225.984375,244881.875,0.014892578125,0.996337890625,0.201904296875,0.4577636420726776,-1.4953612089157104,-0.8239745497703552,80.0,55717.0,0.0
14354.9629719,292567.375,298802.96875,358921.1875,355134.8125,289248.125,258140.9375,223225.984375,244881.875,0.014892578125,0.996337890625,0.201904296875,0.4577636420726776,-1.4953612089157104,-0.8239745497703552,80.0,55718.0,0.0
14354.9629721,292567.375,298802.96875,358921.1875,355134.8125,289248.125,258140.9375,223225.984375,244881.875,0.014892578125,0.996337890625,0.201904296875,0.4577636420726776,-1.4953612089157104,-0.8239745497703552,80.0,55719.0,0.0
14354.9629723,292567.375,298802.96875,358921.1875,355134.8125,289248.125,258140.9375,223225.984375,244881.875,0.014892578125,0.996337890625,0.201904296875,0.4577636420726776,-1.4953612089157104,-0.8239745497703552,80.0,55720.0,0.0
14354.9629724,292567.375,298802.96875,358921.1875,355134.8125,289248.125,258140.9375,223225.984375,244881.875,0.014892578125,0.996337890625,0.201904296875,0.4577636420726776,-1.4953612089157104,-0.8239745497703552,80.0,55721.0,0.0
14354.9629726,292567.375,298802.96875,358921.1875,355134.8125,289248.125,258140.9375,223225.984375,244881.875,0.014892578125,0.996337890625,0.201904296875,0.4577636420726776,-1.4953612089157104,-0.8239745497703552,80.0,55722.0,0.0
14354.9629728,292567.375,298802.96875,358921.1875,355134.8125,289248.125,258140.9375,223225.984375,244881.875,0.014892578125,0.996337890625,0.201904296875,0.4577636420726776,-1.4953612089157104,-0.8239745497703552,80.0,55723.0,0.0
14354.9629729,292567.375,298802.96875,358921.1875,355134.8125,289248.125,258140.9375,223225.984375,244881.875,0.014892578125,0.996337890625,0.201904296875,0.4577636420726776,-1.4953612089157104,-0.8239745497703552,80.0,55724.0,0.0
14354.9629731,292567.375,298802.96875,358921.1875,355134.8125,289248.125,258140.9375,223225.984375,244881.875,0.014892578125,0.996337890625,0.201904296875,0.4577636420726776,-1.4953612089157104,-0.8239745497703552,80.0,55725.0,0.0
14354.9629733,292567.375,298802.96875,358921.1875,355134.8125,289248.125,258140.9375,223225.984375,244881.875,0.014892578125,0.996337890625,0.201904296875,0.4577636420726776,-1.4953612089157104,-0.8239745497703552,80.0,55726.0,0.0
14354.9629735,292567.375,298802.96875,358921.1875,355134.8125,289248.125,258140.9375,223225.984375,244881.875,0.014892578125,0.996337890625,0.201904296875,0.4577636420726776,-1.4953612089157104,-0.8239745497703552,80.0,55727.0,0.0
14354.9629736,292567.375,298802.96875,358921.1875,355134.8125,289248.125,258140.9375,223225.984375,244881.875,0.014892578125,0.996337890625,0.201904296875,0.4577636420726776,-1.4953612089157104,-0.8239745497703552,80.0,55728.0,0.0
14354.9629738,292518.46875,298762.375,358859.59375,355065.34375,289199.21875,258053.9375,223093.3125,244853.625,0.01025390625,0.9970703125,0.200927734375,0.5493163466453552,-1.7700194120407104,-0.6103515028953552,80.0,55729.0,1.0
14354.9629751,292518.46875,298482.625,358717.34375,355089.3125,289119.375,258022.5625,223062.90625,244855.5,0.01025390625,0.995361328125,0.19970703125,0.4272460639476776,-1.8615721464157104,-0.6103515028953552,80.0,55730.0,1.0
14354.9629763,292556.1875,298537.15625,358807.5625,355129.28125,289161.40625,258043.390625,223081.234375,244867.9375,0.01025390625,0.994384765625,0.2001953125,0.3967284858226776,-1.8920897245407104,-0.5493163466453552,80.0,55731.0,1.0
14354.9629775,292571.75,298829.53125,358984.78125,355124.875,289257.0625,258095.96875,223125.765625,244877.3125,0.01171875,0.994140625,0.198486328125,0.2746581733226776,-1.8005369901657104,-0.6103515028953552,80.0,55732.0,1.0
14354.9651954,292542.6875,298966.21875,359007.125,355075.28125,289268.875,258092.296875,223105.640625,244856.578125,0.0107421875,0.993896484375,0.20263671875,0.3051757514476776,-1.8005369901657104,-0.6713866591453552,80.0,55733.0,1.0
14354.9652084,292517.28125,298769.15625,358871.03125,355060.53125,289195.75,258041.875,223057.015625,244848.53125,0.010986328125,0.992919921875,0.198486328125,0.2441406100988388,-1.7395018339157104,-0.6103515028953552,80.0,55734.0,1.0
14354.9896051,292513.0,298483.59375,358731.3125,355082.25,289113.9375,257995.375,223029.46875,244853.359375,0.012451171875,0.99462890625,0.197998046875,0.2136230319738388,-1.6784666776657104,-0.6408690810203552,80.0,55735.0,1.0
14355.0407581,292546.4375,298520.09375,358794.78125,355116.5625,289141.375,258013.890625,223058.0,244868.640625,0.0126953125,0.99462890625,0.197021484375,0.2441406100988388,-1.8005369901657104,-0.6408690810203552,80.0,55736.0,1.0
14355.0407672,292563.0625,298810.65625,358960.8125,355107.0,289227.46875,258067.703125,223097.953125,244873.390625,0.01318359375,0.99609375,0.199462890625,0.2746581733226776,-1.8005369901657104,-0.6408690810203552,80.0,55737.0,1.0
14355.0407685,292535.1875,298950.21875,358983.15625,355060.25,289245.09375,258076.921875,223088.5625,244860.59375,0.014404296875,0.99658203125,0.198974609375,0.3356933295726776,-1.6479490995407104,-0.7324218153953552,80.0,55738.0,1.0
14355.0407697,292506.28125,298747.71875,358838.59375,355047.28125,289175.15625,258038.296875,223055.046875,244858.28125,0.01806640625,0.9970703125,0.19970703125,0.2441406100988388,-1.6174315214157104,-0.7629393935203552,80.0,55739.0,1.0
14355.0407709,292513.375,298475.28125,358712.625,355085.09375,289111.59375,258015.046875,223049.953125,244884.03125,0.017822265625,0.99462890625,0.19677734375,0.3051757514476776,-1.6479490995407104,-0.8850097060203552,80.0,55740.0,1.0
14355.0407721,292546.8125,298516.3125,358792.28125,355115.5,289140.75,258034.265625,223059.328125,244877.765625,0.017333984375,0.99462890625,0.19873046875,0.2746581733226776,-1.4343260526657104,-0.8850097060203552,80.0,55741.0,1.0
14355.0407733,292558.34375,298801.96875,358959.375,355096.1875,289218.4375,258054.484375,223066.671875,244862.390625,0.0166015625,0.995361328125,0.199462890625,0.2136230319738388,-1.3427733182907104,-0.8544921278953552,80.0,55742.0,1.0
14355.0661787,292532.84375,298941.375,358981.375,355056.40625,289243.03125,258067.359375,223079.265625,244867.3125,0.017822265625,0.994873046875,0.200927734375,0.1831054538488388,-1.2512205839157104,-0.7629393935203552,80.0,55743.0,1.0
14355.0662025,292504.875,298744.3125,358833.75,355043.4375,289176.15625,258041.15625,223054.234375,244868.828125,0.018310546875,0.991455078125,0.200927734375,0.2441406100988388,-1.1901854276657104,-0.8544921278953552,80.0,55744.0,1.0
14355.0662087,292499.21875,298465.625,358699.28125,355058.1875,289094.625,257983.75,223006.765625,244845.3125,0.018310546875,0.991455078125,0.197265625,0.2136230319738388,-0.9765624403953552,-0.8850097060203552,80.0,55745.0,1.0
14355.06621,292528.125,298500.9375,358778.15625,355091.71875,289125.625,257989.921875,223025.453125,244856.75,0.018310546875,0.99267578125,0.2001953125,0.3662109076976776,-0.9155272841453552,-0.9155272841453552,80.0,55746.0,1.0
14355.0898753,292537.84375,298782.3125,358940.25,355078.40625,289210.84375,258043.921875,223068.1875,244869.90625,0.01611328125,0.994140625,0.201904296875,0.3967284858226776,-0.9155272841453552,-0.8239745497703552,80.0,55747.0,1.0
14355.0898808,292537.84375,298782.3125,358940.25,355078.40625,289210.84375,258043.921875,223068.1875,244869.90625,0.01611328125,0.994140625,0.201904296875,0.3967284858226776,-0.9155272841453552,-0.8239745497703552,80.0,55748.0,0.0
14355.089881,292537.84375,298782.3125,358940.25,355078.40625,289210.84375,258043.921875,223068.1875,244869.90625,0.01611328125,0.994140625,0.201904296875,0.3967284858226776,-0.9155272841453552,-0.8239745497703552,80.0,55749.0,0.0
14355.0898812,292537.84375,298782.3125,358940.25,355078.40625,289210.84375,258043.921875,223068.1875,244869.90625,0.01611328125,0.994140625,0.201904296875,0.3967284858226776,-0.9155272841453552,-0.8239745497703552,80.0,55750.0,0.0
14355.0898815,292520.34375,298500.40625,358770.09375,355086.0,289116.6875,257990.828125,223005.421875,244854.515625,0.014404296875,0.993408203125,0.197998046875,0.4272460639476776,-0.7629393935203552,-1.0375975370407104,80.0,55751.0,1.0
14355.1549294,292533.65625,298790.34375,358935.875,355076.53125,289204.84375,258040.4375,223049.5,244864.890625,0.013916015625,0.992431640625,0.195556640625,0.4272460639476776,-0.9155272841453552,-0.9765624403953552,80.0,55752.0,1.0
14355.1549347,292512.65625,298938.78125,358972.34375,355035.9375,289230.5,258053.234375,223044.5,244851.75,0.01171875,0.99267578125,0.19580078125,0.4577636420726776,-0.7934569716453552,-1.0375975370407104,80.0,55753.0,1.0
14355.1549359,292474.65625,298723.5625,358815.96875,355009.71875,289144.3125,257999.84375,222988.078125,244832.609375,0.011962890625,0.993896484375,0.19677734375,0.3662109076976776,-0.7934569716453552,-1.0681151151657104,80.0,55754.0,1.0
14355.1549373,292475.53125,298445.0625,358679.53125,355038.625,289069.40625,257962.75,222960.265625,244841.921875,0.011962890625,0.996826171875,0.1982421875,0.3662109076976776,-0.9155272841453552,-1.1291502714157104,80.0,55755.0,1.0
14355.2639031,292515.25,298500.40625,358778.96875,355082.34375,289113.65625,257986.796875,222983.421875,244847.1875,0.010986328125,0.996826171875,0.19873046875,0.3356933295726776,-1.0375975370407104,-1.2512205839157104,80.0,55756.0,1.0
14355.2639251,292526.5,298779.28125,358946.21875,355064.0,289192.59375,258020.5,223001.21875,244840.484375,0.0107421875,0.997314453125,0.199462890625,0.3051757514476776,-1.1291502714157104,-1.0986326932907104,80.0,55757.0,1.0
14355.2639263,292503.15625,298924.375,358969.46875,355018.75,289207.8125,258030.34375,222997.90625,244832.4375,0.009521484375,0.9970703125,0.1953125,0.3356933295726776,-1.2817381620407104,-1.0986326932907104,80.0,55758.0,1.0
14355.2639276,292456.75,298699.96875,358798.1875,354991.125,289117.5,257979.46875,222950.078125,244815.890625,0.008544921875,0.9970703125,0.19775390625,0.3356933295726776,-1.3732908964157104,-1.1901854276657104,80.0,55759.0,1.0
14355.2639288,292452.90625,298421.375,358662.0,355018.5,289048.40625,257947.546875,222930.859375,244820.71875,0.00927734375,0.99365234375,0.19677734375,0.3356933295726776,-1.4343260526657104,-1.1596678495407104,80.0,55760.0,1.0
14355.26393,292491.625,298480.375,358758.375,355064.0,289101.6875,257986.890625,222970.109375,244845.578125,0.010498046875,0.99462890625,0.197509765625,0.3356933295726776,-1.6174315214157104,-1.0986326932907104,80.0,55761.0,1.0
14355.2639312,292510.0625,298776.59375,358939.15625,355058.625,289197.6875,258040.265625,223009.359375,244854.875,0.012939453125,0.99462890625,0.19970703125,0.4577636420726776,-1.6784666776657104,-1.0986326932907104,80.0,55762.0,1.0
14355.2639324,292477.5,298897.28125,358952.125,355005.875,289206.1875,258024.171875,222983.78125,244838.15625,0.0146484375,0.99462890625,0.19775390625,0.4882812201976776,-1.8310545682907104,-1.0070799589157104,80.0,55763.0,1.0
14355.2639382,292439.59375,298673.21875,358766.34375,354979.96875,289110.1875,257963.8125,222928.984375,244826.359375,0.015380859375,0.996337890625,0.19970703125,0.5187987685203552,-1.6784666776657104,-0.8544921278953552,80.0,55764.0,1.0
14355.3117112,292448.09375,298417.78125,358647.78125,355012.59375,289045.1875,257933.328125,222896.609375,244814.015625,0.01318359375,0.99755859375,0.199462890625,0.5187987685203552,-1.6479490995407104,-0.8239745497703552,80.0,55765.0,1.0
14355.3117334,292485.8125,298474.40625,358748.09375,355057.75,289091.9375,257960.15625,222921.296875,244839.328125,0.012939453125,0.997314453125,0.19677734375,0.4577636420726776,-1.6174315214157104,-0.9460448622703552,80.0,55766.0,1.0
14355.3117347,292493.0625,298757.375,358917.4375,355040.59375,289174.1875,257986.796875,222938.8125,244839.953125,0.01318359375,0.994873046875,0.1953125,0.3967284858226776,-1.6174315214157104,-0.8850097060203552,80.0,55767.0,1.0
14355.3117361,292493.0625,298757.375,358917.4375,355040.59375,289174.1875,257986.796875,222938.8125,244839.953125,0.01318359375,0.994873046875,0.1953125,0.3967284858226776,-1.6174315214157104,-0.8850097060203552,80.0,55768.0,0.0
14355.3117363,292493.0625,298757.375,358917.4375,355040.59375,289174.1875,257986.796875,222938.8125,244839.953125,0.01318359375,0.994873046875,0.1953125,0.3967284858226776,-1.6174315214157104,-0.8850097060203552,80.0,55769.0,0.0
14355.3117365,292430.65625,298389.8125,358618.75,354997.21875,289024.6875,257905.4375,222861.03125,244808.828125,0.015869140625,0.990966796875,0.196044921875,0.5493163466453552,-1.6479490995407104,-0.7934569716453552,80.0,55770.0,1.0
14355.3117379,292472.59375,298442.5625,358709.84375,355043.8125,289073.4375,257941.921875,222901.796875,244831.0,0.01416015625,0.989013671875,0.199462890625,0.4882812201976776,-1.6174315214157104,-0.8544921278953552,80.0,55771.0,1.0
14355.313378,292489.21875,298735.90625,358884.09375,355032.53125,289168.09375,257995.109375,222933.453125,244834.21875,0.01318359375,0.992431640625,0.20068359375,0.7019042372703552,-1.4648436307907104,-0.9460448622703552,80.0,55772.0,1.0
14355.3408834,292460.78125,298880.65625,358910.84375,354982.8125,289187.96875,258010.484375,222926.75,244818.765625,0.013671875,0.996337890625,0.19970703125,0.7019042372703552,-1.4953612089157104,-1.0986326932907104,80.0,55773.0,1.0
14355.3658987,292431.09375,298686.46875,358772.25,354965.9375,289114.28125,257960.328125,222879.09375,244809.1875,0.011962890625,0.99853515625,0.196533203125,0.7019042372703552,-1.5869139432907104,-1.2207030057907104,80.0,55774.0,1.0
14355.3909847,292440.5,298417.625,358646.90625,355002.125,289050.71875,257929.84375,222855.578125,244823.3125,0.01318359375,0.998291015625,0.197021484375,0.5493163466453552,-1.4953612089157104,-1.3122557401657104,80.0,55775.0,1.0
14355.4158814,292488.15625,298473.0625,358742.03125,355051.125,289103.75,257973.46875,222897.15625,244845.484375,0.011962890625,1.000244140625,0.19482421875,0.5187987685203552,-1.6479490995407104,-1.1596678495407104,80.0,55776.0,1.0
14355.500106,292502.4375,298763.09375,358914.59375,355039.40625,289190.90625,258011.203125,222922.359375,244844.328125,0.012451171875,0.999755859375,0.196044921875,0.6103515028953552,-1.6784666776657104,-1.3122557401657104,80.0,55777.0,1.0
14355.5001124,292476.53125,298904.0,358943.46875,354993.90625,289210.03125,258017.015625,222916.1875,244829.21875,0.01123046875,0.999755859375,0.194091796875,0.5187987685203552,-1.7395018339157104,-1.4343260526657104,80.0,55778.0,1.0
14355.5001143,292447.28125,298701.5625,358795.84375,354979.78125,289140.84375,257985.28125,222883.203125,244816.96875,0.01220703125,0.9970703125,0.197509765625,0.4882812201976776,-1.7395018339157104,-1.4038084745407104,80.0,55779.0,1.0
14355.500116,292444.96875,298417.4375,358651.375,355005.0,289063.6875,257946.390625,222852.265625,244826.625,0.012451171875,0.995849609375,0.19580078125,0.5493163466453552,-1.7089842557907104,-1.5563963651657104,80.0,55780.0,1.0
14355.5001178,292476.25,298454.0,358725.9375,355039.5,289089.78125,257946.65625,222861.921875,244831.546875,0.01220703125,0.99560546875,0.1943359375,0.4577636420726776,-1.6479490995407104,-1.5563963651657104,80.0,55781.0,1.0
14355.5001195,292480.90625,298725.53125,358879.1875,355017.6875,289159.34375,257967.75,222880.875,244816.96875,0.011962890625,0.9951171875,0.194091796875,0.4882812201976776,-1.7089842557907104,-1.5869139432907104,80.0,55782.0,1.0
14355.5001213,292455.0625,298856.78125,358884.28125,354966.28125,289172.03125,257979.828125,222875.6875,244802.671875,0.01123046875,0.9951171875,0.19482421875,0.5493163466453552,-1.7700194120407104,-1.5869139432907104,80.0,55783.0,1.0
14355.5246098,292426.90625,298668.21875,358748.09375,354953.0625,289109.8125,257953.984375,222842.4375,244800.421875,0.012451171875,0.994873046875,0.196533203125,0.6713866591453552,-1.6784666776657104,-1.6479490995407104,80.0,55784.0,1.0
14355.5538484,292425.75,298393.9375,358618.8125,354986.03125,289044.09375,257922.328125,222821.953125,244817.0625,0.011962890625,0.99365234375,0.19580078125,0.7019042372703552,-1.7700194120407104,-1.5563963651657104,80.0,55785.0,1.0
14355.5538634,292467.5,298447.3125,358717.71875,355038.0,289095.0625,257948.625,222861.125,244853.8125,0.01171875,0.99658203125,0.196044921875,0.7629393935203552,-1.6174315214157104,-1.4953612089157104,80.0,55786.0,1.0
14355.5538647,292478.3125,298735.625,358885.875,355020.65625,289173.5625,257974.1875,222880.78125,244840.03125,0.010009765625,0.996337890625,0.1982421875,0.8239745497703552,-1.7089842557907104,-1.4953612089157104,80.0,55787.0,1.0
14355.5538661,292453.46875,298870.46875,358900.5625,354972.4375,289185.90625,257969.359375,222865.59375,244824.75,0.0107421875,0.997802734375,0.19873046875,0.8850097060203552,-1.8005369901657104,-1.5563963651657104,80.0,55788.0,1.0
14355.5777084,292423.5,298675.28125,358755.625,354949.125,289112.125,257936.640625,222821.59375,244790.421875,0.0107421875,0.99658203125,0.1982421875,0.8850097060203552,-1.8615721464157104,-1.4038084745407104,80.0,55789.0,1.0
14355.5777146,292423.5,298675.28125,358755.625,354949.125,289112.125,257936.640625,222821.59375,244790.421875,0.0107421875,0.99658203125,0.1982421875,0.8850097060203552,-1.8615721464157104,-1.4038084745407104,80.0,55790.0,0.0
14355.5777148,292423.5,298675.28125,358755.625,354949.125,289112.125,257936.640625,222821.59375,244790.421875,0.0107421875,0.99658203125,0.1982421875,0.8850097060203552,-1.8615721464157104,-1.4038084745407104,80.0,55791.0,0.0
14355.577715,292423.5,298675.28125,358755.625,354949.125,289112.125,257936.640625,222821.59375,244790.421875,0.0107421875,0.99658203125,0.1982421875,0.8850097060203552,-1.8615721464157104,-1.4038084745407104,80.0,55792.0,0.0
14355.5777152,292423.5,298675.28125,358755.625,354949.125,289112.125,257936.640625,222821.59375,244790.421875,0.0107421875,0.99658203125,0.1982421875,0.8850097060203552,-1.8615721464157104,-1.4038084745407104,80.0,55793.0,0.0
14355.5777154,292423.5,298675.28125,358755.625,354949.125,289112.125,257936.640625,222821.59375,244790.421875,0.0107421875,0.99658203125,0.1982421875,0.8850097060203552,-1.8615721464157104,-1.4038084745407104,80.0,55794.0,0.0
14355.5777156,292423.5,298675.28125,358755.625,354949.125,289112.125,257936.640625,222821.59375,244790.421875,0.0107421875,0.99658203125,0.1982421875,0.8850097060203552,-1.8615721464157104,-1.4038084745407104,80.0,55795.0,0.0
14355.5777157,292423.5,298675.28125,358755.625,354949.125,289112.125,257936.640625,222821.59375,244790.421875,0.0107421875,0.99658203125,0.1982421875,0.8850097060203552,-1.8615721464157104,-1.4038084745407104,80.0,55796.0,0.0
14355.5777159,292476.625,298725.4375,358880.625,355007.6875,289165.0625,257964.453125,222847.0,244829.671875,0.009033203125,0.993896484375,0.19482421875,0.6103515028953552,-2.258300542831421,-1.1291502714157104,80.0,55797.0,1.0
14355.5802949,292459.8125,298874.5625,358911.0,354970.40625,289194.40625,257988.40625,222856.109375,244826.359375,0.010986328125,0.996337890625,0.196533203125,0.7324218153953552,-2.136230230331421,-1.0681151151657104,80.0,55798.0,1.0
14355.5803125,292423.5,298662.9375,358750.78125,354951.8125,289113.03125,257934.40625,222798.4375,244818.765625,0.011474609375,0.9970703125,0.198486328125,0.6103515028953552,-2.105712652206421,-1.1291502714157104,80.0,55799.0,1.0
14355.5826739,292426.46875,298393.75,358614.90625,354980.84375,289045.875,257921.0,222777.515625,244823.3125,0.0107421875,0.9970703125,0.1982421875,0.5493163466453552,-2.166747808456421,-1.0070799589157104,80.0,55800.0,1.0
14355.5826761,292455.59375,298436.5625,358688.65625,355011.0625,289076.65625,257941.734375,222787.8125,244822.78125,0.011962890625,0.998046875,0.197265625,0.4272460639476776,-2.105712652206421,-0.9765624403953552,80.0,55801.0,1.0
14355.6076971,292464.90625,298717.5,358856.5625,354990.6875,289155.6875,257953.0,222797.8125,244809.546875,0.012451171875,0.997314453125,0.197998046875,0.3356933295726776,-2.166747808456421,-1.0070799589157104,80.0,55802.0,1.0
14355.6077021,292441.9375,298852.21875,358876.40625,354942.5,289171.3125,257951.578125,222791.375,244800.875,0.0126953125,0.991455078125,0.1953125,0.3662109076976776,-2.105712652206421,-1.0070799589157104,80.0,55803.0,1.0
14355.6326911,292404.90625,298640.0625,358711.71875,354917.65625,289083.25,257903.828125,222740.78125,244784.0625,0.01513671875,0.991455078125,0.1953125,0.4577636420726776,-2.014159917831421,-1.0986326932907104,80.0,55804.0,1.0
14355.6326964,292401.875,298367.28125,358579.5625,354946.25,289008.875,257868.59375,222706.359375,244787.640625,0.015380859375,0.99560546875,0.193603515625,0.4272460639476776,-1.9226073026657104,-1.0986326932907104,80.0,55805.0,1.0
14355.6571203,292427.53125,298403.125,358663.15625,354978.8125,289040.25,257885.765625,222721.640625,244800.421875,0.013671875,0.99755859375,0.1962890625,0.5493163466453552,-1.9531248807907104,-1.0986326932907104,80.0,55806.0,1.0
14355.6676989,292449.0,298689.15625,358838.15625,354975.75,289130.8125,257939.234375,222767.953125,244814.5625,0.012451171875,0.995361328125,0.193603515625,0.5493163466453552,-1.8920897245407104,-1.1596678495407104,80.0,55807.0,1.0
14355.6677018,292422.96875,298834.875,358864.15625,354929.8125,289145.03125,257930.734375,222758.921875,244801.59375,0.01416015625,0.99609375,0.1943359375,0.6713866591453552,-1.8310545682907104,-1.0986326932907104,80.0,55808.0,1.0
14355.6776517,292389.34375,298639.0,358723.6875,354913.1875,289074.5,257898.734375,222721.640625,244789.515625,0.01123046875,0.99560546875,0.194580078125,0.5798339247703552,-1.7395018339157104,-1.1901854276657104,80.0,55809.0,1.0
14355.6776564,292385.78125,298351.09375,358577.25,354935.09375,288995.375,257869.859375,222694.28125,244789.171875,0.01220703125,0.994873046875,0.195556640625,0.6713866591453552,-1.7395018339157104,-1.2817381620407104,80.0,55810.0,1.0
14355.6776577,292421.1875,298393.3125,358652.875,354972.53125,289031.125,257895.15625,222723.25,244802.484375,0.01123046875,0.99560546875,0.1953125,0.5798339247703552,-1.7395018339157104,-1.2817381620407104,80.0,55811.0,1.0
14355.6776589,292443.625,298688.6875,358826.78125,354964.6875,289120.8125,257931.1875,222746.59375,244802.03125,0.012939453125,0.99560546875,0.19384765625,0.5493163466453552,-1.8310545682907104,-1.2207030057907104,80.0,55812.0,1.0
14355.6776601,292423.5,298831.40625,358854.25,354920.9375,289143.34375,257930.109375,222735.6875,244787.203125,0.012451171875,0.99609375,0.1962890625,0.5493163466453552,-1.7089842557907104,-1.3732908964157104,80.0,55813.0,1.0
14355.6776613,292394.625,298642.75,358717.0,354903.53125,289073.96875,257893.359375,222691.875,244771.734375,0.011962890625,0.9951171875,0.1962890625,0.5493163466453552,-1.7089842557907104,-1.3427733182907104,80.0,55814.0,1.0
14355.6776625,292392.9375,298367.375,358585.9375,354932.125,289003.96875,257863.953125,222669.78125,244786.390625,0.01171875,0.9951171875,0.19775390625,0.5493163466453552,-1.7395018339157104,-1.3732908964157104,80.0,55815.0,1.0
14355.6776636,292430.5625,298410.1875,358673.1875,354975.03125,289048.65625,257891.9375,222689.640625,244802.671875,0.010009765625,0.995361328125,0.196533203125,0.5187987685203552,-1.7700194120407104,-1.4038084745407104,80.0,55816.0,1.0
14355.6776648,292443.875,298686.5625,358831.96875,354961.28125,289133.5,257937.265625,222722.625,244801.859375,0.0087890625,0.994384765625,0.197021484375,0.3662109076976776,-1.7395018339157104,-1.4038084745407104,80.0,55817.0,1.0
14355.6835138,292413.65625,298818.96875,358836.71875,354908.96875,289142.8125,257942.890625,222718.515625,244784.875,0.0087890625,0.9951171875,0.1962890625,0.4272460639476776,-1.8005369901657104,-1.3732908964157104,80.0,55818.0,1.0
14355.6835273,292381.03125,298617.34375,358686.40625,354896.71875,289071.46875,257901.0625,222692.234375,244801.0625,0.009033203125,0.994384765625,0.198486328125,0.3967284858226776,-1.7395018339157104,-1.3427733182907104,80.0,55819.0,1.0
