Time,FZ,C3,CZ,C4,PZ,PO7,OZ,PO8,AccX,AccY,AccZ,Gyro1,Gyro2,Gyro3,Battery,Counter,Validation
14920.0467853,294772.84375,294826.9375,326601.1875,320063.84375,285115.65625,255706.296875,221637.046875,246129.546875,0.029052734375,0.990478515625,0.06591796875,0.2746581733226776,-1.4038084745407104,-0.9765624403953552,73.33333587646484,196902.0,0.0
14920.0467855,294772.84375,294826.9375,326601.1875,320063.84375,285115.65625,255706.296875,221637.046875,246129.546875,0.029052734375,0.990478515625,0.06591796875,0.2746581733226776,-1.4038084745407104,-0.9765624403953552,73.33333587646484,196903.0,0.0
14920.0467856,294772.84375,294826.9375,326601.1875,320063.84375,285115.65625,255706.296875,221637.046875,246129.546875,0.029052734375,0.990478515625,0.06591796875,0.2746581733226776,-1.4038084745407104,-0.9765624403953552,73.33333587646484,196904.0,0.0
14920.0467858,294772.84375,294826.9375,326601.1875,320063.84375,285115.65625,255706.296875,221637.046875,246129.546875,0.029052734375,0.990478515625,0.06591796875,0.2746581733226776,-1.4038084745407104,-0.9765624403953552,73.33333587646484,196905.0,0.0
14920.046786,294772.84375,294826.9375,326601.1875,320063.84375,285115.65625,255706.296875,221637.046875,246129.546875,0.029052734375,0.990478515625,0.06591796875,0.2746581733226776,-1.4038084745407104,-0.9765624403953552,73.33333587646484,196906.0,0.0
14920.0467862,294772.84375,294826.9375,326601.1875,320063.84375,285115.65625,255706.296875,221637.046875,246129.546875,0.029052734375,0.990478515625,0.06591796875,0.2746581733226776,-1.4038084745407104,-0.9765624403953552,73.33333587646484,196907.0,0.0
14920.0467863,294772.84375,294826.9375,326601.1875,320063.84375,285115.65625,255706.296875,221637.046875,246129.546875,0.029052734375,0.990478515625,0.06591796875,0.2746581733226776,-1.4038084745407104,-0.9765624403953552,73.33333587646484,196908.0,0.0
14920.0467865,294772.84375,294826.9375,326601.1875,320063.84375,285115.65625,255706.296875,221637.046875,246129.546875,0.029052734375,0.990478515625,0.06591796875,0.2746581733226776,-1.4038084745407104,-0.9765624403953552,73.33333587646484,196909.0,0.0
14920.0467867,294772.84375,294826.9375,326601.1875,320063.84375,285115.65625,255706.296875,221637.046875,246129.546875,0.029052734375,0.990478515625,0.06591796875,0.2746581733226776,-1.4038084745407104,-0.9765624403953552,73.33333587646484,196910.0,0.0
14920.0467869,294772.84375,294826.9375,326601.1875,320063.84375,285115.65625,255706.296875,221637.046875,246129.546875,0.029052734375,0.990478515625,0.06591796875,0.2746581733226776,-1.4038084745407104,-0.9765624403953552,73.33333587646484,196911.0,0.0
14920.046787,294772.84375,294826.9375,326601.1875,320063.84375,285115.65625,255706.296875,221637.046875,246129.546875,0.029052734375,0.990478515625,0.06591796875,0.2746581733226776,-1.4038084745407104,-0.9765624403953552,73.33333587646484,196912.0,0.0
14920.0467872,294772.84375,294826.9375,326601.1875,320063.84375,285115.65625,255706.296875,221637.046875,246129.546875,0.029052734375,0.990478515625,0.06591796875,0.2746581733226776,-1.4038084745407104,-0.9765624403953552,73.33333587646484,196913.0,0.0
14920.0467874,294772.84375,294826.9375,326601.1875,320063.84375,285115.65625,255706.296875,221637.046875,246129.546875,0.029052734375,0.990478515625,0.06591796875,0.2746581733226776,-1.4038084745407104,-0.9765624403953552,73.33333587646484,196914.0,0.0
14920.0467875,294772.84375,294826.9375,326601.1875,320063.84375,285115.65625,255706.296875,221637.046875,246129.546875,0.029052734375,0.990478515625,0.06591796875,0.2746581733226776,-1.4038084745407104,-0.9765624403953552,73.33333587646484,196915.0,0.0
14920.0467877,294772.84375,294826.9375,326601.1875,320063.84375,285115.65625,255706.296875,221637.046875,246129.546875,0.029052734375,0.990478515625,0.06591796875,0.2746581733226776,-1.4038084745407104,-0.9765624403953552,73.33333587646484,196916.0,0.0
14920.0467879,294772.84375,294826.9375,326601.1875,320063.84375,285115.65625,255706.296875,221637.046875,246129.546875,0.029052734375,0.990478515625,0.06591796875,0.2746581733226776,-1.4038084745407104,-0.9765624403953552,73.33333587646484,196917.0,0.0
14920.0467881,294772.84375,294826.9375,326601.1875,320063.84375,285115.65625,255706.296875,221637.046875,246129.546875,0.029052734375,0.990478515625,0.06591796875,0.2746581733226776,-1.4038084745407104,-0.9765624403953552,73.33333587646484,196918.0,0.0
14920.0467882,294772.84375,294826.9375,326601.1875,320063.84375,285115.65625,255706.296875,221637.046875,246129.546875,0.029052734375,0.990478515625,0.06591796875,0.2746581733226776,-1.4038084745407104,-0.9765624403953552,73.33333587646484,196919.0,0.0
14920.0467884,294772.84375,294826.9375,326601.1875,320063.84375,285115.65625,255706.296875,221637.046875,246129.546875,0.029052734375,0.990478515625,0.06591796875,0.2746581733226776,-1.4038084745407104,-0.9765624403953552,73.33333587646484,196920.0,0.0
14920.0467886,294772.84375,294826.9375,326601.1875,320063.84375,285115.65625,255706.296875,221637.046875,246129.546875,0.029052734375,0.990478515625,0.06591796875,0.2746581733226776,-1.4038084745407104,-0.9765624403953552,73.33333587646484,196921.0,0.0
14920.0467888,294772.84375,294826.9375,326601.1875,320063.84375,285115.65625,255706.296875,221637.046875,246129.546875,0.029052734375,0.990478515625,0.06591796875,0.2746581733226776,-1.4038084745407104,-0.9765624403953552,73.33333587646484,196922.0,0.0
14920.0467889,294737.34375,295014.78125,326674.34375,319997.6875,285197.8125,255738.75,221653.59375,246105.953125,0.029052734375,0.988037109375,0.060791015625,0.7324218153953552,-1.5258787870407104,-0.4577636420726776,73.33333587646484,196923.0,1.0
14920.0692168,294729.59375,294721.09375,326480.5,320018.0625,285059.6875,255674.828125,221600.484375,246106.484375,0.028564453125,0.98974609375,0.0576171875,0.7934569716453552,-1.5258787870407104,-0.5187987685203552,73.33333587646484,196924.0,1.0
14920.0737913,294767.5625,294814.53125,326581.25,320063.3125,285112.4375,255703.875,221642.328125,246134.109375,0.02734375,0.990478515625,0.060546875,0.7019042372703552,-1.5563963651657104,-0.7324218153953552,73.33333587646484,196925.0,1.0
14920.0738097,294794.3125,295147.125,326829.28125,320068.875,285279.53125,255781.84375,221716.890625,246146.0,0.028564453125,0.99169921875,0.060546875,0.7324218153953552,-1.4953612089157104,-0.8239745497703552,73.33333587646484,196926.0,1.0
14920.0738113,294776.78125,295276.9375,326890.15625,320028.4375,285336.21875,255802.5,221724.9375,246131.15625,0.02978515625,0.99169921875,0.060302734375,0.6408690810203552,-1.3732908964157104,-0.9460448622703552,73.33333587646484,196927.0,1.0
14920.0738126,294740.9375,295029.8125,326691.6875,320002.59375,285211.75,255745.625,221659.578125,246113.546875,0.030517578125,0.99365234375,0.059814453125,0.6103515028953552,-1.4648436307907104,-1.0986326932907104,73.33333587646484,196928.0,1.0
14920.073814,294739.3125,294742.53125,326495.0,320029.96875,285075.0625,255701.203125,221618.984375,246124.28125,0.0302734375,0.9931640625,0.056640625,0.5798339247703552,-1.4343260526657104,-1.2512205839157104,73.33333587646484,196929.0,1.0
14920.0738153,294777.875,294822.75,326587.875,320071.28125,285120.75,255726.140625,221657.96875,246144.65625,0.03125,0.9921875,0.059326171875,0.5493163466453552,-1.5258787870407104,-1.3427733182907104,73.33333587646484,196930.0,1.0
14920.0762878,294803.6875,295138.875,326812.03125,320068.3125,285266.3125,255784.078125,221714.390625,246146.90625,0.031005859375,0.99072265625,0.059326171875,0.5493163466453552,-1.4953612089157104,-1.3732908964157104,73.33333587646484,196931.0,1.0
14920.0762979,294803.6875,295138.875,326812.03125,320068.3125,285266.3125,255784.078125,221714.390625,246146.90625,0.031005859375,0.99072265625,0.059326171875,0.5493163466453552,-1.4953612089157104,-1.3732908964157104,73.33333587646484,196932.0,0.0
14920.0762981,294803.6875,295138.875,326812.03125,320068.3125,285266.3125,255784.078125,221714.390625,246146.90625,0.031005859375,0.99072265625,0.059326171875,0.5493163466453552,-1.4953612089157104,-1.3732908964157104,73.33333587646484,196933.0,0.0
14920.0762983,294803.6875,295138.875,326812.03125,320068.3125,285266.3125,255784.078125,221714.390625,246146.90625,0.031005859375,0.99072265625,0.059326171875,0.5493163466453552,-1.4953612089157104,-1.3732908964157104,73.33333587646484,196934.0,0.0
14920.0762986,294803.6875,295138.875,326812.03125,320068.3125,285266.3125,255784.078125,221714.390625,246146.90625,0.031005859375,0.99072265625,0.059326171875,0.5493163466453552,-1.4953612089157104,-1.3732908964157104,73.33333587646484,196935.0,0.0
14920.0762988,294803.6875,295138.875,326812.03125,320068.3125,285266.3125,255784.078125,221714.390625,246146.90625,0.031005859375,0.99072265625,0.059326171875,0.5493163466453552,-1.4953612089157104,-1.3732908964157104,73.33333587646484,196936.0,0.0
14920.076299,294803.6875,295138.875,326812.03125,320068.3125,285266.3125,255784.078125,221714.390625,246146.90625,0.031005859375,0.99072265625,0.059326171875,0.5493163466453552,-1.4953612089157104,-1.3732908964157104,73.33333587646484,196937.0,0.0
14920.0762992,294803.6875,295138.875,326812.03125,320068.3125,285266.3125,255784.078125,221714.390625,246146.90625,0.031005859375,0.99072265625,0.059326171875,0.5493163466453552,-1.4953612089157104,-1.3732908964157104,73.33333587646484,196938.0,0.0
14920.0762994,294803.6875,295138.875,326812.03125,320068.3125,285266.3125,255784.078125,221714.390625,246146.90625,0.031005859375,0.99072265625,0.059326171875,0.5493163466453552,-1.4953612089157104,-1.3732908964157104,73.33333587646484,196939.0,0.0
14920.0762996,294803.6875,295138.875,326812.03125,320068.3125,285266.3125,255784.078125,221714.390625,246146.90625,0.031005859375,0.99072265625,0.059326171875,0.5493163466453552,-1.4953612089157104,-1.3732908964157104,73.33333587646484,196940.0,0.0
14920.0762998,294803.6875,295138.875,326812.03125,320068.3125,285266.3125,255784.078125,221714.390625,246146.90625,0.031005859375,0.99072265625,0.059326171875,0.5493163466453552,-1.4953612089157104,-1.3732908964157104,73.33333587646484,196941.0,0.0
14920.0763,294803.6875,295138.875,326812.03125,320068.3125,285266.3125,255784.078125,221714.390625,246146.90625,0.031005859375,0.99072265625,0.059326171875,0.5493163466453552,-1.4953612089157104,-1.3732908964157104,73.33333587646484,196942.0,0.0
14920.0763002,294803.6875,295138.875,326812.03125,320068.3125,285266.3125,255784.078125,221714.390625,246146.90625,0.031005859375,0.99072265625,0.059326171875,0.5493163466453552,-1.4953612089157104,-1.3732908964157104,73.33333587646484,196943.0,0.0
14920.0763004,294803.6875,295138.875,326812.03125,320068.3125,285266.3125,255784.078125,221714.390625,246146.90625,0.031005859375,0.99072265625,0.059326171875,0.5493163466453552,-1.4953612089157104,-1.3732908964157104,73.33333587646484,196944.0,0.0
14920.0763006,294803.6875,295138.875,326812.03125,320068.3125,285266.3125,255784.078125,221714.390625,246146.90625,0.031005859375,0.99072265625,0.059326171875,0.5493163466453552,-1.4953612089157104,-1.3732908964157104,73.33333587646484,196945.0,0.0
14920.0763008,294803.6875,295138.875,326812.03125,320068.3125,285266.3125,255784.078125,221714.390625,246146.90625,0.031005859375,0.99072265625,0.059326171875,0.5493163466453552,-1.4953612089157104,-1.3732908964157104,73.33333587646484,196946.0,0.0
14920.076301,294803.6875,295138.875,326812.03125,320068.3125,285266.3125,255784.078125,221714.390625,246146.90625,0.031005859375,0.99072265625,0.059326171875,0.5493163466453552,-1.4953612089157104,-1.3732908964157104,73.33333587646484,196947.0,0.0
14920.0763012,294803.6875,295138.875,326812.03125,320068.3125,285266.3125,255784.078125,221714.390625,246146.90625,0.031005859375,0.99072265625,0.059326171875,0.5493163466453552,-1.4953612089157104,-1.3732908964157104,73.33333587646484,196948.0,0.0
14920.0763014,294803.6875,295138.875,326812.03125,320068.3125,285266.3125,255784.078125,221714.390625,246146.90625,0.031005859375,0.99072265625,0.059326171875,0.5493163466453552,-1.4953612089157104,-1.3732908964157104,73.33333587646484,196949.0,0.0
14920.0763015,294803.6875,295138.875,326812.03125,320068.3125,285266.3125,255784.078125,221714.390625,246146.90625,0.031005859375,0.99072265625,0.059326171875,0.5493163466453552,-1.4953612089157104,-1.3732908964157104,73.33333587646484,196950.0,0.0
14920.0763017,294803.6875,295138.875,326812.03125,320068.3125,285266.3125,255784.078125,221714.390625,246146.90625,0.031005859375,0.99072265625,0.059326171875,0.5493163466453552,-1.4953612089157104,-1.3732908964157104,73.33333587646484,196951.0,0.0
14920.0763019,294803.6875,295138.875,326812.03125,320068.3125,285266.3125,255784.078125,221714.390625,246146.90625,0.031005859375,0.99072265625,0.059326171875,0.5493163466453552,-1.4953612089157104,-1.3732908964157104,73.33333587646484,196952.0,0.0
14920.0763021,294803.6875,295138.875,326812.03125,320068.3125,285266.3125,255784.078125,221714.390625,246146.90625,0.031005859375,0.99072265625,0.059326171875,0.5493163466453552,-1.4953612089157104,-1.3732908964157104,73.33333587646484,196953.0,0.0
14920.0763023,294803.6875,295138.875,326812.03125,320068.3125,285266.3125,255784.078125,221714.390625,246146.90625,0.031005859375,0.99072265625,0.059326171875,0.5493163466453552,-1.4953612089157104,-1.3732908964157104,73.33333587646484,196954.0,0.0
14920.0763025,294803.6875,295138.875,326812.03125,320068.3125,285266.3125,255784.078125,221714.390625,246146.90625,0.031005859375,0.99072265625,0.059326171875,0.5493163466453552,-1.4953612089157104,-1.3732908964157104,73.33333587646484,196955.0,0.0
14920.0763027,294803.6875,295138.875,326812.03125,320068.3125,285266.3125,255784.078125,221714.390625,246146.90625,0.031005859375,0.99072265625,0.059326171875,0.5493163466453552,-1.4953612089157104,-1.3732908964157104,73.33333587646484,196956.0,0.0
14920.0763029,294803.6875,295138.875,326812.03125,320068.3125,285266.3125,255784.078125,221714.390625,246146.90625,0.031005859375,0.99072265625,0.059326171875,0.5493163466453552,-1.4953612089157104,-1.3732908964157104,73.33333587646484,196957.0,0.0
14920.0763031,294803.6875,295138.875,326812.03125,320068.3125,285266.3125,255784.078125,221714.390625,246146.90625,0.031005859375,0.99072265625,0.059326171875,0.5493163466453552,-1.4953612089157104,-1.3732908964157104,73.33333587646484,196958.0,0.0
14920.0763033,294803.6875,295138.875,326812.03125,320068.3125,285266.3125,255784.078125,221714.390625,246146.90625,0.031005859375,0.99072265625,0.059326171875,0.5493163466453552,-1.4953612089157104,-1.3732908964157104,73.33333587646484,196959.0,0.0
14920.0763035,294803.6875,295138.875,326812.03125,320068.3125,285266.3125,255784.078125,221714.390625,246146.90625,0.031005859375,0.99072265625,0.059326171875,0.5493163466453552,-1.4953612089157104,-1.3732908964157104,73.33333587646484,196960.0,0.0
14920.0763036,294803.6875,295138.875,326812.03125,320068.3125,285266.3125,255784.078125,221714.390625,246146.90625,0.031005859375,0.99072265625,0.059326171875,0.5493163466453552,-1.4953612089157104,-1.3732908964157104,73.33333587646484,196961.0,0.0
14920.0763038,294803.6875,295138.875,326812.03125,320068.3125,285266.3125,255784.078125,221714.390625,246146.90625,0.031005859375,0.99072265625,0.059326171875,0.5493163466453552,-1.4953612089157104,-1.3732908964157104,73.33333587646484,196962.0,0.0
14920.076304,294803.6875,295138.875,326812.03125,320068.3125,285266.3125,255784.078125,221714.390625,246146.90625,0.031005859375,0.99072265625,0.059326171875,0.5493163466453552,-1.4953612089157104,-1.3732908964157104,73.33333587646484,196963.0,0.0
14920.0763042,294803.6875,295138.875,326812.03125,320068.3125,285266.3125,255784.078125,221714.390625,246146.90625,0.031005859375,0.99072265625,0.059326171875,0.5493163466453552,-1.4953612089157104,-1.3732908964157104,73.33333587646484,196964.0,0.0
14920.0763044,294803.6875,295138.875,326812.03125,320068.3125,285266.3125,255784.078125,221714.390625,246146.90625,0.031005859375,0.99072265625,0.059326171875,0.5493163466453552,-1.4953612089157104,-1.3732908964157104,73.33333587646484,196965.0,0.0
14920.0763046,294803.6875,295138.875,326812.03125,320068.3125,285266.3125,255784.078125,221714.390625,246146.90625,0.031005859375,0.99072265625,0.059326171875,0.5493163466453552,-1.4953612089157104,-1.3732908964157104,73.33333587646484,196966.0,0.0
14920.0763048,294803.6875,295138.875,326812.03125,320068.3125,285266.3125,255784.078125,221714.390625,246146.90625,0.031005859375,0.99072265625,0.059326171875,0.5493163466453552,-1.4953612089157104,-1.3732908964157104,73.33333587646484,196967.0,0.0
14920.076305,294803.6875,295138.875,326812.03125,320068.3125,285266.3125,255784.078125,221714.390625,246146.90625,0.031005859375,0.99072265625,0.059326171875,0.5493163466453552,-1.4953612089157104,-1.3732908964157104,73.33333587646484,196968.0,0.0
14920.0763052,294743.34375,294747.625,326486.5,320021.375,285067.46875,255693.328125,221611.5625,246110.0625,0.029052734375,0.990478515625,0.065185546875,0.3662109076976776,-1.0986326932907104,-1.1901854276657104,73.33333587646484,196969.0,1.0
14920.0763066,294780.4375,294821.40625,326570.96875,320064.375,285110.0,255713.890625,221648.9375,246133.671875,0.026123046875,0.990234375,0.066650390625,0.3662109076976776,-1.1291502714157104,-1.2817381620407104,73.33333587646484,196970.0,1.0
14920.0779722,294808.4375,295149.34375,326812.65625,320066.09375,285270.5,255785.78125,221717.328125,246138.578125,0.025390625,0.991943359375,0.06494140625,0.3662109076976776,-1.2207030057907104,-1.3427733182907104,73.33333587646484,196971.0,1.0
14920.0848455,294791.71875,295285.6875,326874.0625,320024.78125,285325.3125,255805.984375,221725.734375,246122.140625,0.02685546875,0.99169921875,0.06396484375,0.3356933295726776,-1.2512205839157104,-1.4648436307907104,73.33333587646484,196972.0,1.0
14920.0848494,294759.1875,295052.53125,326692.65625,320002.875,285212.375,255752.78125,221668.25,246105.140625,0.02490234375,0.9912109375,0.0615234375,0.3051757514476776,-1.3427733182907104,-1.3732908964157104,73.33333587646484,196973.0,1.0
14920.0848508,294756.3125,294762.40625,326507.78125,320026.40625,285080.875,255696.015625,221620.953125,246110.15625,0.022216796875,0.99267578125,0.06201171875,0.3051757514476776,-1.3427733182907104,-1.4648436307907104,73.33333587646484,196974.0,1.0
14920.0848521,294792.96875,294837.21875,326604.875,320067.25,285126.71875,255711.921875,221643.3125,246123.03125,0.022705078125,0.9921875,0.063720703125,0.3662109076976776,-1.4038084745407104,-1.3732908964157104,73.33333587646484,196975.0,1.0
14920.0848534,294816.46875,295153.8125,326834.8125,320067.875,285276.65625,255775.671875,221703.828125,246129.734375,0.026611328125,0.99072265625,0.0634765625,0.3356933295726776,-1.5258787870407104,-1.5258787870407104,73.33333587646484,196976.0,1.0
14920.0848548,294802.625,295289.09375,326884.25,320032.125,285325.75,255799.28125,221715.90625,246119.625,0.024658203125,0.988525390625,0.064208984375,0.3662109076976776,-1.7089842557907104,-1.4343260526657104,73.33333587646484,196977.0,1.0
14920.0848561,294768.84375,295059.59375,326700.0,320010.21875,285214.25,255748.765625,221657.4375,246102.46875,0.02587890625,0.98779296875,0.064697265625,0.2441406100988388,-1.8005369901657104,-1.3732908964157104,73.33333587646484,196978.0,1.0
14920.0848575,294758.46875,294763.28125,326507.40625,320028.28125,285078.1875,255688.59375,221608.4375,246108.71875,0.029296875,0.988037109375,0.06494140625,0.3967284858226776,-1.7395018339157104,-1.1901854276657104,73.33333587646484,196979.0,1.0
14920.0848589,294794.3125,294839.71875,326603.4375,320074.84375,285129.78125,255722.296875,221652.96875,246140.015625,0.029296875,0.98779296875,0.06298828125,0.4577636420726776,-1.6784666776657104,-1.0986326932907104,73.33333587646484,196980.0,1.0
14920.0848604,294809.5,295144.875,326818.90625,320066.09375,285268.09375,255780.328125,221705.71875,246139.125,0.02880859375,0.989990234375,0.064208984375,0.5187987685203552,-1.7089842557907104,-1.0681151151657104,73.33333587646484,196981.0,1.0
14920.0868067,294785.71875,295280.40625,326868.625,320020.59375,285316.28125,255792.75,221713.21875,246120.25,0.025390625,0.98974609375,0.065185546875,0.4577636420726776,-1.7700194120407104,-0.9460448622703552,73.33333587646484,196982.0,1.0
14920.0868094,294785.71875,295280.40625,326868.625,320020.59375,285316.28125,255792.75,221713.21875,246120.25,0.025390625,0.98974609375,0.065185546875,0.4577636420726776,-1.7700194120407104,-0.9460448622703552,73.33333587646484,196983.0,0.0
14920.0868096,294785.71875,295280.40625,326868.625,320020.59375,285316.28125,255792.75,221713.21875,246120.25,0.025390625,0.98974609375,0.065185546875,0.4577636420726776,-1.7700194120407104,-0.9460448622703552,73.33333587646484,196984.0,0.0
14920.0868098,294785.71875,295280.40625,326868.625,320020.59375,285316.28125,255792.75,221713.21875,246120.25,0.025390625,0.98974609375,0.065185546875,0.4577636420726776,-1.7700194120407104,-0.9460448622703552,73.33333587646484,196985.0,0.0
14920.0868101,294798.4375,295150.0625,326828.84375,320059.125,285279.96875,255791.859375,221720.734375,246145.921875,0.02880859375,0.98779296875,0.064697265625,0.5798339247703552,-1.8615721464157104,-0.8239745497703552,73.33333587646484,196986.0,1.0
14920.0892236,294773.3125,295266.1875,326859.5,320010.21875,285312.78125,255794.890625,221714.921875,246123.03125,0.029296875,0.989501953125,0.061279296875,0.6103515028953552,-1.7700194120407104,-0.7324218153953552,73.33333587646484,196987.0,1.0
14920.0917163,294742.625,295037.84375,326668.875,319991.6875,285196.90625,255742.140625,221661.640625,246113.546875,0.0283203125,0.990234375,0.06103515625,0.6408690810203552,-1.7395018339157104,-0.7629393935203552,73.33333587646484,196988.0,1.0
14920.1167702,294738.4375,294753.625,326487.75,320016.28125,285071.125,255699.40625,221626.765625,246123.828125,0.02880859375,0.990478515625,0.062255859375,0.6103515028953552,-1.6784666776657104,-0.8239745497703552,73.33333587646484,196989.0,1.0
14920.1417632,294779.46875,294830.15625,326588.875,320064.375,285125.65625,255740.0,221668.609375,246144.03125,0.024169921875,0.991943359375,0.064697265625,0.5187987685203552,-1.6479490995407104,-1.0070799589157104,73.33333587646484,196990.0,1.0
14920.167398,294800.21875,295148.1875,326824.8125,320062.15625,285278.09375,255801.0625,221729.40625,246142.609375,0.023193359375,0.991943359375,0.0595703125,0.5187987685203552,-1.7089842557907104,-0.9460448622703552,73.33333587646484,196991.0,1.0
14920.1674042,294781.0,295285.25,326880.96875,320018.96875,285330.40625,255813.9375,221731.734375,246126.328125,0.024169921875,0.990966796875,0.057861328125,0.4577636420726776,-1.7700194120407104,-1.0986326932907104,73.33333587646484,196992.0,1.0
14920.2255105,294742.71875,295043.65625,326686.9375,319990.625,285205.9375,255745.453125,221658.328125,246102.90625,0.025634765625,0.99169921875,0.059814453125,0.5493163466453552,-1.8310545682907104,-1.1901854276657104,73.33333587646484,196993.0,1.0
14920.2774787,294735.3125,294739.3125,326484.625,320009.40625,285062.8125,255691.359375,221611.125,246103.359375,0.026611328125,0.990478515625,0.062255859375,0.5798339247703552,-1.8310545682907104,-1.2207030057907104,73.33333587646484,196994.0,1.0
14920.2774894,294785.0,294821.125,326589.03125,320066.96875,285122.96875,255732.484375,221666.015625,246138.5,0.02734375,0.989501953125,0.0595703125,0.5187987685203552,-1.9226073026657104,-1.3732908964157104,73.33333587646484,196995.0,1.0
14920.2774907,294810.21875,295149.96875,326830.0,320069.9375,285280.875,255799.453125,221730.5625,246144.484375,0.02734375,0.989501953125,0.0595703125,0.5187987685203552,-1.9226073026657104,-1.3122557401657104,73.33333587646484,196996.0,1.0
14920.2774919,294784.65625,295282.375,326883.1875,320023.875,285326.5625,255803.390625,221721.359375,246125.796875,0.028564453125,0.986572265625,0.058349609375,0.5187987685203552,-1.8615721464157104,-1.3732908964157104,73.33333587646484,196997.0,1.0
14920.2774932,294747.71875,295043.3125,326691.59375,319997.6875,285207.1875,255749.828125,221661.546875,246108.625,0.029541015625,0.98828125,0.059326171875,0.4882812201976776,-1.8310545682907104,-1.4343260526657104,73.33333587646484,196998.0,1.0
14920.2774944,294737.34375,294743.25,326492.75,320017.375,285068.4375,255699.765625,221618.984375,246112.65625,0.02783203125,0.98779296875,0.061279296875,0.4882812201976776,-1.7700194120407104,-1.3732908964157104,73.33333587646484,196999.0,1.0
14920.2774957,294774.28125,294819.0625,326591.28125,320063.125,285119.84375,255723.1875,221653.59375,246138.671875,0.02685546875,0.987548828125,0.058837890625,0.5798339247703552,-1.7089842557907104,-1.4038084745407104,73.33333587646484,197000.0,1.0
14920.277497,294802.4375,295151.21875,326842.78125,320066.96875,285286.59375,255786.140625,221713.765625,246145.734375,0.02587890625,0.986328125,0.062744140625,0.5798339247703552,-1.6479490995407104,-1.3427733182907104,73.33333587646484,197001.0,1.0
14920.2774983,294779.1875,295287.03125,326895.875,320021.46875,285337.28125,255808.03125,221721.09375,246127.671875,0.027099609375,0.986572265625,0.062255859375,0.6103515028953552,-1.6784666776657104,-1.3732908964157104,73.33333587646484,197002.0,1.0
14920.2774995,294743.875,295055.8125,326704.03125,319999.21875,285222.40625,255772.90625,221675.046875,246114.71875,0.026611328125,0.988525390625,0.06396484375,0.5493163466453552,-1.6479490995407104,-1.2512205839157104,73.33333587646484,197003.0,1.0
14920.2775007,294730.21875,294753.90625,326503.9375,320014.21875,285079.34375,255710.140625,221620.5,246115.875,0.02685546875,0.98779296875,0.06640625,0.5493163466453552,-1.6174315214157104,-1.1291502714157104,73.33333587646484,197004.0,1.0
14920.2775019,294760.4375,294810.5,326585.1875,320054.09375,285116.53125,255726.59375,221650.734375,246135.28125,0.027099609375,0.98876953125,0.061279296875,0.5798339247703552,-1.6784666776657104,-1.0681151151657104,73.33333587646484,197005.0,1.0
14920.2775034,294760.4375,294810.5,326585.1875,320054.09375,285116.53125,255726.59375,221650.734375,246135.28125,0.027099609375,0.98876953125,0.061279296875,0.5798339247703552,-1.6784666776657104,-1.0681151151657104,73.33333587646484,197006.0,0.0
14920.2775036,294760.4375,294810.5,326585.1875,320054.09375,285116.53125,255726.59375,221650.734375,246135.28125,0.027099609375,0.98876953125,0.061279296875,0.5798339247703552,-1.6784666776657104,-1.0681151151657104,73.33333587646484,197007.0,0.0
14920.2775038,294760.4375,294810.5,326585.1875,320054.09375,285116.53125,255726.59375,221650.734375,246135.28125,0.027099609375,0.98876953125,0.061279296875,0.5798339247703552,-1.6784666776657104,-1.0681151151657104,73.33333587646484,197008.0,0.0
14920.2775039,294760.4375,294810.5,326585.1875,320054.09375,285116.53125,255726.59375,221650.734375,246135.28125,0.027099609375,0.98876953125,0.061279296875,0.5798339247703552,-1.6784666776657104,-1.0681151151657104,73.33333587646484,197009.0,0.0
14920.2775041,294750.0625,294820.96875,326581.875,320044.625,285116.4375,255730.34375,221653.859375,246133.390625,0.023193359375,0.988037109375,0.061279296875,0.6103515028953552,-1.6479490995407104,-0.8544921278953552,73.33333587646484,197010.0,1.0
14920.2775053,294770.34375,295135.03125,326808.28125,320041.59375,285263.09375,255782.296875,221709.203125,246134.5625,0.023681640625,0.989990234375,0.061279296875,0.5493163466453552,-1.6174315214157104,-0.8239745497703552,73.33333587646484,197011.0,1.0
14920.3115126,294752.375,295275.84375,326865.9375,320000.375,285317.4375,255804.375,221718.140625,246115.78125,0.025390625,0.98974609375,0.06201171875,0.4882812201976776,-1.6174315214157104,-0.8850097060203552,73.33333587646484,197012.0,1.0
14920.3115198,294710.34375,295033.375,326671.9375,319970.78125,285193.875,255728.90625,221644.5625,246092.984375,0.02587890625,0.98974609375,0.064697265625,0.5798339247703552,-1.5869139432907104,-0.9155272841453552,73.33333587646484,197013.0,1.0
14920.3115211,294700.6875,294727.15625,326465.84375,319991.0,285049.75,255670.0,221592.515625,246095.671875,0.025634765625,0.98974609375,0.06005859375,0.6103515028953552,-1.5869139432907104,-0.8850097060203552,73.33333587646484,197014.0,1.0
14920.3115224,294740.9375,294795.5625,326552.03125,320035.5,285092.75,255707.546875,221635.609375,246118.46875,0.02685546875,0.990478515625,0.062744140625,0.5798339247703552,-1.6479490995407104,-0.9155272841453552,73.33333587646484,197015.0,1.0
14920.3115237,294770.0,295121.0,326795.46875,320040.875,285251.28125,255776.03125,221703.125,246126.609375,0.02978515625,0.990234375,0.061767578125,0.4272460639476776,-1.5563963651657104,-0.9460448622703552,73.33333587646484,197016.0,1.0
14920.3115249,294753.625,295264.5,326861.71875,320000.90625,285309.03125,255783.71875,221706.78125,246113.640625,0.029541015625,0.9892578125,0.0634765625,0.4272460639476776,-1.4953612089157104,-0.9460448622703552,73.33333587646484,197017.0,1.0
14920.3115261,294721.09375,295039.09375,326681.03125,319978.5625,285201.46875,255735.96875,221653.671875,246098.171875,0.028076171875,0.9892578125,0.064697265625,0.3662109076976776,-1.4648436307907104,-0.9765624403953552,73.33333587646484,197018.0,1.0
14920.313773,294715.46875,294742.375,326487.21875,320001.71875,285066.03125,255688.40625,221608.609375,246099.609375,0.027099609375,0.9892578125,0.060302734375,0.4272460639476776,-1.4343260526657104,-0.9460448622703552,73.33333587646484,197019.0,1.0
14920.3137757,294755.5,294811.125,326581.71875,320050.71875,285115.90625,255724.625,221654.65625,246128.578125,0.028076171875,0.990966796875,0.06396484375,0.3662109076976776,-1.4038084745407104,-0.9460448622703552,73.33333587646484,197020.0,1.0
14920.313777,294783.21875,295140.84375,326826.59375,320054.09375,285276.03125,255796.6875,221725.296875,246140.90625,0.029052734375,0.990234375,0.060302734375,0.3662109076976776,-1.3427733182907104,-0.8850097060203552,73.33333587646484,197021.0,1.0
14920.3155128,294756.21875,295272.0,326878.09375,320003.3125,285318.6875,255801.953125,221716.625,246116.671875,0.030517578125,0.989501953125,0.060546875,0.3967284858226776,-1.3732908964157104,-1.0070799589157104,73.33333587646484,197022.0,1.0
14920.3861986,294711.59375,295022.5625,326666.375,319968.1875,285179.3125,255734.640625,221638.390625,246089.046875,0.028564453125,0.98974609375,0.061767578125,0.4272460639476776,-1.3122557401657104,-1.0681151151657104,73.33333587646484,197023.0,1.0
14920.3862056,294705.96875,294724.84375,326460.03125,319991.78125,285037.40625,255687.875,221594.21875,246092.546875,0.029296875,0.989990234375,0.06298828125,0.4577636420726776,-1.2817381620407104,-1.0070799589157104,73.33333587646484,197024.0,1.0
14920.386207,294743.15625,294793.5,326549.875,320038.28125,285083.5625,255710.046875,221634.453125,246116.328125,0.029052734375,0.988037109375,0.0625,0.4577636420726776,-1.1596678495407104,-0.9765624403953552,73.33333587646484,197025.0,1.0
14920.3862082,294773.75,295122.34375,326798.0625,320045.34375,285250.03125,255772.71875,221703.5625,246135.8125,0.027099609375,0.988037109375,0.062255859375,0.5798339247703552,-1.0986326932907104,-1.0375975370407104,73.33333587646484,197026.0,1.0
14920.3862094,294754.78125,295258.59375,326853.0625,320001.8125,285306.0,255791.3125,221714.828125,246123.46875,0.026611328125,0.98583984375,0.060791015625,0.5187987685203552,-1.1596678495407104,-1.0375975370407104,73.33333587646484,197027.0,1.0
14920.3862106,294719.21875,295032.84375,326660.5625,319974.09375,285190.65625,255745.625,221662.625,246107.734375,0.029052734375,0.985595703125,0.0625,0.4272460639476776,-1.0986326932907104,-1.0681151151657104,73.33333587646484,197028.0,1.0
14920.3862119,294716.09375,294744.40625,326476.84375,319997.25,285063.0,255701.828125,221621.140625,246106.9375,0.026123046875,0.98876953125,0.0615234375,0.4272460639476776,-1.0986326932907104,-1.0070799589157104,73.33333587646484,197029.0,1.0
14920.3862131,294752.65625,294811.125,326572.9375,320044.28125,285111.71875,255723.453125,221654.125,246128.84375,0.02587890625,0.988037109375,0.060791015625,0.4272460639476776,-1.0681151151657104,-1.0375975370407104,73.33333587646484,197030.0,1.0
14920.3862143,294774.28125,295125.21875,326803.4375,320042.9375,285260.21875,255781.125,221708.84375,246134.109375,0.02490234375,0.989501953125,0.061279296875,0.4577636420726776,-1.1291502714157104,-1.1901854276657104,73.33333587646484,197031.0,1.0
14920.3862156,294751.03125,295262.09375,326860.03125,319995.8125,285307.15625,255785.59375,221704.453125,246114.984375,0.02490234375,0.98974609375,0.062255859375,0.4577636420726776,-1.0681151151657104,-1.1596678495407104,73.33333587646484,197032.0,1.0
14920.4112148,294712.59375,295024.1875,326666.75,319969.34375,285187.8125,255729.09375,221643.578125,246096.734375,0.0263671875,0.99072265625,0.063720703125,0.3967284858226776,-1.0681151151657104,-1.0986326932907104,73.33333587646484,197033.0,1.0
14920.4112206,294710.8125,294736.1875,326469.9375,319993.5,285053.0625,255683.5,221601.734375,246101.921875,0.02490234375,0.9892578125,0.06201171875,0.3356933295726776,-1.0986326932907104,-1.0070799589157104,73.33333587646484,197034.0,1.0
14920.411222,294753.90625,294806.8125,326565.15625,320044.90625,285102.6875,255715.140625,221642.234375,246129.28125,0.02685546875,0.98876953125,0.062255859375,0.3356933295726776,-1.2207030057907104,-0.9460448622703552,73.33333587646484,197035.0,1.0
14920.4355727,294753.90625,294806.8125,326565.15625,320044.90625,285102.6875,255715.140625,221642.234375,246129.28125,0.02685546875,0.98876953125,0.062255859375,0.3356933295726776,-1.2207030057907104,-0.9460448622703552,73.33333587646484,197036.0,0.0
14920.4355741,294753.90625,294806.8125,326565.15625,320044.90625,285102.6875,255715.140625,221642.234375,246129.28125,0.02685546875,0.98876953125,0.062255859375,0.3356933295726776,-1.2207030057907104,-0.9460448622703552,73.33333587646484,197037.0,0.0
14920.4355743,294753.90625,294806.8125,326565.15625,320044.90625,285102.6875,255715.140625,221642.234375,246129.28125,0.02685546875,0.98876953125,0.062255859375,0.3356933295726776,-1.2207030057907104,-0.9460448622703552,73.33333587646484,197038.0,0.0
14920.4355745,294753.90625,294806.8125,326565.15625,320044.90625,285102.6875,255715.140625,221642.234375,246129.28125,0.02685546875,0.98876953125,0.062255859375,0.3356933295726776,-1.2207030057907104,-0.9460448622703552,73.33333587646484,197039.0,0.0
14920.4355747,294753.90625,294806.8125,326565.15625,320044.90625,285102.6875,255715.140625,221642.234375,246129.28125,0.02685546875,0.98876953125,0.062255859375,0.3356933295726776,-1.2207030057907104,-0.9460448622703552,73.33333587646484,197040.0,0.0
14920.4355749,294753.90625,294806.8125,326565.15625,320044.90625,285102.6875,255715.140625,221642.234375,246129.28125,0.02685546875,0.98876953125,0.062255859375,0.3356933295726776,-1.2207030057907104,-0.9460448622703552,73.33333587646484,197041.0,0.0
14920.435575,294753.90625,294806.8125,326565.15625,320044.90625,285102.6875,255715.140625,221642.234375,246129.28125,0.02685546875,0.98876953125,0.062255859375,0.3356933295726776,-1.2207030057907104,-0.9460448622703552,73.33333587646484,197042.0,0.0
14920.4355752,294753.90625,294806.8125,326565.15625,320044.90625,285102.6875,255715.140625,221642.234375,246129.28125,0.02685546875,0.98876953125,0.062255859375,0.3356933295726776,-1.2207030057907104,-0.9460448622703552,73.33333587646484,197043.0,0.0
14920.4355754,294753.90625,294806.8125,326565.15625,320044.90625,285102.6875,255715.140625,221642.234375,246129.28125,0.02685546875,0.98876953125,0.062255859375,0.3356933295726776,-1.2207030057907104,-0.9460448622703552,73.33333587646484,197044.0,0.0
14920.4355756,294753.90625,294806.8125,326565.15625,320044.90625,285102.6875,255715.140625,221642.234375,246129.28125,0.02685546875,0.98876953125,0.062255859375,0.3356933295726776,-1.2207030057907104,-0.9460448622703552,73.33333587646484,197045.0,0.0
14920.4355757,294753.90625,294806.8125,326565.15625,320044.90625,285102.6875,255715.140625,221642.234375,246129.28125,0.02685546875,0.98876953125,0.062255859375,0.3356933295726776,-1.2207030057907104,-0.9460448622703552,73.33333587646484,197046.0,0.0
14920.4355759,294753.90625,294806.8125,326565.15625,320044.90625,285102.6875,255715.140625,221642.234375,246129.28125,0.02685546875,0.98876953125,0.062255859375,0.3356933295726776,-1.2207030057907104,-0.9460448622703552,73.33333587646484,197047.0,0.0
14920.4355761,294753.90625,294806.8125,326565.15625,320044.90625,285102.6875,255715.140625,221642.234375,246129.28125,0.02685546875,0.98876953125,0.062255859375,0.3356933295726776,-1.2207030057907104,-0.9460448622703552,73.33333587646484,197048.0,0.0
14920.4355763,294703.375,294728.15625,326464.59375,319991.4375,285054.3125,255679.203125,221598.15625,246101.03125,0.02880859375,0.98681640625,0.06591796875,0.1220703050494194,-1.6174315214157104,-0.7324218153953552,73.33333587646484,197049.0,1.0
14920.446789,294745.21875,294803.96875,326570.34375,320045.25,285112.6875,255718.09375,221643.03125,246130.453125,0.02978515625,0.986083984375,0.06494140625,0.1525878757238388,-1.6784666776657104,-0.7324218153953552,73.33333587646484,197050.0,1.0
14920.449258,294763.90625,295112.6875,326793.96875,320042.125,285256.03125,255772.640625,221702.84375,246139.828125,0.0322265625,0.986328125,0.06396484375,0.1525878757238388,-1.6784666776657104,-0.7629393935203552,73.33333587646484,197051.0,1.0
14920.4523299,294746.5625,295256.8125,326851.0,320001.0,285308.78125,255796.140625,221713.9375,246123.65625,0.03271484375,0.98779296875,0.0625,0.1220703050494194,-1.6784666776657104,-0.6713866591453552,73.33333587646484,197052.0,1.0
14920.4523322,294714.28125,295037.59375,326669.78125,319976.78125,285200.40625,255756.09375,221664.671875,246107.109375,0.03271484375,0.990478515625,0.06396484375,0.0915527269244194,-1.6479490995407104,-0.7019042372703552,73.33333587646484,197053.0,1.0
14920.4555606,294706.6875,294739.3125,326472.09375,319996.0,285064.6875,255699.140625,221615.140625,246113.90625,0.034912109375,0.98876953125,0.06494140625,0.1220703050494194,-1.5869139432907104,-0.7629393935203552,73.33333587646484,197054.0,1.0
14920.4596305,294740.84375,294795.21875,326559.375,320040.96875,285109.125,255709.15625,221643.125,246135.8125,0.0322265625,0.98779296875,0.062744140625,0.1525878757238388,-1.5563963651657104,-0.8850097060203552,73.33333587646484,197055.0,1.0
14920.4596331,294769.53125,295119.84375,326801.375,320047.65625,285268.625,255776.828125,221707.59375,246144.65625,0.030517578125,0.98681640625,0.065673828125,0.2746581733226776,-1.3732908964157104,-0.7934569716453552,73.33333587646484,197056.0,1.0
14920.4596343,294755.0625,295271.125,326866.21875,320005.75,285326.03125,255797.9375,221714.65625,246125.265625,0.0322265625,0.989013671875,0.0654296875,0.2746581733226776,-1.2817381620407104,-0.7934569716453552,73.33333587646484,197057.0,1.0
14920.4596356,294719.3125,295047.59375,326685.5,319980.15625,285216.59375,255749.390625,221659.484375,246109.53125,0.032958984375,0.989501953125,0.064697265625,0.1831054538488388,-1.1901854276657104,-0.8239745497703552,73.33333587646484,197058.0,1.0
14920.4596368,294719.3125,294760.78125,326502.6875,320011.09375,285093.03125,255710.234375,221625.0625,246122.765625,0.030517578125,0.990966796875,0.064208984375,0.2441406100988388,-1.2512205839157104,-0.8544921278953552,73.33333587646484,197059.0,1.0
14920.4596381,294760.15625,294822.84375,326591.90625,320058.3125,285137.5625,255735.796875,221659.671875,246145.5625,0.031005859375,0.990234375,0.062744140625,0.2746581733226776,-1.1596678495407104,-0.9155272841453552,73.33333587646484,197060.0,1.0
14920.4623388,294772.3125,295118.40625,326799.59375,320045.53125,285266.46875,255776.5625,221695.875,246138.671875,0.031494140625,0.990234375,0.064697265625,0.2746581733226776,-1.0070799589157104,-1.0681151151657104,73.33333587646484,197061.0,1.0
14920.4623415,294772.3125,295118.40625,326799.59375,320045.53125,285266.46875,255776.5625,221695.875,246138.671875,0.031494140625,0.990234375,0.064697265625,0.2746581733226776,-1.0070799589157104,-1.0681151151657104,73.33333587646484,197062.0,0.0
14920.4623418,294772.3125,295118.40625,326799.59375,320045.53125,285266.46875,255776.5625,221695.875,246138.671875,0.031494140625,0.990234375,0.064697265625,0.2746581733226776,-1.0070799589157104,-1.0681151151657104,73.33333587646484,197063.0,0.0
14920.4623419,294772.3125,295118.40625,326799.59375,320045.53125,285266.46875,255776.5625,221695.875,246138.671875,0.031494140625,0.990234375,0.064697265625,0.2746581733226776,-1.0070799589157104,-1.0681151151657104,73.33333587646484,197064.0,0.0
14920.4623421,294772.3125,295118.40625,326799.59375,320045.53125,285266.46875,255776.5625,221695.875,246138.671875,0.031494140625,0.990234375,0.064697265625,0.2746581733226776,-1.0070799589157104,-1.0681151151657104,73.33333587646484,197065.0,0.0
14920.4623423,294772.3125,295118.40625,326799.59375,320045.53125,285266.46875,255776.5625,221695.875,246138.671875,0.031494140625,0.990234375,0.064697265625,0.2746581733226776,-1.0070799589157104,-1.0681151151657104,73.33333587646484,197066.0,0.0
14920.4623426,294772.3125,295118.40625,326799.59375,320045.53125,285266.46875,255776.5625,221695.875,246138.671875,0.031494140625,0.990234375,0.064697265625,0.2746581733226776,-1.0070799589157104,-1.0681151151657104,73.33333587646484,197067.0,0.0
14920.4623428,294772.3125,295118.40625,326799.59375,320045.53125,285266.46875,255776.5625,221695.875,246138.671875,0.031494140625,0.990234375,0.064697265625,0.2746581733226776,-1.0070799589157104,-1.0681151151657104,73.33333587646484,197068.0,0.0
14920.462343,294772.3125,295118.40625,326799.59375,320045.53125,285266.46875,255776.5625,221695.875,246138.671875,0.031494140625,0.990234375,0.064697265625,0.2746581733226776,-1.0070799589157104,-1.0681151151657104,73.33333587646484,197069.0,0.0
14920.4623432,294772.3125,295118.40625,326799.59375,320045.53125,285266.46875,255776.5625,221695.875,246138.671875,0.031494140625,0.990234375,0.064697265625,0.2746581733226776,-1.0070799589157104,-1.0681151151657104,73.33333587646484,197070.0,0.0
14920.4623433,294772.3125,295118.40625,326799.59375,320045.53125,285266.46875,255776.5625,221695.875,246138.671875,0.031494140625,0.990234375,0.064697265625,0.2746581733226776,-1.0070799589157104,-1.0681151151657104,73.33333587646484,197071.0,0.0
14920.4623435,294772.3125,295118.40625,326799.59375,320045.53125,285266.46875,255776.5625,221695.875,246138.671875,0.031494140625,0.990234375,0.064697265625,0.2746581733226776,-1.0070799589157104,-1.0681151151657104,73.33333587646484,197072.0,0.0
14920.4623437,294772.3125,295118.40625,326799.59375,320045.53125,285266.46875,255776.5625,221695.875,246138.671875,0.031494140625,0.990234375,0.064697265625,0.2746581733226776,-1.0070799589157104,-1.0681151151657104,73.33333587646484,197073.0,0.0
14920.4623439,294710.53125,294741.03125,326475.9375,319996.875,285066.46875,255685.015625,221602.71875,246104.875,0.0263671875,0.98779296875,0.061279296875,0.5187987685203552,-0.9765624403953552,-1.3427733182907104,73.33333587646484,197074.0,1.0
14920.4623452,294752.375,294798.0625,326562.03125,320044.90625,285110.09375,255717.296875,221644.203125,246133.046875,0.0263671875,0.98828125,0.063232421875,0.5187987685203552,-1.0375975370407104,-1.2817381620407104,73.33333587646484,197075.0,1.0
14920.46571,294775.625,295116.25,326795.75,320044.625,285260.9375,255777.90625,221704.546875,246142.25,0.026123046875,0.98974609375,0.062744140625,0.4882812201976776,-1.0986326932907104,-1.2817381620407104,73.33333587646484,197076.0,1.0
14920.4657124,294754.78125,295269.0625,326864.3125,319998.59375,285316.53125,255794.453125,221710.8125,246120.53125,0.023193359375,0.989990234375,0.063232421875,0.4272460639476776,-1.1596678495407104,-1.2512205839157104,73.33333587646484,197077.0,1.0
14920.4657137,294720.1875,295047.6875,326681.59375,319972.84375,285206.75,255743.671875,221657.875,246105.328125,0.023681640625,0.988037109375,0.0654296875,0.3051757514476776,-1.2817381620407104,-1.1901854276657104,73.33333587646484,197078.0,1.0
14920.465715,294720.90625,294752.8125,326486.3125,319999.46875,285076.21875,255701.109375,221620.78125,246117.65625,0.0224609375,0.98779296875,0.06201171875,0.4577636420726776,-1.3427733182907104,-1.0681151151657104,73.33333587646484,197079.0,1.0
14920.4657162,294759.875,294810.84375,326572.78125,320049.8125,285121.1875,255733.828125,221659.9375,246141.984375,0.02587890625,0.98974609375,0.065673828125,0.4882812201976776,-1.4343260526657104,-1.0681151151657104,73.33333587646484,197080.0,1.0
14920.4688253,294782.5,295131.1875,326811.40625,320051.4375,285274.0625,255790.25,221718.3125,246145.203125,0.02490234375,0.9931640625,0.066162109375,0.4577636420726776,-1.5258787870407104,-1.0070799589157104,73.33333587646484,197081.0,1.0
14920.4688275,294765.96875,295280.5,326877.5625,320008.25,285330.03125,255806.515625,221724.21875,246129.46875,0.025390625,0.9931640625,0.064453125,0.4272460639476776,-1.5869139432907104,-0.8544921278953552,73.33333587646484,197082.0,1.0
14920.4688288,294731.625,295058.40625,326697.125,319979.4375,285217.40625,255751.625,221663.421875,246108.1875,0.02685546875,0.991943359375,0.06298828125,0.4272460639476776,-1.6479490995407104,-0.9460448622703552,73.33333587646484,197083.0,1.0
14920.4688301,294721.96875,294751.84375,326490.0625,319997.34375,285070.59375,255687.421875,221606.5625,246107.203125,0.026123046875,0.991943359375,0.062255859375,0.2746581733226776,-1.6479490995407104,-0.9460448622703552,73.33333587646484,197084.0,1.0
14920.4930243,294755.59375,294793.78125,326558.65625,320044.53125,285101.53125,255714.96875,221642.6875,246136.53125,0.02587890625,0.99072265625,0.063232421875,0.3356933295726776,-1.7700194120407104,-0.9460448622703552,73.33333587646484,197085.0,1.0
14920.5180469,294783.84375,295116.90625,326794.9375,320050.4375,285259.0625,255784.875,221717.515625,246148.0625,0.0234375,0.991455078125,0.064453125,0.2136230319738388,-1.8615721464157104,-0.8544921278953552,73.33333587646484,197086.0,1.0
14920.5430857,294768.90625,295289.4375,326878.90625,320012.8125,285332.5625,255818.046875,221737.90625,246134.296875,0.025390625,0.991943359375,0.065185546875,0.1831054538488388,-1.9226073026657104,-0.7934569716453552,73.33333587646484,197087.0,1.0
14920.5562631,294725.75,295067.0,326696.15625,319978.375,285219.625,255765.296875,221674.953125,246112.65625,0.02587890625,0.99072265625,0.064697265625,0.1831054538488388,-1.9836424589157104,-0.8239745497703552,73.33333587646484,197088.0,1.0
14920.556269,294715.8125,294760.34375,326496.96875,319997.96875,285079.875,255707.90625,221624.984375,246117.84375,0.0244140625,0.989990234375,0.065673828125,0.1831054538488388,-2.075195074081421,-0.8239745497703552,73.33333587646484,197089.0,1.0
14920.5562704,294747.5625,294808.625,326577.34375,320041.78125,285118.78125,255736.875,221663.6875,246141.359375,0.026123046875,0.990966796875,0.069091796875,0.1220703050494194,-2.044677495956421,-0.7019042372703552,73.33333587646484,197090.0,1.0
14920.5592786,294772.40625,295120.65625,326806.75,320043.03125,285267.09375,255801.328125,221727.796875,246148.953125,0.030029296875,0.990966796875,0.065673828125,0.0610351525247097,-2.014159917831421,-0.7629393935203552,73.33333587646484,197091.0,1.0
14920.5662411,294744.5,295252.625,326855.375,319988.3125,285308.59375,255790.328125,221716.078125,246123.109375,0.029052734375,0.992431640625,0.062744140625,0.03051757626235485,-2.166747808456421,-0.7629393935203552,73.33333587646484,197092.0,1.0
14920.5662465,294704.53125,295019.875,326650.71875,319953.875,285178.9375,255720.0625,221643.3125,246095.484375,0.030029296875,0.989501953125,0.06396484375,-0.0915527269244194,-2.136230230331421,-0.7934569716453552,73.33333587646484,197093.0,1.0
14920.5662478,294697.21875,294719.03125,326446.15625,319974.09375,285037.78125,255668.203125,221594.21875,246096.46875,0.030517578125,0.99072265625,0.061279296875,-0.1220703050494194,-2.136230230331421,-0.7934569716453552,73.33333587646484,197094.0,1.0
14920.566249,294746.75,294788.59375,326541.84375,320035.6875,285093.90625,255714.78125,221643.75,246132.953125,0.029052734375,0.99072265625,0.064453125,-0.0915527269244194,-2.227782964706421,-0.8544921278953552,73.33333587646484,197095.0,1.0
14920.5662503,294778.3125,295113.59375,326789.03125,320043.5625,285254.125,255775.765625,221703.75,246141.265625,0.031982421875,0.988525390625,0.067626953125,-0.1220703050494194,-2.075195074081421,-0.8544921278953552,73.33333587646484,197096.0,1.0
14920.5662515,294762.03125,295269.5,326868.53125,320003.875,285319.75,255790.6875,221713.40625,246126.328125,0.031005859375,0.98583984375,0.06494140625,-0.2136230319738388,-2.014159917831421,-0.9460448622703552,73.33333587646484,197097.0,1.0
14920.5662527,294725.375,295050.5625,326688.46875,319977.125,285210.875,255739.90625,221656.625,246105.6875,0.031982421875,0.9853515625,0.063232421875,-0.0915527269244194,-1.9531248807907104,-1.0070799589157104,73.33333587646484,197098.0,1.0
14920.5662539,294714.125,294732.1875,326462.71875,319989.65625,285052.71875,255675.265625,221598.15625,246102.90625,0.032470703125,0.9853515625,0.0615234375,0.0610351525247097,-2.014159917831421,-1.0070799589157104,73.33333587646484,197099.0,1.0
14920.5662551,294757.5625,294788.3125,326546.5625,320041.9375,285096.59375,255710.9375,221641.96875,246133.21875,0.03173828125,0.9833984375,0.06201171875,0.1220703050494194,-1.8310545682907104,-1.0375975370407104,73.33333587646484,197100.0,1.0
14920.5662563,294784.84375,295118.5,326793.875,320048.03125,285258.4375,255781.84375,221714.46875,246147.171875,0.03369140625,0.98486328125,0.065185546875,0.1831054538488388,-1.7395018339157104,-1.0986326932907104,73.33333587646484,197101.0,1.0
14920.5662576,294765.25,295273.71875,326867.0,320006.375,285320.375,255795.96875,221719.390625,246130.359375,0.031982421875,0.9873046875,0.0673828125,0.3356933295726776,-1.6174315214157104,-1.2512205839157104,73.33333587646484,197102.0,1.0
14920.5687041,294735.65625,295059.84375,326690.25,319985.625,285213.0,255749.828125,221664.578125,246113.90625,0.029541015625,0.989013671875,0.064453125,0.3662109076976776,-1.4953612089157104,-1.3122557401657104,73.33333587646484,197103.0,1.0
14920.5687095,294735.65625,295059.84375,326690.25,319985.625,285213.0,255749.828125,221664.578125,246113.90625,0.029541015625,0.989013671875,0.064453125,0.3662109076976776,-1.4953612089157104,-1.3122557401657104,73.33333587646484,197104.0,0.0
14920.5687097,294735.65625,295059.84375,326690.25,319985.625,285213.0,255749.828125,221664.578125,246113.90625,0.029541015625,0.989013671875,0.064453125,0.3662109076976776,-1.4953612089157104,-1.3122557401657104,73.33333587646484,197105.0,0.0
14920.5687098,294735.65625,295059.84375,326690.25,319985.625,285213.0,255749.828125,221664.578125,246113.90625,0.029541015625,0.989013671875,0.064453125,0.3662109076976776,-1.4953612089157104,-1.3122557401657104,73.33333587646484,197106.0,0.0
14920.5687101,294773.75,295281.03125,326875.5,320009.84375,285331.28125,255808.9375,221728.875,246135.359375,0.030029296875,0.987548828125,0.063232421875,0.4577636420726776,-1.3732908964157104,-1.4648436307907104,73.33333587646484,197107.0,1.0
14920.5704946,294737.8125,295062.25,326694.28125,319978.5625,285219.71875,255759.578125,221675.5,246116.953125,0.02978515625,0.989013671875,0.06591796875,0.4577636420726776,-1.3732908964157104,-1.4343260526657104,73.33333587646484,197108.0,1.0
14920.5962147,294725.90625,294754.53125,326482.5625,319993.03125,285072.03125,255703.875,221625.0625,246117.21875,0.028564453125,0.98974609375,0.0634765625,0.3967284858226776,-1.3732908964157104,-1.4343260526657104,73.33333587646484,197109.0,1.0
14920.5962202,294758.71875,294794.03125,326549.4375,320037.75,285099.65625,255724.53125,221655.640625,246139.203125,0.02783203125,0.98974609375,0.06396484375,0.3967284858226776,-1.3732908964157104,-1.5563963651657104,73.33333587646484,197110.0,1.0
14920.5988107,294785.625,295111.875,326786.0,320042.9375,285254.5,255789.703125,221721.171875,246148.328125,0.029052734375,0.9921875,0.064208984375,0.3967284858226776,-1.3427733182907104,-1.4953612089157104,73.33333587646484,197111.0,1.0
14920.5988238,294770.34375,295274.6875,326858.25,320004.21875,285317.53125,255811.96875,221731.8125,246133.671875,0.02978515625,0.990966796875,0.066650390625,0.4882812201976776,-1.2817381620407104,-1.3427733182907104,73.33333587646484,197112.0,1.0
14920.6230565,294738.625,295061.28125,326689.34375,319985.71875,285218.46875,255768.078125,221683.546875,246126.15625,0.02734375,0.9912109375,0.063720703125,0.4272460639476776,-1.3122557401657104,-1.2512205839157104,73.33333587646484,197113.0,1.0
14920.6892085,294731.71875,294764.34375,326489.875,320006.53125,285079.78125,255716.390625,221633.828125,246123.65625,0.026611328125,0.9912109375,0.06689453125,0.3051757514476776,-1.2512205839157104,-1.2817381620407104,73.33333587646484,197114.0,1.0
14920.689214,294768.125,294809.34375,326568.375,320054.375,285116.625,255741.34375,221667.265625,246146.1875,0.026611328125,0.990478515625,0.062255859375,0.3051757514476776,-1.2512205839157104,-1.1291502714157104,73.33333587646484,197115.0,1.0
14920.6892153,294800.125,295131.28125,326813.90625,320064.65625,285275.3125,255806.703125,221731.640625,246157.8125,0.027587890625,0.9873046875,0.058837890625,0.2441406100988388,-1.2817381620407104,-1.0070799589157104,73.33333587646484,197116.0,1.0
14920.6892166,294781.0,295294.09375,326886.3125,320021.65625,285337.46875,255823.5,221734.765625,246140.015625,0.0263671875,0.988037109375,0.06103515625,0.3051757514476776,-1.2512205839157104,-0.9460448622703552,73.33333587646484,197117.0,1.0
14920.6892178,294737.4375,295072.71875,326703.5625,319986.0625,285223.75,255759.84375,221671.109375,246114.265625,0.026123046875,0.9873046875,0.05908203125,0.2441406100988388,-1.3732908964157104,-0.8544921278953552,73.33333587646484,197118.0,1.0
14920.689219,294728.25,294759.71875,326492.21875,320004.40625,285078.71875,255701.828125,221619.609375,246118.828125,0.025146484375,0.98876953125,0.060302734375,0.1831054538488388,-1.3122557401657104,-0.8850097060203552,73.33333587646484,197119.0,1.0
14920.7443274,294773.375,294809.15625,326565.53125,320054.375,285114.5,255724.0,221651.796875,246143.59375,0.0234375,0.98828125,0.0625,0.0915527269244194,-1.2817381620407104,-0.7629393935203552,73.33333587646484,197120.0,1.0
14920.7443358,294773.375,294809.15625,326565.53125,320054.375,285114.5,255724.0,221651.796875,246143.59375,0.0234375,0.98828125,0.0625,0.0915527269244194,-1.2817381620407104,-0.7629393935203552,73.33333587646484,197121.0,0.0
14920.744336,294773.375,294809.15625,326565.53125,320054.375,285114.5,255724.0,221651.796875,246143.59375,0.0234375,0.98828125,0.0625,0.0915527269244194,-1.2817381620407104,-0.7629393935203552,73.33333587646484,197122.0,0.0
14920.7443362,294773.375,294809.15625,326565.53125,320054.375,285114.5,255724.0,221651.796875,246143.59375,0.0234375,0.98828125,0.0625,0.0915527269244194,-1.2817381620407104,-0.7629393935203552,73.33333587646484,197123.0,0.0
14920.7443364,294773.375,294809.15625,326565.53125,320054.375,285114.5,255724.0,221651.796875,246143.59375,0.0234375,0.98828125,0.0625,0.0915527269244194,-1.2817381620407104,-0.7629393935203552,73.33333587646484,197124.0,0.0
14920.7443366,294773.375,294809.15625,326565.53125,320054.375,285114.5,255724.0,221651.796875,246143.59375,0.0234375,0.98828125,0.0625,0.0915527269244194,-1.2817381620407104,-0.7629393935203552,73.33333587646484,197125.0,0.0
14920.7443368,294773.375,294809.15625,326565.53125,320054.375,285114.5,255724.0,221651.796875,246143.59375,0.0234375,0.98828125,0.0625,0.0915527269244194,-1.2817381620407104,-0.7629393935203552,73.33333587646484,197126.0,0.0
14920.744337,294773.375,294809.15625,326565.53125,320054.375,285114.5,255724.0,221651.796875,246143.59375,0.0234375,0.98828125,0.0625,0.0915527269244194,-1.2817381620407104,-0.7629393935203552,73.33333587646484,197127.0,0.0
14920.7443371,294773.375,294809.15625,326565.53125,320054.375,285114.5,255724.0,221651.796875,246143.59375,0.0234375,0.98828125,0.0625,0.0915527269244194,-1.2817381620407104,-0.7629393935203552,73.33333587646484,197128.0,0.0
14920.7443373,294773.375,294809.15625,326565.53125,320054.375,285114.5,255724.0,221651.796875,246143.59375,0.0234375,0.98828125,0.0625,0.0915527269244194,-1.2817381620407104,-0.7629393935203552,73.33333587646484,197129.0,0.0
14920.7443375,294773.375,294809.15625,326565.53125,320054.375,285114.5,255724.0,221651.796875,246143.59375,0.0234375,0.98828125,0.0625,0.0915527269244194,-1.2817381620407104,-0.7629393935203552,73.33333587646484,197130.0,0.0
14920.7443376,294773.375,294809.15625,326565.53125,320054.375,285114.5,255724.0,221651.796875,246143.59375,0.0234375,0.98828125,0.0625,0.0915527269244194,-1.2817381620407104,-0.7629393935203552,73.33333587646484,197131.0,0.0
14920.7443378,294773.375,294809.15625,326565.53125,320054.375,285114.5,255724.0,221651.796875,246143.59375,0.0234375,0.98828125,0.0625,0.0915527269244194,-1.2817381620407104,-0.7629393935203552,73.33333587646484,197132.0,0.0
14920.744338,294773.375,294809.15625,326565.53125,320054.375,285114.5,255724.0,221651.796875,246143.59375,0.0234375,0.98828125,0.0625,0.0915527269244194,-1.2817381620407104,-0.7629393935203552,73.33333587646484,197133.0,0.0
14920.7443382,294773.375,294809.15625,326565.53125,320054.375,285114.5,255724.0,221651.796875,246143.59375,0.0234375,0.98828125,0.0625,0.0915527269244194,-1.2817381620407104,-0.7629393935203552,73.33333587646484,197134.0,0.0
14920.7443383,294773.375,294809.15625,326565.53125,320054.375,285114.5,255724.0,221651.796875,246143.59375,0.0234375,0.98828125,0.0625,0.0915527269244194,-1.2817381620407104,-0.7629393935203552,73.33333587646484,197135.0,0.0
14920.7443385,294773.375,294809.15625,326565.53125,320054.375,285114.5,255724.0,221651.796875,246143.59375,0.0234375,0.98828125,0.0625,0.0915527269244194,-1.2817381620407104,-0.7629393935203552,73.33333587646484,197136.0,0.0
14920.7443387,294773.375,294809.15625,326565.53125,320054.375,285114.5,255724.0,221651.796875,246143.59375,0.0234375,0.98828125,0.0625,0.0915527269244194,-1.2817381620407104,-0.7629393935203552,73.33333587646484,197137.0,0.0
14920.7443388,294773.375,294809.15625,326565.53125,320054.375,285114.5,255724.0,221651.796875,246143.59375,0.0234375,0.98828125,0.0625,0.0915527269244194,-1.2817381620407104,-0.7629393935203552,73.33333587646484,197138.0,0.0
14920.744339,294773.375,294809.15625,326565.53125,320054.375,285114.5,255724.0,221651.796875,246143.59375,0.0234375,0.98828125,0.0625,0.0915527269244194,-1.2817381620407104,-0.7629393935203552,73.33333587646484,197139.0,0.0
14920.7443392,294756.9375,294790.8125,326533.78125,320041.6875,285092.59375,255708.53125,221640.171875,246134.734375,0.03271484375,0.984619140625,0.06640625,-0.4882812201976776,-2.166747808456421,-1.2512205839157104,73.33333587646484,197140.0,1.0
14920.7443405,294786.53125,295104.71875,326750.96875,320047.03125,285237.5,255778.890625,221711.078125,246148.515625,0.034423828125,0.98486328125,0.064697265625,-0.4882812201976776,-1.9836424589157104,-1.2207030057907104,73.33333587646484,197141.0,1.0
14920.8177567,294769.09375,295279.0,326831.4375,320007.4375,285306.96875,255799.015625,221720.28125,246132.859375,0.03125,0.98388671875,0.065185546875,-0.3356933295726776,-1.7700194120407104,-1.3427733182907104,73.33333587646484,197142.0,1.0
14920.8177645,294730.46875,295066.46875,326651.625,319979.53125,285200.0625,255748.140625,221664.578125,246116.859375,0.031005859375,0.984130859375,0.063720703125,-0.1525878757238388,-1.6174315214157104,-1.2817381620407104,73.33333587646484,197143.0,1.0
14920.8177658,294728.40625,294776.96875,326470.125,320002.875,285075.875,255698.515625,221624.796875,246123.828125,0.031494140625,0.986083984375,0.063720703125,0.03051757626235485,-1.5258787870407104,-1.2817381620407104,73.33333587646484,197144.0,1.0
14920.817767,294772.5,294824.4375,326552.5625,320052.78125,285117.15625,255725.15625,221660.921875,246148.78125,0.03125,0.987060546875,0.0654296875,0.1831054538488388,-1.4648436307907104,-1.2512205839157104,73.33333587646484,197145.0,1.0
14920.8177682,294803.4375,295143.4375,326796.90625,320062.875,285276.125,255792.75,221724.3125,246159.859375,0.03369140625,0.9873046875,0.06689453125,0.1525878757238388,-1.4343260526657104,-1.3732908964157104,73.33333587646484,197146.0,1.0
14920.8446417,294788.59375,295302.78125,326870.3125,320020.5,285339.15625,255814.203125,221731.734375,246143.5,0.034912109375,0.98828125,0.068603515625,0.1525878757238388,-1.2817381620407104,-1.2817381620407104,73.33333587646484,197147.0,1.0
14920.8446469,294754.96875,295096.0625,326695.875,319989.1875,285231.875,255764.40625,221675.140625,246123.75,0.032958984375,0.989990234375,0.068115234375,0.0915527269244194,-1.1291502714157104,-1.2817381620407104,73.33333587646484,197148.0,1.0
14920.8446482,294744.0625,294790.8125,326492.75,320006.0,285090.34375,255712.546875,221626.765625,246123.65625,0.03076171875,0.988525390625,0.0703125,0.1525878757238388,-0.9460448622703552,-1.4038084745407104,73.33333587646484,197149.0,1.0
14920.8446494,294784.3125,294835.15625,326574.8125,320055.4375,285130.125,255740.0,221664.859375,246151.546875,0.029296875,0.98779296875,0.0673828125,0.1525878757238388,-0.7934569716453552,-1.5869139432907104,73.33333587646484,197150.0,1.0
14920.8680687,294815.84375,295150.59375,326814.875,320061.4375,285281.9375,255807.6875,221728.328125,246164.515625,0.030029296875,0.990234375,0.066162109375,0.2441406100988388,-0.6713866591453552,-1.5869139432907104,73.33333587646484,197151.0,1.0
14920.9289881,294804.5,295314.3125,326886.15625,320018.34375,285340.6875,255832.53125,221741.03125,246147.703125,0.02734375,0.98974609375,0.068603515625,0.2136230319738388,-0.6408690810203552,-1.5563963651657104,73.33333587646484,197152.0,1.0
14920.9289934,294769.46875,295099.625,326701.4375,319987.84375,285227.6875,255783.546875,221684.796875,246126.328125,0.02587890625,0.99072265625,0.069580078125,0.1831054538488388,-0.6103515028953552,-1.6479490995407104,73.33333587646484,197153.0,1.0
14920.9289946,294764.625,294800.5625,326498.65625,320007.34375,285086.9375,255720.78125,221632.671875,246126.421875,0.02490234375,0.990478515625,0.0712890625,0.1831054538488388,-0.6103515028953552,-1.6174315214157104,73.33333587646484,197154.0,1.0
14920.9289959,294813.625,294845.09375,326578.03125,320062.59375,285126.71875,255745.71875,221675.671875,246160.75,0.02587890625,0.99169921875,0.067626953125,0.3051757514476776,-0.5493163466453552,-1.6174315214157104,73.33333587646484,197155.0,1.0
14920.9289971,294852.875,295166.96875,326823.5625,320074.40625,285284.1875,255819.921875,221743.984375,246178.109375,0.025146484375,0.9951171875,0.068359375,0.3356933295726776,-0.5493163466453552,-1.6784666776657104,73.33333587646484,197156.0,1.0
14920.954321,294842.84375,295335.5,326906.25,320033.1875,285350.53125,255844.421875,221753.8125,246158.96875,0.026123046875,0.993408203125,0.0673828125,0.1525878757238388,-0.4577636420726776,-1.5563963651657104,73.33333587646484,197157.0,1.0
14920.9808302,294807.46875,295123.34375,326734.15625,319998.40625,285240.5625,255777.109375,221686.84375,246127.5,0.025146484375,0.990234375,0.064208984375,0.03051757626235485,-0.5493163466453552,-1.6784666776657104,73.33333587646484,197158.0,1.0
14920.9808352,294813.90625,294818.71875,326535.65625,320024.78125,285101.96875,255727.484375,221632.046875,246130.171875,0.024169921875,0.98974609375,0.062255859375,-0.0915527269244194,-0.6103515028953552,-1.5563963651657104,73.33333587646484,197159.0,1.0
14920.9808368,294813.90625,294818.71875,326535.65625,320024.78125,285101.96875,255727.484375,221632.046875,246130.171875,0.024169921875,0.98974609375,0.062255859375,-0.0915527269244194,-0.6103515028953552,-1.5563963651657104,73.33333587646484,197160.0,0.0
14920.980837,294813.90625,294818.71875,326535.65625,320024.78125,285101.96875,255727.484375,221632.046875,246130.171875,0.024169921875,0.98974609375,0.062255859375,-0.0915527269244194,-0.6103515028953552,-1.5563963651657104,73.33333587646484,197161.0,0.0
14920.9808372,294813.90625,294818.71875,326535.65625,320024.78125,285101.96875,255727.484375,221632.046875,246130.171875,0.024169921875,0.98974609375,0.062255859375,-0.0915527269244194,-0.6103515028953552,-1.5563963651657104,73.33333587646484,197162.0,0.0
14920.9808374,294813.90625,294818.71875,326535.65625,320024.78125,285101.96875,255727.484375,221632.046875,246130.171875,0.024169921875,0.98974609375,0.062255859375,-0.0915527269244194,-0.6103515028953552,-1.5563963651657104,73.33333587646484,197163.0,0.0
14920.9808376,294850.90625,294823.28125,326531.65625,320037.375,285103.21875,255726.671875,221635.96875,246138.671875,0.020751953125,0.982421875,0.068603515625,0.5493163466453552,-1.1291502714157104,-1.0681151151657104,73.33333587646484,197164.0,1.0
14920.9808389,294897.21875,294865.03125,326604.875,320091.125,285141.75,255757.25,221674.0625,246167.90625,0.020751953125,0.984619140625,0.068115234375,0.7019042372703552,-1.1901854276657104,-0.9765624403953552,73.33333587646484,197165.0,1.0
14921.0042439,294927.34375,295187.4375,326844.125,320096.9375,285297.9375,255824.9375,221739.78125,246175.328125,0.018798828125,0.9873046875,0.068115234375,0.7019042372703552,-1.3427733182907104,-0.8850097060203552,73.33333587646484,197166.0,1.0
14921.0105651,294916.0,295365.25,326938.1875,320056.96875,285374.46875,255846.125,221752.203125,246158.4375,0.0185546875,0.990234375,0.0654296875,0.7019042372703552,-1.4648436307907104,-0.7934569716453552,73.33333587646484,197167.0,1.0
14921.0130744,294875.75,295160.53125,326769.65625,320024.96875,285270.15625,255783.265625,221691.578125,246137.953125,0.018310546875,0.989990234375,0.068359375,0.7019042372703552,-1.5869139432907104,-0.7934569716453552,73.33333587646484,197168.0,1.0
14921.0155543,294863.96875,294851.53125,326561.78125,320041.78125,285127.71875,255726.234375,221639.1875,246135.71875,0.018798828125,0.9892578125,0.066162109375,0.7324218153953552,-1.7089842557907104,-0.7629393935203552,73.33333587646484,197169.0,1.0
14921.0180549,294890.15625,294863.78125,326605.84375,320080.75,285142.1875,255744.734375,221663.515625,246152.625,0.019775390625,0.989501953125,0.069091796875,0.8544921278953552,-1.8920897245407104,-0.6713866591453552,73.33333587646484,197170.0,1.0
14921.0205745,294912.59375,295168.3125,326829.46875,320082.90625,285286.25,255809.015625,221724.484375,246165.40625,0.021484375,0.989990234375,0.069580078125,0.9460448622703552,-2.014159917831421,-0.6713866591453552,73.33333587646484,197171.0,1.0
14921.0230255,294898.28125,295345.59375,326916.375,320045.625,285358.84375,255837.28125,221742.546875,246157.8125,0.023681640625,0.989501953125,0.070068359375,0.8544921278953552,-2.044677495956421,-0.6408690810203552,73.33333587646484,197172.0,1.0
14921.0255065,294855.1875,295141.46875,326742.28125,320014.5,285254.59375,255792.296875,221692.125,246136.796875,0.025634765625,0.99072265625,0.0673828125,0.9155272841453552,-2.166747808456421,-0.5493163466453552,73.33333587646484,197173.0,1.0
14921.0280018,294837.21875,294826.5,326527.53125,320028.53125,285108.9375,255742.140625,221645.546875,246140.1875,0.023193359375,0.9931640625,0.06494140625,0.9155272841453552,-2.197265386581421,-0.7324218153953552,73.33333587646484,197174.0,1.0
14921.0317558,294866.28125,294853.0625,326586.375,320072.09375,285132.8125,255759.765625,221669.0625,246159.6875,0.025390625,0.99267578125,0.06494140625,0.7629393935203552,-2.258300542831421,-0.7629393935203552,73.33333587646484,197175.0,1.0
14921.1126656,294886.9375,295165.4375,326825.96875,320077.1875,285286.59375,255805.71875,221727.609375,246168.53125,0.024169921875,0.98974609375,0.06787109375,0.7934569716453552,-2.319335699081421,-0.7019042372703552,73.33333587646484,197176.0,1.0
14921.1126788,294859.84375,295330.9375,326905.375,320030.78125,285351.59375,255823.234375,221738.34375,246152.53125,0.029541015625,0.989501953125,0.065673828125,0.7629393935203552,-2.288818120956421,-0.7934569716453552,73.33333587646484,197177.0,1.0
14921.1126803,294826.75,295132.90625,326737.375,320003.0625,285252.34375,255779.78125,221685.859375,246132.328125,0.033935546875,0.98583984375,0.065185546875,0.7934569716453552,-2.349853277206421,-0.8239745497703552,73.33333587646484,197178.0,1.0
14921.1126816,294814.78125,294816.84375,326517.4375,320018.96875,285101.15625,255725.875,221635.703125,246132.59375,0.03466796875,0.984619140625,0.060791015625,0.9460448622703552,-2.227782964706421,-0.9155272841453552,73.33333587646484,197179.0,1.0
14921.1126829,294845.4375,294841.96875,326575.90625,320065.28125,285124.9375,255743.578125,221663.953125,246156.203125,0.033935546875,0.985595703125,0.060546875,1.0070799589157104,-2.044677495956421,-0.9155272841453552,73.33333587646484,197180.0,1.0
14921.1126842,294873.09375,295163.5625,326820.875,320077.53125,285283.65625,255815.28125,221730.65625,246172.375,0.031494140625,0.988037109375,0.066650390625,1.0070799589157104,-1.8615721464157104,-0.8850097060203552,73.33333587646484,197181.0,1.0
14921.1126854,294854.3125,295337.0,326909.125,320035.78125,285358.65625,255849.171875,221748.890625,246157.359375,0.029296875,0.9873046875,0.06396484375,1.0070799589157104,-1.8005369901657104,-0.8544921278953552,73.33333587646484,197182.0,1.0
14921.1126867,294809.15625,295131.375,326734.34375,319998.75,285251.09375,255796.859375,221690.421875,246132.953125,0.02783203125,0.98828125,0.063720703125,0.8544921278953552,-1.7089842557907104,-1.0070799589157104,73.33333587646484,197183.0,1.0
14921.112688,294793.6875,294822.28125,326527.71875,320014.78125,285109.75,255739.828125,221639.109375,246132.953125,0.0302734375,0.989013671875,0.0625,0.7934569716453552,-1.6479490995407104,-1.0986326932907104,73.33333587646484,197184.0,1.0
14921.1126892,294823.71875,294841.78125,326585.65625,320056.625,285131.90625,255751.0,221658.0625,246150.203125,0.030517578125,0.9873046875,0.06201171875,0.9460448622703552,-1.5563963651657104,-1.1596678495407104,73.33333587646484,197185.0,1.0
14921.1126906,294851.0,295152.21875,326821.3125,320064.375,285282.65625,255813.3125,221720.640625,246165.140625,0.03271484375,0.9853515625,0.063232421875,0.9765624403953552,-1.4648436307907104,-1.1291502714157104,73.33333587646484,197186.0,1.0
14921.1126918,294833.75,295329.3125,326907.875,320022.8125,285353.375,255839.0625,221742.640625,246151.640625,0.029541015625,0.986328125,0.0625,1.0681151151657104,-1.3732908964157104,-1.2207030057907104,73.33333587646484,197187.0,1.0
14921.1126931,294792.625,295120.8125,326729.6875,319989.90625,285246.625,255791.671875,221685.78125,246129.828125,0.0263671875,0.98828125,0.060546875,1.1596678495407104,-1.2817381620407104,-1.2817381620407104,73.33333587646484,197188.0,1.0
14921.1126943,294775.53125,294799.0625,326509.84375,319999.375,285096.4375,255730.703125,221625.6875,246124.546875,0.02490234375,0.990234375,0.06298828125,1.0681151151657104,-1.2207030057907104,-1.3732908964157104,73.33333587646484,197189.0,1.0
14921.1126956,294808.09375,294824.09375,326566.4375,320044.53125,285119.9375,255741.34375,221650.546875,246146.546875,0.02294921875,0.992431640625,0.061279296875,1.0070799589157104,-1.1596678495407104,-1.4648436307907104,73.33333587646484,197190.0,1.0
14921.1126968,294837.5,295142.8125,326808.09375,320054.71875,285275.15625,255812.421875,221719.296875,246161.734375,0.02197265625,0.99267578125,0.0634765625,0.9765624403953552,-1.2817381620407104,-1.5258787870407104,73.33333587646484,197191.0,1.0
14921.112698,294828.375,295328.78125,326903.40625,320020.3125,285351.6875,255846.484375,221738.609375,246150.203125,0.0205078125,0.992919921875,0.06591796875,0.8239745497703552,-1.4038084745407104,-1.6174315214157104,73.33333587646484,197192.0,1.0
14921.1126993,294794.125,295136.5625,326741.5625,319992.875,285254.21875,255794.0,221686.046875,246133.484375,0.020751953125,0.9951171875,0.059326171875,0.7019042372703552,-1.4953612089157104,-1.6479490995407104,73.33333587646484,197193.0,1.0
14921.1127006,294776.875,294817.28125,326519.9375,320000.03125,285097.9375,255725.6875,221625.25,246131.25,0.022216796875,0.991943359375,0.0634765625,0.7324218153953552,-1.5258787870407104,-1.6174315214157104,73.33333587646484,197194.0,1.0
14921.1127019,294813.71875,294830.53125,326568.84375,320050.09375,285116.0,255743.484375,221653.859375,246157.0,0.021484375,0.990234375,0.061767578125,0.7019042372703552,-1.5869139432907104,-1.5869139432907104,73.33333587646484,197195.0,1.0
14921.1191257,294845.8125,295149.15625,326810.5,320062.59375,285275.78125,255815.1875,221728.875,246169.875,0.02099609375,0.990478515625,0.063232421875,0.6103515028953552,-1.6174315214157104,-1.5869139432907104,73.33333587646484,197196.0,1.0
14921.1191319,294834.53125,295332.375,326903.5,320025.0625,285356.0625,255849.796875,221749.796875,246155.578125,0.0224609375,0.990966796875,0.063232421875,0.5798339247703552,-1.7700194120407104,-1.4648436307907104,73.33333587646484,197197.0,1.0
14921.1191333,294795.03125,295133.875,326734.25,319994.46875,285253.96875,255798.65625,221697.125,246138.5,0.02197265625,0.99072265625,0.061767578125,0.4882812201976776,-1.7700194120407104,-1.4038084745407104,73.33333587646484,197198.0,1.0
14921.1191347,294779.65625,294820.3125,326524.5,320010.03125,285109.5625,255738.03125,221639.8125,246138.671875,0.019775390625,0.9912109375,0.0615234375,0.5493163466453552,-1.8920897245407104,-1.3427733182907104,73.33333587646484,197199.0,1.0
14921.119136,294812.625,294841.96875,326582.4375,320055.0,285131.03125,255741.703125,221661.90625,246158.34375,0.020263671875,0.99267578125,0.06298828125,0.4882812201976776,-1.9836424589157104,-1.2207030057907104,73.33333587646484,197200.0,1.0
14921.1191373,294844.8125,295162.40625,326827.3125,320066.53125,285286.6875,255809.203125,221731.015625,246171.3125,0.02197265625,0.989990234375,0.063720703125,0.4577636420726776,-2.044677495956421,-1.3427733182907104,73.33333587646484,197201.0,1.0
14921.1191386,294825.875,295332.375,326908.03125,320022.625,285352.125,255836.734375,221742.8125,246156.46875,0.02197265625,0.991455078125,0.06201171875,0.3356933295726776,-2.136230230331421,-1.1901854276657104,73.33333587646484,197202.0,1.0
14921.1191401,294785.375,295127.4375,326731.75,319989.09375,285245.71875,255784.078125,221684.875,246135.28125,0.0205078125,0.992431640625,0.06005859375,0.3051757514476776,-2.197265386581421,-0.9765624403953552,73.33333587646484,197203.0,1.0
14921.1223266,294772.40625,294819.4375,326522.15625,320006.375,285103.75,255729.8125,221634.09375,246136.609375,0.02197265625,0.992919921875,0.0595703125,0.2441406100988388,-2.258300542831421,-0.7934569716453552,73.33333587646484,197204.0,1.0
14921.1223318,294805.03125,294844.125,326586.625,320055.0,285134.5,255755.015625,221665.75,246162.546875,0.023193359375,0.989013671875,0.061279296875,0.3051757514476776,-2.258300542831421,-0.7019042372703552,73.33333587646484,197205.0,1.0
14921.1242608,294829.28125,295147.90625,326815.96875,320058.75,285278.53125,255812.515625,221720.46875,246164.328125,0.02392578125,0.99169921875,0.059814453125,0.2136230319738388,-2.288818120956421,-0.5798339247703552,73.33333587646484,197206.0,1.0
14921.1267476,294811.65625,295319.21875,326893.28125,320016.75,285342.46875,255838.4375,221738.34375,246153.0625,0.024658203125,0.990478515625,0.06005859375,0.2746581733226776,-2.380370855331421,-0.5187987685203552,73.33333587646484,197207.0,1.0
14921.1518165,294771.0625,295113.03125,326714.40625,319981.34375,285234.46875,255792.125,221682.640625,246130.8125,0.023681640625,0.989013671875,0.0595703125,0.2441406100988388,-2.349853277206421,-0.3662109076976776,73.33333587646484,197208.0,1.0
14921.1767985,294760.34375,294801.28125,326502.5,319997.34375,285090.96875,255734.1875,221625.96875,246130.359375,0.02294921875,0.988037109375,0.061279296875,0.0915527269244194,-2.410888433456421,-0.3662109076976776,73.33333587646484,197209.0,1.0
14921.2018223,294792.78125,294824.09375,326566.5,320045.71875,285119.9375,255749.5625,221653.40625,246155.21875,0.0244140625,0.98828125,0.0634765625,0.0610351525247097,-2.471923589706421,-0.4577636420726776,73.33333587646484,197210.0,1.0
14921.2105371,294823.46875,295136.75,326803.0,320052.78125,285270.5,255795.15625,221708.65625,246162.71875,0.027099609375,0.987060546875,0.061279296875,0.03051757626235485,-2.471923589706421,-0.4882812201976776,73.33333587646484,197211.0,1.0
14921.2142589,294810.6875,295313.125,326893.21875,320013.4375,285344.34375,255820.109375,221725.828125,246145.828125,0.0263671875,0.98583984375,0.062744140625,0.0,-2.532958745956421,-0.5187987685203552,73.33333587646484,197212.0,1.0
14921.216772,294770.09375,295111.71875,326719.75,319980.25,285238.65625,255767.625,221664.40625,246127.046875,0.02880859375,0.98779296875,0.062744140625,0.0,-2.563476324081421,-0.4577636420726776,73.33333587646484,197213.0,1.0
14921.219235,294756.75,294799.21875,326502.5,319994.21875,285086.5,255702.890625,221608.265625,246123.828125,0.028564453125,0.98681640625,0.060546875,0.1220703050494194,-2.349853277206421,-0.6408690810203552,73.33333587646484,197214.0,1.0
14921.2217409,294793.3125,294812.625,326547.46875,320039.8125,285100.34375,255723.90625,221636.875,246142.15625,0.029541015625,0.986083984375,0.063720703125,0.1220703050494194,-2.227782964706421,-0.6408690810203552,73.33333587646484,197215.0,1.0
14921.2242489,294825.6875,295128.6875,326786.53125,320053.75,285257.34375,255794.984375,221708.390625,246159.140625,0.03125,0.986572265625,0.06103515625,0.1220703050494194,-2.075195074081421,-0.6408690810203552,73.33333587646484,197216.0,1.0
14921.2267804,294816.9375,295323.15625,326894.625,320021.03125,285344.4375,255832.265625,221733.421875,246151.8125,0.033935546875,0.986083984375,0.06005859375,0.0610351525247097,-2.105712652206421,-0.7629393935203552,73.33333587646484,197217.0,1.0
14921.2293228,294780.09375,295132.8125,326737.90625,319992.15625,285250.84375,255783.625,221683.625,246132.59375,0.032958984375,0.987548828125,0.060791015625,0.0915527269244194,-1.8920897245407104,-0.8850097060203552,73.33333587646484,197218.0,1.0
14921.2567714,294760.0625,294808.4375,326518.15625,319999.65625,285097.0625,255712.546875,221615.328125,246122.765625,0.031005859375,0.989013671875,0.06103515625,0.2136230319738388,-1.8615721464157104,-1.0681151151657104,73.33333587646484,197219.0,1.0
14921.2832919,294792.34375,294816.03125,326559.375,320043.1875,285112.0625,255721.40625,221635.34375,246145.375,0.032958984375,0.989013671875,0.063232421875,0.3356933295726776,-1.7395018339157104,-1.2512205839157104,73.33333587646484,197220.0,1.0
14921.2832996,294819.6875,295120.375,326781.8125,320051.59375,285256.28125,255784.703125,221701.0625,246157.53125,0.032470703125,0.98828125,0.063232421875,0.1831054538488388,-1.4648436307907104,-1.2207030057907104,73.33333587646484,197221.0,1.0
14921.2833009,294802.34375,295298.21875,326873.71875,320010.03125,285328.4375,255806.875,221717.15625,246139.921875,0.031005859375,0.9892578125,0.058349609375,0.2136230319738388,-1.3427733182907104,-1.2817381620407104,73.33333587646484,197222.0,1.0
14921.3287842,294766.15625,295106.875,326713.5,319979.90625,285231.53125,255764.40625,221663.953125,246120.703125,0.03173828125,0.98779296875,0.060791015625,0.1831054538488388,-1.2207030057907104,-1.3427733182907104,73.33333587646484,197223.0,1.0
14921.328797,294766.15625,295106.875,326713.5,319979.90625,285231.53125,255764.40625,221663.953125,246120.703125,0.03173828125,0.98779296875,0.060791015625,0.1831054538488388,-1.2207030057907104,-1.3427733182907104,73.33333587646484,197224.0,0.0
14921.3287972,294766.15625,295106.875,326713.5,319979.90625,285231.53125,255764.40625,221663.953125,246120.703125,0.03173828125,0.98779296875,0.060791015625,0.1831054538488388,-1.2207030057907104,-1.3427733182907104,73.33333587646484,197225.0,0.0
14921.3287974,294766.15625,295106.875,326713.5,319979.90625,285231.53125,255764.40625,221663.953125,246120.703125,0.03173828125,0.98779296875,0.060791015625,0.1831054538488388,-1.2207030057907104,-1.3427733182907104,73.33333587646484,197226.0,0.0
14921.3287976,294766.15625,295106.875,326713.5,319979.90625,285231.53125,255764.40625,221663.953125,246120.703125,0.03173828125,0.98779296875,0.060791015625,0.1831054538488388,-1.2207030057907104,-1.3427733182907104,73.33333587646484,197227.0,0.0
14921.3287978,294766.15625,295106.875,326713.5,319979.90625,285231.53125,255764.40625,221663.953125,246120.703125,0.03173828125,0.98779296875,0.060791015625,0.1831054538488388,-1.2207030057907104,-1.3427733182907104,73.33333587646484,197228.0,0.0
14921.3287979,294766.15625,295106.875,326713.5,319979.90625,285231.53125,255764.40625,221663.953125,246120.703125,0.03173828125,0.98779296875,0.060791015625,0.1831054538488388,-1.2207030057907104,-1.3427733182907104,73.33333587646484,197229.0,0.0
14921.3287981,294766.15625,295106.875,326713.5,319979.90625,285231.53125,255764.40625,221663.953125,246120.703125,0.03173828125,0.98779296875,0.060791015625,0.1831054538488388,-1.2207030057907104,-1.3427733182907104,73.33333587646484,197230.0,0.0
14921.3287983,294766.15625,295106.875,326713.5,319979.90625,285231.53125,255764.40625,221663.953125,246120.703125,0.03173828125,0.98779296875,0.060791015625,0.1831054538488388,-1.2207030057907104,-1.3427733182907104,73.33333587646484,197231.0,0.0
14921.3287985,294766.15625,295106.875,326713.5,319979.90625,285231.53125,255764.40625,221663.953125,246120.703125,0.03173828125,0.98779296875,0.060791015625,0.1831054538488388,-1.2207030057907104,-1.3427733182907104,73.33333587646484,197232.0,0.0
14921.3287986,294766.15625,295106.875,326713.5,319979.90625,285231.53125,255764.40625,221663.953125,246120.703125,0.03173828125,0.98779296875,0.060791015625,0.1831054538488388,-1.2207030057907104,-1.3427733182907104,73.33333587646484,197233.0,0.0
14921.3287988,294766.15625,295106.875,326713.5,319979.90625,285231.53125,255764.40625,221663.953125,246120.703125,0.03173828125,0.98779296875,0.060791015625,0.1831054538488388,-1.2207030057907104,-1.3427733182907104,73.33333587646484,197234.0,0.0
14921.328799,294766.15625,295106.875,326713.5,319979.90625,285231.53125,255764.40625,221663.953125,246120.703125,0.03173828125,0.98779296875,0.060791015625,0.1831054538488388,-1.2207030057907104,-1.3427733182907104,73.33333587646484,197235.0,0.0
14921.3287992,294766.15625,295106.875,326713.5,319979.90625,285231.53125,255764.40625,221663.953125,246120.703125,0.03173828125,0.98779296875,0.060791015625,0.1831054538488388,-1.2207030057907104,-1.3427733182907104,73.33333587646484,197236.0,0.0
14921.3287993,294766.15625,295106.875,326713.5,319979.90625,285231.53125,255764.40625,221663.953125,246120.703125,0.03173828125,0.98779296875,0.060791015625,0.1831054538488388,-1.2207030057907104,-1.3427733182907104,73.33333587646484,197237.0,0.0
14921.3287995,294766.15625,295106.875,326713.5,319979.90625,285231.53125,255764.40625,221663.953125,246120.703125,0.03173828125,0.98779296875,0.060791015625,0.1831054538488388,-1.2207030057907104,-1.3427733182907104,73.33333587646484,197238.0,0.0
14921.3287997,294766.15625,295106.875,326713.5,319979.90625,285231.53125,255764.40625,221663.953125,246120.703125,0.03173828125,0.98779296875,0.060791015625,0.1831054538488388,-1.2207030057907104,-1.3427733182907104,73.33333587646484,197239.0,0.0
14921.3287998,294766.15625,295106.875,326713.5,319979.90625,285231.53125,255764.40625,221663.953125,246120.703125,0.03173828125,0.98779296875,0.060791015625,0.1831054538488388,-1.2207030057907104,-1.3427733182907104,73.33333587646484,197240.0,0.0
14921.3288,294766.15625,295106.875,326713.5,319979.90625,285231.53125,255764.40625,221663.953125,246120.703125,0.03173828125,0.98779296875,0.060791015625,0.1831054538488388,-1.2207030057907104,-1.3427733182907104,73.33333587646484,197241.0,0.0
14921.3288002,294766.15625,295106.875,326713.5,319979.90625,285231.53125,255764.40625,221663.953125,246120.703125,0.03173828125,0.98779296875,0.060791015625,0.1831054538488388,-1.2207030057907104,-1.3427733182907104,73.33333587646484,197242.0,0.0
14921.3288004,294766.15625,295106.875,326713.5,319979.90625,285231.53125,255764.40625,221663.953125,246120.703125,0.03173828125,0.98779296875,0.060791015625,0.1831054538488388,-1.2207030057907104,-1.3427733182907104,73.33333587646484,197243.0,0.0
14921.3288006,294766.15625,295106.875,326713.5,319979.90625,285231.53125,255764.40625,221663.953125,246120.703125,0.03173828125,0.98779296875,0.060791015625,0.1831054538488388,-1.2207030057907104,-1.3427733182907104,73.33333587646484,197244.0,0.0
14921.328801,294766.15625,295106.875,326713.5,319979.90625,285231.53125,255764.40625,221663.953125,246120.703125,0.03173828125,0.98779296875,0.060791015625,0.1831054538488388,-1.2207030057907104,-1.3427733182907104,73.33333587646484,197245.0,0.0
14921.3288012,294766.15625,295106.875,326713.5,319979.90625,285231.53125,255764.40625,221663.953125,246120.703125,0.03173828125,0.98779296875,0.060791015625,0.1831054538488388,-1.2207030057907104,-1.3427733182907104,73.33333587646484,197246.0,0.0
14921.3288014,294766.15625,295106.875,326713.5,319979.90625,285231.53125,255764.40625,221663.953125,246120.703125,0.03173828125,0.98779296875,0.060791015625,0.1831054538488388,-1.2207030057907104,-1.3427733182907104,73.33333587646484,197247.0,0.0
14921.3288015,294766.15625,295106.875,326713.5,319979.90625,285231.53125,255764.40625,221663.953125,246120.703125,0.03173828125,0.98779296875,0.060791015625,0.1831054538488388,-1.2207030057907104,-1.3427733182907104,73.33333587646484,197248.0,0.0
14921.3288017,294766.15625,295106.875,326713.5,319979.90625,285231.53125,255764.40625,221663.953125,246120.703125,0.03173828125,0.98779296875,0.060791015625,0.1831054538488388,-1.2207030057907104,-1.3427733182907104,73.33333587646484,197249.0,0.0
14921.3288019,294766.15625,295106.875,326713.5,319979.90625,285231.53125,255764.40625,221663.953125,246120.703125,0.03173828125,0.98779296875,0.060791015625,0.1831054538488388,-1.2207030057907104,-1.3427733182907104,73.33333587646484,197250.0,0.0
14921.3288021,294766.15625,295106.875,326713.5,319979.90625,285231.53125,255764.40625,221663.953125,246120.703125,0.03173828125,0.98779296875,0.060791015625,0.1831054538488388,-1.2207030057907104,-1.3427733182907104,73.33333587646484,197251.0,0.0
14921.3288022,294766.15625,295106.875,326713.5,319979.90625,285231.53125,255764.40625,221663.953125,246120.703125,0.03173828125,0.98779296875,0.060791015625,0.1831054538488388,-1.2207030057907104,-1.3427733182907104,73.33333587646484,197252.0,0.0
14921.3288024,294766.15625,295106.875,326713.5,319979.90625,285231.53125,255764.40625,221663.953125,246120.703125,0.03173828125,0.98779296875,0.060791015625,0.1831054538488388,-1.2207030057907104,-1.3427733182907104,73.33333587646484,197253.0,0.0
14921.3288026,294766.15625,295106.875,326713.5,319979.90625,285231.53125,255764.40625,221663.953125,246120.703125,0.03173828125,0.98779296875,0.060791015625,0.1831054538488388,-1.2207030057907104,-1.3427733182907104,73.33333587646484,197254.0,0.0
14921.3288027,294766.15625,295106.875,326713.5,319979.90625,285231.53125,255764.40625,221663.953125,246120.703125,0.03173828125,0.98779296875,0.060791015625,0.1831054538488388,-1.2207030057907104,-1.3427733182907104,73.33333587646484,197255.0,0.0
14921.3288029,294766.15625,295106.875,326713.5,319979.90625,285231.53125,255764.40625,221663.953125,246120.703125,0.03173828125,0.98779296875,0.060791015625,0.1831054538488388,-1.2207030057907104,-1.3427733182907104,73.33333587646484,197256.0,0.0
14921.3288031,294766.15625,295106.875,326713.5,319979.90625,285231.53125,255764.40625,221663.953125,246120.703125,0.03173828125,0.98779296875,0.060791015625,0.1831054538488388,-1.2207030057907104,-1.3427733182907104,73.33333587646484,197257.0,0.0
14921.3288033,294766.15625,295106.875,326713.5,319979.90625,285231.53125,255764.40625,221663.953125,246120.703125,0.03173828125,0.98779296875,0.060791015625,0.1831054538488388,-1.2207030057907104,-1.3427733182907104,73.33333587646484,197258.0,0.0
14921.3288034,294766.15625,295106.875,326713.5,319979.90625,285231.53125,255764.40625,221663.953125,246120.703125,0.03173828125,0.98779296875,0.060791015625,0.1831054538488388,-1.2207030057907104,-1.3427733182907104,73.33333587646484,197259.0,0.0
14921.3288036,294766.15625,295106.875,326713.5,319979.90625,285231.53125,255764.40625,221663.953125,246120.703125,0.03173828125,0.98779296875,0.060791015625,0.1831054538488388,-1.2207030057907104,-1.3427733182907104,73.33333587646484,197260.0,0.0
14921.3288038,294766.15625,295106.875,326713.5,319979.90625,285231.53125,255764.40625,221663.953125,246120.703125,0.03173828125,0.98779296875,0.060791015625,0.1831054538488388,-1.2207030057907104,-1.3427733182907104,73.33333587646484,197261.0,0.0
14921.3288039,294766.15625,295106.875,326713.5,319979.90625,285231.53125,255764.40625,221663.953125,246120.703125,0.03173828125,0.98779296875,0.060791015625,0.1831054538488388,-1.2207030057907104,-1.3427733182907104,73.33333587646484,197262.0,0.0
14921.3288041,294766.15625,295106.875,326713.5,319979.90625,285231.53125,255764.40625,221663.953125,246120.703125,0.03173828125,0.98779296875,0.060791015625,0.1831054538488388,-1.2207030057907104,-1.3427733182907104,73.33333587646484,197263.0,0.0
14921.3288043,294766.15625,295106.875,326713.5,319979.90625,285231.53125,255764.40625,221663.953125,246120.703125,0.03173828125,0.98779296875,0.060791015625,0.1831054538488388,-1.2207030057907104,-1.3427733182907104,73.33333587646484,197264.0,0.0
14921.3288045,294766.15625,295106.875,326713.5,319979.90625,285231.53125,255764.40625,221663.953125,246120.703125,0.03173828125,0.98779296875,0.060791015625,0.1831054538488388,-1.2207030057907104,-1.3427733182907104,73.33333587646484,197265.0,0.0
14921.3288046,294766.15625,295106.875,326713.5,319979.90625,285231.53125,255764.40625,221663.953125,246120.703125,0.03173828125,0.98779296875,0.060791015625,0.1831054538488388,-1.2207030057907104,-1.3427733182907104,73.33333587646484,197266.0,0.0
14921.3288048,294766.15625,295106.875,326713.5,319979.90625,285231.53125,255764.40625,221663.953125,246120.703125,0.03173828125,0.98779296875,0.060791015625,0.1831054538488388,-1.2207030057907104,-1.3427733182907104,73.33333587646484,197267.0,0.0
14921.328805,294766.15625,295106.875,326713.5,319979.90625,285231.53125,255764.40625,221663.953125,246120.703125,0.03173828125,0.98779296875,0.060791015625,0.1831054538488388,-1.2207030057907104,-1.3427733182907104,73.33333587646484,197268.0,0.0
14921.3288051,294766.15625,295106.875,326713.5,319979.90625,285231.53125,255764.40625,221663.953125,246120.703125,0.03173828125,0.98779296875,0.060791015625,0.1831054538488388,-1.2207030057907104,-1.3427733182907104,73.33333587646484,197269.0,0.0
14921.3288053,294766.15625,295106.875,326713.5,319979.90625,285231.53125,255764.40625,221663.953125,246120.703125,0.03173828125,0.98779296875,0.060791015625,0.1831054538488388,-1.2207030057907104,-1.3427733182907104,73.33333587646484,197270.0,0.0
14921.3288055,294766.15625,295106.875,326713.5,319979.90625,285231.53125,255764.40625,221663.953125,246120.703125,0.03173828125,0.98779296875,0.060791015625,0.1831054538488388,-1.2207030057907104,-1.3427733182907104,73.33333587646484,197271.0,0.0
14921.3288057,294766.15625,295106.875,326713.5,319979.90625,285231.53125,255764.40625,221663.953125,246120.703125,0.03173828125,0.98779296875,0.060791015625,0.1831054538488388,-1.2207030057907104,-1.3427733182907104,73.33333587646484,197272.0,0.0
14921.3288059,294766.15625,295106.875,326713.5,319979.90625,285231.53125,255764.40625,221663.953125,246120.703125,0.03173828125,0.98779296875,0.060791015625,0.1831054538488388,-1.2207030057907104,-1.3427733182907104,73.33333587646484,197273.0,0.0
14921.3288061,294766.15625,295106.875,326713.5,319979.90625,285231.53125,255764.40625,221663.953125,246120.703125,0.03173828125,0.98779296875,0.060791015625,0.1831054538488388,-1.2207030057907104,-1.3427733182907104,73.33333587646484,197274.0,0.0
14921.3288066,294766.15625,295106.875,326713.5,319979.90625,285231.53125,255764.40625,221663.953125,246120.703125,0.03173828125,0.98779296875,0.060791015625,0.1831054538488388,-1.2207030057907104,-1.3427733182907104,73.33333587646484,197275.0,0.0
14921.3288071,294766.15625,295106.875,326713.5,319979.90625,285231.53125,255764.40625,221663.953125,246120.703125,0.03173828125,0.98779296875,0.060791015625,0.1831054538488388,-1.2207030057907104,-1.3427733182907104,73.33333587646484,197276.0,0.0
14921.3288073,294766.15625,295106.875,326713.5,319979.90625,285231.53125,255764.40625,221663.953125,246120.703125,0.03173828125,0.98779296875,0.060791015625,0.1831054538488388,-1.2207030057907104,-1.3427733182907104,73.33333587646484,197277.0,0.0
14921.3288074,294766.15625,295106.875,326713.5,319979.90625,285231.53125,255764.40625,221663.953125,246120.703125,0.03173828125,0.98779296875,0.060791015625,0.1831054538488388,-1.2207030057907104,-1.3427733182907104,73.33333587646484,197278.0,0.0
14921.3288076,294766.15625,295106.875,326713.5,319979.90625,285231.53125,255764.40625,221663.953125,246120.703125,0.03173828125,0.98779296875,0.060791015625,0.1831054538488388,-1.2207030057907104,-1.3427733182907104,73.33333587646484,197279.0,0.0
14921.3288078,294766.15625,295106.875,326713.5,319979.90625,285231.53125,255764.40625,221663.953125,246120.703125,0.03173828125,0.98779296875,0.060791015625,0.1831054538488388,-1.2207030057907104,-1.3427733182907104,73.33333587646484,197280.0,0.0
14921.3288079,294766.15625,295106.875,326713.5,319979.90625,285231.53125,255764.40625,221663.953125,246120.703125,0.03173828125,0.98779296875,0.060791015625,0.1831054538488388,-1.2207030057907104,-1.3427733182907104,73.33333587646484,197281.0,0.0
14921.3288081,294766.15625,295106.875,326713.5,319979.90625,285231.53125,255764.40625,221663.953125,246120.703125,0.03173828125,0.98779296875,0.060791015625,0.1831054538488388,-1.2207030057907104,-1.3427733182907104,73.33333587646484,197282.0,0.0
14921.3288083,294766.15625,295106.875,326713.5,319979.90625,285231.53125,255764.40625,221663.953125,246120.703125,0.03173828125,0.98779296875,0.060791015625,0.1831054538488388,-1.2207030057907104,-1.3427733182907104,73.33333587646484,197283.0,0.0
14921.3288085,294766.15625,295106.875,326713.5,319979.90625,285231.53125,255764.40625,221663.953125,246120.703125,0.03173828125,0.98779296875,0.060791015625,0.1831054538488388,-1.2207030057907104,-1.3427733182907104,73.33333587646484,197284.0,0.0
14921.3288086,294766.15625,295106.875,326713.5,319979.90625,285231.53125,255764.40625,221663.953125,246120.703125,0.03173828125,0.98779296875,0.060791015625,0.1831054538488388,-1.2207030057907104,-1.3427733182907104,73.33333587646484,197285.0,0.0
14921.3288088,294766.15625,295106.875,326713.5,319979.90625,285231.53125,255764.40625,221663.953125,246120.703125,0.03173828125,0.98779296875,0.060791015625,0.1831054538488388,-1.2207030057907104,-1.3427733182907104,73.33333587646484,197286.0,0.0
14921.328809,294766.15625,295106.875,326713.5,319979.90625,285231.53125,255764.40625,221663.953125,246120.703125,0.03173828125,0.98779296875,0.060791015625,0.1831054538488388,-1.2207030057907104,-1.3427733182907104,73.33333587646484,197287.0,0.0
14921.3288092,294766.15625,295106.875,326713.5,319979.90625,285231.53125,255764.40625,221663.953125,246120.703125,0.03173828125,0.98779296875,0.060791015625,0.1831054538488388,-1.2207030057907104,-1.3427733182907104,73.33333587646484,197288.0,0.0
14921.3288093,294766.15625,295106.875,326713.5,319979.90625,285231.53125,255764.40625,221663.953125,246120.703125,0.03173828125,0.98779296875,0.060791015625,0.1831054538488388,-1.2207030057907104,-1.3427733182907104,73.33333587646484,197289.0,0.0
14921.3288095,294766.15625,295106.875,326713.5,319979.90625,285231.53125,255764.40625,221663.953125,246120.703125,0.03173828125,0.98779296875,0.060791015625,0.1831054538488388,-1.2207030057907104,-1.3427733182907104,73.33333587646484,197290.0,0.0
14921.3288097,294766.15625,295106.875,326713.5,319979.90625,285231.53125,255764.40625,221663.953125,246120.703125,0.03173828125,0.98779296875,0.060791015625,0.1831054538488388,-1.2207030057907104,-1.3427733182907104,73.33333587646484,197291.0,0.0
14921.3288099,294766.15625,295106.875,326713.5,319979.90625,285231.53125,255764.40625,221663.953125,246120.703125,0.03173828125,0.98779296875,0.060791015625,0.1831054538488388,-1.2207030057907104,-1.3427733182907104,73.33333587646484,197292.0,0.0
14921.32881,294766.15625,295106.875,326713.5,319979.90625,285231.53125,255764.40625,221663.953125,246120.703125,0.03173828125,0.98779296875,0.060791015625,0.1831054538488388,-1.2207030057907104,-1.3427733182907104,73.33333587646484,197293.0,0.0
14921.3288102,294766.15625,295106.875,326713.5,319979.90625,285231.53125,255764.40625,221663.953125,246120.703125,0.03173828125,0.98779296875,0.060791015625,0.1831054538488388,-1.2207030057907104,-1.3427733182907104,73.33333587646484,197294.0,0.0
14921.3288104,294766.15625,295106.875,326713.5,319979.90625,285231.53125,255764.40625,221663.953125,246120.703125,0.03173828125,0.98779296875,0.060791015625,0.1831054538488388,-1.2207030057907104,-1.3427733182907104,73.33333587646484,197295.0,0.0
14921.3288106,294766.15625,295106.875,326713.5,319979.90625,285231.53125,255764.40625,221663.953125,246120.703125,0.03173828125,0.98779296875,0.060791015625,0.1831054538488388,-1.2207030057907104,-1.3427733182907104,73.33333587646484,197296.0,0.0
14921.3288107,294766.15625,295106.875,326713.5,319979.90625,285231.53125,255764.40625,221663.953125,246120.703125,0.03173828125,0.98779296875,0.060791015625,0.1831054538488388,-1.2207030057907104,-1.3427733182907104,73.33333587646484,197297.0,0.0
14921.3288109,294766.15625,295106.875,326713.5,319979.90625,285231.53125,255764.40625,221663.953125,246120.703125,0.03173828125,0.98779296875,0.060791015625,0.1831054538488388,-1.2207030057907104,-1.3427733182907104,73.33333587646484,197298.0,0.0
14921.3288111,294766.15625,295106.875,326713.5,319979.90625,285231.53125,255764.40625,221663.953125,246120.703125,0.03173828125,0.98779296875,0.060791015625,0.1831054538488388,-1.2207030057907104,-1.3427733182907104,73.33333587646484,197299.0,0.0
14921.3288113,294766.15625,295106.875,326713.5,319979.90625,285231.53125,255764.40625,221663.953125,246120.703125,0.03173828125,0.98779296875,0.060791015625,0.1831054538488388,-1.2207030057907104,-1.3427733182907104,73.33333587646484,197300.0,0.0
14921.3288114,294766.15625,295106.875,326713.5,319979.90625,285231.53125,255764.40625,221663.953125,246120.703125,0.03173828125,0.98779296875,0.060791015625,0.1831054538488388,-1.2207030057907104,-1.3427733182907104,73.33333587646484,197301.0,0.0
14921.3288116,294766.15625,295106.875,326713.5,319979.90625,285231.53125,255764.40625,221663.953125,246120.703125,0.03173828125,0.98779296875,0.060791015625,0.1831054538488388,-1.2207030057907104,-1.3427733182907104,73.33333587646484,197302.0,0.0
14921.3288118,294766.15625,295106.875,326713.5,319979.90625,285231.53125,255764.40625,221663.953125,246120.703125,0.03173828125,0.98779296875,0.060791015625,0.1831054538488388,-1.2207030057907104,-1.3427733182907104,73.33333587646484,197303.0,0.0
14921.328812,294766.15625,295106.875,326713.5,319979.90625,285231.53125,255764.40625,221663.953125,246120.703125,0.03173828125,0.98779296875,0.060791015625,0.1831054538488388,-1.2207030057907104,-1.3427733182907104,73.33333587646484,197304.0,0.0
14921.3288121,294796.90625,294799.40625,326534.6875,320034.15625,285097.84375,255728.203125,221641.78125,246152.984375,0.025390625,0.987548828125,0.064208984375,0.8239745497703552,-1.6174315214157104,-1.0375975370407104,73.33333587646484,197305.0,1.0
14921.3288135,294823.90625,295106.78125,326767.6875,320041.15625,285244.84375,255787.390625,221700.171875,246160.75,0.024169921875,0.9912109375,0.06591796875,0.9155272841453552,-1.8310545682907104,-0.9765624403953552,73.33333587646484,197306.0,1.0
14921.3288147,294809.6875,295304.03125,326868.875,320000.8125,285323.96875,255815.734375,221714.828125,246145.015625,0.026123046875,0.9931640625,0.060546875,0.7934569716453552,-1.7700194120407104,-0.9765624403953552,73.33333587646484,197307.0,1.0
14921.3288161,294775.53125,295122.6875,326710.375,319969.78125,285232.6875,255774.0625,221665.84375,246126.78125,0.027587890625,0.991943359375,0.061279296875,0.7934569716453552,-1.8310545682907104,-0.9460448622703552,73.33333587646484,197308.0,1.0
14921.3529298,294764.34375,294807.0,326488.28125,319982.75,285081.84375,255718.90625,221611.828125,246127.234375,0.027099609375,0.989501953125,0.060546875,0.7019042372703552,-1.8005369901657104,-0.7934569716453552,73.33333587646484,197309.0,1.0
14921.3529361,294800.5625,294813.34375,326540.21875,320032.46875,285101.78125,255734.015625,221639.109375,246152.703125,0.025634765625,0.9892578125,0.0625,0.7324218153953552,-1.7395018339157104,-0.7629393935203552,73.33333587646484,197310.0,1.0
14921.3529377,294827.65625,295116.53125,326775.90625,320042.9375,285252.25,255797.75,221702.5,246165.3125,0.0263671875,0.987548828125,0.0625,0.7324218153953552,-1.7089842557907104,-0.7019042372703552,73.33333587646484,197311.0,1.0
14921.3768059,294813.09375,295301.25,326867.90625,319999.75,285325.9375,255818.046875,221714.03125,246150.203125,0.02734375,0.988037109375,0.065185546875,0.7019042372703552,-1.6174315214157104,-0.6713866591453552,73.33333587646484,197312.0,1.0
14921.4024229,294776.96875,295114.375,326696.34375,319964.625,285224.28125,255777.109375,221664.765625,246133.21875,0.027587890625,0.986328125,0.05908203125,0.7934569716453552,-1.5869139432907104,-0.7324218153953552,73.33333587646484,197313.0,1.0
14921.4024296,294762.9375,294798.5,326479.875,319976.3125,285077.125,255717.203125,221614.875,246129.109375,0.02685546875,0.984619140625,0.05712890625,0.8850097060203552,-1.5258787870407104,-0.7019042372703552,73.33333587646484,197314.0,1.0
14921.4273694,294790.28125,294795.75,326520.1875,320017.375,285089.71875,255721.765625,221636.875,246144.390625,0.0283203125,0.986083984375,0.058349609375,0.8850097060203552,-1.5258787870407104,-0.6408690810203552,73.33333587646484,197315.0,1.0
14921.4273754,294819.875,295105.28125,326752.9375,320025.59375,285239.375,255786.765625,221704.375,246158.515625,0.027587890625,0.985595703125,0.0615234375,0.8239745497703552,-1.4953612089157104,-0.7019042372703552,73.33333587646484,197316.0,1.0
14921.4518437,294805.5,295302.40625,326863.4375,319985.96875,285325.9375,255815.8125,221724.046875,246147.078125,0.02783203125,0.98486328125,0.063232421875,0.8850097060203552,-1.4648436307907104,-0.7629393935203552,73.33333587646484,197317.0,1.0
14921.4768174,294770.625,295124.5,326715.28125,319955.9375,285239.375,255779.15625,221679.609375,246131.875,0.026611328125,0.986328125,0.0654296875,0.9460448622703552,-1.4343260526657104,-0.7324218153953552,73.33333587646484,197318.0,1.0
14921.5018178,294757.125,294806.90625,326494.71875,319969.0,285092.59375,255729.0,221630.875,246128.390625,0.026611328125,0.988525390625,0.066162109375,0.8850097060203552,-1.3732908964157104,-0.8239745497703552,73.33333587646484,197319.0,1.0
14921.5268247,294792.625,294799.0625,326530.46875,320020.40625,285105.0,255741.15625,221654.65625,246154.5,0.025146484375,0.9912109375,0.062744140625,0.8850097060203552,-1.3732908964157104,-0.9460448622703552,73.33333587646484,197320.0,1.0
14921.5518444,294827.46875,295104.375,326765.875,320037.21875,285258.15625,255809.828125,221723.859375,246173.984375,0.028564453125,0.992431640625,0.059814453125,0.9765624403953552,-1.3427733182907104,-0.9765624403953552,73.33333587646484,197321.0,1.0
14921.5768819,294816.9375,295311.8125,326871.65625,319999.75,285340.875,255839.515625,221739.15625,246162.28125,0.02685546875,0.99267578125,0.064208984375,0.9155272841453552,-1.3122557401657104,-1.0375975370407104,73.33333587646484,197322.0,1.0
14921.6018745,294774.0,295122.0625,326701.25,319963.53125,285235.4375,255775.3125,221674.515625,246133.484375,0.026123046875,0.994384765625,0.061279296875,0.8239745497703552,-1.3427733182907104,-1.1901854276657104,73.33333587646484,197323.0,1.0
14921.6585969,294762.125,294809.59375,326487.3125,319982.3125,285089.28125,255721.9375,221629.71875,246137.6875,0.028076171875,0.994873046875,0.066650390625,0.7934569716453552,-1.1901854276657104,-1.2207030057907104,73.33333587646484,197324.0,1.0
14921.6586025,294798.96875,294809.59375,326532.1875,320034.875,285106.0,255741.078125,221657.25,246159.59375,0.027099609375,0.994873046875,0.0615234375,0.6408690810203552,-1.1596678495407104,-1.2817381620407104,73.33333587646484,197325.0,1.0
14921.6586037,294826.84375,295104.375,326754.71875,320041.78125,285244.40625,255793.828125,221713.3125,246166.84375,0.030029296875,0.993896484375,0.063232421875,0.4882812201976776,-1.2817381620407104,-1.3427733182907104,73.33333587646484,197326.0,1.0
14921.658605,294815.3125,295295.875,326857.25,320003.5,285321.5625,255814.03125,221726.90625,246151.453125,0.029296875,0.994873046875,0.06103515625,0.4577636420726776,-1.2817381620407104,-1.3732908964157104,73.33333587646484,197327.0,1.0
14921.6586062,294781.34375,295130.5625,326709.75,319976.3125,285233.65625,255770.484375,221676.203125,246135.640625,0.027587890625,0.9931640625,0.0625,0.3662109076976776,-1.2207030057907104,-1.3732908964157104,73.33333587646484,197328.0,1.0
14921.6586074,294765.78125,294818.4375,326499.90625,319991.15625,285090.0,255710.5,221622.390625,246139.03125,0.0263671875,0.993896484375,0.064697265625,0.2746581733226776,-1.2817381620407104,-1.4038084745407104,73.33333587646484,197329.0,1.0
14921.6586086,294808.09375,294821.40625,326550.40625,320045.71875,285109.84375,255740.09375,221655.828125,246163.078125,0.025634765625,0.991943359375,0.06201171875,0.1831054538488388,-1.2512205839157104,-1.2817381620407104,73.33333587646484,197330.0,1.0
14921.6586099,294835.15625,295121.0,326777.25,320052.21875,285254.21875,255801.515625,221714.65625,246169.25,0.026123046875,0.991455078125,0.06298828125,0.1220703050494194,-1.1901854276657104,-1.2817381620407104,73.33333587646484,197331.0,1.0
14921.6586111,294821.5,295321.0,326878.1875,320011.8125,285334.875,255828.15625,221729.671875,246161.65625,0.026123046875,0.989013671875,0.0625,0.1220703050494194,-1.1291502714157104,-1.2512205839157104,73.33333587646484,197332.0,1.0
14921.6586124,294783.40625,295145.21875,326718.3125,319979.8125,285241.0,255787.390625,221684.34375,246141.09375,0.025634765625,0.98876953125,0.064208984375,0.03051757626235485,-1.0986326932907104,-1.2207030057907104,73.33333587646484,197333.0,1.0
14921.6586136,294773.03125,294832.75,326500.09375,319997.25,285093.46875,255739.109375,221634.90625,246135.28125,0.02392578125,0.98828125,0.0615234375,-0.03051757626235485,-1.1901854276657104,-1.0375975370407104,73.33333587646484,197334.0,1.0
14921.6586148,294798.96875,294818.90625,326533.4375,320035.25,285097.84375,255741.78125,221647.78125,246152.265625,0.023193359375,0.98828125,0.0634765625,-0.1220703050494194,-1.1901854276657104,-1.0070799589157104,73.33333587646484,197335.0,1.0
14921.658616,294826.5,295122.96875,326769.03125,320045.625,285247.0,255796.5,221709.734375,246165.859375,0.021240234375,0.987060546875,0.06494140625,-0.2746581733226776,-1.2207030057907104,-1.0375975370407104,73.33333587646484,197336.0,1.0
14921.6586173,294816.03125,295323.34375,326876.84375,320009.3125,285332.0,255825.828125,221726.0,246157.453125,0.02294921875,0.986083984375,0.0625,-0.2746581733226776,-1.2512205839157104,-0.9460448622703552,73.33333587646484,197337.0,1.0
14921.6605803,294780.90625,295147.65625,326725.375,319980.09375,285244.3125,255788.453125,221678.625,246139.75,0.022705078125,0.986328125,0.063720703125,-0.3051757514476776,-1.2512205839157104,-0.8544921278953552,73.33333587646484,197338.0,1.0
14921.6856003,294768.84375,294833.1875,326509.75,319991.53125,285094.09375,255723.28125,221622.203125,246134.5625,0.024658203125,0.987060546875,0.061767578125,-0.3051757514476776,-1.3122557401657104,-0.7324218153953552,73.33333587646484,197339.0,1.0
14921.7105999,294802.96875,294824.09375,326547.03125,320038.8125,285103.3125,255727.03125,221640.4375,246156.203125,0.024169921875,0.9873046875,0.064453125,-0.3356933295726776,-1.3122557401657104,-0.7629393935203552,73.33333587646484,197340.0,1.0
14921.7655458,294838.125,295131.1875,326783.78125,320052.9375,285256.90625,255797.671875,221709.640625,246177.75,0.02392578125,0.987548828125,0.0615234375,-0.2136230319738388,-1.3427733182907104,-0.6713866591453552,73.33333587646484,197341.0,1.0
14921.7655509,294823.28125,295327.53125,326883.71875,320012.90625,285337.09375,255829.140625,221730.390625,246166.484375,0.0224609375,0.9873046875,0.06640625,-0.1525878757238388,-1.3732908964157104,-0.5798339247703552,73.33333587646484,197342.0,1.0
14921.7655522,294788.78125,295153.09375,326726.625,319980.78125,285245.46875,255785.421875,221682.28125,246139.484375,0.021728515625,0.987060546875,0.06640625,-0.3967284858226776,-1.4648436307907104,-0.4882812201976776,73.33333587646484,197343.0,1.0
14921.7655535,294770.15625,294829.28125,326507.40625,319987.59375,285095.625,255725.0625,221625.421875,246133.75,0.02294921875,0.98974609375,0.064208984375,-0.3051757514476776,-1.4648436307907104,-0.4272460639476776,73.33333587646484,197344.0,1.0
14921.7655547,294795.21875,294805.21875,326531.8125,320026.125,285093.46875,255735.4375,221642.953125,246152.625,0.02294921875,0.989990234375,0.06298828125,-0.2746581733226776,-1.4953612089157104,-0.3967284858226776,73.33333587646484,197345.0,1.0
14921.7655559,294826.3125,295108.3125,326764.1875,320034.78125,285239.3125,255804.015625,221705.265625,246160.578125,0.0244140625,0.987548828125,0.066162109375,-0.2746581733226776,-1.5869139432907104,-0.4882812201976776,73.33333587646484,197346.0,1.0
14921.7655572,294810.40625,295309.5625,326873.09375,319990.625,285325.03125,255827.703125,221719.75,246142.515625,0.026611328125,0.98779296875,0.06884765625,-0.2441406100988388,-1.5563963651657104,-0.4882812201976776,73.33333587646484,197347.0,1.0
14921.7655584,294766.875,295124.21875,326705.71875,319950.84375,285223.21875,255770.125,221659.9375,246117.390625,0.026123046875,0.987060546875,0.06396484375,-0.2441406100988388,-1.5563963651657104,-0.5187987685203552,73.33333587646484,197348.0,1.0
14921.7655596,294750.21875,294803.0625,326481.5,319961.125,285072.5625,255704.953125,221604.6875,246118.015625,0.02734375,0.98583984375,0.0673828125,-0.0610351525247097,-1.5869139432907104,-0.6103515028953552,73.33333587646484,197349.0,1.0
14921.7655608,294781.71875,294786.1875,326512.34375,320009.125,285080.78125,255722.125,221631.765625,246146.0,0.027099609375,0.9853515625,0.06689453125,0.0,-1.5258787870407104,-0.6103515028953552,73.33333587646484,197350.0,1.0
14921.765562,294807.90625,295087.75,326745.25,320018.96875,285229.65625,255786.140625,221695.4375,246158.96875,0.028564453125,0.98681640625,0.064453125,0.1220703050494194,-1.4953612089157104,-0.6103515028953552,73.33333587646484,197351.0,1.0
14921.7655632,294791.4375,295292.3125,326854.5,319977.125,285316.53125,255814.828125,221713.140625,246143.5,0.03076171875,0.986328125,0.065673828125,0.2136230319738388,-1.4953612089157104,-0.6408690810203552,73.33333587646484,197352.0,1.0
14921.7655644,294759.0,295121.90625,326702.5,319949.5,285229.71875,255778.265625,221665.5625,246124.546875,0.030517578125,0.98583984375,0.065185546875,0.3051757514476776,-1.4648436307907104,-0.6713866591453552,73.33333587646484,197353.0,1.0
14921.7655656,294743.15625,294794.3125,326467.625,319958.53125,285068.25,255716.21875,221606.375,246119.8125,0.030029296875,0.986572265625,0.06591796875,0.3967284858226776,-1.4343260526657104,-0.7629393935203552,73.33333587646484,197354.0,1.0
14921.7655668,294782.34375,294794.40625,326512.6875,320013.4375,285083.8125,255740.0,221644.375,246152.0,0.0302734375,0.98779296875,0.067138671875,0.4577636420726776,-1.2817381620407104,-0.8850097060203552,73.33333587646484,197355.0,1.0
14921.765568,294816.03125,295103.3125,326754.96875,320029.78125,285239.21875,255801.25,221711.25,246171.03125,0.030029296875,0.986328125,0.067138671875,0.6103515028953552,-1.2817381620407104,-0.9155272841453552,73.33333587646484,197356.0,1.0
14921.7655692,294804.59375,295306.53125,326867.1875,319990.4375,285323.96875,255824.484375,221723.953125,246152.703125,0.030029296875,0.985595703125,0.06640625,0.7019042372703552,-1.0375975370407104,-0.9155272841453552,73.33333587646484,197357.0,1.0
14921.7655706,294767.5,295135.5,326711.96875,319955.59375,285230.09375,255777.546875,221665.296875,246128.03125,0.031005859375,0.988525390625,0.068115234375,0.7324218153953552,-0.9765624403953552,-1.0375975370407104,73.33333587646484,197358.0,1.0
14921.7680438,294748.8125,294808.25,326480.40625,319964.15625,285069.25,255701.640625,221594.484375,246118.015625,0.03076171875,0.98828125,0.0673828125,0.7324218153953552,-0.9765624403953552,-1.1291502714157104,73.33333587646484,197359.0,1.0
14921.7705287,294786.09375,294797.71875,326517.78125,320020.5,285082.3125,255716.3125,221621.21875,246145.734375,0.030517578125,0.9873046875,0.06396484375,0.8544921278953552,-0.8850097060203552,-1.1596678495407104,73.33333587646484,197360.0,1.0
14921.7730467,294819.625,295106.4375,326763.125,320037.3125,285236.78125,255782.640625,221691.578125,246160.578125,0.031005859375,0.9873046875,0.065673828125,1.0375975370407104,-0.8544921278953552,-1.1901854276657104,73.33333587646484,197361.0,1.0
14921.7755292,294811.9375,295313.40625,326876.75,319999.375,285322.8125,255816.890625,221714.109375,246147.96875,0.03125,0.98779296875,0.0634765625,1.1596678495407104,-0.6713866591453552,-1.2817381620407104,73.33333587646484,197362.0,1.0
14921.7780281,294778.75,295146.3125,326725.65625,319966.84375,285236.25,255775.046875,221664.671875,246125.53125,0.028564453125,0.989013671875,0.064697265625,1.2207030057907104,-0.7934569716453552,-1.2817381620407104,73.33333587646484,197363.0,1.0
14921.7867883,294760.15625,294813.09375,326491.9375,319976.40625,285078.71875,255710.3125,221604.859375,246118.015625,0.025390625,0.989501953125,0.062744140625,1.2512205839157104,-0.7324218153953552,-1.4038084745407104,73.33333587646484,197364.0,1.0
14921.7892675,294793.59375,294798.34375,326517.6875,320023.71875,285083.90625,255727.578125,221632.484375,246146.0,0.0263671875,0.98974609375,0.0673828125,1.3427733182907104,-0.7324218153953552,-1.4648436307907104,73.33333587646484,197365.0,1.0
14921.7942879,294832.65625,295118.5,326767.6875,320042.9375,285243.21875,255795.796875,221703.296875,246163.625,0.024169921875,0.99462890625,0.064453125,1.3732908964157104,-0.6713866591453552,-1.4343260526657104,73.33333587646484,197366.0,1.0
14921.7967729,294832.3125,295333.25,326891.3125,320012.09375,285338.71875,255833.25,221729.140625,246153.15625,0.020263671875,0.99560546875,0.063232421875,1.2817381620407104,-0.7629393935203552,-1.4038084745407104,73.33333587646484,197367.0,1.0
14921.8296111,294793.0625,295149.96875,326730.03125,319976.3125,285241.0,255782.5625,221672.28125,246130.53125,0.017333984375,0.997314453125,0.06494140625,1.2817381620407104,-0.9155272841453552,-1.3732908964157104,73.33333587646484,197368.0,1.0
14921.8296204,294772.9375,294819.78125,326505.28125,319983.46875,285083.90625,255704.234375,221611.5625,246126.0625,0.0205078125,0.996337890625,0.0634765625,1.2817381620407104,-1.0375975370407104,-1.4648436307907104,73.33333587646484,197369.0,1.0
14921.8296217,294809.34375,294803.25,326540.75,320034.78125,285093.75,255725.421875,221638.921875,246151.09375,0.019287109375,0.993408203125,0.06201171875,1.0681151151657104,-1.2512205839157104,-1.4038084745407104,73.33333587646484,197370.0,1.0
14921.8296231,294841.6875,295107.9375,326778.3125,320048.65625,285249.21875,255799.984375,221709.015625,246170.40625,0.021240234375,0.989013671875,0.060546875,1.0986326932907104,-1.3427733182907104,-1.2817381620407104,73.33333587646484,197371.0,1.0
14921.8296244,294826.0625,295318.5,326887.46875,320004.9375,285334.59375,255825.734375,221722.078125,246156.015625,0.0234375,0.98828125,0.0634765625,1.2512205839157104,-1.3427733182907104,-1.1291502714157104,73.33333587646484,197372.0,1.0
14921.8296257,294785.46875,295138.0,326729.84375,319968.8125,285237.25,255770.21875,221669.140625,246131.875,0.023681640625,0.990478515625,0.06103515625,1.3427733182907104,-1.3427733182907104,-0.9460448622703552,73.33333587646484,197373.0,1.0
14921.829627,294770.71875,294814.0625,326504.71875,319981.78125,285082.125,255709.515625,221612.734375,246129.46875,0.02197265625,0.992919921875,0.06201171875,1.2817381620407104,-1.3427733182907104,-0.8239745497703552,73.33333587646484,197374.0,1.0
14921.8296282,294799.40625,294797.0,326533.34375,320023.71875,285084.8125,255716.125,221634.640625,246148.234375,0.020751953125,0.99365234375,0.06494140625,1.2512205839157104,-1.4953612089157104,-0.7019042372703552,73.33333587646484,197375.0,1.0
14921.831513,294830.625,295100.15625,326768.5625,320036.0625,285237.59375,255784.4375,221702.578125,246158.609375,0.019775390625,0.991943359375,0.063232421875,1.0070799589157104,-1.6174315214157104,-0.6408690810203552,73.33333587646484,197376.0,1.0
14921.8343472,294830.625,295100.15625,326768.5625,320036.0625,285237.59375,255784.4375,221702.578125,246158.609375,0.019775390625,0.991943359375,0.063232421875,1.0070799589157104,-1.6174315214157104,-0.6408690810203552,73.33333587646484,197377.0,0.0
14921.8343484,294830.625,295100.15625,326768.5625,320036.0625,285237.59375,255784.4375,221702.578125,246158.609375,0.019775390625,0.991943359375,0.063232421875,1.0070799589157104,-1.6174315214157104,-0.6408690810203552,73.33333587646484,197378.0,0.0
14921.8343487,294830.625,295100.15625,326768.5625,320036.0625,285237.59375,255784.4375,221702.578125,246158.609375,0.019775390625,0.991943359375,0.063232421875,1.0070799589157104,-1.6174315214157104,-0.6408690810203552,73.33333587646484,197379.0,0.0
14921.8343489,294830.625,295100.15625,326768.5625,320036.0625,285237.59375,255784.4375,221702.578125,246158.609375,0.019775390625,0.991943359375,0.063232421875,1.0070799589157104,-1.6174315214157104,-0.6408690810203552,73.33333587646484,197380.0,0.0
14921.834349,294830.625,295100.15625,326768.5625,320036.0625,285237.59375,255784.4375,221702.578125,246158.609375,0.019775390625,0.991943359375,0.063232421875,1.0070799589157104,-1.6174315214157104,-0.6408690810203552,73.33333587646484,197381.0,0.0
14921.8343492,294830.625,295100.15625,326768.5625,320036.0625,285237.59375,255784.4375,221702.578125,246158.609375,0.019775390625,0.991943359375,0.063232421875,1.0070799589157104,-1.6174315214157104,-0.6408690810203552,73.33333587646484,197382.0,0.0
14921.8343494,294830.625,295100.15625,326768.5625,320036.0625,285237.59375,255784.4375,221702.578125,246158.609375,0.019775390625,0.991943359375,0.063232421875,1.0070799589157104,-1.6174315214157104,-0.6408690810203552,73.33333587646484,197383.0,0.0
14921.8343496,294830.625,295100.15625,326768.5625,320036.0625,285237.59375,255784.4375,221702.578125,246158.609375,0.019775390625,0.991943359375,0.063232421875,1.0070799589157104,-1.6174315214157104,-0.6408690810203552,73.33333587646484,197384.0,0.0
14921.8343497,294830.625,295100.15625,326768.5625,320036.0625,285237.59375,255784.4375,221702.578125,246158.609375,0.019775390625,0.991943359375,0.063232421875,1.0070799589157104,-1.6174315214157104,-0.6408690810203552,73.33333587646484,197385.0,0.0
14921.8343499,294830.625,295100.15625,326768.5625,320036.0625,285237.59375,255784.4375,221702.578125,246158.609375,0.019775390625,0.991943359375,0.063232421875,1.0070799589157104,-1.6174315214157104,-0.6408690810203552,73.33333587646484,197386.0,0.0
14921.8343501,294830.625,295100.15625,326768.5625,320036.0625,285237.59375,255784.4375,221702.578125,246158.609375,0.019775390625,0.991943359375,0.063232421875,1.0070799589157104,-1.6174315214157104,-0.6408690810203552,73.33333587646484,197387.0,0.0
14921.8343503,294830.625,295100.15625,326768.5625,320036.0625,285237.59375,255784.4375,221702.578125,246158.609375,0.019775390625,0.991943359375,0.063232421875,1.0070799589157104,-1.6174315214157104,-0.6408690810203552,73.33333587646484,197388.0,0.0
14921.8343504,294830.625,295100.15625,326768.5625,320036.0625,285237.59375,255784.4375,221702.578125,246158.609375,0.019775390625,0.991943359375,0.063232421875,1.0070799589157104,-1.6174315214157104,-0.6408690810203552,73.33333587646484,197389.0,0.0
