Time,FZ,C3,CZ,C4,PZ,PO7,OZ,PO8,AccX,AccY,AccZ,Gyro1,Gyro2,Gyro3,Battery,Counter,Validation
14594.4350532,292648.46875,295478.28125,336454.125,332263.96875,285199.0625,256375.0625,222414.4375,246184.1875,0.023193359375,0.997802734375,0.18115234375,-0.1525878757238388,-1.5869139432907104,-0.5798339247703552,80.0,115494.0,0.0
14594.4350534,292648.46875,295478.28125,336454.125,332263.96875,285199.0625,256375.0625,222414.4375,246184.1875,0.023193359375,0.997802734375,0.18115234375,-0.1525878757238388,-1.5869139432907104,-0.5798339247703552,80.0,115495.0,0.0
14594.4350536,292648.46875,295478.28125,336454.125,332263.96875,285199.0625,256375.0625,222414.4375,246184.1875,0.023193359375,0.997802734375,0.18115234375,-0.1525878757238388,-1.5869139432907104,-0.5798339247703552,80.0,115496.0,0.0
14594.4350538,292648.46875,295478.28125,336454.125,332263.96875,285199.0625,256375.0625,222414.4375,246184.1875,0.023193359375,0.997802734375,0.18115234375,-0.1525878757238388,-1.5869139432907104,-0.5798339247703552,80.0,115497.0,0.0
14594.4350539,292648.46875,295478.28125,336454.125,332263.96875,285199.0625,256375.0625,222414.4375,246184.1875,0.023193359375,0.997802734375,0.18115234375,-0.1525878757238388,-1.5869139432907104,-0.5798339247703552,80.0,115498.0,0.0
14594.4350541,292648.46875,295478.28125,336454.125,332263.96875,285199.0625,256375.0625,222414.4375,246184.1875,0.023193359375,0.997802734375,0.18115234375,-0.1525878757238388,-1.5869139432907104,-0.5798339247703552,80.0,115499.0,0.0
14594.4350543,292648.46875,295478.28125,336454.125,332263.96875,285199.0625,256375.0625,222414.4375,246184.1875,0.023193359375,0.997802734375,0.18115234375,-0.1525878757238388,-1.5869139432907104,-0.5798339247703552,80.0,115500.0,0.0
14594.4350545,292648.46875,295478.28125,336454.125,332263.96875,285199.0625,256375.0625,222414.4375,246184.1875,0.023193359375,0.997802734375,0.18115234375,-0.1525878757238388,-1.5869139432907104,-0.5798339247703552,80.0,115501.0,0.0
14594.4350546,292648.46875,295478.28125,336454.125,332263.96875,285199.0625,256375.0625,222414.4375,246184.1875,0.023193359375,0.997802734375,0.18115234375,-0.1525878757238388,-1.5869139432907104,-0.5798339247703552,80.0,115502.0,0.0
14594.4350548,292648.46875,295478.28125,336454.125,332263.96875,285199.0625,256375.0625,222414.4375,246184.1875,0.023193359375,0.997802734375,0.18115234375,-0.1525878757238388,-1.5869139432907104,-0.5798339247703552,80.0,115503.0,0.0
14594.435055,292648.46875,295478.28125,336454.125,332263.96875,285199.0625,256375.0625,222414.4375,246184.1875,0.023193359375,0.997802734375,0.18115234375,-0.1525878757238388,-1.5869139432907104,-0.5798339247703552,80.0,115504.0,0.0
14594.4350551,292648.46875,295478.28125,336454.125,332263.96875,285199.0625,256375.0625,222414.4375,246184.1875,0.023193359375,0.997802734375,0.18115234375,-0.1525878757238388,-1.5869139432907104,-0.5798339247703552,80.0,115505.0,0.0
14594.4350553,292648.46875,295478.28125,336454.125,332263.96875,285199.0625,256375.0625,222414.4375,246184.1875,0.023193359375,0.997802734375,0.18115234375,-0.1525878757238388,-1.5869139432907104,-0.5798339247703552,80.0,115506.0,0.0
14594.4350555,292648.46875,295478.28125,336454.125,332263.96875,285199.0625,256375.0625,222414.4375,246184.1875,0.023193359375,0.997802734375,0.18115234375,-0.1525878757238388,-1.5869139432907104,-0.5798339247703552,80.0,115507.0,0.0
14594.4350557,292648.46875,295478.28125,336454.125,332263.96875,285199.0625,256375.0625,222414.4375,246184.1875,0.023193359375,0.997802734375,0.18115234375,-0.1525878757238388,-1.5869139432907104,-0.5798339247703552,80.0,115508.0,0.0
14594.4350558,292648.46875,295478.28125,336454.125,332263.96875,285199.0625,256375.0625,222414.4375,246184.1875,0.023193359375,0.997802734375,0.18115234375,-0.1525878757238388,-1.5869139432907104,-0.5798339247703552,80.0,115509.0,0.0
14594.435056,292648.46875,295478.28125,336454.125,332263.96875,285199.0625,256375.0625,222414.4375,246184.1875,0.023193359375,0.997802734375,0.18115234375,-0.1525878757238388,-1.5869139432907104,-0.5798339247703552,80.0,115510.0,0.0
14594.4350562,292648.46875,295478.28125,336454.125,332263.96875,285199.0625,256375.0625,222414.4375,246184.1875,0.023193359375,0.997802734375,0.18115234375,-0.1525878757238388,-1.5869139432907104,-0.5798339247703552,80.0,115511.0,0.0
14594.4350564,292648.46875,295478.28125,336454.125,332263.96875,285199.0625,256375.0625,222414.4375,246184.1875,0.023193359375,0.997802734375,0.18115234375,-0.1525878757238388,-1.5869139432907104,-0.5798339247703552,80.0,115512.0,0.0
14594.4350566,292648.46875,295478.28125,336454.125,332263.96875,285199.0625,256375.0625,222414.4375,246184.1875,0.023193359375,0.997802734375,0.18115234375,-0.1525878757238388,-1.5869139432907104,-0.5798339247703552,80.0,115513.0,0.0
14594.4350568,292648.46875,295478.28125,336454.125,332263.96875,285199.0625,256375.0625,222414.4375,246184.1875,0.023193359375,0.997802734375,0.18115234375,-0.1525878757238388,-1.5869139432907104,-0.5798339247703552,80.0,115514.0,0.0
14594.435057,292648.46875,295478.28125,336454.125,332263.96875,285199.0625,256375.0625,222414.4375,246184.1875,0.023193359375,0.997802734375,0.18115234375,-0.1525878757238388,-1.5869139432907104,-0.5798339247703552,80.0,115515.0,0.0
14594.4350571,292648.46875,295478.28125,336454.125,332263.96875,285199.0625,256375.0625,222414.4375,246184.1875,0.023193359375,0.997802734375,0.18115234375,-0.1525878757238388,-1.5869139432907104,-0.5798339247703552,80.0,115516.0,0.0
14594.4350573,292648.46875,295478.28125,336454.125,332263.96875,285199.0625,256375.0625,222414.4375,246184.1875,0.023193359375,0.997802734375,0.18115234375,-0.1525878757238388,-1.5869139432907104,-0.5798339247703552,80.0,115517.0,0.0
14594.4350575,292648.46875,295478.28125,336454.125,332263.96875,285199.0625,256375.0625,222414.4375,246184.1875,0.023193359375,0.997802734375,0.18115234375,-0.1525878757238388,-1.5869139432907104,-0.5798339247703552,80.0,115518.0,0.0
14594.4350576,292648.46875,295478.28125,336454.125,332263.96875,285199.0625,256375.0625,222414.4375,246184.1875,0.023193359375,0.997802734375,0.18115234375,-0.1525878757238388,-1.5869139432907104,-0.5798339247703552,80.0,115519.0,0.0
14594.4350578,292648.46875,295478.28125,336454.125,332263.96875,285199.0625,256375.0625,222414.4375,246184.1875,0.023193359375,0.997802734375,0.18115234375,-0.1525878757238388,-1.5869139432907104,-0.5798339247703552,80.0,115520.0,0.0
14594.435058,292648.46875,295478.28125,336454.125,332263.96875,285199.0625,256375.0625,222414.4375,246184.1875,0.023193359375,0.997802734375,0.18115234375,-0.1525878757238388,-1.5869139432907104,-0.5798339247703552,80.0,115521.0,0.0
14594.4350581,292648.46875,295478.28125,336454.125,332263.96875,285199.0625,256375.0625,222414.4375,246184.1875,0.023193359375,0.997802734375,0.18115234375,-0.1525878757238388,-1.5869139432907104,-0.5798339247703552,80.0,115522.0,0.0
14594.4350583,292648.46875,295478.28125,336454.125,332263.96875,285199.0625,256375.0625,222414.4375,246184.1875,0.023193359375,0.997802734375,0.18115234375,-0.1525878757238388,-1.5869139432907104,-0.5798339247703552,80.0,115523.0,0.0
14594.4350585,292648.46875,295478.28125,336454.125,332263.96875,285199.0625,256375.0625,222414.4375,246184.1875,0.023193359375,0.997802734375,0.18115234375,-0.1525878757238388,-1.5869139432907104,-0.5798339247703552,80.0,115524.0,0.0
14594.4350586,292648.46875,295478.28125,336454.125,332263.96875,285199.0625,256375.0625,222414.4375,246184.1875,0.023193359375,0.997802734375,0.18115234375,-0.1525878757238388,-1.5869139432907104,-0.5798339247703552,80.0,115525.0,0.0
14594.4350588,292648.46875,295478.28125,336454.125,332263.96875,285199.0625,256375.0625,222414.4375,246184.1875,0.023193359375,0.997802734375,0.18115234375,-0.1525878757238388,-1.5869139432907104,-0.5798339247703552,80.0,115526.0,0.0
14594.435059,292648.46875,295478.28125,336454.125,332263.96875,285199.0625,256375.0625,222414.4375,246184.1875,0.023193359375,0.997802734375,0.18115234375,-0.1525878757238388,-1.5869139432907104,-0.5798339247703552,80.0,115527.0,0.0
14594.4350591,292648.46875,295478.28125,336454.125,332263.96875,285199.0625,256375.0625,222414.4375,246184.1875,0.023193359375,0.997802734375,0.18115234375,-0.1525878757238388,-1.5869139432907104,-0.5798339247703552,80.0,115528.0,0.0
14594.4350593,292648.46875,295478.28125,336454.125,332263.96875,285199.0625,256375.0625,222414.4375,246184.1875,0.023193359375,0.997802734375,0.18115234375,-0.1525878757238388,-1.5869139432907104,-0.5798339247703552,80.0,115529.0,0.0
14594.4350595,292648.46875,295478.28125,336454.125,332263.96875,285199.0625,256375.0625,222414.4375,246184.1875,0.023193359375,0.997802734375,0.18115234375,-0.1525878757238388,-1.5869139432907104,-0.5798339247703552,80.0,115530.0,0.0
14594.4350596,292648.46875,295478.28125,336454.125,332263.96875,285199.0625,256375.0625,222414.4375,246184.1875,0.023193359375,0.997802734375,0.18115234375,-0.1525878757238388,-1.5869139432907104,-0.5798339247703552,80.0,115531.0,0.0
14594.4350598,292644.6875,295492.65625,336471.5625,332254.0625,285217.46875,256351.8125,222390.21875,246167.015625,0.014892578125,0.99560546875,0.191162109375,-0.2441406100988388,-1.2512205839157104,-0.9460448622703552,80.0,115532.0,1.0
14594.4600556,292628.25,295723.0625,336573.65625,332215.59375,285307.6875,256394.015625,222428.921875,246167.109375,0.0166015625,0.99609375,0.1923828125,-0.3356933295726776,-1.3122557401657104,-0.7629393935203552,80.0,115533.0,1.0
14594.4850787,292589.09375,295691.15625,336458.15625,332164.28125,285264.40625,256373.453125,222397.1875,246141.4375,0.018310546875,0.99560546875,0.192626953125,-0.5493163466453552,-1.3732908964157104,-0.6713866591453552,80.0,115534.0,1.0
14594.4938202,292580.40625,295431.34375,336272.90625,332169.46875,285137.71875,256321.234375,222342.828125,246135.8125,0.017578125,0.992919921875,0.192626953125,-0.6103515028953552,-1.3732908964157104,-0.6713866591453552,80.0,115535.0,1.0
14594.496682,292605.375,295293.90625,336255.28125,332218.03125,285091.25,256293.875,222330.40625,246153.78125,0.01513671875,0.992431640625,0.18994140625,-0.4882812201976776,-1.3732908964157104,-0.7019042372703552,80.0,115536.0,1.0
14594.4996001,292637.1875,295485.875,336445.4375,332250.03125,285200.40625,256342.25,222392.71875,246184.359375,0.0166015625,0.990478515625,0.18896484375,-0.4882812201976776,-1.4343260526657104,-0.6103515028953552,80.0,115537.0,1.0
14594.4996197,292620.46875,295717.71875,336551.84375,332208.8125,285290.0,256378.8125,222423.828125,246173.546875,0.0166015625,0.991455078125,0.189208984375,-0.3967284858226776,-1.5869139432907104,-0.5493163466453552,80.0,115538.0,1.0
14594.5014669,292593.375,295696.96875,336455.625,332166.4375,285259.59375,256380.6875,222401.75,246149.140625,0.017333984375,0.99072265625,0.19384765625,-0.2441406100988388,-1.6479490995407104,-0.5187987685203552,80.0,115539.0,1.0
14594.5044492,292585.15625,295454.84375,336288.34375,332176.0,285150.78125,256346.625,222367.0625,246148.953125,0.01806640625,0.99169921875,0.1943359375,-0.2746581733226776,-1.5563963651657104,-0.4577636420726776,80.0,115540.0,1.0
14594.5044546,292606.53125,295318.3125,336277.53125,332217.75,285107.96875,256318.546875,222349.359375,246161.46875,0.017578125,0.991455078125,0.189208984375,-0.2136230319738388,-1.6479490995407104,-0.3662109076976776,80.0,115541.0,1.0
14594.5063231,292641.125,295505.375,336465.84375,332248.9375,285215.15625,256365.21875,222409.078125,246190.53125,0.018310546875,0.991455078125,0.187744140625,-0.2136230319738388,-1.5563963651657104,-0.3051757514476776,80.0,115542.0,1.0
14594.516807,292627.53125,295737.09375,336571.78125,332204.4375,285303.75,256409.75,222427.9375,246148.6875,0.018310546875,0.9912109375,0.190185546875,-0.2136230319738388,-1.5869139432907104,-0.2746581733226776,80.0,115543.0,1.0
14594.5168126,292627.53125,295737.09375,336571.78125,332204.4375,285303.75,256409.75,222427.9375,246148.6875,0.018310546875,0.9912109375,0.190185546875,-0.2136230319738388,-1.5869139432907104,-0.2746581733226776,80.0,115544.0,0.0
14594.5168128,292627.53125,295737.09375,336571.78125,332204.4375,285303.75,256409.75,222427.9375,246148.6875,0.018310546875,0.9912109375,0.190185546875,-0.2136230319738388,-1.5869139432907104,-0.2746581733226776,80.0,115545.0,0.0
14594.516813,292627.53125,295737.09375,336571.78125,332204.4375,285303.75,256409.75,222427.9375,246148.6875,0.018310546875,0.9912109375,0.190185546875,-0.2136230319738388,-1.5869139432907104,-0.2746581733226776,80.0,115546.0,0.0
14594.5168132,292627.53125,295737.09375,336571.78125,332204.4375,285303.75,256409.75,222427.9375,246148.6875,0.018310546875,0.9912109375,0.190185546875,-0.2136230319738388,-1.5869139432907104,-0.2746581733226776,80.0,115547.0,0.0
14594.5168134,292627.53125,295737.09375,336571.78125,332204.4375,285303.75,256409.75,222427.9375,246148.6875,0.018310546875,0.9912109375,0.190185546875,-0.2136230319738388,-1.5869139432907104,-0.2746581733226776,80.0,115548.0,0.0
14594.5168136,292627.53125,295737.09375,336571.78125,332204.4375,285303.75,256409.75,222427.9375,246148.6875,0.018310546875,0.9912109375,0.190185546875,-0.2136230319738388,-1.5869139432907104,-0.2746581733226776,80.0,115549.0,0.0
14594.5168139,292627.53125,295737.09375,336571.78125,332204.4375,285303.75,256409.75,222427.9375,246148.6875,0.018310546875,0.9912109375,0.190185546875,-0.2136230319738388,-1.5869139432907104,-0.2746581733226776,80.0,115550.0,0.0
14594.5168141,292627.53125,295737.09375,336571.78125,332204.4375,285303.75,256409.75,222427.9375,246148.6875,0.018310546875,0.9912109375,0.190185546875,-0.2136230319738388,-1.5869139432907104,-0.2746581733226776,80.0,115551.0,0.0
14594.5168142,292627.53125,295737.09375,336571.78125,332204.4375,285303.75,256409.75,222427.9375,246148.6875,0.018310546875,0.9912109375,0.190185546875,-0.2136230319738388,-1.5869139432907104,-0.2746581733226776,80.0,115552.0,0.0
14594.5168144,292627.53125,295737.09375,336571.78125,332204.4375,285303.75,256409.75,222427.9375,246148.6875,0.018310546875,0.9912109375,0.190185546875,-0.2136230319738388,-1.5869139432907104,-0.2746581733226776,80.0,115553.0,0.0
14594.5168146,292627.53125,295737.09375,336571.78125,332204.4375,285303.75,256409.75,222427.9375,246148.6875,0.018310546875,0.9912109375,0.190185546875,-0.2136230319738388,-1.5869139432907104,-0.2746581733226776,80.0,115554.0,0.0
14594.5168148,292627.53125,295737.09375,336571.78125,332204.4375,285303.75,256409.75,222427.9375,246148.6875,0.018310546875,0.9912109375,0.190185546875,-0.2136230319738388,-1.5869139432907104,-0.2746581733226776,80.0,115555.0,0.0
14594.516815,292627.53125,295737.09375,336571.78125,332204.4375,285303.75,256409.75,222427.9375,246148.6875,0.018310546875,0.9912109375,0.190185546875,-0.2136230319738388,-1.5869139432907104,-0.2746581733226776,80.0,115556.0,0.0
14594.5168151,292627.53125,295737.09375,336571.78125,332204.4375,285303.75,256409.75,222427.9375,246148.6875,0.018310546875,0.9912109375,0.190185546875,-0.2136230319738388,-1.5869139432907104,-0.2746581733226776,80.0,115557.0,0.0
14594.5168153,292627.53125,295737.09375,336571.78125,332204.4375,285303.75,256409.75,222427.9375,246148.6875,0.018310546875,0.9912109375,0.190185546875,-0.2136230319738388,-1.5869139432907104,-0.2746581733226776,80.0,115558.0,0.0
14594.5168155,292569.25,295656.28125,336403.0625,332135.125,285218.65625,256356.28125,222380.46875,246128.125,0.019775390625,0.996826171875,0.1923828125,0.5798339247703552,-1.5258787870407104,-0.9765624403953552,80.0,115559.0,1.0
14594.5168168,292563.4375,295426.875,336248.40625,332150.25,285117.53125,256323.203125,222349.4375,246128.484375,0.018798828125,0.99609375,0.1904296875,0.4577636420726776,-1.4648436307907104,-0.9765624403953552,80.0,115560.0,1.0
14594.516818,292590.25,295304.1875,336262.875,332205.6875,285093.90625,256306.125,222355.875,246161.296875,0.01953125,0.998291015625,0.18603515625,0.5493163466453552,-1.5563963651657104,-0.8544921278953552,80.0,115561.0,1.0
14594.5168192,292621.53125,295493.03125,336453.9375,332235.09375,285201.5625,256348.421875,222410.234375,246185.078125,0.019775390625,0.99951171875,0.186767578125,0.5187987685203552,-1.5258787870407104,-0.7934569716453552,80.0,115562.0,1.0
14594.5168204,292601.15625,295707.875,336545.03125,332186.625,285277.125,256378.984375,222421.140625,246152.4375,0.01806640625,1.000244140625,0.185302734375,0.4882812201976776,-1.5563963651657104,-0.8239745497703552,80.0,115563.0,1.0
14594.5168216,292557.78125,295656.09375,336414.78125,332128.4375,285217.75,256352.96875,222378.953125,246118.5625,0.016357421875,1.0009765625,0.18505859375,0.3967284858226776,-1.4953612089157104,-0.7629393935203552,80.0,115564.0,1.0
14594.5168228,292548.59375,295402.0,336245.625,332134.25,285100.28125,256295.578125,222330.671875,246117.578125,0.01513671875,1.000244140625,0.187255859375,0.3356933295726776,-1.5563963651657104,-0.7934569716453552,80.0,115565.0,1.0
14594.516824,292584.15625,295286.125,336248.65625,332192.625,285073.09375,256290.84375,222344.875,246147.96875,0.0146484375,0.99755859375,0.184814453125,0.1525878757238388,-1.5869139432907104,-0.8850097060203552,80.0,115566.0,1.0
14594.5168252,292611.53125,295477.375,336433.90625,332216.21875,285177.0625,256337.953125,222380.375,246151.453125,0.01513671875,0.99560546875,0.185791015625,0.1525878757238388,-1.6784666776657104,-0.8544921278953552,80.0,115567.0,1.0
14594.5168264,292595.625,295707.4375,336540.21875,332180.5625,285274.15625,256383.375,222416.9375,246147.171875,0.014404296875,0.993896484375,0.185302734375,0.3051757514476776,-1.7395018339157104,-0.9155272841453552,80.0,115568.0,1.0
14594.5409866,292563.15625,295671.65625,336433.65625,332139.875,285240.09375,256365.578125,222395.75,246132.59375,0.01806640625,0.99365234375,0.184814453125,0.2136230319738388,-1.8005369901657104,-0.8544921278953552,80.0,115569.0,1.0
14594.566377,292563.15625,295671.65625,336433.65625,332139.875,285240.09375,256365.578125,222395.75,246132.59375,0.01806640625,0.99365234375,0.184814453125,0.2136230319738388,-1.8005369901657104,-0.8544921278953552,80.0,115570.0,0.0
14594.5663815,292563.15625,295671.65625,336433.65625,332139.875,285240.09375,256365.578125,222395.75,246132.59375,0.01806640625,0.99365234375,0.184814453125,0.2136230319738388,-1.8005369901657104,-0.8544921278953552,80.0,115571.0,0.0
14594.5663827,292563.15625,295671.65625,336433.65625,332139.875,285240.09375,256365.578125,222395.75,246132.59375,0.01806640625,0.99365234375,0.184814453125,0.2136230319738388,-1.8005369901657104,-0.8544921278953552,80.0,115572.0,0.0
14594.5663839,292563.15625,295671.65625,336433.65625,332139.875,285240.09375,256365.578125,222395.75,246132.59375,0.01806640625,0.99365234375,0.184814453125,0.2136230319738388,-1.8005369901657104,-0.8544921278953552,80.0,115573.0,0.0
14594.566385,292563.15625,295671.65625,336433.65625,332139.875,285240.09375,256365.578125,222395.75,246132.59375,0.01806640625,0.99365234375,0.184814453125,0.2136230319738388,-1.8005369901657104,-0.8544921278953552,80.0,115574.0,0.0
14594.5663863,292563.15625,295671.65625,336433.65625,332139.875,285240.09375,256365.578125,222395.75,246132.59375,0.01806640625,0.99365234375,0.184814453125,0.2136230319738388,-1.8005369901657104,-0.8544921278953552,80.0,115575.0,0.0
14594.5663874,292563.15625,295671.65625,336433.65625,332139.875,285240.09375,256365.578125,222395.75,246132.59375,0.01806640625,0.99365234375,0.184814453125,0.2136230319738388,-1.8005369901657104,-0.8544921278953552,80.0,115576.0,0.0
14594.5663885,292563.15625,295671.65625,336433.65625,332139.875,285240.09375,256365.578125,222395.75,246132.59375,0.01806640625,0.99365234375,0.184814453125,0.2136230319738388,-1.8005369901657104,-0.8544921278953552,80.0,115577.0,0.0
14594.5663896,292563.15625,295671.65625,336433.65625,332139.875,285240.09375,256365.578125,222395.75,246132.59375,0.01806640625,0.99365234375,0.184814453125,0.2136230319738388,-1.8005369901657104,-0.8544921278953552,80.0,115578.0,0.0
14594.5663906,292563.15625,295671.65625,336433.65625,332139.875,285240.09375,256365.578125,222395.75,246132.59375,0.01806640625,0.99365234375,0.184814453125,0.2136230319738388,-1.8005369901657104,-0.8544921278953552,80.0,115579.0,0.0
14594.5663916,292563.15625,295671.65625,336433.65625,332139.875,285240.09375,256365.578125,222395.75,246132.59375,0.01806640625,0.99365234375,0.184814453125,0.2136230319738388,-1.8005369901657104,-0.8544921278953552,80.0,115580.0,0.0
14594.5663927,292563.15625,295671.65625,336433.65625,332139.875,285240.09375,256365.578125,222395.75,246132.59375,0.01806640625,0.99365234375,0.184814453125,0.2136230319738388,-1.8005369901657104,-0.8544921278953552,80.0,115581.0,0.0
14594.5663938,292563.15625,295671.65625,336433.65625,332139.875,285240.09375,256365.578125,222395.75,246132.59375,0.01806640625,0.99365234375,0.184814453125,0.2136230319738388,-1.8005369901657104,-0.8544921278953552,80.0,115582.0,0.0
14594.5663957,292563.15625,295671.65625,336433.65625,332139.875,285240.09375,256365.578125,222395.75,246132.59375,0.01806640625,0.99365234375,0.184814453125,0.2136230319738388,-1.8005369901657104,-0.8544921278953552,80.0,115583.0,0.0
14594.5663958,292560.5625,295660.75,336423.1875,332126.03125,285225.09375,256347.96875,222376.984375,246129.109375,0.02294921875,0.99609375,0.1865234375,0.5798339247703552,-1.5869139432907104,-1.3427733182907104,80.0,115584.0,1.0
14594.5851259,292555.28125,295410.59375,336255.28125,332136.5625,285109.46875,256296.5625,222328.703125,246124.71875,0.022705078125,0.99658203125,0.18603515625,0.5798339247703552,-1.5258787870407104,-1.2817381620407104,80.0,115585.0,1.0
14594.5876232,292589.8125,295287.21875,336249.28125,332190.84375,285069.875,256283.765625,222327.359375,246140.015625,0.024169921875,0.996337890625,0.191650390625,0.5493163466453552,-1.5258787870407104,-1.4038084745407104,80.0,115586.0,1.0
14594.5938821,292617.34375,295475.0625,336423.1875,332217.40625,285169.75,256332.328125,222386.375,246166.84375,0.024658203125,0.995849609375,0.189453125,0.5493163466453552,-1.4953612089157104,-1.4038084745407104,80.0,115587.0,1.0
14594.5963603,292600.96875,295699.65625,336519.21875,332177.59375,285257.34375,256376.84375,222413.015625,246150.921875,0.02197265625,0.994140625,0.1875,0.6408690810203552,-1.4648436307907104,-1.3732908964157104,80.0,115588.0,1.0
14594.5988747,292569.875,295662.09375,336414.875,332131.1875,285218.71875,256358.0625,222383.6875,246126.515625,0.02294921875,0.993896484375,0.187255859375,0.6408690810203552,-1.4038084745407104,-1.3732908964157104,80.0,115589.0,1.0
14594.6013595,292560.5625,295406.03125,336250.90625,332137.90625,285103.65625,256302.28125,222338.09375,246127.671875,0.021728515625,0.995849609375,0.189208984375,0.6408690810203552,-1.3427733182907104,-1.4343260526657104,80.0,115590.0,1.0
14594.6082567,292592.3125,295283.375,336247.21875,332190.65625,285066.28125,256289.765625,222335.3125,246146.1875,0.02294921875,0.99658203125,0.189453125,0.7019042372703552,-1.3427733182907104,-1.4343260526657104,80.0,115591.0,1.0
14594.6082611,292621.53125,295482.46875,336432.65625,332217.03125,285173.9375,256337.78125,222389.140625,246162.8125,0.021728515625,0.995849609375,0.189453125,0.7324218153953552,-1.3732908964157104,-1.3427733182907104,80.0,115592.0,1.0
14594.6082623,292603.84375,295710.8125,336537.96875,332179.03125,285269.875,256374.25,222415.6875,246152.265625,0.020263671875,0.99462890625,0.18701171875,0.9155272841453552,-1.3427733182907104,-1.4038084745407104,80.0,115593.0,1.0
14594.6082635,292565.9375,295659.5,336415.75,332128.15625,285222.75,256351.8125,222384.40625,246134.109375,0.018798828125,0.99560546875,0.18994140625,0.8544921278953552,-1.2207030057907104,-1.2817381620407104,80.0,115594.0,1.0
14594.6082648,292561.0,295407.5625,336246.96875,332137.8125,285107.78125,256298.609375,222332.640625,246133.390625,0.01806640625,0.99560546875,0.1884765625,0.9460448622703552,-1.2817381620407104,-1.1596678495407104,80.0,115595.0,1.0
14594.6082661,292592.03125,295296.5,336258.125,332189.75,285079.625,256285.375,222325.921875,246144.3125,0.016845703125,0.99609375,0.18798828125,0.9460448622703552,-1.2207030057907104,-1.0681151151657104,80.0,115596.0,1.0
14594.6578579,292619.5,295485.25,336434.53125,332214.625,285178.78125,256330.265625,222375.453125,246164.515625,0.01806640625,0.999267578125,0.188232421875,0.9460448622703552,-1.2512205839157104,-1.0681151151657104,80.0,115597.0,1.0
14594.6578701,292602.78125,295710.28125,336529.9375,332178.5,285268.8125,256366.5625,222409.796875,246174.703125,0.017333984375,0.998291015625,0.18701171875,0.9155272841453552,-1.2512205839157104,-1.0070799589157104,80.0,115598.0,1.0
14594.6578721,292576.65625,295685.0625,336435.25,332135.125,285239.46875,256360.21875,222375.1875,246127.859375,0.0146484375,0.9970703125,0.18896484375,0.7934569716453552,-1.3732908964157104,-1.0681151151657104,80.0,115599.0,1.0
14594.6578738,292569.25,295437.875,336278.78125,332141.9375,285129.875,256312.03125,222322.359375,246107.375,0.014892578125,0.998291015625,0.186767578125,0.7629393935203552,-1.4953612089157104,-1.0681151151657104,80.0,115600.0,1.0
14594.6578754,292593.5625,295307.15625,336272.53125,332188.78125,285089.28125,256293.421875,222318.59375,246136.34375,0.013671875,0.997802734375,0.186279296875,0.7019042372703552,-1.4343260526657104,-1.0070799589157104,80.0,115601.0,1.0
14594.6578776,292617.96875,295493.65625,336440.71875,332209.875,285182.875,256336.875,222372.15625,246154.59375,0.01318359375,0.994873046875,0.185302734375,0.7324218153953552,-1.5563963651657104,-1.0375975370407104,80.0,115602.0,1.0
14594.6578802,292598.5625,295702.3125,336518.03125,332164.1875,285254.40625,256365.84375,222397.984375,246138.9375,0.013916015625,0.99658203125,0.18505859375,0.7324218153953552,-1.5869139432907104,-0.8850097060203552,80.0,115603.0,1.0
14594.6613801,292562.71875,295657.34375,336399.40625,332116.8125,285208.375,256343.671875,222371.078125,246123.203125,0.0166015625,0.997314453125,0.18408203125,0.7934569716453552,-1.6479490995407104,-1.0375975370407104,80.0,115604.0,1.0
14594.6863732,292549.84375,295406.84375,336238.46875,332128.875,285101.34375,256301.46875,222331.375,246131.96875,0.01513671875,0.996826171875,0.187255859375,0.7324218153953552,-1.6479490995407104,-0.9155272841453552,80.0,115605.0,1.0
14594.7288703,292577.375,295286.84375,336240.71875,332174.84375,285069.25,256296.109375,222329.765625,246139.5625,0.016845703125,0.99560546875,0.1865234375,0.9155272841453552,-1.6784666776657104,-0.9155272841453552,80.0,115606.0,1.0
14594.7563486,292609.84375,295487.46875,336432.3125,332199.0625,285176.96875,256341.0,222378.140625,246147.171875,0.016845703125,0.99560546875,0.1875,0.9155272841453552,-1.6174315214157104,-1.0070799589157104,80.0,115607.0,1.0
14594.7814862,292599.1875,295713.40625,336537.4375,332165.625,285270.9375,256376.3125,222405.140625,246145.828125,0.018798828125,0.99560546875,0.186767578125,0.8544921278953552,-1.8005369901657104,-1.0986326932907104,80.0,115608.0,1.0
14594.8063815,292569.875,295673.1875,336427.3125,332126.28125,285235.1875,256360.75,222383.859375,246135.28125,0.017333984375,0.99609375,0.188232421875,0.8239745497703552,-1.7700194120407104,-1.0375975370407104,80.0,115609.0,1.0
14594.8623043,292569.875,295673.1875,336427.3125,332126.28125,285235.1875,256360.75,222383.859375,246135.28125,0.017333984375,0.99609375,0.188232421875,0.8239745497703552,-1.7700194120407104,-1.0375975370407104,80.0,115610.0,0.0
14594.8623062,292569.875,295673.1875,336427.3125,332126.28125,285235.1875,256360.75,222383.859375,246135.28125,0.017333984375,0.99609375,0.188232421875,0.8239745497703552,-1.7700194120407104,-1.0375975370407104,80.0,115611.0,0.0
14594.8623064,292569.875,295673.1875,336427.3125,332126.28125,285235.1875,256360.75,222383.859375,246135.28125,0.017333984375,0.99609375,0.188232421875,0.8239745497703552,-1.7700194120407104,-1.0375975370407104,80.0,115612.0,0.0
14594.8623066,292569.875,295673.1875,336427.3125,332126.28125,285235.1875,256360.75,222383.859375,246135.28125,0.017333984375,0.99609375,0.188232421875,0.8239745497703552,-1.7700194120407104,-1.0375975370407104,80.0,115613.0,0.0
14594.8623068,292569.875,295673.1875,336427.3125,332126.28125,285235.1875,256360.75,222383.859375,246135.28125,0.017333984375,0.99609375,0.188232421875,0.8239745497703552,-1.7700194120407104,-1.0375975370407104,80.0,115614.0,0.0
14594.8623069,292569.875,295673.1875,336427.3125,332126.28125,285235.1875,256360.75,222383.859375,246135.28125,0.017333984375,0.99609375,0.188232421875,0.8239745497703552,-1.7700194120407104,-1.0375975370407104,80.0,115615.0,0.0
14594.8623071,292569.875,295673.1875,336427.3125,332126.28125,285235.1875,256360.75,222383.859375,246135.28125,0.017333984375,0.99609375,0.188232421875,0.8239745497703552,-1.7700194120407104,-1.0375975370407104,80.0,115616.0,0.0
14594.8623073,292569.875,295673.1875,336427.3125,332126.28125,285235.1875,256360.75,222383.859375,246135.28125,0.017333984375,0.99609375,0.188232421875,0.8239745497703552,-1.7700194120407104,-1.0375975370407104,80.0,115617.0,0.0
14594.8623075,292569.875,295673.1875,336427.3125,332126.28125,285235.1875,256360.75,222383.859375,246135.28125,0.017333984375,0.99609375,0.188232421875,0.8239745497703552,-1.7700194120407104,-1.0375975370407104,80.0,115618.0,0.0
14594.8623077,292569.875,295673.1875,336427.3125,332126.28125,285235.1875,256360.75,222383.859375,246135.28125,0.017333984375,0.99609375,0.188232421875,0.8239745497703552,-1.7700194120407104,-1.0375975370407104,80.0,115619.0,0.0
14594.8623078,292569.875,295673.1875,336427.3125,332126.28125,285235.1875,256360.75,222383.859375,246135.28125,0.017333984375,0.99609375,0.188232421875,0.8239745497703552,-1.7700194120407104,-1.0375975370407104,80.0,115620.0,0.0
14594.862308,292569.875,295673.1875,336427.3125,332126.28125,285235.1875,256360.75,222383.859375,246135.28125,0.017333984375,0.99609375,0.188232421875,0.8239745497703552,-1.7700194120407104,-1.0375975370407104,80.0,115621.0,0.0
14594.8623082,292569.875,295673.1875,336427.3125,332126.28125,285235.1875,256360.75,222383.859375,246135.28125,0.017333984375,0.99609375,0.188232421875,0.8239745497703552,-1.7700194120407104,-1.0375975370407104,80.0,115622.0,0.0
14594.8623084,292569.875,295673.1875,336427.3125,332126.28125,285235.1875,256360.75,222383.859375,246135.28125,0.017333984375,0.99609375,0.188232421875,0.8239745497703552,-1.7700194120407104,-1.0375975370407104,80.0,115623.0,0.0
14594.8623085,292569.875,295673.1875,336427.3125,332126.28125,285235.1875,256360.75,222383.859375,246135.28125,0.017333984375,0.99609375,0.188232421875,0.8239745497703552,-1.7700194120407104,-1.0375975370407104,80.0,115624.0,0.0
14594.8623087,292569.875,295673.1875,336427.3125,332126.28125,285235.1875,256360.75,222383.859375,246135.28125,0.017333984375,0.99609375,0.188232421875,0.8239745497703552,-1.7700194120407104,-1.0375975370407104,80.0,115625.0,0.0
14594.8623089,292569.875,295673.1875,336427.3125,332126.28125,285235.1875,256360.75,222383.859375,246135.28125,0.017333984375,0.99609375,0.188232421875,0.8239745497703552,-1.7700194120407104,-1.0375975370407104,80.0,115626.0,0.0
14594.862309,292569.875,295673.1875,336427.3125,332126.28125,285235.1875,256360.75,222383.859375,246135.28125,0.017333984375,0.99609375,0.188232421875,0.8239745497703552,-1.7700194120407104,-1.0375975370407104,80.0,115627.0,0.0
14594.8623092,292569.875,295673.1875,336427.3125,332126.28125,285235.1875,256360.75,222383.859375,246135.28125,0.017333984375,0.99609375,0.188232421875,0.8239745497703552,-1.7700194120407104,-1.0375975370407104,80.0,115628.0,0.0
14594.8623094,292569.875,295673.1875,336427.3125,332126.28125,285235.1875,256360.75,222383.859375,246135.28125,0.017333984375,0.99609375,0.188232421875,0.8239745497703552,-1.7700194120407104,-1.0375975370407104,80.0,115629.0,0.0
14594.8623096,292569.875,295673.1875,336427.3125,332126.28125,285235.1875,256360.75,222383.859375,246135.28125,0.017333984375,0.99609375,0.188232421875,0.8239745497703552,-1.7700194120407104,-1.0375975370407104,80.0,115630.0,0.0
14594.8623098,292569.875,295673.1875,336427.3125,332126.28125,285235.1875,256360.75,222383.859375,246135.28125,0.017333984375,0.99609375,0.188232421875,0.8239745497703552,-1.7700194120407104,-1.0375975370407104,80.0,115631.0,0.0
14594.86231,292569.875,295673.1875,336427.3125,332126.28125,285235.1875,256360.75,222383.859375,246135.28125,0.017333984375,0.99609375,0.188232421875,0.8239745497703552,-1.7700194120407104,-1.0375975370407104,80.0,115632.0,0.0
14594.8623102,292569.875,295673.1875,336427.3125,332126.28125,285235.1875,256360.75,222383.859375,246135.28125,0.017333984375,0.99609375,0.188232421875,0.8239745497703552,-1.7700194120407104,-1.0375975370407104,80.0,115633.0,0.0
14594.8623103,292569.875,295673.1875,336427.3125,332126.28125,285235.1875,256360.75,222383.859375,246135.28125,0.017333984375,0.99609375,0.188232421875,0.8239745497703552,-1.7700194120407104,-1.0375975370407104,80.0,115634.0,0.0
14594.8623105,292569.875,295673.1875,336427.3125,332126.28125,285235.1875,256360.75,222383.859375,246135.28125,0.017333984375,0.99609375,0.188232421875,0.8239745497703552,-1.7700194120407104,-1.0375975370407104,80.0,115635.0,0.0
14594.8623107,292569.875,295673.1875,336427.3125,332126.28125,285235.1875,256360.75,222383.859375,246135.28125,0.017333984375,0.99609375,0.188232421875,0.8239745497703552,-1.7700194120407104,-1.0375975370407104,80.0,115636.0,0.0
14594.8623109,292644.96875,295502.5,336457.78125,332218.09375,285217.03125,256356.1875,222395.671875,246158.515625,0.01611328125,0.996337890625,0.1796875,0.7934569716453552,-1.2512205839157104,-0.9765624403953552,80.0,115637.0,1.0
14594.8623172,292627.34375,295711.4375,336533.0625,332175.46875,285291.5,256386.140625,222419.71875,246156.90625,0.013916015625,0.998291015625,0.18017578125,0.6408690810203552,-1.3427733182907104,-1.0375975370407104,80.0,115638.0,1.0
14594.8623185,292590.0625,295657.09375,336403.0625,332126.03125,285234.375,256356.109375,222380.5625,246121.5,0.01416015625,0.998779296875,0.183837890625,0.5187987685203552,-1.3122557401657104,-1.0070799589157104,80.0,115639.0,1.0
14594.8623198,292584.4375,295410.5,336244.28125,332143.4375,285130.3125,256319.984375,222350.15625,246133.671875,0.01611328125,0.999267578125,0.186279296875,0.4577636420726776,-1.4038084745407104,-0.9765624403953552,80.0,115640.0,1.0
14594.862321,292622.96875,295312.4375,336271.8125,332204.53125,285118.34375,256321.40625,222363.125,246160.125,0.017822265625,0.997314453125,0.18408203125,0.4577636420726776,-1.4953612089157104,-0.9155272841453552,80.0,115641.0,1.0
14594.8638615,292650.5,295510.8125,336459.5625,332227.6875,285225.875,256358.25,222408.546875,246175.328125,0.01806640625,0.995849609375,0.181640625,0.3967284858226776,-1.5258787870407104,-0.8544921278953552,80.0,115642.0,1.0
14594.8900805,292630.9375,295716.0,336536.1875,332185.46875,285297.3125,256389.546875,222424.28125,246162.015625,0.018310546875,0.99658203125,0.18212890625,0.2441406100988388,-1.5258787870407104,-0.7934569716453552,80.0,115643.0,1.0
14594.8900966,292596.5,295651.09375,336402.1875,332143.8125,285241.53125,256379.265625,222399.78125,246151.015625,0.020263671875,0.996826171875,0.184326171875,0.2441406100988388,-1.5563963651657104,-0.8544921278953552,80.0,115644.0,1.0
14594.890098,292586.84375,295408.28125,336244.90625,332149.71875,285129.40625,256312.109375,222338.984375,246135.28125,0.020263671875,0.99560546875,0.183837890625,0.2746581733226776,-1.6784666776657104,-0.9155272841453552,80.0,115645.0,1.0
14594.9138773,292618.6875,295306.25,336272.96875,332197.8125,285111.09375,256295.21875,222336.203125,246143.59375,0.019287109375,0.993896484375,0.184326171875,0.2746581733226776,-1.7089842557907104,-0.9460448622703552,80.0,115646.0,1.0
14594.9645007,292618.6875,295306.25,336272.96875,332197.8125,285111.09375,256295.21875,222336.203125,246143.59375,0.019287109375,0.993896484375,0.184326171875,0.2746581733226776,-1.7089842557907104,-0.9460448622703552,80.0,115647.0,0.0
14594.9645058,292618.6875,295306.25,336272.96875,332197.8125,285111.09375,256295.21875,222336.203125,246143.59375,0.019287109375,0.993896484375,0.184326171875,0.2746581733226776,-1.7089842557907104,-0.9460448622703552,80.0,115648.0,0.0
14594.9645071,292618.6875,295306.25,336272.96875,332197.8125,285111.09375,256295.21875,222336.203125,246143.59375,0.019287109375,0.993896484375,0.184326171875,0.2746581733226776,-1.7089842557907104,-0.9460448622703552,80.0,115649.0,0.0
14594.9645083,292618.6875,295306.25,336272.96875,332197.8125,285111.09375,256295.21875,222336.203125,246143.59375,0.019287109375,0.993896484375,0.184326171875,0.2746581733226776,-1.7089842557907104,-0.9460448622703552,80.0,115650.0,0.0
14594.9645095,292618.6875,295306.25,336272.96875,332197.8125,285111.09375,256295.21875,222336.203125,246143.59375,0.019287109375,0.993896484375,0.184326171875,0.2746581733226776,-1.7089842557907104,-0.9460448622703552,80.0,115651.0,0.0
14594.9645105,292618.6875,295306.25,336272.96875,332197.8125,285111.09375,256295.21875,222336.203125,246143.59375,0.019287109375,0.993896484375,0.184326171875,0.2746581733226776,-1.7089842557907104,-0.9460448622703552,80.0,115652.0,0.0
14594.9645116,292618.6875,295306.25,336272.96875,332197.8125,285111.09375,256295.21875,222336.203125,246143.59375,0.019287109375,0.993896484375,0.184326171875,0.2746581733226776,-1.7089842557907104,-0.9460448622703552,80.0,115653.0,0.0
14594.9645128,292618.6875,295306.25,336272.96875,332197.8125,285111.09375,256295.21875,222336.203125,246143.59375,0.019287109375,0.993896484375,0.184326171875,0.2746581733226776,-1.7089842557907104,-0.9460448622703552,80.0,115654.0,0.0
14594.9645139,292618.6875,295306.25,336272.96875,332197.8125,285111.09375,256295.21875,222336.203125,246143.59375,0.019287109375,0.993896484375,0.184326171875,0.2746581733226776,-1.7089842557907104,-0.9460448622703552,80.0,115655.0,0.0
14594.9645156,292618.6875,295306.25,336272.96875,332197.8125,285111.09375,256295.21875,222336.203125,246143.59375,0.019287109375,0.993896484375,0.184326171875,0.2746581733226776,-1.7089842557907104,-0.9460448622703552,80.0,115656.0,0.0
14594.9645161,292618.6875,295306.25,336272.96875,332197.8125,285111.09375,256295.21875,222336.203125,246143.59375,0.019287109375,0.993896484375,0.184326171875,0.2746581733226776,-1.7089842557907104,-0.9460448622703552,80.0,115657.0,0.0
14594.9645163,292618.6875,295306.25,336272.96875,332197.8125,285111.09375,256295.21875,222336.203125,246143.59375,0.019287109375,0.993896484375,0.184326171875,0.2746581733226776,-1.7089842557907104,-0.9460448622703552,80.0,115658.0,0.0
14594.9645164,292618.6875,295306.25,336272.96875,332197.8125,285111.09375,256295.21875,222336.203125,246143.59375,0.019287109375,0.993896484375,0.184326171875,0.2746581733226776,-1.7089842557907104,-0.9460448622703552,80.0,115659.0,0.0
14594.9645166,292618.6875,295306.25,336272.96875,332197.8125,285111.09375,256295.21875,222336.203125,246143.59375,0.019287109375,0.993896484375,0.184326171875,0.2746581733226776,-1.7089842557907104,-0.9460448622703552,80.0,115660.0,0.0
14594.9645168,292618.6875,295306.25,336272.96875,332197.8125,285111.09375,256295.21875,222336.203125,246143.59375,0.019287109375,0.993896484375,0.184326171875,0.2746581733226776,-1.7089842557907104,-0.9460448622703552,80.0,115661.0,0.0
14594.964517,292618.6875,295306.25,336272.96875,332197.8125,285111.09375,256295.21875,222336.203125,246143.59375,0.019287109375,0.993896484375,0.184326171875,0.2746581733226776,-1.7089842557907104,-0.9460448622703552,80.0,115662.0,0.0
14594.9645171,292618.6875,295306.25,336272.96875,332197.8125,285111.09375,256295.21875,222336.203125,246143.59375,0.019287109375,0.993896484375,0.184326171875,0.2746581733226776,-1.7089842557907104,-0.9460448622703552,80.0,115663.0,0.0
14594.9645173,292618.6875,295306.25,336272.96875,332197.8125,285111.09375,256295.21875,222336.203125,246143.59375,0.019287109375,0.993896484375,0.184326171875,0.2746581733226776,-1.7089842557907104,-0.9460448622703552,80.0,115664.0,0.0
14594.9645175,292618.6875,295306.25,336272.96875,332197.8125,285111.09375,256295.21875,222336.203125,246143.59375,0.019287109375,0.993896484375,0.184326171875,0.2746581733226776,-1.7089842557907104,-0.9460448622703552,80.0,115665.0,0.0
14594.9645177,292618.6875,295306.25,336272.96875,332197.8125,285111.09375,256295.21875,222336.203125,246143.59375,0.019287109375,0.993896484375,0.184326171875,0.2746581733226776,-1.7089842557907104,-0.9460448622703552,80.0,115666.0,0.0
14594.9645178,292618.6875,295306.25,336272.96875,332197.8125,285111.09375,256295.21875,222336.203125,246143.59375,0.019287109375,0.993896484375,0.184326171875,0.2746581733226776,-1.7089842557907104,-0.9460448622703552,80.0,115667.0,0.0
14594.964518,292618.6875,295306.25,336272.96875,332197.8125,285111.09375,256295.21875,222336.203125,246143.59375,0.019287109375,0.993896484375,0.184326171875,0.2746581733226776,-1.7089842557907104,-0.9460448622703552,80.0,115668.0,0.0
14594.9645182,292618.6875,295306.25,336272.96875,332197.8125,285111.09375,256295.21875,222336.203125,246143.59375,0.019287109375,0.993896484375,0.184326171875,0.2746581733226776,-1.7089842557907104,-0.9460448622703552,80.0,115669.0,0.0
14594.9645183,292618.6875,295306.25,336272.96875,332197.8125,285111.09375,256295.21875,222336.203125,246143.59375,0.019287109375,0.993896484375,0.184326171875,0.2746581733226776,-1.7089842557907104,-0.9460448622703552,80.0,115670.0,0.0
14594.9645185,292618.6875,295306.25,336272.96875,332197.8125,285111.09375,256295.21875,222336.203125,246143.59375,0.019287109375,0.993896484375,0.184326171875,0.2746581733226776,-1.7089842557907104,-0.9460448622703552,80.0,115671.0,0.0
14594.9645187,292618.6875,295306.25,336272.96875,332197.8125,285111.09375,256295.21875,222336.203125,246143.59375,0.019287109375,0.993896484375,0.184326171875,0.2746581733226776,-1.7089842557907104,-0.9460448622703552,80.0,115672.0,0.0
14594.9645189,292618.6875,295306.25,336272.96875,332197.8125,285111.09375,256295.21875,222336.203125,246143.59375,0.019287109375,0.993896484375,0.184326171875,0.2746581733226776,-1.7089842557907104,-0.9460448622703552,80.0,115673.0,0.0
14594.964519,292618.6875,295306.25,336272.96875,332197.8125,285111.09375,256295.21875,222336.203125,246143.59375,0.019287109375,0.993896484375,0.184326171875,0.2746581733226776,-1.7089842557907104,-0.9460448622703552,80.0,115674.0,0.0
14594.9645192,292618.6875,295306.25,336272.96875,332197.8125,285111.09375,256295.21875,222336.203125,246143.59375,0.019287109375,0.993896484375,0.184326171875,0.2746581733226776,-1.7089842557907104,-0.9460448622703552,80.0,115675.0,0.0
14594.9645194,292618.6875,295306.25,336272.96875,332197.8125,285111.09375,256295.21875,222336.203125,246143.59375,0.019287109375,0.993896484375,0.184326171875,0.2746581733226776,-1.7089842557907104,-0.9460448622703552,80.0,115676.0,0.0
14594.9645195,292618.6875,295306.25,336272.96875,332197.8125,285111.09375,256295.21875,222336.203125,246143.59375,0.019287109375,0.993896484375,0.184326171875,0.2746581733226776,-1.7089842557907104,-0.9460448622703552,80.0,115677.0,0.0
14594.9645197,292618.6875,295306.25,336272.96875,332197.8125,285111.09375,256295.21875,222336.203125,246143.59375,0.019287109375,0.993896484375,0.184326171875,0.2746581733226776,-1.7089842557907104,-0.9460448622703552,80.0,115678.0,0.0
14594.9645199,292618.6875,295306.25,336272.96875,332197.8125,285111.09375,256295.21875,222336.203125,246143.59375,0.019287109375,0.993896484375,0.184326171875,0.2746581733226776,-1.7089842557907104,-0.9460448622703552,80.0,115679.0,0.0
14594.9645201,292618.6875,295306.25,336272.96875,332197.8125,285111.09375,256295.21875,222336.203125,246143.59375,0.019287109375,0.993896484375,0.184326171875,0.2746581733226776,-1.7089842557907104,-0.9460448622703552,80.0,115680.0,0.0
14594.9645202,292608.84375,295296.40625,336258.40625,332182.25,285107.34375,256329.015625,222361.875,246148.953125,0.016845703125,0.990966796875,0.188232421875,0.7934569716453552,-1.5563963651657104,-0.5493163466453552,80.0,115681.0,1.0
14594.9645243,292636.84375,295504.125,336440.09375,332203.71875,285214.09375,256367.546875,222410.5,246170.140625,0.01806640625,0.990966796875,0.1875,0.8239745497703552,-1.4953612089157104,-0.5493163466453552,80.0,115682.0,1.0
14594.9645257,292624.9375,295726.03125,336536.09375,332167.875,285302.96875,256404.03125,222442.25,246169.703125,0.0185546875,0.994384765625,0.1875,0.8544921278953552,-1.5258787870407104,-0.4272460639476776,80.0,115683.0,1.0
14594.9645268,292593.125,295662.8125,336412.46875,332123.59375,285251.8125,256384.0,222412.46875,246147.078125,0.021484375,0.99560546875,0.186767578125,0.9765624403953552,-1.4343260526657104,-0.3356933295726776,80.0,115684.0,1.0
14594.964528,292581.75,295397.09375,336237.75,332129.0625,285127.71875,256323.828125,222358.296875,246138.5,0.025390625,0.996337890625,0.183837890625,0.9460448622703552,-1.4648436307907104,-0.3051757514476776,80.0,115685.0,1.0
14594.9645292,292617.96875,295304.90625,336264.65625,332183.59375,285111.4375,256323.46875,222364.1875,246158.515625,0.02587890625,0.99609375,0.185791015625,0.9460448622703552,-1.4343260526657104,-0.2441406100988388,80.0,115686.0,1.0
14594.9645305,292647.375,295514.40625,336455.5625,332206.3125,285222.21875,256374.703125,222421.859375,246181.046875,0.024658203125,0.998046875,0.183349609375,0.9155272841453552,-1.4648436307907104,-0.2746581733226776,80.0,115687.0,1.0
14594.9889347,292629.9375,295726.5625,336533.875,332160.875,285297.0625,256407.6875,222439.75,246164.0625,0.024169921875,0.99609375,0.180419921875,0.9155272841453552,-1.3732908964157104,-0.1831054538488388,80.0,115688.0,1.0
14595.0144227,292594.09375,295659.6875,336404.78125,332118.6875,285244.03125,256390.96875,222406.03125,246145.828125,0.021728515625,0.992919921875,0.18017578125,0.8544921278953552,-1.2207030057907104,-0.1525878757238388,80.0,115689.0,1.0
14595.0144406,292583.8125,295398.0625,336240.34375,332133.71875,285131.65625,256343.5,222369.109375,246151.90625,0.02099609375,0.98974609375,0.176025390625,0.6713866591453552,-1.1291502714157104,-0.1525878757238388,80.0,115690.0,1.0
14595.0394627,292615.0,295305.8125,336267.34375,332186.09375,285113.6875,256330.625,222373.765625,246164.953125,0.020263671875,0.988525390625,0.17529296875,0.6713866591453552,-1.0986326932907104,-0.3356933295726776,80.0,115691.0,1.0
14595.0394846,292637.28125,295509.125,336443.3125,332202.625,285214.8125,256369.875,222421.59375,246183.46875,0.019775390625,0.98779296875,0.177490234375,0.7934569716453552,-1.0375975370407104,-0.3356933295726776,80.0,115692.0,1.0
14595.0476338,292622.0,295722.90625,336519.3125,332158.28125,285289.90625,256406.796875,222443.140625,246161.109375,0.019287109375,0.990478515625,0.177978515625,0.9155272841453552,-1.0681151151657104,-0.3662109076976776,80.0,115693.0,1.0
14595.0501386,292591.15625,295659.15625,336399.03125,332118.6875,285238.9375,256383.640625,222409.609375,246142.515625,0.02001953125,0.994873046875,0.180419921875,0.9765624403953552,-1.1901854276657104,-0.5187987685203552,80.0,115694.0,1.0
14595.0526203,292587.5625,295410.875,336247.59375,332135.3125,285132.09375,256339.296875,222371.796875,246145.109375,0.021728515625,0.997314453125,0.179931640625,0.8850097060203552,-1.0681151151657104,-0.5798339247703552,80.0,115695.0,1.0
14595.0622599,292613.5,295310.46875,336261.28125,332179.65625,285103.125,256325.796875,222373.84375,246170.40625,0.02392578125,0.999267578125,0.18115234375,0.7934569716453552,-1.0986326932907104,-0.6103515028953552,80.0,115696.0,1.0
14595.0622796,292644.96875,295520.65625,336447.9375,332209.0,285213.28125,256372.546875,222430.171875,246192.046875,0.024658203125,0.999755859375,0.1826171875,0.6713866591453552,-1.0070799589157104,-0.6713866591453552,80.0,115697.0,1.0
14595.062281,292630.75,295732.8125,336529.125,332168.21875,285293.125,256410.28125,222453.421875,246177.125,0.023193359375,1.001708984375,0.182861328125,0.5187987685203552,-1.0681151151657104,-0.7934569716453552,80.0,115698.0,1.0
14595.0622822,292594.375,295660.9375,336396.8125,332114.40625,285233.40625,256388.46875,222408.546875,246132.421875,0.022705078125,1.0029296875,0.1826171875,0.3356933295726776,-1.0681151151657104,-0.8239745497703552,80.0,115699.0,1.0
14595.0622835,292592.65625,295412.8125,336243.65625,332133.71875,285127.28125,256342.421875,222373.140625,246150.5625,0.019287109375,1.004638671875,0.18212890625,0.2746581733226776,-1.0986326932907104,-0.9460448622703552,80.0,115700.0,1.0
14595.0638925,292628.96875,295329.3125,336281.46875,332189.75,285121.1875,256343.9375,222385.203125,246169.421875,0.020751953125,1.004150390625,0.177978515625,0.0915527269244194,-1.0681151151657104,-1.1291502714157104,80.0,115701.0,1.0
14595.070765,292644.53125,295528.78125,336461.0,332199.25,285225.15625,256377.03125,222425.796875,246182.390625,0.020751953125,1.003662109375,0.182861328125,-0.1525878757238388,-1.1901854276657104,-1.0986326932907104,80.0,115702.0,1.0
14595.0707696,292625.84375,295740.3125,336545.3125,332153.09375,285304.75,256403.125,222439.390625,246158.875,0.019775390625,1.001953125,0.18212890625,-0.2441406100988388,-1.2817381620407104,-1.0681151151657104,80.0,115703.0,1.0
14595.0707708,292586.5,295656.375,336404.5,332107.96875,285241.25,256375.953125,222402.90625,246140.46875,0.020751953125,1.001220703125,0.182373046875,-0.3051757514476776,-1.2512205839157104,-1.0986326932907104,80.0,115704.0,1.0
14595.070772,292578.09375,295386.0,336220.3125,332121.53125,285114.84375,256325.34375,222353.375,246144.84375,0.020751953125,1.000244140625,0.18115234375,-0.3356933295726776,-1.2817381620407104,-1.0681151151657104,80.0,115705.0,1.0
14595.0707733,292615.90625,295304.03125,336250.90625,332182.25,285106.625,256323.828125,222369.734375,246170.0625,0.023193359375,0.9990234375,0.183349609375,-0.3662109076976776,-1.1901854276657104,-1.0681151151657104,80.0,115706.0,1.0
14595.120602,292640.21875,295516.375,336442.0625,332201.3125,285220.15625,256360.484375,222414.703125,246184.1875,0.024169921875,0.999267578125,0.18408203125,-0.5187987685203552,-1.3427733182907104,-0.9155272841453552,80.0,115707.0,1.0
14595.1206129,292627.09375,295723.15625,336516.34375,332158.21875,285298.21875,256401.078125,222441.265625,246167.46875,0.0244140625,0.996337890625,0.1845703125,-0.6713866591453552,-1.2817381620407104,-0.7934569716453552,80.0,115708.0,1.0
14595.1206145,292603.9375,295662.09375,336391.8125,332122.25,285249.84375,256393.125,222418.734375,246154.3125,0.023681640625,0.9951171875,0.1875,-0.6408690810203552,-1.2207030057907104,-0.8239745497703552,80.0,115709.0,1.0
14595.1206157,292600.8125,295415.34375,336237.40625,332140.59375,285144.0,256355.203125,222383.421875,246162.453125,0.022705078125,0.99560546875,0.1904296875,-0.6713866591453552,-1.1596678495407104,-0.7019042372703552,80.0,115710.0,1.0
14595.1206169,292637.71875,295336.125,336273.875,332196.75,285135.0625,256360.84375,222394.953125,246170.328125,0.021240234375,0.9951171875,0.18701171875,-0.6713866591453552,-1.0070799589157104,-0.7324218153953552,80.0,115711.0,1.0
14595.1206181,292664.375,295550.34375,336465.125,332221.3125,285245.1875,256395.890625,222437.953125,246192.859375,0.018310546875,0.99462890625,0.18603515625,-0.7019042372703552,-1.1901854276657104,-0.7629393935203552,80.0,115712.0,1.0
14595.1206194,292639.0625,295747.84375,336530.90625,332171.625,285308.78125,256403.84375,222443.953125,246176.84375,0.01806640625,0.99365234375,0.1865234375,-0.6408690810203552,-1.2817381620407104,-0.7324218153953552,80.0,115713.0,1.0
14595.1206206,292603.3125,295667.375,336384.90625,332125.84375,285240.90625,256372.828125,222409.796875,246157.890625,0.017822265625,0.99267578125,0.185546875,-0.4577636420726776,-1.3427733182907104,-0.7629393935203552,80.0,115714.0,1.0
14595.1206219,292602.0625,295411.125,336222.09375,332144.53125,285131.28125,256335.71875,222373.21875,246163.703125,0.018310546875,0.99365234375,0.18798828125,-0.3967284858226776,-1.2512205839157104,-0.7324218153953552,80.0,115715.0,1.0
14595.1444565,292636.28125,295327.96875,336254.84375,332197.53125,285118.0625,256328.75,222371.53125,246174.171875,0.017333984375,0.993896484375,0.1904296875,-0.3662109076976776,-1.3732908964157104,-0.7629393935203552,80.0,115716.0,1.0
14595.144462,292659.375,295540.15625,336445.4375,332213.09375,285227.21875,256371.125,222418.640625,246188.828125,0.019287109375,0.995849609375,0.191162109375,-0.4272460639476776,-1.3122557401657104,-0.7934569716453552,80.0,115717.0,1.0
14595.1683114,292646.75,295751.6875,336526.90625,332174.125,285307.5,256413.234375,222450.109375,246180.875,0.02001953125,0.993408203125,0.18798828125,-0.4882812201976776,-1.3732908964157104,-0.6713866591453552,80.0,115718.0,1.0
14595.168316,292614.65625,295686.59375,336401.625,332133.78125,285254.84375,256390.796875,222418.109375,246167.109375,0.020263671875,0.992431640625,0.189697265625,-0.4577636420726776,-1.3732908964157104,-0.7324218153953552,80.0,115719.0,1.0
14595.1718037,292605.09375,295427.3125,336242.6875,332144.53125,285141.03125,256337.953125,222370.359375,246161.46875,0.020751953125,0.993896484375,0.18798828125,-0.4577636420726776,-1.4343260526657104,-0.6408690810203552,80.0,115720.0,1.0
14595.1718258,292641.3125,295340.59375,336280.5,332201.5625,285130.40625,256335.984375,222381.8125,246183.28125,0.0205078125,0.997314453125,0.1865234375,-0.3051757514476776,-1.5563963651657104,-0.6408690810203552,80.0,115721.0,1.0
14595.1718271,292665.09375,295553.46875,336468.875,332214.96875,285238.5,256383.640625,222428.75,246192.5,0.02197265625,0.994384765625,0.188720703125,-0.3051757514476776,-1.7089842557907104,-0.6103515028953552,80.0,115722.0,1.0
14595.1718283,292651.125,295770.53125,336555.6875,332175.5625,285322.0,256428.25,222454.3125,246178.1875,0.021240234375,0.995361328125,0.187744140625,-0.3051757514476776,-1.6784666776657104,-0.5493163466453552,80.0,115723.0,1.0
14595.1776258,292607.875,295682.375,336416.46875,332130.03125,285258.875,256398.390625,222427.40625,246167.28125,0.02099609375,0.99658203125,0.1865234375,-0.3051757514476776,-1.6784666776657104,-0.6713866591453552,80.0,115724.0,1.0
14595.1846932,292598.03125,295411.84375,336243.65625,332137.1875,285131.28125,256334.203125,222360.890625,246139.5625,0.021728515625,0.996337890625,0.18798828125,-0.2441406100988388,-1.7089842557907104,-0.5798339247703552,80.0,115725.0,1.0
14595.1847071,292642.375,295344.15625,336289.0625,332200.03125,285125.03125,256328.296875,222361.78125,246165.234375,0.022216796875,0.99755859375,0.186767578125,-0.3356933295726776,-1.6479490995407104,-0.7019042372703552,80.0,115726.0,1.0
14595.1847134,292672.6875,295568.3125,336491.9375,332223.90625,285246.375,256375.765625,222422.9375,246198.3125,0.02197265625,0.995361328125,0.185546875,-0.3051757514476776,-1.5869139432907104,-0.7324218153953552,80.0,115727.0,1.0
14595.1847146,292655.34375,295766.875,336555.6875,332177.5,285315.65625,256411.625,222449.75,246184.625,0.022705078125,0.9951171875,0.189453125,-0.3356933295726776,-1.5563963651657104,-0.7324218153953552,80.0,115728.0,1.0
14595.1847158,292624.3125,295680.875,336406.09375,332128.53125,285245.1875,256392.140625,222413.546875,246146.625,0.0244140625,0.9912109375,0.190185546875,-0.3662109076976776,-1.4953612089157104,-0.7629393935203552,80.0,115729.0,1.0
14595.184717,292611.25,295407.28125,336227.28125,332136.9375,285116.90625,256342.421875,222368.671875,246147.53125,0.02490234375,0.99365234375,0.185302734375,-0.3051757514476776,-1.4343260526657104,-0.8239745497703552,80.0,115730.0,1.0
14595.1847181,292636.46875,295318.9375,336258.21875,332192.625,285103.9375,256325.265625,222385.46875,246189.640625,0.026123046875,0.9931640625,0.184814453125,-0.2136230319738388,-1.3732908964157104,-0.7019042372703552,80.0,115731.0,1.0
14595.1863576,292660.96875,295537.375,336453.5,332208.4375,285220.53125,256375.140625,222435.90625,246199.921875,0.02294921875,0.9931640625,0.183837890625,-0.1220703050494194,-1.2512205839157104,-0.8239745497703552,80.0,115732.0,1.0
14595.1894675,292645.25,295751.84375,336541.8125,332157.40625,285300.0,256409.65625,222435.625,246137.515625,0.024658203125,0.99365234375,0.188720703125,-0.0610351525247097,-1.2512205839157104,-0.8850097060203552,80.0,115733.0,1.0
14595.1894732,292605.28125,295668.71875,336408.6875,332111.90625,285235.8125,256375.6875,222399.234375,246120.4375,0.023193359375,0.99267578125,0.185302734375,-0.1525878757238388,-1.1901854276657104,-0.8544921278953552,80.0,115734.0,1.0
14595.2157259,292602.15625,295410.3125,336251.0,332129.59375,285122.1875,256321.140625,222358.390625,246130.984375,0.024658203125,0.99169921875,0.18994140625,-0.0610351525247097,-1.0986326932907104,-0.9155272841453552,80.0,115735.0,1.0
14595.2157408,292634.3125,295323.40625,336281.375,332187.8125,285108.5,256323.46875,222373.3125,246165.765625,0.0244140625,0.991943359375,0.188232421875,-0.1220703050494194,-0.9155272841453552,-0.9460448622703552,80.0,115736.0,1.0
14595.2401561,292634.3125,295323.40625,336281.375,332187.8125,285108.5,256323.46875,222373.3125,246165.765625,0.0244140625,0.991943359375,0.188232421875,-0.1220703050494194,-0.9155272841453552,-0.9460448622703552,80.0,115737.0,0.0
14595.2401615,292634.3125,295323.40625,336281.375,332187.8125,285108.5,256323.46875,222373.3125,246165.765625,0.0244140625,0.991943359375,0.188232421875,-0.1220703050494194,-0.9155272841453552,-0.9460448622703552,80.0,115738.0,0.0
14595.2401628,292634.3125,295323.40625,336281.375,332187.8125,285108.5,256323.46875,222373.3125,246165.765625,0.0244140625,0.991943359375,0.188232421875,-0.1220703050494194,-0.9155272841453552,-0.9460448622703552,80.0,115739.0,0.0
14595.2401648,292634.3125,295323.40625,336281.375,332187.8125,285108.5,256323.46875,222373.3125,246165.765625,0.0244140625,0.991943359375,0.188232421875,-0.1220703050494194,-0.9155272841453552,-0.9460448622703552,80.0,115740.0,0.0
14595.2401651,292634.3125,295323.40625,336281.375,332187.8125,285108.5,256323.46875,222373.3125,246165.765625,0.0244140625,0.991943359375,0.188232421875,-0.1220703050494194,-0.9155272841453552,-0.9460448622703552,80.0,115741.0,0.0
14595.2401653,292634.3125,295323.40625,336281.375,332187.8125,285108.5,256323.46875,222373.3125,246165.765625,0.0244140625,0.991943359375,0.188232421875,-0.1220703050494194,-0.9155272841453552,-0.9460448622703552,80.0,115742.0,0.0
14595.2401655,292634.3125,295323.40625,336281.375,332187.8125,285108.5,256323.46875,222373.3125,246165.765625,0.0244140625,0.991943359375,0.188232421875,-0.1220703050494194,-0.9155272841453552,-0.9460448622703552,80.0,115743.0,0.0
14595.2401657,292634.3125,295323.40625,336281.375,332187.8125,285108.5,256323.46875,222373.3125,246165.765625,0.0244140625,0.991943359375,0.188232421875,-0.1220703050494194,-0.9155272841453552,-0.9460448622703552,80.0,115744.0,0.0
14595.2401658,292634.3125,295323.40625,336281.375,332187.8125,285108.5,256323.46875,222373.3125,246165.765625,0.0244140625,0.991943359375,0.188232421875,-0.1220703050494194,-0.9155272841453552,-0.9460448622703552,80.0,115745.0,0.0
14595.240166,292634.3125,295323.40625,336281.375,332187.8125,285108.5,256323.46875,222373.3125,246165.765625,0.0244140625,0.991943359375,0.188232421875,-0.1220703050494194,-0.9155272841453552,-0.9460448622703552,80.0,115746.0,0.0
14595.2401662,292634.3125,295323.40625,336281.375,332187.8125,285108.5,256323.46875,222373.3125,246165.765625,0.0244140625,0.991943359375,0.188232421875,-0.1220703050494194,-0.9155272841453552,-0.9460448622703552,80.0,115747.0,0.0
14595.2401663,292634.3125,295323.40625,336281.375,332187.8125,285108.5,256323.46875,222373.3125,246165.765625,0.0244140625,0.991943359375,0.188232421875,-0.1220703050494194,-0.9155272841453552,-0.9460448622703552,80.0,115748.0,0.0
14595.2401665,292634.3125,295323.40625,336281.375,332187.8125,285108.5,256323.46875,222373.3125,246165.765625,0.0244140625,0.991943359375,0.188232421875,-0.1220703050494194,-0.9155272841453552,-0.9460448622703552,80.0,115749.0,0.0
14595.2401667,292634.3125,295323.40625,336281.375,332187.8125,285108.5,256323.46875,222373.3125,246165.765625,0.0244140625,0.991943359375,0.188232421875,-0.1220703050494194,-0.9155272841453552,-0.9460448622703552,80.0,115750.0,0.0
14595.2401669,292634.3125,295323.40625,336281.375,332187.8125,285108.5,256323.46875,222373.3125,246165.765625,0.0244140625,0.991943359375,0.188232421875,-0.1220703050494194,-0.9155272841453552,-0.9460448622703552,80.0,115751.0,0.0
14595.240167,292634.3125,295323.40625,336281.375,332187.8125,285108.5,256323.46875,222373.3125,246165.765625,0.0244140625,0.991943359375,0.188232421875,-0.1220703050494194,-0.9155272841453552,-0.9460448622703552,80.0,115752.0,0.0
14595.2401672,292634.3125,295323.40625,336281.375,332187.8125,285108.5,256323.46875,222373.3125,246165.765625,0.0244140625,0.991943359375,0.188232421875,-0.1220703050494194,-0.9155272841453552,-0.9460448622703552,80.0,115753.0,0.0
14595.2401674,292634.3125,295323.40625,336281.375,332187.8125,285108.5,256323.46875,222373.3125,246165.765625,0.0244140625,0.991943359375,0.188232421875,-0.1220703050494194,-0.9155272841453552,-0.9460448622703552,80.0,115754.0,0.0
14595.2401675,292634.3125,295323.40625,336281.375,332187.8125,285108.5,256323.46875,222373.3125,246165.765625,0.0244140625,0.991943359375,0.188232421875,-0.1220703050494194,-0.9155272841453552,-0.9460448622703552,80.0,115755.0,0.0
14595.2401677,292634.3125,295323.40625,336281.375,332187.8125,285108.5,256323.46875,222373.3125,246165.765625,0.0244140625,0.991943359375,0.188232421875,-0.1220703050494194,-0.9155272841453552,-0.9460448622703552,80.0,115756.0,0.0
14595.2401679,292634.3125,295323.40625,336281.375,332187.8125,285108.5,256323.46875,222373.3125,246165.765625,0.0244140625,0.991943359375,0.188232421875,-0.1220703050494194,-0.9155272841453552,-0.9460448622703552,80.0,115757.0,0.0
14595.240168,292634.3125,295323.40625,336281.375,332187.8125,285108.5,256323.46875,222373.3125,246165.765625,0.0244140625,0.991943359375,0.188232421875,-0.1220703050494194,-0.9155272841453552,-0.9460448622703552,80.0,115758.0,0.0
14595.2401682,292634.3125,295323.40625,336281.375,332187.8125,285108.5,256323.46875,222373.3125,246165.765625,0.0244140625,0.991943359375,0.188232421875,-0.1220703050494194,-0.9155272841453552,-0.9460448622703552,80.0,115759.0,0.0
14595.2401684,292634.3125,295323.40625,336281.375,332187.8125,285108.5,256323.46875,222373.3125,246165.765625,0.0244140625,0.991943359375,0.188232421875,-0.1220703050494194,-0.9155272841453552,-0.9460448622703552,80.0,115760.0,0.0
14595.2401686,292624.65625,295317.4375,336268.6875,332181.0,285106.15625,256335.546875,222386.28125,246181.59375,0.022216796875,0.996337890625,0.18603515625,1.0986326932907104,-1.0986326932907104,-0.5798339247703552,80.0,115761.0,1.0
14595.2614052,292647.03125,295535.9375,336456.4375,332196.46875,285217.3125,256385.609375,222437.953125,246187.578125,0.020263671875,1.000732421875,0.1865234375,1.1291502714157104,-1.0986326932907104,-0.7324218153953552,80.0,115762.0,1.0
14595.2639033,292634.0625,295753.125,336539.15625,332155.78125,285299.28125,256425.75,222468.359375,246180.421875,0.0205078125,1.001708984375,0.183349609375,1.0070799589157104,-1.1901854276657104,-0.7934569716453552,80.0,115763.0,1.0
14595.2709501,292598.125,295670.15625,336407.71875,332110.375,285239.03125,256399.015625,222428.828125,246157.8125,0.01904296875,1.003173828125,0.181396484375,0.9155272841453552,-1.2207030057907104,-0.7934569716453552,80.0,115764.0,1.0
14595.2709597,292597.03125,295418.46875,336261.4375,332129.9375,285132.09375,256356.640625,222389.671875,246157.890625,0.02197265625,1.002197265625,0.183837890625,0.9460448622703552,-1.3732908964157104,-0.9155272841453552,80.0,115765.0,1.0
14595.270961,292629.59375,295341.125,336304.1875,332187.625,285126.09375,256355.390625,222408.71875,246195.453125,0.023681640625,1.00048828125,0.180419921875,0.7629393935203552,-1.3122557401657104,-0.8850097060203552,80.0,115766.0,1.0
14595.2709622,292653.46875,295546.3125,336473.6875,332200.59375,285226.6875,256404.109375,222456.375,246207.96875,0.025634765625,1.001708984375,0.1826171875,0.6103515028953552,-1.2512205839157104,-0.7934569716453552,80.0,115767.0,1.0
14595.2709635,292628.25,295736.5625,336522.34375,332147.65625,285285.53125,256428.796875,222460.125,246180.6875,0.024658203125,1.0029296875,0.18310546875,0.3662109076976776,-1.2512205839157104,-0.7324218153953552,80.0,115768.0,1.0
14595.2730981,292596.15625,295657.8125,336384.65625,332105.90625,285226.875,256407.609375,222428.75,246157.453125,0.025390625,1.001220703125,0.182861328125,0.2136230319738388,-1.1291502714157104,-0.7324218153953552,80.0,115769.0,1.0
14595.2770356,292589.0,295403.8125,336225.78125,332122.4375,285118.25,256366.65625,222399.234375,246173.984375,0.02587890625,0.99951171875,0.18212890625,-0.1220703050494194,-0.9765624403953552,-0.7934569716453552,80.0,115770.0,1.0
14595.2770488,292628.96875,295342.375,336276.65625,332181.4375,285119.40625,256371.75,222408.71875,246196.078125,0.025390625,0.999267578125,0.183837890625,-0.1525878757238388,-0.9460448622703552,-0.7629393935203552,80.0,115771.0,1.0
14595.2770566,292662.21875,295575.8125,336480.6875,332191.90625,285233.125,256411.0,222433.21875,246166.203125,0.024169921875,0.99755859375,0.188232421875,-0.3662109076976776,-0.7324218153953552,-0.6713866591453552,80.0,115772.0,1.0
14595.2770642,292638.25,295770.0,336541.65625,332142.125,285299.28125,256432.015625,222453.15625,246160.40625,0.024658203125,0.9951171875,0.185546875,-0.7019042372703552,-0.7019042372703552,-0.7019042372703552,80.0,115773.0,1.0
14595.2770728,292638.25,295770.0,336541.65625,332142.125,285299.28125,256432.015625,222453.15625,246160.40625,0.024658203125,0.9951171875,0.185546875,-0.7019042372703552,-0.7019042372703552,-0.7019042372703552,80.0,115774.0,0.0
14595.277073,292638.25,295770.0,336541.65625,332142.125,285299.28125,256432.015625,222453.15625,246160.40625,0.024658203125,0.9951171875,0.185546875,-0.7019042372703552,-0.7019042372703552,-0.7019042372703552,80.0,115775.0,0.0
14595.2770732,292638.25,295770.0,336541.65625,332142.125,285299.28125,256432.015625,222453.15625,246160.40625,0.024658203125,0.9951171875,0.185546875,-0.7019042372703552,-0.7019042372703552,-0.7019042372703552,80.0,115776.0,0.0
14595.2770734,292638.25,295770.0,336541.65625,332142.125,285299.28125,256432.015625,222453.15625,246160.40625,0.024658203125,0.9951171875,0.185546875,-0.7019042372703552,-0.7019042372703552,-0.7019042372703552,80.0,115777.0,0.0
14595.2770736,292638.25,295770.0,336541.65625,332142.125,285299.28125,256432.015625,222453.15625,246160.40625,0.024658203125,0.9951171875,0.185546875,-0.7019042372703552,-0.7019042372703552,-0.7019042372703552,80.0,115778.0,0.0
14595.2770737,292638.25,295770.0,336541.65625,332142.125,285299.28125,256432.015625,222453.15625,246160.40625,0.024658203125,0.9951171875,0.185546875,-0.7019042372703552,-0.7019042372703552,-0.7019042372703552,80.0,115779.0,0.0
14595.2770739,292638.25,295770.0,336541.65625,332142.125,285299.28125,256432.015625,222453.15625,246160.40625,0.024658203125,0.9951171875,0.185546875,-0.7019042372703552,-0.7019042372703552,-0.7019042372703552,80.0,115780.0,0.0
14595.2770741,292638.25,295770.0,336541.65625,332142.125,285299.28125,256432.015625,222453.15625,246160.40625,0.024658203125,0.9951171875,0.185546875,-0.7019042372703552,-0.7019042372703552,-0.7019042372703552,80.0,115781.0,0.0
14595.2770742,292638.25,295770.0,336541.65625,332142.125,285299.28125,256432.015625,222453.15625,246160.40625,0.024658203125,0.9951171875,0.185546875,-0.7019042372703552,-0.7019042372703552,-0.7019042372703552,80.0,115782.0,0.0
14595.2770744,292638.25,295770.0,336541.65625,332142.125,285299.28125,256432.015625,222453.15625,246160.40625,0.024658203125,0.9951171875,0.185546875,-0.7019042372703552,-0.7019042372703552,-0.7019042372703552,80.0,115783.0,0.0
14595.2770746,292638.25,295770.0,336541.65625,332142.125,285299.28125,256432.015625,222453.15625,246160.40625,0.024658203125,0.9951171875,0.185546875,-0.7019042372703552,-0.7019042372703552,-0.7019042372703552,80.0,115784.0,0.0
14595.2770747,292638.25,295770.0,336541.65625,332142.125,285299.28125,256432.015625,222453.15625,246160.40625,0.024658203125,0.9951171875,0.185546875,-0.7019042372703552,-0.7019042372703552,-0.7019042372703552,80.0,115785.0,0.0
14595.2770749,292638.25,295770.0,336541.65625,332142.125,285299.28125,256432.015625,222453.15625,246160.40625,0.024658203125,0.9951171875,0.185546875,-0.7019042372703552,-0.7019042372703552,-0.7019042372703552,80.0,115786.0,0.0
14595.2770751,292638.25,295770.0,336541.65625,332142.125,285299.28125,256432.015625,222453.15625,246160.40625,0.024658203125,0.9951171875,0.185546875,-0.7019042372703552,-0.7019042372703552,-0.7019042372703552,80.0,115787.0,0.0
14595.2770753,292638.25,295770.0,336541.65625,332142.125,285299.28125,256432.015625,222453.15625,246160.40625,0.024658203125,0.9951171875,0.185546875,-0.7019042372703552,-0.7019042372703552,-0.7019042372703552,80.0,115788.0,0.0
14595.2770755,292638.25,295770.0,336541.65625,332142.125,285299.28125,256432.015625,222453.15625,246160.40625,0.024658203125,0.9951171875,0.185546875,-0.7019042372703552,-0.7019042372703552,-0.7019042372703552,80.0,115789.0,0.0
14595.2770756,292638.25,295770.0,336541.65625,332142.125,285299.28125,256432.015625,222453.15625,246160.40625,0.024658203125,0.9951171875,0.185546875,-0.7019042372703552,-0.7019042372703552,-0.7019042372703552,80.0,115790.0,0.0
14595.2770758,292638.25,295770.0,336541.65625,332142.125,285299.28125,256432.015625,222453.15625,246160.40625,0.024658203125,0.9951171875,0.185546875,-0.7019042372703552,-0.7019042372703552,-0.7019042372703552,80.0,115791.0,0.0
14595.277076,292638.25,295770.0,336541.65625,332142.125,285299.28125,256432.015625,222453.15625,246160.40625,0.024658203125,0.9951171875,0.185546875,-0.7019042372703552,-0.7019042372703552,-0.7019042372703552,80.0,115792.0,0.0
14595.2770761,292638.25,295770.0,336541.65625,332142.125,285299.28125,256432.015625,222453.15625,246160.40625,0.024658203125,0.9951171875,0.185546875,-0.7019042372703552,-0.7019042372703552,-0.7019042372703552,80.0,115793.0,0.0
14595.2770763,292638.25,295770.0,336541.65625,332142.125,285299.28125,256432.015625,222453.15625,246160.40625,0.024658203125,0.9951171875,0.185546875,-0.7019042372703552,-0.7019042372703552,-0.7019042372703552,80.0,115794.0,0.0
14595.2770765,292638.25,295770.0,336541.65625,332142.125,285299.28125,256432.015625,222453.15625,246160.40625,0.024658203125,0.9951171875,0.185546875,-0.7019042372703552,-0.7019042372703552,-0.7019042372703552,80.0,115795.0,0.0
14595.2770767,292638.25,295770.0,336541.65625,332142.125,285299.28125,256432.015625,222453.15625,246160.40625,0.024658203125,0.9951171875,0.185546875,-0.7019042372703552,-0.7019042372703552,-0.7019042372703552,80.0,115796.0,0.0
14595.2770768,292638.25,295770.0,336541.65625,332142.125,285299.28125,256432.015625,222453.15625,246160.40625,0.024658203125,0.9951171875,0.185546875,-0.7019042372703552,-0.7019042372703552,-0.7019042372703552,80.0,115797.0,0.0
14595.277077,292638.25,295770.0,336541.65625,332142.125,285299.28125,256432.015625,222453.15625,246160.40625,0.024658203125,0.9951171875,0.185546875,-0.7019042372703552,-0.7019042372703552,-0.7019042372703552,80.0,115798.0,0.0
14595.2770772,292638.25,295770.0,336541.65625,332142.125,285299.28125,256432.015625,222453.15625,246160.40625,0.024658203125,0.9951171875,0.185546875,-0.7019042372703552,-0.7019042372703552,-0.7019042372703552,80.0,115799.0,0.0
14595.2770774,292638.25,295770.0,336541.65625,332142.125,285299.28125,256432.015625,222453.15625,246160.40625,0.024658203125,0.9951171875,0.185546875,-0.7019042372703552,-0.7019042372703552,-0.7019042372703552,80.0,115800.0,0.0
14595.2770776,292638.25,295770.0,336541.65625,332142.125,285299.28125,256432.015625,222453.15625,246160.40625,0.024658203125,0.9951171875,0.185546875,-0.7019042372703552,-0.7019042372703552,-0.7019042372703552,80.0,115801.0,0.0
14595.2770778,292638.25,295770.0,336541.65625,332142.125,285299.28125,256432.015625,222453.15625,246160.40625,0.024658203125,0.9951171875,0.185546875,-0.7019042372703552,-0.7019042372703552,-0.7019042372703552,80.0,115802.0,0.0
14595.2770779,292638.25,295770.0,336541.65625,332142.125,285299.28125,256432.015625,222453.15625,246160.40625,0.024658203125,0.9951171875,0.185546875,-0.7019042372703552,-0.7019042372703552,-0.7019042372703552,80.0,115803.0,0.0
14595.2770781,292638.25,295770.0,336541.65625,332142.125,285299.28125,256432.015625,222453.15625,246160.40625,0.024658203125,0.9951171875,0.185546875,-0.7019042372703552,-0.7019042372703552,-0.7019042372703552,80.0,115804.0,0.0
14595.2770783,292638.25,295770.0,336541.65625,332142.125,285299.28125,256432.015625,222453.15625,246160.40625,0.024658203125,0.9951171875,0.185546875,-0.7019042372703552,-0.7019042372703552,-0.7019042372703552,80.0,115805.0,0.0
14595.2770785,292638.25,295770.0,336541.65625,332142.125,285299.28125,256432.015625,222453.15625,246160.40625,0.024658203125,0.9951171875,0.185546875,-0.7019042372703552,-0.7019042372703552,-0.7019042372703552,80.0,115806.0,0.0
14595.2770786,292638.25,295770.0,336541.65625,332142.125,285299.28125,256432.015625,222453.15625,246160.40625,0.024658203125,0.9951171875,0.185546875,-0.7019042372703552,-0.7019042372703552,-0.7019042372703552,80.0,115807.0,0.0
14595.2770788,292638.25,295770.0,336541.65625,332142.125,285299.28125,256432.015625,222453.15625,246160.40625,0.024658203125,0.9951171875,0.185546875,-0.7019042372703552,-0.7019042372703552,-0.7019042372703552,80.0,115808.0,0.0
14595.277079,292638.25,295770.0,336541.65625,332142.125,285299.28125,256432.015625,222453.15625,246160.40625,0.024658203125,0.9951171875,0.185546875,-0.7019042372703552,-0.7019042372703552,-0.7019042372703552,80.0,115809.0,0.0
14595.2770792,292638.25,295770.0,336541.65625,332142.125,285299.28125,256432.015625,222453.15625,246160.40625,0.024658203125,0.9951171875,0.185546875,-0.7019042372703552,-0.7019042372703552,-0.7019042372703552,80.0,115810.0,0.0
14595.2770793,292638.25,295770.0,336541.65625,332142.125,285299.28125,256432.015625,222453.15625,246160.40625,0.024658203125,0.9951171875,0.185546875,-0.7019042372703552,-0.7019042372703552,-0.7019042372703552,80.0,115811.0,0.0
14595.2770795,292638.25,295770.0,336541.65625,332142.125,285299.28125,256432.015625,222453.15625,246160.40625,0.024658203125,0.9951171875,0.185546875,-0.7019042372703552,-0.7019042372703552,-0.7019042372703552,80.0,115812.0,0.0
14595.2770797,292650.34375,295777.59375,336544.5,332137.09375,285322.4375,256465.453125,222490.796875,246191.15625,0.022705078125,1.001708984375,0.190185546875,1.3427733182907104,-1.0681151151657104,-0.9155272841453552,80.0,115813.0,1.0
14595.3789021,292625.125,295690.0,336405.03125,332107.96875,285266.3125,256455.078125,222476.765625,246190.078125,0.022216796875,1.00146484375,0.18701171875,1.2512205839157104,-1.1291502714157104,-1.0681151151657104,80.0,115814.0,1.0
14595.3789098,292629.15625,295442.96875,336260.65625,332132.53125,285162.9375,256412.25,222435.546875,246186.59375,0.020751953125,1.00048828125,0.184814453125,1.1291502714157104,-1.1291502714157104,-1.0070799589157104,80.0,115815.0,1.0
14595.3789113,292662.03125,295377.5,336311.4375,332187.0,285160.34375,256398.84375,222444.21875,246213.78125,0.019775390625,0.999755859375,0.18505859375,1.0986326932907104,-1.1596678495407104,-0.9765624403953552,80.0,115816.0,1.0
14595.3789132,292677.78125,295592.90625,336485.59375,332192.09375,285263.09375,256432.71875,222487.84375,246223.515625,0.01904296875,0.999267578125,0.188232421875,0.9765624403953552,-1.3122557401657104,-1.0070799589157104,80.0,115817.0,1.0
14595.3789144,292649.875,295780.5625,336529.5,332138.90625,285321.375,256464.375,222495.71875,246200.984375,0.018798828125,0.999267578125,0.183349609375,0.9155272841453552,-1.3427733182907104,-1.0375975370407104,80.0,115818.0,1.0
14595.3789156,292623.25,295687.65625,336391.71875,332097.75,285255.75,256429.421875,222442.6875,246156.203125,0.017822265625,0.9990234375,0.1875,0.7629393935203552,-1.3427733182907104,-1.0681151151657104,80.0,115819.0,1.0
14595.3789169,292614.3125,295427.84375,336243.46875,332112.78125,285146.03125,256377.921875,222402.90625,246156.5625,0.01806640625,0.99658203125,0.18603515625,0.7324218153953552,-1.4038084745407104,-1.1291502714157104,80.0,115820.0,1.0
14595.3789181,292659.625,295382.4375,336308.75,332172.96875,285155.53125,256390.703125,222417.921875,246181.59375,0.020751953125,0.99267578125,0.1865234375,0.6103515028953552,-1.4953612089157104,-1.2207030057907104,80.0,115821.0,1.0
14595.3789193,292686.1875,295607.28125,336498.65625,332190.84375,285272.5625,256446.84375,222474.25,246205.015625,0.018798828125,0.990966796875,0.188720703125,0.7019042372703552,-1.5563963651657104,-1.1901854276657104,80.0,115822.0,1.0
14595.3789205,292661.0625,295788.875,336546.75,332140.78125,285336.5625,256476.53125,222496.515625,246190.96875,0.018798828125,0.99169921875,0.1884765625,0.7324218153953552,-1.6174315214157104,-1.2512205839157104,80.0,115823.0,1.0
14595.3789217,292627.53125,295685.25,336399.9375,332101.15625,285270.21875,256439.96875,222461.5625,246168.265625,0.019287109375,0.991943359375,0.184814453125,0.8850097060203552,-1.6174315214157104,-1.2817381620407104,80.0,115824.0,1.0
14595.4044205,292622.4375,295413.625,336228.0,332117.53125,285146.65625,256384.890625,222414.078125,246177.46875,0.01806640625,0.992431640625,0.181884765625,1.0375975370407104,-1.5563963651657104,-1.1291502714157104,80.0,115825.0,1.0
14595.4044264,292622.4375,295413.625,336228.0,332117.53125,285146.65625,256384.890625,222414.078125,246177.46875,0.01806640625,0.992431640625,0.181884765625,1.0375975370407104,-1.5563963651657104,-1.1291502714157104,80.0,115826.0,0.0
14595.4044267,292622.4375,295413.625,336228.0,332117.53125,285146.65625,256384.890625,222414.078125,246177.46875,0.01806640625,0.992431640625,0.181884765625,1.0375975370407104,-1.5563963651657104,-1.1291502714157104,80.0,115827.0,0.0
14595.4044269,292622.4375,295413.625,336228.0,332117.53125,285146.65625,256384.890625,222414.078125,246177.46875,0.01806640625,0.992431640625,0.181884765625,1.0375975370407104,-1.5563963651657104,-1.1291502714157104,80.0,115828.0,0.0
14595.4044271,292631.46875,295691.34375,336400.5625,332102.9375,285273.0,256447.296875,222473.09375,246184.453125,0.019287109375,0.997314453125,0.18505859375,1.1901854276657104,-1.7700194120407104,-1.1291502714157104,80.0,115829.0,1.0
14595.4294853,292631.03125,295431.25,336243.46875,332129.59375,285161.96875,256405.453125,222445.28125,246207.875,0.0205078125,0.994873046875,0.186767578125,1.2512205839157104,-1.7700194120407104,-1.1291502714157104,80.0,115830.0,1.0
14595.4295079,292665.53125,295365.8125,336291.5,332177.4375,285156.3125,256403.671875,222447.796875,246209.03125,0.020263671875,0.9951171875,0.18505859375,1.3122557401657104,-1.8615721464157104,-1.0681151151657104,80.0,115831.0,1.0
14595.4538442,292687.0625,295593.15625,336476.84375,332179.84375,285262.53125,256439.875,222476.765625,246197.859375,0.02001953125,0.995361328125,0.18115234375,1.1901854276657104,-1.8310545682907104,-1.0681151151657104,80.0,115832.0,1.0
14595.482658,292673.65625,295801.125,336551.75,332142.125,285344.0,256484.578125,222510.90625,246197.6875,0.01953125,0.99853515625,0.181396484375,1.1901854276657104,-1.8005369901657104,-1.0375975370407104,80.0,115833.0,1.0
14595.507591,292633.0,295691.875,336405.65625,332102.15625,285276.03125,256460.890625,222481.765625,246188.734375,0.020263671875,0.995849609375,0.183837890625,1.2207030057907104,-1.9836424589157104,-1.0070799589157104,80.0,115834.0,1.0
14595.5326199,292631.375,295429.90625,336240.625,332122.4375,285158.03125,256415.921875,222445.46875,246198.3125,0.01953125,0.99560546875,0.1845703125,1.2512205839157104,-1.9531248807907104,-0.9765624403953552,80.0,115835.0,1.0
14595.5576947,292670.1875,295371.875,336294.34375,332177.25,285158.21875,256414.84375,222457.625,246215.296875,0.0185546875,0.996337890625,0.18212890625,1.1901854276657104,-1.8615721464157104,-0.9460448622703552,80.0,115836.0,1.0
14595.5825821,292686.1875,295591.375,336477.46875,332184.84375,285265.59375,256446.5,222499.46875,246226.65625,0.02001953125,0.99658203125,0.18212890625,1.0986326932907104,-1.8920897245407104,-1.0375975370407104,80.0,115837.0,1.0
14595.6088749,292655.96875,295777.6875,336533.96875,332134.6875,285330.5,256452.21875,222503.484375,246210.203125,0.0205078125,0.9970703125,0.181640625,0.9765624403953552,-1.8310545682907104,-1.0375975370407104,80.0,115838.0,1.0
14595.6113263,292629.3125,295679.875,336395.75,332090.34375,285264.0625,256434.78125,222447.515625,246153.96875,0.022216796875,0.9970703125,0.18701171875,0.9460448622703552,-1.8920897245407104,-1.0375975370407104,80.0,115839.0,1.0
14595.6138459,292628.15625,295412.375,336233.65625,332112.78125,285149.0,256392.40625,222413.546875,246168.453125,0.021484375,0.99560546875,0.185546875,0.8239745497703552,-1.8005369901657104,-0.9765624403953552,80.0,115840.0,1.0
14595.6389493,292670.28125,295371.625,336290.3125,332175.46875,285156.6875,256401.25,222434.109375,246198.75,0.02197265625,0.994384765625,0.183837890625,0.7629393935203552,-1.8005369901657104,-1.0986326932907104,80.0,115841.0,1.0
14595.6639018,292698.6875,295612.90625,336489.53125,332194.9375,285280.59375,256455.34375,222489.09375,246208.046875,0.022216796875,0.9912109375,0.181640625,0.6103515028953552,-1.7700194120407104,-1.0681151151657104,80.0,115842.0,1.0
14595.688891,292674.75,295800.9375,336551.40625,332148.71875,285348.46875,256472.421875,222505.90625,246198.484375,0.022216796875,0.9912109375,0.180908203125,0.6713866591453552,-1.7395018339157104,-0.9460448622703552,80.0,115843.0,1.0
14595.707674,292643.28125,295691.59375,336404.40625,332111.625,285280.6875,256443.453125,222469.78125,246189.8125,0.02197265625,0.99169921875,0.180419921875,0.7324218153953552,-1.5869139432907104,-0.9155272841453552,80.0,115844.0,1.0
14595.7174034,292638.15625,295425.34375,336242.03125,332128.25,285162.40625,256395.625,222428.296875,246187.671875,0.023193359375,0.99462890625,0.181640625,0.7934569716453552,-1.6479490995407104,-0.9460448622703552,80.0,115845.0,1.0
14595.7174108,292674.84375,295373.3125,336303.28125,332185.125,285169.28125,256403.484375,222440.1875,246206.796875,0.023193359375,0.99462890625,0.18017578125,0.8239745497703552,-1.5869139432907104,-0.9155272841453552,80.0,115846.0,1.0
14595.7174121,292701.65625,295613.71875,336499.8125,332199.6875,285290.4375,256459.453125,222494.375,246216.015625,0.0244140625,0.995361328125,0.18408203125,0.7934569716453552,-1.5258787870407104,-0.8850097060203552,80.0,115847.0,1.0
14595.7174133,292680.5625,295803.34375,336559.4375,332151.9375,285358.75,256484.578125,222518.6875,246203.40625,0.023681640625,0.99658203125,0.184326171875,0.8850097060203552,-1.5258787870407104,-0.9460448622703552,80.0,115848.0,1.0
14595.7174145,292644.15625,295694.1875,336414.0625,332109.5625,285289.1875,256455.078125,222486.0625,246187.3125,0.02197265625,0.996826171875,0.18359375,0.8239745497703552,-1.3732908964157104,-0.9155272841453552,80.0,115849.0,1.0
14595.717416,292641.65625,295431.15625,336259.40625,332126.46875,285173.3125,256405.28125,222436.078125,246183.828125,0.02197265625,0.994140625,0.179931640625,0.8850097060203552,-1.4038084745407104,-1.0681151151657104,80.0,115850.0,1.0
14595.7174172,292672.9375,295365.71875,336295.6875,332177.6875,285160.34375,256386.328125,222434.203125,246203.40625,0.021484375,0.995361328125,0.180419921875,0.9765624403953552,-1.3427733182907104,-1.0070799589157104,80.0,115851.0,1.0
14595.7174183,292686.625,295583.59375,336471.1875,332181.625,285264.59375,256424.234375,222477.296875,246210.375,0.02197265625,0.99658203125,0.18017578125,0.9460448622703552,-1.3732908964157104,-1.0681151151657104,80.0,115852.0,1.0
14595.7174195,292663.375,295774.46875,336529.65625,332133.4375,285332.90625,256461.15625,222500.71875,246198.84375,0.020751953125,0.999755859375,0.181396484375,0.8850097060203552,-1.3732908964157104,-1.0986326932907104,80.0,115853.0,1.0
14595.7174207,292637.46875,295680.4375,336394.40625,332105.1875,285275.875,256446.84375,222476.84375,246190.4375,0.019775390625,1.00048828125,0.185302734375,0.8544921278953552,-1.3732908964157104,-1.1901854276657104,80.0,115854.0,1.0
14595.7228748,292632.90625,295420.4375,336237.84375,332116.90625,285161.25,256396.78125,222430.359375,246178.90625,0.018798828125,0.999755859375,0.186767578125,0.7324218153953552,-1.3427733182907104,-1.0375975370407104,80.0,115855.0,1.0
14595.7228875,292675.0,295369.5625,336297.375,332179.9375,285169.46875,256399.203125,222449.40625,246219.3125,0.0185546875,1.001953125,0.183349609375,0.6408690810203552,-1.3732908964157104,-1.0986326932907104,80.0,115856.0,1.0
14595.7228888,292698.625,295593.875,336478.25,332189.5,285277.03125,256448.8125,222491.953125,246215.03125,0.020751953125,1.001953125,0.183837890625,0.5187987685203552,-1.4648436307907104,-1.1901854276657104,80.0,115857.0,1.0
14595.7228899,292672.0625,295782.0,336539.0625,332139.15625,285344.625,256465.265625,222503.21875,246191.515625,0.019287109375,1.002197265625,0.18505859375,0.4882812201976776,-1.5869139432907104,-1.1596678495407104,80.0,115858.0,1.0
14595.7228912,292636.125,295672.65625,336394.5,332098.03125,285275.78125,256429.78125,222466.03125,246184.0,0.01708984375,1.0,0.181884765625,0.3967284858226776,-1.4648436307907104,-1.1291502714157104,80.0,115859.0,1.0
14595.7228924,292637.1875,295418.375,336237.9375,332118.25,285165.09375,256392.9375,222436.875,246194.734375,0.019775390625,0.99951171875,0.184326171875,0.2136230319738388,-1.5258787870407104,-1.0681151151657104,80.0,115860.0,1.0
14595.7300343,292672.3125,295375.90625,336297.84375,332171.34375,285173.75,256405.640625,222451.8125,246203.40625,0.018310546875,1.000244140625,0.181640625,0.2136230319738388,-1.5869139432907104,-1.0070799589157104,80.0,115861.0,1.0
14595.7300517,292688.34375,295601.21875,336483.28125,332177.6875,285287.21875,256449.796875,222493.296875,246211.1875,0.01953125,1.00048828125,0.183349609375,0.1525878757238388,-1.5563963651657104,-0.9765624403953552,80.0,115862.0,1.0
14595.730053,292659.90625,295781.625,336531.375,332126.71875,285345.15625,256466.796875,222505.546875,246200.984375,0.017822265625,1.00146484375,0.185546875,-0.0610351525247097,-1.5563963651657104,-1.0375975370407104,80.0,115863.0,1.0
14595.7300542,292628.25,295674.15625,336381.4375,332092.3125,285270.5,256430.84375,222459.859375,246186.0625,0.016845703125,1.000732421875,0.185546875,-0.1831054538488388,-1.6174315214157104,-1.0986326932907104,80.0,115864.0,1.0
14595.7300555,292631.1875,295420.4375,336227.75,332116.625,285157.75,256393.921875,222422.75,246180.421875,0.01708984375,0.99951171875,0.18701171875,-0.3051757514476776,-1.6784666776657104,-0.8850097060203552,80.0,115865.0,1.0
14595.7300567,292667.84375,295372.0625,336285.0625,332169.90625,285162.75,256401.875,222440.453125,246192.9375,0.0205078125,0.9970703125,0.186279296875,-0.4272460639476776,-1.6479490995407104,-0.8544921278953552,80.0,115866.0,1.0
14595.7300578,292678.21875,295592.53125,336462.0625,332173.59375,285270.40625,256433.890625,222486.328125,246214.84375,0.02099609375,0.996337890625,0.18408203125,-0.5493163466453552,-1.6174315214157104,-0.8239745497703552,80.0,115867.0,1.0
14595.7300591,292654.09375,295781.375,336519.65625,332122.25,285336.84375,256461.15625,222499.5625,246192.9375,0.01904296875,0.99267578125,0.18017578125,-0.3967284858226776,-1.5869139432907104,-0.7324218153953552,80.0,115868.0,1.0
14595.7544232,292625.84375,295678.375,336382.15625,332088.375,285274.25,256440.0625,222467.1875,246169.421875,0.019287109375,0.993408203125,0.1826171875,-0.2441406100988388,-1.6174315214157104,-0.8239745497703552,80.0,115869.0,1.0
14595.7544282,292626.71875,295418.8125,336234.71875,332109.3125,285167.25,256401.703125,222429.015625,246174.171875,0.021484375,0.993896484375,0.181640625,-0.2441406100988388,-1.5869139432907104,-0.8239745497703552,80.0,115870.0,1.0
14595.7789026,292662.3125,295370.4375,336290.40625,332162.6875,285168.40625,256398.03125,222438.21875,246196.078125,0.02099609375,0.995361328125,0.18115234375,-0.2136230319738388,-1.6174315214157104,-0.6408690810203552,80.0,115871.0,1.0
14595.805713,292683.78125,295596.5625,336477.0,332171.09375,285278.28125,256433.265625,222481.140625,246203.40625,0.0234375,0.995849609375,0.184814453125,-0.0915527269244194,-1.5258787870407104,-0.5493163466453552,80.0,115872.0,1.0
14595.8057254,292654.90625,295764.09375,336510.8125,332116.1875,285329.0625,256454.546875,222494.734375,246185.515625,0.023681640625,0.9970703125,0.186279296875,-0.1220703050494194,-1.5869139432907104,-0.5493163466453552,80.0,115873.0,1.0
14595.8275602,292613.21875,295641.71875,336349.34375,332074.0625,285249.125,256422.0,222455.125,246168.09375,0.024169921875,0.996337890625,0.18017578125,-0.1525878757238388,-1.5258787870407104,-0.5493163466453552,80.0,115874.0,1.0
14595.8275654,292628.34375,295405.21875,336218.34375,332112.53125,285157.59375,256396.96875,222442.15625,246199.375,0.02197265625,0.9951171875,0.18115234375,-0.2136230319738388,-1.4648436307907104,-0.5187987685203552,80.0,115875.0,1.0
14595.8275667,292670.53125,295366.96875,336287.28125,332173.9375,285172.25,256408.578125,222467.1875,246225.3125,0.02294921875,0.9951171875,0.1845703125,-0.1220703050494194,-1.4648436307907104,-0.4882812201976776,80.0,115876.0,1.0
14595.8319142,292687.96875,295597.1875,336471.90625,332172.5,285280.0625,256449.796875,222497.953125,246206.984375,0.023681640625,0.998291015625,0.1875,-0.1220703050494194,-1.4343260526657104,-0.4272460639476776,80.0,115877.0,1.0
14595.8319292,292658.75,295776.0,336516.34375,332119.03125,285338.625,256475.015625,222509.484375,246191.15625,0.0234375,0.998291015625,0.187744140625,-0.1831054538488388,-1.3732908964157104,-0.4882812201976776,80.0,115878.0,1.0
14595.8319343,292627.875,295663.25,336366.40625,332090.0625,285270.6875,256449.796875,222483.375,246196.4375,0.02294921875,0.995361328125,0.18701171875,-0.2136230319738388,-1.3122557401657104,-0.4272460639476776,80.0,115879.0,1.0
14595.8319355,292630.75,295415.15625,336222.375,332116.09375,285165.8125,256421.375,222448.140625,246184.09375,0.020751953125,0.99658203125,0.1865234375,-0.3356933295726776,-1.3427733182907104,-0.4577636420726776,80.0,115880.0,1.0
14595.8338962,292668.5625,295373.75,336288.34375,332174.5625,285176.625,256425.75,222462.984375,246204.296875,0.02294921875,0.996337890625,0.18603515625,-0.4272460639476776,-1.3427733182907104,-0.4577636420726776,80.0,115881.0,1.0
14595.8363838,292691.90625,295605.21875,336481.46875,332186.0,285299.125,256460.265625,222515.296875,246225.84375,0.0205078125,0.99462890625,0.182861328125,-0.5493163466453552,-1.2817381620407104,-0.5493163466453552,80.0,115882.0,1.0
14595.8414249,292663.84375,295782.78125,336528.3125,332126.90625,285354.09375,256470.28125,222512.96875,246194.28125,0.020751953125,0.99072265625,0.1845703125,-0.4882812201976776,-1.3122557401657104,-0.5798339247703552,80.0,115883.0,1.0
14595.8438864,292632.1875,295666.9375,336376.25,332090.875,285278.71875,256440.234375,222473.0,246181.5,0.020751953125,0.9912109375,0.184814453125,-0.3356933295726776,-1.3427733182907104,-0.7934569716453552,80.0,115884.0,1.0
14595.8713987,292631.1875,295403.1875,336216.84375,332112.78125,285159.1875,256388.296875,222423.828125,246182.65625,0.021728515625,0.99267578125,0.180419921875,-0.3967284858226776,-1.3427733182907104,-0.8239745497703552,80.0,115885.0,1.0
14595.8963392,292669.65625,295359.625,336272.90625,332168.03125,285160.34375,256401.703125,222443.140625,246201.078125,0.0224609375,0.99365234375,0.183837890625,-0.4577636420726776,-1.3427733182907104,-0.8850097060203552,80.0,115886.0,1.0
14595.9214161,292692.875,295605.5,336468.34375,332179.125,285281.0625,256450.78125,222494.90625,246219.3125,0.025390625,0.994140625,0.18408203125,-0.4882812201976776,-1.4038084745407104,-0.8850097060203552,80.0,115887.0,1.0
14595.9376492,292668.84375,295788.59375,336522.96875,332129.6875,285348.28125,256469.921875,222511.453125,246203.5,0.02197265625,0.99560546875,0.181884765625,-0.3662109076976776,-1.2512205839157104,-0.9460448622703552,80.0,115888.0,1.0
14595.9872343,292634.3125,295664.0625,336367.46875,332094.09375,285274.0625,256443.359375,222484.0,246195.625,0.02294921875,0.99365234375,0.184326171875,-0.2441406100988388,-1.2817381620407104,-1.0375975370407104,80.0,115889.0,1.0
14595.9872401,292626.09375,295398.0625,336206.375,332106.625,285150.34375,256384.890625,222430.09375,246182.21875,0.02197265625,0.9970703125,0.185546875,-0.2441406100988388,-1.3427733182907104,-1.1291502714157104,80.0,115890.0,1.0
14595.9872415,292675.375,295374.5625,336290.40625,332172.6875,285175.625,256407.328125,222458.78125,246216.90625,0.023681640625,0.998291015625,0.188720703125,-0.2746581733226776,-1.4648436307907104,-1.1596678495407104,80.0,115891.0,1.0
14595.9872427,292693.78125,295604.34375,336482.09375,332181.1875,285294.0,256463.125,222509.75,246220.84375,0.022705078125,0.998046875,0.189697265625,-0.3967284858226776,-1.4038084745407104,-1.0986326932907104,80.0,115892.0,1.0
14595.9872441,292671.53125,295789.84375,336534.6875,332131.1875,285354.90625,256483.953125,222514.484375,246190.703125,0.023681640625,0.99609375,0.18701171875,-0.3356933295726776,-1.4953612089157104,-1.0986326932907104,80.0,115893.0,1.0
14595.9894754,292648.53125,295692.3125,336396.8125,332105.0,285293.75,256464.828125,222484.453125,246186.0625,0.02294921875,0.997314453125,0.1875,-0.3356933295726776,-1.4343260526657104,-1.1901854276657104,80.0,115894.0,1.0
14595.9894922,292648.53125,295692.3125,336396.8125,332105.0,285293.75,256464.828125,222484.453125,246186.0625,0.02294921875,0.997314453125,0.1875,-0.3356933295726776,-1.4343260526657104,-1.1901854276657104,80.0,115895.0,0.0
14595.9894924,292648.53125,295692.3125,336396.8125,332105.0,285293.75,256464.828125,222484.453125,246186.0625,0.02294921875,0.997314453125,0.1875,-0.3356933295726776,-1.4343260526657104,-1.1901854276657104,80.0,115896.0,0.0
14595.9894926,292648.53125,295692.3125,336396.8125,332105.0,285293.75,256464.828125,222484.453125,246186.0625,0.02294921875,0.997314453125,0.1875,-0.3356933295726776,-1.4343260526657104,-1.1901854276657104,80.0,115897.0,0.0
14595.9894928,292648.53125,295692.3125,336396.8125,332105.0,285293.75,256464.828125,222484.453125,246186.0625,0.02294921875,0.997314453125,0.1875,-0.3356933295726776,-1.4343260526657104,-1.1901854276657104,80.0,115898.0,0.0
14595.989493,292648.53125,295692.3125,336396.8125,332105.0,285293.75,256464.828125,222484.453125,246186.0625,0.02294921875,0.997314453125,0.1875,-0.3356933295726776,-1.4343260526657104,-1.1901854276657104,80.0,115899.0,0.0
14595.9894932,292648.53125,295692.3125,336396.8125,332105.0,285293.75,256464.828125,222484.453125,246186.0625,0.02294921875,0.997314453125,0.1875,-0.3356933295726776,-1.4343260526657104,-1.1901854276657104,80.0,115900.0,0.0
14595.9894934,292648.53125,295692.3125,336396.8125,332105.0,285293.75,256464.828125,222484.453125,246186.0625,0.02294921875,0.997314453125,0.1875,-0.3356933295726776,-1.4343260526657104,-1.1901854276657104,80.0,115901.0,0.0
14595.9894936,292648.53125,295692.3125,336396.8125,332105.0,285293.75,256464.828125,222484.453125,246186.0625,0.02294921875,0.997314453125,0.1875,-0.3356933295726776,-1.4343260526657104,-1.1901854276657104,80.0,115902.0,0.0
14595.9894938,292648.53125,295692.3125,336396.8125,332105.0,285293.75,256464.828125,222484.453125,246186.0625,0.02294921875,0.997314453125,0.1875,-0.3356933295726776,-1.4343260526657104,-1.1901854276657104,80.0,115903.0,0.0
14595.9894939,292648.53125,295692.3125,336396.8125,332105.0,285293.75,256464.828125,222484.453125,246186.0625,0.02294921875,0.997314453125,0.1875,-0.3356933295726776,-1.4343260526657104,-1.1901854276657104,80.0,115904.0,0.0
14595.9894941,292648.53125,295692.3125,336396.8125,332105.0,285293.75,256464.828125,222484.453125,246186.0625,0.02294921875,0.997314453125,0.1875,-0.3356933295726776,-1.4343260526657104,-1.1901854276657104,80.0,115905.0,0.0
14595.9894943,292648.53125,295692.3125,336396.8125,332105.0,285293.75,256464.828125,222484.453125,246186.0625,0.02294921875,0.997314453125,0.1875,-0.3356933295726776,-1.4343260526657104,-1.1901854276657104,80.0,115906.0,0.0
14595.9894945,292648.53125,295692.3125,336396.8125,332105.0,285293.75,256464.828125,222484.453125,246186.0625,0.02294921875,0.997314453125,0.1875,-0.3356933295726776,-1.4343260526657104,-1.1901854276657104,80.0,115907.0,0.0
14595.9894946,292648.53125,295692.3125,336396.8125,332105.0,285293.75,256464.828125,222484.453125,246186.0625,0.02294921875,0.997314453125,0.1875,-0.3356933295726776,-1.4343260526657104,-1.1901854276657104,80.0,115908.0,0.0
14595.9894948,292648.53125,295692.3125,336396.8125,332105.0,285293.75,256464.828125,222484.453125,246186.0625,0.02294921875,0.997314453125,0.1875,-0.3356933295726776,-1.4343260526657104,-1.1901854276657104,80.0,115909.0,0.0
14595.989495,292648.53125,295692.3125,336396.8125,332105.0,285293.75,256464.828125,222484.453125,246186.0625,0.02294921875,0.997314453125,0.1875,-0.3356933295726776,-1.4343260526657104,-1.1901854276657104,80.0,115910.0,0.0
14595.9894951,292648.53125,295692.3125,336396.8125,332105.0,285293.75,256464.828125,222484.453125,246186.0625,0.02294921875,0.997314453125,0.1875,-0.3356933295726776,-1.4343260526657104,-1.1901854276657104,80.0,115911.0,0.0
14595.9894953,292648.53125,295692.3125,336396.8125,332105.0,285293.75,256464.828125,222484.453125,246186.0625,0.02294921875,0.997314453125,0.1875,-0.3356933295726776,-1.4343260526657104,-1.1901854276657104,80.0,115912.0,0.0
14595.9894955,292648.53125,295692.3125,336396.8125,332105.0,285293.75,256464.828125,222484.453125,246186.0625,0.02294921875,0.997314453125,0.1875,-0.3356933295726776,-1.4343260526657104,-1.1901854276657104,80.0,115913.0,0.0
14595.9894956,292648.53125,295692.3125,336396.8125,332105.0,285293.75,256464.828125,222484.453125,246186.0625,0.02294921875,0.997314453125,0.1875,-0.3356933295726776,-1.4343260526657104,-1.1901854276657104,80.0,115914.0,0.0
14595.9894958,292648.53125,295692.3125,336396.8125,332105.0,285293.75,256464.828125,222484.453125,246186.0625,0.02294921875,0.997314453125,0.1875,-0.3356933295726776,-1.4343260526657104,-1.1901854276657104,80.0,115915.0,0.0
14595.989496,292648.53125,295692.3125,336396.8125,332105.0,285293.75,256464.828125,222484.453125,246186.0625,0.02294921875,0.997314453125,0.1875,-0.3356933295726776,-1.4343260526657104,-1.1901854276657104,80.0,115916.0,0.0
14595.9894961,292648.53125,295692.3125,336396.8125,332105.0,285293.75,256464.828125,222484.453125,246186.0625,0.02294921875,0.997314453125,0.1875,-0.3356933295726776,-1.4343260526657104,-1.1901854276657104,80.0,115917.0,0.0
14595.9894963,292648.53125,295692.3125,336396.8125,332105.0,285293.75,256464.828125,222484.453125,246186.0625,0.02294921875,0.997314453125,0.1875,-0.3356933295726776,-1.4343260526657104,-1.1901854276657104,80.0,115918.0,0.0
14595.9894965,292648.53125,295692.3125,336396.8125,332105.0,285293.75,256464.828125,222484.453125,246186.0625,0.02294921875,0.997314453125,0.1875,-0.3356933295726776,-1.4343260526657104,-1.1901854276657104,80.0,115919.0,0.0
14595.9894967,292648.53125,295692.3125,336396.8125,332105.0,285293.75,256464.828125,222484.453125,246186.0625,0.02294921875,0.997314453125,0.1875,-0.3356933295726776,-1.4343260526657104,-1.1901854276657104,80.0,115920.0,0.0
14595.9894968,292648.53125,295692.3125,336396.8125,332105.0,285293.75,256464.828125,222484.453125,246186.0625,0.02294921875,0.997314453125,0.1875,-0.3356933295726776,-1.4343260526657104,-1.1901854276657104,80.0,115921.0,0.0
14595.989497,292648.53125,295692.3125,336396.8125,332105.0,285293.75,256464.828125,222484.453125,246186.0625,0.02294921875,0.997314453125,0.1875,-0.3356933295726776,-1.4343260526657104,-1.1901854276657104,80.0,115922.0,0.0
14595.9894972,292648.53125,295692.3125,336396.8125,332105.0,285293.75,256464.828125,222484.453125,246186.0625,0.02294921875,0.997314453125,0.1875,-0.3356933295726776,-1.4343260526657104,-1.1901854276657104,80.0,115923.0,0.0
14595.9894973,292648.53125,295692.3125,336396.8125,332105.0,285293.75,256464.828125,222484.453125,246186.0625,0.02294921875,0.997314453125,0.1875,-0.3356933295726776,-1.4343260526657104,-1.1901854276657104,80.0,115924.0,0.0
14595.9894975,292648.53125,295692.3125,336396.8125,332105.0,285293.75,256464.828125,222484.453125,246186.0625,0.02294921875,0.997314453125,0.1875,-0.3356933295726776,-1.4343260526657104,-1.1901854276657104,80.0,115925.0,0.0
14595.9894977,292648.53125,295692.3125,336396.8125,332105.0,285293.75,256464.828125,222484.453125,246186.0625,0.02294921875,0.997314453125,0.1875,-0.3356933295726776,-1.4343260526657104,-1.1901854276657104,80.0,115926.0,0.0
14595.9894979,292648.53125,295692.3125,336396.8125,332105.0,285293.75,256464.828125,222484.453125,246186.0625,0.02294921875,0.997314453125,0.1875,-0.3356933295726776,-1.4343260526657104,-1.1901854276657104,80.0,115927.0,0.0
14595.9894981,292648.53125,295692.3125,336396.8125,332105.0,285293.75,256464.828125,222484.453125,246186.0625,0.02294921875,0.997314453125,0.1875,-0.3356933295726776,-1.4343260526657104,-1.1901854276657104,80.0,115928.0,0.0
14595.9894983,292648.53125,295692.3125,336396.8125,332105.0,285293.75,256464.828125,222484.453125,246186.0625,0.02294921875,0.997314453125,0.1875,-0.3356933295726776,-1.4343260526657104,-1.1901854276657104,80.0,115929.0,0.0
14595.9894985,292648.53125,295692.3125,336396.8125,332105.0,285293.75,256464.828125,222484.453125,246186.0625,0.02294921875,0.997314453125,0.1875,-0.3356933295726776,-1.4343260526657104,-1.1901854276657104,80.0,115930.0,0.0
14595.9894986,292648.53125,295692.3125,336396.8125,332105.0,285293.75,256464.828125,222484.453125,246186.0625,0.02294921875,0.997314453125,0.1875,-0.3356933295726776,-1.4343260526657104,-1.1901854276657104,80.0,115931.0,0.0
14595.9894988,292648.53125,295692.3125,336396.8125,332105.0,285293.75,256464.828125,222484.453125,246186.0625,0.02294921875,0.997314453125,0.1875,-0.3356933295726776,-1.4343260526657104,-1.1901854276657104,80.0,115932.0,0.0
14595.989499,292648.53125,295692.3125,336396.8125,332105.0,285293.75,256464.828125,222484.453125,246186.0625,0.02294921875,0.997314453125,0.1875,-0.3356933295726776,-1.4343260526657104,-1.1901854276657104,80.0,115933.0,0.0
14595.9894991,292648.53125,295692.3125,336396.8125,332105.0,285293.75,256464.828125,222484.453125,246186.0625,0.02294921875,0.997314453125,0.1875,-0.3356933295726776,-1.4343260526657104,-1.1901854276657104,80.0,115934.0,0.0
14595.9894993,292648.53125,295692.3125,336396.8125,332105.0,285293.75,256464.828125,222484.453125,246186.0625,0.02294921875,0.997314453125,0.1875,-0.3356933295726776,-1.4343260526657104,-1.1901854276657104,80.0,115935.0,0.0
14595.9894995,292648.53125,295692.3125,336396.8125,332105.0,285293.75,256464.828125,222484.453125,246186.0625,0.02294921875,0.997314453125,0.1875,-0.3356933295726776,-1.4343260526657104,-1.1901854276657104,80.0,115936.0,0.0
14595.9894997,292648.53125,295692.3125,336396.8125,332105.0,285293.75,256464.828125,222484.453125,246186.0625,0.02294921875,0.997314453125,0.1875,-0.3356933295726776,-1.4343260526657104,-1.1901854276657104,80.0,115937.0,0.0
14595.9894998,292648.53125,295692.3125,336396.8125,332105.0,285293.75,256464.828125,222484.453125,246186.0625,0.02294921875,0.997314453125,0.1875,-0.3356933295726776,-1.4343260526657104,-1.1901854276657104,80.0,115938.0,0.0
14595.9895,292648.53125,295692.3125,336396.8125,332105.0,285293.75,256464.828125,222484.453125,246186.0625,0.02294921875,0.997314453125,0.1875,-0.3356933295726776,-1.4343260526657104,-1.1901854276657104,80.0,115939.0,0.0
14595.9895002,292648.53125,295692.3125,336396.8125,332105.0,285293.75,256464.828125,222484.453125,246186.0625,0.02294921875,0.997314453125,0.1875,-0.3356933295726776,-1.4343260526657104,-1.1901854276657104,80.0,115940.0,0.0
14595.9895003,292648.53125,295692.3125,336396.8125,332105.0,285293.75,256464.828125,222484.453125,246186.0625,0.02294921875,0.997314453125,0.1875,-0.3356933295726776,-1.4343260526657104,-1.1901854276657104,80.0,115941.0,0.0
14595.9895005,292648.53125,295692.3125,336396.8125,332105.0,285293.75,256464.828125,222484.453125,246186.0625,0.02294921875,0.997314453125,0.1875,-0.3356933295726776,-1.4343260526657104,-1.1901854276657104,80.0,115942.0,0.0
14595.9895007,292648.53125,295692.3125,336396.8125,332105.0,285293.75,256464.828125,222484.453125,246186.0625,0.02294921875,0.997314453125,0.1875,-0.3356933295726776,-1.4343260526657104,-1.1901854276657104,80.0,115943.0,0.0
14595.9895008,292648.53125,295692.3125,336396.8125,332105.0,285293.75,256464.828125,222484.453125,246186.0625,0.02294921875,0.997314453125,0.1875,-0.3356933295726776,-1.4343260526657104,-1.1901854276657104,80.0,115944.0,0.0
14595.989501,292648.53125,295692.3125,336396.8125,332105.0,285293.75,256464.828125,222484.453125,246186.0625,0.02294921875,0.997314453125,0.1875,-0.3356933295726776,-1.4343260526657104,-1.1901854276657104,80.0,115945.0,0.0
14595.9895012,292648.53125,295692.3125,336396.8125,332105.0,285293.75,256464.828125,222484.453125,246186.0625,0.02294921875,0.997314453125,0.1875,-0.3356933295726776,-1.4343260526657104,-1.1901854276657104,80.0,115946.0,0.0
14595.9895013,292648.53125,295692.3125,336396.8125,332105.0,285293.75,256464.828125,222484.453125,246186.0625,0.02294921875,0.997314453125,0.1875,-0.3356933295726776,-1.4343260526657104,-1.1901854276657104,80.0,115947.0,0.0
14595.9895015,292648.53125,295692.3125,336396.8125,332105.0,285293.75,256464.828125,222484.453125,246186.0625,0.02294921875,0.997314453125,0.1875,-0.3356933295726776,-1.4343260526657104,-1.1901854276657104,80.0,115948.0,0.0
14595.9895017,292648.53125,295692.3125,336396.8125,332105.0,285293.75,256464.828125,222484.453125,246186.0625,0.02294921875,0.997314453125,0.1875,-0.3356933295726776,-1.4343260526657104,-1.1901854276657104,80.0,115949.0,0.0
14595.9895018,292648.53125,295692.3125,336396.8125,332105.0,285293.75,256464.828125,222484.453125,246186.0625,0.02294921875,0.997314453125,0.1875,-0.3356933295726776,-1.4343260526657104,-1.1901854276657104,80.0,115950.0,0.0
14595.989502,292648.53125,295692.3125,336396.8125,332105.0,285293.75,256464.828125,222484.453125,246186.0625,0.02294921875,0.997314453125,0.1875,-0.3356933295726776,-1.4343260526657104,-1.1901854276657104,80.0,115951.0,0.0
14595.9895022,292648.53125,295692.3125,336396.8125,332105.0,285293.75,256464.828125,222484.453125,246186.0625,0.02294921875,0.997314453125,0.1875,-0.3356933295726776,-1.4343260526657104,-1.1901854276657104,80.0,115952.0,0.0
14595.9895023,292648.53125,295692.3125,336396.8125,332105.0,285293.75,256464.828125,222484.453125,246186.0625,0.02294921875,0.997314453125,0.1875,-0.3356933295726776,-1.4343260526657104,-1.1901854276657104,80.0,115953.0,0.0
14595.9895025,292648.53125,295692.3125,336396.8125,332105.0,285293.75,256464.828125,222484.453125,246186.0625,0.02294921875,0.997314453125,0.1875,-0.3356933295726776,-1.4343260526657104,-1.1901854276657104,80.0,115954.0,0.0
14595.9895027,292648.53125,295692.3125,336396.8125,332105.0,285293.75,256464.828125,222484.453125,246186.0625,0.02294921875,0.997314453125,0.1875,-0.3356933295726776,-1.4343260526657104,-1.1901854276657104,80.0,115955.0,0.0
14595.9895029,292648.53125,295692.3125,336396.8125,332105.0,285293.75,256464.828125,222484.453125,246186.0625,0.02294921875,0.997314453125,0.1875,-0.3356933295726776,-1.4343260526657104,-1.1901854276657104,80.0,115956.0,0.0
14595.989503,292648.53125,295692.3125,336396.8125,332105.0,285293.75,256464.828125,222484.453125,246186.0625,0.02294921875,0.997314453125,0.1875,-0.3356933295726776,-1.4343260526657104,-1.1901854276657104,80.0,115957.0,0.0
14595.9895032,292648.53125,295692.3125,336396.8125,332105.0,285293.75,256464.828125,222484.453125,246186.0625,0.02294921875,0.997314453125,0.1875,-0.3356933295726776,-1.4343260526657104,-1.1901854276657104,80.0,115958.0,0.0
14595.9895034,292648.53125,295692.3125,336396.8125,332105.0,285293.75,256464.828125,222484.453125,246186.0625,0.02294921875,0.997314453125,0.1875,-0.3356933295726776,-1.4343260526657104,-1.1901854276657104,80.0,115959.0,0.0
14595.9895036,292648.53125,295692.3125,336396.8125,332105.0,285293.75,256464.828125,222484.453125,246186.0625,0.02294921875,0.997314453125,0.1875,-0.3356933295726776,-1.4343260526657104,-1.1901854276657104,80.0,115960.0,0.0
14595.9895038,292648.53125,295692.3125,336396.8125,332105.0,285293.75,256464.828125,222484.453125,246186.0625,0.02294921875,0.997314453125,0.1875,-0.3356933295726776,-1.4343260526657104,-1.1901854276657104,80.0,115961.0,0.0
14595.989504,292691.625,295614.875,336491.84375,332171.34375,285301.96875,256495.671875,222526.375,246224.6875,0.021240234375,0.994384765625,0.1904296875,0.8850097060203552,-1.1901854276657104,-1.2817381620407104,80.0,115962.0,1.0
14596.0139654,292662.59375,295784.75,336525.03125,332121.09375,285354.09375,256513.8125,222539.609375,246219.671875,0.02001953125,0.9921875,0.185302734375,0.9460448622703552,-1.2512205839157104,-1.3732908964157104,80.0,115963.0,1.0
14596.0389108,292625.84375,295650.125,336361.59375,332084.875,285271.21875,256477.421875,222503.21875,246207.703125,0.01904296875,0.992919921875,0.18798828125,1.0070799589157104,-1.3122557401657104,-1.0681151151657104,80.0,115964.0,1.0
14596.0426737,292629.40625,295395.125,336214.59375,332108.6875,285159.0,256434.6875,222464.328125,246201.890625,0.0185546875,0.994384765625,0.1875,1.0070799589157104,-1.4038084745407104,-1.1291502714157104,80.0,115965.0,1.0
14596.0693803,292671.4375,295381.8125,336297.9375,332169.375,285183.25,256446.40625,222488.203125,246226.03125,0.020751953125,0.9970703125,0.191162109375,1.1291502714157104,-1.5563963651657104,-1.0070799589157104,80.0,115966.0,1.0
14596.069404,292694.21875,295635.4375,336499.375,332177.875,285308.6875,256498.796875,222535.59375,246230.40625,0.02001953125,0.99658203125,0.190185546875,1.0375975370407104,-1.5869139432907104,-0.9460448622703552,80.0,115967.0,1.0
14596.120104,292674.125,295810.875,336547.5625,332133.4375,285370.0,256531.703125,222547.75,246220.65625,0.01904296875,0.997314453125,0.1904296875,1.0070799589157104,-1.5869139432907104,-0.9460448622703552,80.0,115968.0,1.0
14596.1201285,292639.59375,295661.8125,336377.78125,332095.34375,285278.53125,256488.78125,222502.6875,246199.65625,0.018310546875,0.995849609375,0.186767578125,0.9460448622703552,-1.5258787870407104,-0.7934569716453552,80.0,115969.0,1.0
14596.1201306,292639.6875,295395.40625,336214.15625,332114.9375,285154.90625,256429.953125,222456.1875,246205.109375,0.0166015625,0.9951171875,0.186279296875,0.9765624403953552,-1.5869139432907104,-0.7934569716453552,80.0,115970.0,1.0
14596.1201324,292687.0,295389.75,336300.96875,332177.4375,285184.40625,256451.046875,222483.734375,246234.25,0.017822265625,0.996337890625,0.18505859375,1.0681151151657104,-1.6784666776657104,-0.7019042372703552,80.0,115971.0,1.0
14596.1201341,292699.15625,295624.28125,336477.8125,332175.46875,285293.75,256492.8125,222526.203125,246238.09375,0.0185546875,0.998291015625,0.182861328125,0.9765624403953552,-1.7700194120407104,-0.6713866591453552,80.0,115972.0,1.0
14596.1201358,292666.34375,295789.78125,336511.4375,332120.21875,285346.75,256517.75,222539.515625,246218.421875,0.01904296875,0.998046875,0.18408203125,1.0070799589157104,-1.8310545682907104,-0.7629393935203552,80.0,115973.0,1.0
14596.1201374,292637.28125,295662.375,336366.78125,332088.03125,285275.875,256476.171875,222501.25,246197.765625,0.019775390625,0.998046875,0.18115234375,1.0681151151657104,-1.8920897245407104,-0.8544921278953552,80.0,115974.0,1.0
14596.1201393,292642.71875,295405.84375,336227.5625,332117.0,285169.375,256425.75,222459.6875,246213.328125,0.0205078125,0.9990234375,0.182861328125,1.0681151151657104,-1.9531248807907104,-0.7934569716453552,80.0,115975.0,1.0
14596.1439162,292674.5625,295366.34375,336284.6875,332161.0625,285168.5,256422.265625,222460.125,246216.546875,0.02001953125,0.9970703125,0.186279296875,0.9155272841453552,-1.9531248807907104,-0.8239745497703552,80.0,115976.0,1.0
14596.176392,292699.15625,295617.9375,336475.9375,332171.0,285289.0,256482.4375,222512.078125,246226.5625,0.020263671875,0.998046875,0.187255859375,0.9460448622703552,-2.044677495956421,-0.7629393935203552,80.0,115977.0,1.0
14596.2013605,292678.0625,295798.96875,336526.0,332127.96875,285354.09375,256513.453125,222529.953125,246208.59375,0.021240234375,0.996337890625,0.1865234375,0.8850097060203552,-2.044677495956421,-0.8239745497703552,80.0,115978.0,1.0
14596.2532757,292646.3125,295669.59375,336375.625,332097.59375,285280.5,256481.265625,222494.109375,246203.046875,0.0224609375,0.9951171875,0.185791015625,0.7629393935203552,-2.014159917831421,-0.8850097060203552,80.0,115979.0,1.0
14596.253283,292651.9375,295414.34375,336231.75,332124.6875,285172.40625,256443.0,222458.15625,246214.671875,0.02197265625,0.994140625,0.182861328125,0.7324218153953552,-1.9531248807907104,-0.8850097060203552,80.0,115980.0,1.0
14596.2532844,292691.8125,295403.8125,336317.15625,332182.875,285197.90625,256457.578125,222482.296875,246238.265625,0.021484375,0.994873046875,0.18408203125,0.7934569716453552,-1.8310545682907104,-0.8544921278953552,80.0,115981.0,1.0
14596.2532856,292716.75,295649.3125,336505.625,332194.875,285322.09375,256520.34375,222549.265625,246265.625,0.02197265625,0.99560546875,0.182861328125,0.7629393935203552,-1.8920897245407104,-0.9765624403953552,80.0,115982.0,1.0
14596.2532868,292678.125,295797.90625,336512.59375,332128.15625,285352.5,256516.765625,222543.28125,246226.65625,0.0234375,0.9970703125,0.18603515625,0.7019042372703552,-1.8615721464157104,-0.9460448622703552,80.0,115983.0,1.0
14596.253288,292652.375,295674.0625,336367.3125,332097.59375,285281.84375,256481.359375,222491.421875,246199.109375,0.022705078125,0.995849609375,0.18505859375,0.5798339247703552,-1.8615721464157104,-1.0070799589157104,80.0,115984.0,1.0
14596.2532892,292661.15625,295427.59375,336238.8125,332125.46875,285182.15625,256441.84375,222457.359375,246204.921875,0.025634765625,0.99609375,0.1845703125,0.5493163466453552,-1.8310545682907104,-0.9765624403953552,80.0,115985.0,1.0
14596.2532904,292696.65625,295405.84375,336316.0625,332180.03125,285200.9375,256452.65625,222487.671875,246249.359375,0.025390625,0.993896484375,0.185791015625,0.4882812201976776,-1.7395018339157104,-1.0375975370407104,80.0,115986.0,1.0
14596.2532916,292715.6875,295652.78125,336503.84375,332178.59375,285317.71875,256496.65625,222520.828125,246232.109375,0.0244140625,0.994384765625,0.1865234375,0.4272460639476776,-1.6174315214157104,-0.9155272841453552,80.0,115987.0,1.0
14596.2982351,292687.15625,295814.90625,336531.09375,332125.84375,285368.125,256520.609375,222530.484375,246214.84375,0.0234375,0.995849609375,0.1845703125,0.4272460639476776,-1.6174315214157104,-0.9765624403953552,80.0,115988.0,1.0
14596.2982408,292648.8125,295661.65625,336351.46875,332084.875,285271.9375,256480.5625,222487.390625,246196.96875,0.02294921875,0.994873046875,0.186279296875,0.5187987685203552,-1.6174315214157104,-1.0070799589157104,80.0,115989.0,1.0
14596.2982421,292656.15625,295415.15625,336216.03125,332116.53125,285169.28125,256439.703125,222460.03125,246213.15625,0.0234375,0.99365234375,0.184326171875,0.4882812201976776,-1.5258787870407104,-1.0681151151657104,80.0,115990.0,1.0
14596.2982433,292698.25,295406.5625,336307.5,332179.46875,285200.75,256461.421875,222495.09375,246246.765625,0.022705078125,0.993896484375,0.18603515625,0.4577636420726776,-1.4953612089157104,-1.1596678495407104,80.0,115991.0,1.0
14596.302655,292719.875,295657.96875,336509.375,332186.09375,285328.4375,256526.875,222547.390625,246244.0,0.0224609375,0.9921875,0.185302734375,0.6408690810203552,-1.5563963651657104,-1.0681151151657104,80.0,115992.0,1.0
14596.3051639,292688.40625,295820.0625,336543.15625,332127.96875,285378.0625,256540.1875,222548.8125,246215.46875,0.024169921875,0.994873046875,0.17919921875,0.6408690810203552,-1.4648436307907104,-0.9155272841453552,80.0,115993.0,1.0
14596.3313537,292660.78125,295681.3125,336387.59375,332098.03125,285300.4375,256497.984375,222513.234375,246213.6875,0.022705078125,0.99609375,0.179931640625,0.8239745497703552,-1.4953612089157104,-0.9765624403953552,80.0,115994.0,1.0
14596.3313647,292658.1875,295415.96875,336228.1875,332117.34375,285180.03125,256454.890625,222476.578125,246221.828125,0.022216796875,0.9970703125,0.179443359375,0.7324218153953552,-1.4343260526657104,-1.0070799589157104,80.0,115995.0,1.0
14596.3313681,292688.78125,295384.75,336286.5625,332168.21875,285182.0,256445.421875,222483.90625,246238.90625,0.0234375,0.996826171875,0.1826171875,0.7019042372703552,-1.4038084745407104,-1.0070799589157104,80.0,115996.0,1.0
14596.3607374,292708.90625,295632.6875,336475.5625,332175.28125,285301.78125,256491.203125,222532.453125,246242.828125,0.020263671875,0.99560546875,0.182861328125,0.8544921278953552,-1.5563963651657104,-0.9765624403953552,80.0,115997.0,1.0
14596.3607465,292684.9375,295802.03125,336517.0625,332122.71875,285361.96875,256514.265625,222548.1875,246225.9375,0.02197265625,0.99755859375,0.182861328125,0.7629393935203552,-1.5563963651657104,-1.0070799589157104,80.0,115998.0,1.0
14596.3688939,292661.96875,295685.34375,336377.125,332098.21875,285295.53125,256495.046875,222517.609375,246216.90625,0.02001953125,0.998046875,0.183349609375,0.7629393935203552,-1.4953612089157104,-1.0375975370407104,80.0,115999.0,1.0
14596.3784454,292670.09375,295443.75,336249.375,332132.28125,285198.71875,256466.875,222490.265625,246234.078125,0.023193359375,0.998291015625,0.183349609375,0.7019042372703552,-1.5258787870407104,-0.9460448622703552,80.0,116000.0,1.0
14596.3784529,292704.0625,295420.4375,336331.0,332190.375,285220.15625,256475.109375,222523.34375,246285.125,0.0205078125,0.99755859375,0.1826171875,0.6408690810203552,-1.4343260526657104,-1.0070799589157104,80.0,116001.0,1.0
14596.3784551,292718.09375,295657.71875,336517.25,332189.59375,285334.78125,256519.71875,222568.9375,246279.671875,0.019287109375,0.996826171875,0.182373046875,0.7324218153953552,-1.5258787870407104,-0.9460448622703552,80.0,116002.0,1.0
14596.3784571,292686.375,295806.03125,336529.03125,332124.6875,285366.875,256532.59375,222549.625,246219.3125,0.02001953125,0.99609375,0.181640625,0.6103515028953552,-1.6174315214157104,-0.9460448622703552,80.0,116003.0,1.0
14596.3784588,292649.78125,295665.125,336365.6875,332093.75,285284.96875,256500.5,222517.34375,246208.234375,0.021484375,0.997802734375,0.1845703125,0.5493163466453552,-1.6784666776657104,-0.9460448622703552,80.0,116004.0,1.0
14596.3812664,292644.53125,295405.21875,336217.46875,332114.21875,285170.1875,256444.078125,222464.6875,246201.53125,0.01953125,0.998291015625,0.182373046875,0.2746581733226776,-1.7089842557907104,-0.9765624403953552,80.0,116005.0,1.0
14596.3812733,292690.9375,295403.71875,336307.125,332178.0625,285197.0,256445.421875,222480.6875,246233.796875,0.021484375,0.9990234375,0.1826171875,0.2746581733226776,-1.8005369901657104,-0.9155272841453552,80.0,116006.0,1.0
14596.3812754,292708.53125,295649.21875,336493.8125,332181.90625,285316.375,256503.796875,222544.796875,246250.15625,0.021728515625,0.998046875,0.1806640625,0.3356933295726776,-1.7700194120407104,-0.9155272841453552,80.0,116007.0,1.0
14596.3844808,292708.53125,295649.21875,336493.8125,332181.90625,285316.375,256503.796875,222544.796875,246250.15625,0.021728515625,0.998046875,0.1806640625,0.3356933295726776,-1.7700194120407104,-0.9155272841453552,80.0,116008.0,0.0
14596.3844826,292708.53125,295649.21875,336493.8125,332181.90625,285316.375,256503.796875,222544.796875,246250.15625,0.021728515625,0.998046875,0.1806640625,0.3356933295726776,-1.7700194120407104,-0.9155272841453552,80.0,116009.0,0.0
14596.3844829,292708.53125,295649.21875,336493.8125,332181.90625,285316.375,256503.796875,222544.796875,246250.15625,0.021728515625,0.998046875,0.1806640625,0.3356933295726776,-1.7700194120407104,-0.9155272841453552,80.0,116010.0,0.0
14596.3844832,292708.53125,295649.21875,336493.8125,332181.90625,285316.375,256503.796875,222544.796875,246250.15625,0.021728515625,0.998046875,0.1806640625,0.3356933295726776,-1.7700194120407104,-0.9155272841453552,80.0,116011.0,0.0
