Time,FZ,C3,CZ,C4,PZ,PO7,OZ,PO8,AccX,AccY,AccZ,Gyro1,Gyro2,Gyro3,Battery,Counter,Validation
14397.9283295,291504.65625,296667.9375,351845.09375,348265.9375,287707.8125,256384.984375,223974.421875,244619.203125,0.006591796875,0.99755859375,0.160400390625,0.7019042372703552,-1.4038084745407104,-1.1901854276657104,80.0,66438.0,1.0
14397.9534491,291531.65625,296832.53125,351985.90625,348287.125,287774.15625,256414.390625,224006.15625,244634.84375,0.0048828125,0.99755859375,0.1572265625,0.7934569716453552,-1.4648436307907104,-1.0986326932907104,80.0,66439.0,1.0
14397.9821295,291535.5,297102.625,352119.75,348258.875,287846.125,256449.265625,224028.5,244633.953125,0.00390625,0.998779296875,0.15576171875,0.7934569716453552,-1.5869139432907104,-1.1596678495407104,80.0,66440.0,1.0
14397.9821426,291514.0625,297121.3125,352079.0625,348227.6875,287834.4375,256439.078125,224022.25,244626.265625,0.004150390625,0.99609375,0.152587890625,0.7934569716453552,-1.6479490995407104,-1.2512205839157104,80.0,66441.0,1.0
14397.982144,291495.46875,296861.65625,351921.71875,348233.59375,287755.125,256404.296875,223986.03125,244617.59375,0.005859375,0.994140625,0.1572265625,0.7629393935203552,-1.8310545682907104,-1.1291502714157104,80.0,66442.0,1.0
14397.9821453,291504.125,296668.1875,351852.5,348267.71875,287710.3125,256381.765625,223970.03125,244623.671875,0.010009765625,0.992919921875,0.15966796875,0.6408690810203552,-1.9531248807907104,-0.9460448622703552,80.0,66443.0,1.0
14397.9821465,291538.65625,296828.84375,351980.90625,348289.90625,287774.0,256420.296875,224004.640625,244639.234375,0.011474609375,0.993896484375,0.157470703125,0.7629393935203552,-1.8005369901657104,-0.8544921278953552,80.0,66444.0,1.0
14397.9821478,291537.3125,297095.5625,352106.40625,348260.3125,287844.53125,256463.21875,224033.421875,244639.671875,0.00927734375,0.9970703125,0.15771484375,0.7324218153953552,-1.7089842557907104,-0.8544921278953552,80.0,66445.0,1.0
14397.982149,291511.8125,297124.96875,352078.53125,348225.25,287836.46875,256465.0,224024.921875,244624.75,0.00732421875,1.001220703125,0.157958984375,0.6713866591453552,-1.7089842557907104,-0.7934569716453552,80.0,66446.0,1.0
14397.9821502,291489.375,296858.71875,351919.46875,348225.96875,287749.125,256416.0,223985.140625,244622.328125,0.006103515625,1.00244140625,0.15478515625,0.6408690810203552,-1.7089842557907104,-0.8544921278953552,80.0,66447.0,1.0
14397.9821514,291507.8125,296670.25,351856.53125,348267.8125,287714.09375,256397.234375,223984.0625,244638.15625,0.00830078125,1.0,0.15234375,0.5798339247703552,-1.8005369901657104,-0.8239745497703552,80.0,66448.0,1.0
14397.9821527,291542.21875,296837.53125,351993.6875,348294.09375,287785.6875,256439.609375,224027.25,244653.53125,0.010498046875,0.996826171875,0.151123046875,0.5187987685203552,-1.8005369901657104,-0.7629393935203552,80.0,66449.0,1.0
14397.982154,291541.9375,297113.53125,352127.625,348262.71875,287858.90625,256475.640625,224040.84375,244637.796875,0.012939453125,0.99365234375,0.1552734375,0.4272460639476776,-1.9226073026657104,-0.7019042372703552,80.0,66450.0,1.0
14397.9821552,291509.6875,297127.5625,352083.25,348222.59375,287839.53125,256449.53125,224013.75,244624.921875,0.0126953125,0.99267578125,0.153076171875,0.4272460639476776,-1.7700194120407104,-0.6713866591453552,80.0,66451.0,1.0
14397.9821564,291487.59375,296846.375,351902.125,348218.46875,287743.9375,256400.53125,223966.1875,244617.59375,0.011474609375,0.992919921875,0.15673828125,0.4272460639476776,-1.5869139432907104,-0.8239745497703552,80.0,66452.0,1.0
14397.9821576,291501.1875,296657.8125,351834.625,348256.375,287700.3125,256373.0,223951.078125,244622.421875,0.00927734375,0.9931640625,0.152587890625,0.3967284858226776,-1.4648436307907104,-1.0375975370407104,80.0,66453.0,1.0
14397.9821589,291541.25,296838.5,351995.65625,348285.78125,287776.84375,256404.390625,223989.4375,244630.5625,0.009521484375,0.994140625,0.1533203125,0.4882812201976776,-1.4343260526657104,-1.0986326932907104,80.0,66454.0,1.0
14397.9821601,291542.3125,297096.90625,352114.5625,348256.03125,287843.8125,256452.3125,224024.75,244635.734375,0.009521484375,0.99658203125,0.15478515625,0.4577636420726776,-1.4648436307907104,-1.1291502714157104,80.0,66455.0,1.0
14397.9821613,291510.84375,297101.375,352052.78125,348215.96875,287820.9375,256440.328125,224008.203125,244627.96875,0.0087890625,0.998291015625,0.1533203125,0.5187987685203552,-1.5258787870407104,-1.1596678495407104,80.0,66456.0,1.0
14397.982163,291510.84375,297101.375,352052.78125,348215.96875,287820.9375,256440.328125,224008.203125,244627.96875,0.0087890625,0.998291015625,0.1533203125,0.5187987685203552,-1.5258787870407104,-1.1596678495407104,80.0,66457.0,0.0
14397.9821631,291510.84375,297101.375,352052.78125,348215.96875,287820.9375,256440.328125,224008.203125,244627.96875,0.0087890625,0.998291015625,0.1533203125,0.5187987685203552,-1.5258787870407104,-1.1596678495407104,80.0,66458.0,0.0
14397.9821633,291510.84375,297101.375,352052.78125,348215.96875,287820.9375,256440.328125,224008.203125,244627.96875,0.0087890625,0.998291015625,0.1533203125,0.5187987685203552,-1.5258787870407104,-1.1596678495407104,80.0,66459.0,0.0
14397.9821635,291510.84375,297101.375,352052.78125,348215.96875,287820.9375,256440.328125,224008.203125,244627.96875,0.0087890625,0.998291015625,0.1533203125,0.5187987685203552,-1.5258787870407104,-1.1596678495407104,80.0,66460.0,0.0
14397.9821637,291510.84375,297101.375,352052.78125,348215.96875,287820.9375,256440.328125,224008.203125,244627.96875,0.0087890625,0.998291015625,0.1533203125,0.5187987685203552,-1.5258787870407104,-1.1596678495407104,80.0,66461.0,0.0
14397.9821639,291510.84375,297101.375,352052.78125,348215.96875,287820.9375,256440.328125,224008.203125,244627.96875,0.0087890625,0.998291015625,0.1533203125,0.5187987685203552,-1.5258787870407104,-1.1596678495407104,80.0,66462.0,0.0
14397.9821641,291510.84375,297101.375,352052.78125,348215.96875,287820.9375,256440.328125,224008.203125,244627.96875,0.0087890625,0.998291015625,0.1533203125,0.5187987685203552,-1.5258787870407104,-1.1596678495407104,80.0,66463.0,0.0
14397.9821643,291547.0625,296832.34375,351976.59375,348281.0625,287779.34375,256428.4375,224003.296875,244639.9375,0.00732421875,0.9951171875,0.15380859375,0.4577636420726776,-1.3732908964157104,-1.1291502714157104,80.0,66464.0,1.0
14397.9821656,291541.3125,297092.59375,352104.625,348244.21875,287847.125,256456.15625,224029.046875,244631.1875,0.00830078125,0.994140625,0.1533203125,0.4577636420726776,-1.4038084745407104,-1.1291502714157104,80.0,66465.0,1.0
14397.9821672,291516.21875,297117.375,352066.28125,348211.0625,287838.96875,256456.328125,224025.109375,244627.609375,0.007568359375,0.995849609375,0.158203125,0.5798339247703552,-1.3732908964157104,-1.1901854276657104,80.0,66466.0,1.0
14397.984492,291498.40625,296863.8125,351914.09375,348218.90625,287764.6875,256416.90625,223987.5625,244628.5,0.009033203125,0.996337890625,0.15771484375,0.5798339247703552,-1.4343260526657104,-1.1291502714157104,80.0,66467.0,1.0
14397.9869773,291514.78125,296675.0,351851.875,348260.84375,287728.21875,256395.796875,223975.125,244641.90625,0.008056640625,0.998046875,0.157958984375,0.5493163466453552,-1.4038084745407104,-0.9460448622703552,80.0,66468.0,1.0
14397.9894894,291547.0625,296843.53125,351988.21875,348281.84375,287790.4375,256425.84375,224000.15625,244642.453125,0.007568359375,0.9970703125,0.158203125,0.4882812201976776,-1.4038084745407104,-0.8239745497703552,80.0,66469.0,1.0
14397.9920182,291542.21875,297104.59375,352107.84375,348245.46875,287854.375,256459.09375,224025.640625,244634.9375,0.00732421875,0.996826171875,0.15771484375,0.5187987685203552,-1.4953612089157104,-0.7019042372703552,80.0,66470.0,1.0
14397.9945985,291513.78125,297117.1875,352055.5625,348207.65625,287839.0625,256458.390625,224019.296875,244625.28125,0.00634765625,0.995849609375,0.1552734375,0.4272460639476776,-1.4038084745407104,-0.6103515028953552,80.0,66471.0,1.0
14398.019511,291495.90625,296859.0625,351902.84375,348213.09375,287759.15625,256413.59375,223979.515625,244620.0,0.00390625,0.9951171875,0.156982421875,0.4882812201976776,-1.4343260526657104,-0.5798339247703552,80.0,66472.0,1.0
14398.0445847,291506.46875,296660.21875,351831.125,348249.6875,287716.6875,256389.625,223972.265625,244642.0,0.0029296875,0.99365234375,0.15380859375,0.5187987685203552,-1.4648436307907104,-0.5187987685203552,80.0,66473.0,1.0
14398.0695875,291542.40625,296826.625,351967.9375,348274.09375,287784.1875,256428.171875,224006.0625,244645.9375,0.0029296875,0.995849609375,0.1572265625,0.4577636420726776,-1.5563963651657104,-0.4882812201976776,80.0,66474.0,1.0
14398.0895442,291541.875,297100.21875,352097.03125,348244.5,287854.625,256467.421875,224031.1875,244637.078125,0.003662109375,0.998046875,0.156982421875,0.4272460639476776,-1.6479490995407104,-0.5187987685203552,80.0,66475.0,1.0
14398.0920654,291507.875,297123.4375,352056.8125,348207.03125,287840.40625,256461.6875,224022.609375,244629.65625,0.00390625,0.999267578125,0.157470703125,0.4577636420726776,-1.6174315214157104,-0.4272460639476776,80.0,66476.0,1.0
14398.0945436,291491.71875,296865.5,351906.96875,348214.1875,287763.78125,256427.265625,223987.828125,244630.109375,0.005615234375,0.999267578125,0.155029296875,0.3967284858226776,-1.5869139432907104,-0.4272460639476776,80.0,66477.0,1.0
14398.0970727,291515.3125,296674.8125,351839.0,348254.3125,287719.1875,256399.015625,223967.53125,244636.375,0.005126953125,0.996337890625,0.156982421875,0.3356933295726776,-1.7089842557907104,-0.5187987685203552,80.0,66478.0,1.0
14398.1008305,291544.0,296831.0,351964.53125,348274.09375,287776.40625,256418.328125,223998.640625,244646.46875,0.006591796875,0.996826171875,0.158203125,0.3356933295726776,-1.8310545682907104,-0.5798339247703552,80.0,66479.0,1.0
14398.1068215,291539.53125,297107.0,352099.90625,348244.03125,287850.96875,256454.890625,224027.703125,244647.1875,0.009521484375,0.994140625,0.157470703125,0.3356933295726776,-1.7395018339157104,-0.6408690810203552,80.0,66480.0,1.0
14398.1068402,291504.21875,297120.15625,352053.5,348202.09375,287834.875,256454.8125,224014.828125,244632.609375,0.00927734375,0.99658203125,0.156494140625,0.4577636420726776,-1.8005369901657104,-0.7629393935203552,80.0,66481.0,1.0
14398.1068414,291491.71875,296862.125,351898.625,348212.375,287753.96875,256412.875,223972.625,244626.625,0.009765625,0.995849609375,0.157470703125,0.4882812201976776,-1.7700194120407104,-0.7324218153953552,80.0,66482.0,1.0
14398.1068427,291516.5625,296679.46875,351841.875,348258.875,287720.0625,256402.328125,223968.328125,244642.171875,0.012451171875,0.99560546875,0.1572265625,0.5187987685203552,-1.7395018339157104,-0.6713866591453552,80.0,66483.0,1.0
14398.1068439,291543.125,296841.65625,351979.90625,348274.53125,287782.46875,256432.546875,224001.5,244650.578125,0.012939453125,0.99462890625,0.158203125,0.5187987685203552,-1.6784666776657104,-0.6408690810203552,80.0,66484.0,1.0
14398.1068451,291538.1875,297112.0,352117.875,348242.59375,287853.28125,256465.53125,224029.3125,244646.65625,0.013916015625,0.99365234375,0.160888671875,0.5798339247703552,-1.7089842557907104,-0.6713866591453552,80.0,66485.0,1.0
14398.1068463,291516.125,297132.125,352074.0625,348207.375,287840.9375,256466.515625,224023.3125,244640.84375,0.01318359375,0.9921875,0.158203125,0.7019042372703552,-1.5563963651657104,-0.7019042372703552,80.0,66486.0,1.0
14398.1068475,291494.375,296857.8125,351899.71875,348206.03125,287747.15625,256409.484375,223972.453125,244630.828125,0.011474609375,0.991943359375,0.157470703125,0.7934569716453552,-1.4953612089157104,-0.7019042372703552,80.0,66487.0,1.0
14398.1095715,291505.28125,296651.5625,351808.78125,348236.09375,287689.0625,256384.09375,223951.53125,244629.84375,0.010986328125,0.991455078125,0.1572265625,0.8850097060203552,-1.4953612089157104,-0.6713866591453552,80.0,66488.0,1.0
14398.1120774,291543.90625,296827.15625,351959.15625,348264.875,287765.59375,256430.3125,223996.59375,244642.0,0.011474609375,0.992919921875,0.154541015625,0.8850097060203552,-1.4953612089157104,-0.7934569716453552,80.0,66489.0,1.0
14398.1370596,291546.59375,297109.9375,352111.59375,348239.84375,287847.65625,256469.828125,224028.6875,244639.859375,0.009521484375,0.992431640625,0.156005859375,1.0375975370407104,-1.4953612089157104,-0.8239745497703552,80.0,66490.0,1.0
14398.2235527,291513.96875,297127.65625,352070.03125,348200.15625,287831.28125,256454.1875,224002.578125,244626.890625,0.008544921875,0.992431640625,0.153564453125,1.0681151151657104,-1.3427733182907104,-0.7629393935203552,80.0,66491.0,1.0
14398.223561,291513.96875,297127.65625,352070.03125,348200.15625,287831.28125,256454.1875,224002.578125,244626.890625,0.008544921875,0.992431640625,0.153564453125,1.0681151151657104,-1.3427733182907104,-0.7629393935203552,80.0,66492.0,0.0
14398.2235612,291513.96875,297127.65625,352070.03125,348200.15625,287831.28125,256454.1875,224002.578125,244626.890625,0.008544921875,0.992431640625,0.153564453125,1.0681151151657104,-1.3427733182907104,-0.7629393935203552,80.0,66493.0,0.0
14398.2235614,291513.96875,297127.65625,352070.03125,348200.15625,287831.28125,256454.1875,224002.578125,244626.890625,0.008544921875,0.992431640625,0.153564453125,1.0681151151657104,-1.3427733182907104,-0.7629393935203552,80.0,66494.0,0.0
14398.2235616,291513.96875,297127.65625,352070.03125,348200.15625,287831.28125,256454.1875,224002.578125,244626.890625,0.008544921875,0.992431640625,0.153564453125,1.0681151151657104,-1.3427733182907104,-0.7629393935203552,80.0,66495.0,0.0
14398.2235619,291513.96875,297127.65625,352070.03125,348200.15625,287831.28125,256454.1875,224002.578125,244626.890625,0.008544921875,0.992431640625,0.153564453125,1.0681151151657104,-1.3427733182907104,-0.7629393935203552,80.0,66496.0,0.0
14398.2235621,291513.96875,297127.65625,352070.03125,348200.15625,287831.28125,256454.1875,224002.578125,244626.890625,0.008544921875,0.992431640625,0.153564453125,1.0681151151657104,-1.3427733182907104,-0.7629393935203552,80.0,66497.0,0.0
14398.2235623,291513.96875,297127.65625,352070.03125,348200.15625,287831.28125,256454.1875,224002.578125,244626.890625,0.008544921875,0.992431640625,0.153564453125,1.0681151151657104,-1.3427733182907104,-0.7629393935203552,80.0,66498.0,0.0
14398.2235624,291513.96875,297127.65625,352070.03125,348200.15625,287831.28125,256454.1875,224002.578125,244626.890625,0.008544921875,0.992431640625,0.153564453125,1.0681151151657104,-1.3427733182907104,-0.7629393935203552,80.0,66499.0,0.0
14398.2235626,291513.96875,297127.65625,352070.03125,348200.15625,287831.28125,256454.1875,224002.578125,244626.890625,0.008544921875,0.992431640625,0.153564453125,1.0681151151657104,-1.3427733182907104,-0.7629393935203552,80.0,66500.0,0.0
14398.2235628,291513.96875,297127.65625,352070.03125,348200.15625,287831.28125,256454.1875,224002.578125,244626.890625,0.008544921875,0.992431640625,0.153564453125,1.0681151151657104,-1.3427733182907104,-0.7629393935203552,80.0,66501.0,0.0
14398.223563,291513.96875,297127.65625,352070.03125,348200.15625,287831.28125,256454.1875,224002.578125,244626.890625,0.008544921875,0.992431640625,0.153564453125,1.0681151151657104,-1.3427733182907104,-0.7629393935203552,80.0,66502.0,0.0
14398.2235632,291513.96875,297127.65625,352070.03125,348200.15625,287831.28125,256454.1875,224002.578125,244626.890625,0.008544921875,0.992431640625,0.153564453125,1.0681151151657104,-1.3427733182907104,-0.7629393935203552,80.0,66503.0,0.0
14398.2235633,291513.96875,297127.65625,352070.03125,348200.15625,287831.28125,256454.1875,224002.578125,244626.890625,0.008544921875,0.992431640625,0.153564453125,1.0681151151657104,-1.3427733182907104,-0.7629393935203552,80.0,66504.0,0.0
14398.2235635,291513.96875,297127.65625,352070.03125,348200.15625,287831.28125,256454.1875,224002.578125,244626.890625,0.008544921875,0.992431640625,0.153564453125,1.0681151151657104,-1.3427733182907104,-0.7629393935203552,80.0,66505.0,0.0
14398.2235637,291513.96875,297127.65625,352070.03125,348200.15625,287831.28125,256454.1875,224002.578125,244626.890625,0.008544921875,0.992431640625,0.153564453125,1.0681151151657104,-1.3427733182907104,-0.7629393935203552,80.0,66506.0,0.0
14398.2235639,291513.96875,297127.65625,352070.03125,348200.15625,287831.28125,256454.1875,224002.578125,244626.890625,0.008544921875,0.992431640625,0.153564453125,1.0681151151657104,-1.3427733182907104,-0.7629393935203552,80.0,66507.0,0.0
14398.2235641,291503.15625,296660.21875,351837.5625,348235.1875,287711.9375,256407.609375,223966.640625,244656.75,0.008056640625,0.99609375,0.1513671875,1.1596678495407104,-1.9226073026657104,-0.6408690810203552,80.0,66508.0,1.0
14398.2235655,291525.5,296807.84375,351962.125,348249.40625,287765.21875,256405.546875,223988.546875,244663.8125,0.0087890625,0.99560546875,0.15087890625,1.1901854276657104,-1.9836424589157104,-0.6713866591453552,80.0,66509.0,1.0
14398.2235667,291518.71875,297065.875,352078.53125,348207.375,287821.71875,256433.890625,224000.515625,244633.421875,0.007568359375,0.997802734375,0.15478515625,1.1291502714157104,-1.9531248807907104,-0.6408690810203552,80.0,66510.0,1.0
14398.2235678,291496.53125,297090.625,352033.09375,348171.96875,287810.46875,256441.3125,223989.53125,244615.53125,0.008544921875,0.997314453125,0.15087890625,0.9155272841453552,-2.014159917831421,-0.6408690810203552,80.0,66511.0,1.0
14398.223569,291483.65625,296837.78125,351881.375,348188.53125,287740.90625,256405.90625,223966.09375,244629.21875,0.009521484375,0.996337890625,0.150634765625,0.7324218153953552,-2.105712652206421,-0.5798339247703552,80.0,66512.0,1.0
14398.2235702,291507.4375,296658.28125,351827.375,348232.25,287708.4375,256385.421875,223951.078125,244628.5,0.01025390625,0.994873046875,0.153564453125,0.5798339247703552,-1.9836424589157104,-0.5493163466453552,80.0,66513.0,1.0
14398.2235714,291542.59375,296832.0,351974.8125,348254.78125,287778.8125,256421.28125,223987.203125,244639.5,0.009765625,0.994873046875,0.151611328125,0.5187987685203552,-1.9531248807907104,-0.4882812201976776,80.0,66514.0,1.0
14398.2235729,291539.0,297097.0,352097.5625,348220.78125,287843.90625,256458.65625,224013.9375,244632.34375,0.00927734375,0.994873046875,0.154541015625,0.5798339247703552,-1.8615721464157104,-0.6103515028953552,80.0,66515.0,1.0
14398.2483174,291499.65625,297094.03125,352029.96875,348172.15625,287811.1875,256431.65625,223988.265625,244616.25,0.01025390625,0.99609375,0.15234375,0.5493163466453552,-1.7700194120407104,-0.4577636420726776,80.0,66516.0,1.0
14398.2733016,291491.625,296837.78125,351870.3125,348187.625,287736.34375,256402.5,223967.4375,244628.953125,0.009765625,0.994873046875,0.150634765625,0.4272460639476776,-1.7700194120407104,-0.4882812201976776,80.0,66517.0,1.0
14398.2983271,291512.90625,296657.03125,351812.375,348231.53125,287704.59375,256393.75,223962.515625,244641.109375,0.01171875,0.9951171875,0.15283203125,0.3967284858226776,-1.7395018339157104,-0.5798339247703552,80.0,66518.0,1.0
14398.3233476,291540.15625,296818.40625,351949.59375,348245.375,287764.96875,256411.625,223983.171875,244636.1875,0.0126953125,0.99755859375,0.151611328125,0.4272460639476776,-1.5258787870407104,-0.6103515028953552,80.0,66519.0,1.0
14398.3504531,291537.21875,297087.6875,352086.3125,348213.71875,287837.5625,256445.0625,224009.015625,244634.765625,0.014404296875,0.996337890625,0.15087890625,0.3967284858226776,-1.4038084745407104,-0.5798339247703552,80.0,66520.0,1.0
14398.3504585,291507.25,297097.875,352037.3125,348175.09375,287820.84375,256443.0,223998.90625,244627.25,0.013916015625,0.995849609375,0.153076171875,0.3662109076976776,-1.3122557401657104,-0.5493163466453552,80.0,66521.0,1.0
14398.3504598,291486.78125,296830.5625,351873.0625,348180.125,287741.09375,256406.0,223971.28125,244628.328125,0.010986328125,0.997314453125,0.152099609375,0.3662109076976776,-1.1901854276657104,-0.4882812201976776,80.0,66522.0,1.0
14398.350461,291502.0625,296645.03125,351806.625,348218.46875,287701.9375,256387.125,223960.28125,244635.203125,0.011962890625,0.99755859375,0.14990234375,0.3051757514476776,-1.0375975370407104,-0.4272460639476776,80.0,66523.0,1.0
14398.3504623,291543.5625,296820.375,351958.0,348250.75,287777.65625,256426.375,223998.734375,244647.984375,0.010986328125,0.996337890625,0.150146484375,0.3356933295726776,-1.0070799589157104,-0.5798339247703552,80.0,66524.0,1.0
14398.3504634,291550.625,297101.8125,352105.09375,348230.1875,287856.96875,256467.859375,224027.796875,244650.765625,0.01171875,0.995849609375,0.14892578125,0.3967284858226776,-0.9155272841453552,-0.6713866591453552,80.0,66525.0,1.0
14398.3504648,291524.34375,297122.5625,352062.15625,348190.03125,287838.0,256450.0625,224007.234375,244635.109375,0.01318359375,0.9970703125,0.151611328125,0.3356933295726776,-0.8239745497703552,-0.7324218153953552,80.0,66526.0,1.0
14398.3745903,291498.84375,296851.84375,351890.25,348182.4375,287746.4375,256403.578125,223961.984375,244624.921875,0.01318359375,0.998046875,0.150390625,0.2746581733226776,-0.8239745497703552,-0.7324218153953552,80.0,66527.0,1.0
14398.3995553,291511.5625,296652.71875,351818.96875,348220.25,287708.1875,256394.28125,223961.890625,244642.8125,0.012939453125,0.997802734375,0.15234375,0.2746581733226776,-0.7324218153953552,-0.6408690810203552,80.0,66528.0,1.0
14398.4572037,291536.78125,296803.375,351941.28125,348236.34375,287766.28125,256412.609375,223986.21875,244647.09375,0.011962890625,0.99462890625,0.152587890625,0.3662109076976776,-0.8239745497703552,-0.7324218153953552,80.0,66529.0,1.0
14398.4572201,291540.625,297089.5625,352084.15625,348211.84375,287845.96875,256451.859375,224017.59375,244647.8125,0.01220703125,0.99560546875,0.14990234375,0.3051757514476776,-0.7019042372703552,-0.7934569716453552,80.0,66530.0,1.0
14398.4572213,291509.0625,297105.125,352036.5,348167.78125,287826.75,256443.0,224001.6875,244634.046875,0.010498046875,0.996337890625,0.14990234375,0.3051757514476776,-0.6408690810203552,-0.7629393935203552,80.0,66531.0,1.0
14398.4572226,291492.6875,296843.78125,351879.3125,348173.9375,287748.40625,256401.703125,223968.609375,244630.640625,0.01123046875,0.9970703125,0.153564453125,0.1831054538488388,-0.6713866591453552,-0.7019042372703552,80.0,66532.0,1.0
14398.4572238,291512.28125,296655.9375,351815.03125,348212.3125,287709.78125,256391.421875,223956.078125,244626.53125,0.01171875,0.99755859375,0.15234375,0.1831054538488388,-0.5798339247703552,-0.6713866591453552,80.0,66533.0,1.0
14398.4808438,291542.75,296821.71875,351958.375,348234.03125,287777.375,256429.59375,223994.078125,244640.75,0.01123046875,0.996337890625,0.152587890625,0.0915527269244194,-0.5493163466453552,-0.7629393935203552,80.0,66534.0,1.0
14398.5058548,291539.28125,297092.25,352095.78125,348203.4375,287848.5625,256450.15625,224012.765625,244639.5,0.01171875,0.995849609375,0.151611328125,0.03051757626235485,-0.5798339247703552,-0.7934569716453552,80.0,66535.0,1.0
14398.5270711,291508.34375,297104.3125,352041.15625,348163.84375,287831.125,256441.484375,224003.296875,244631.09375,0.009765625,0.996826171875,0.151123046875,0.0,-0.6408690810203552,-0.7324218153953552,80.0,66536.0,1.0
14398.530278,291488.75,296844.6875,351880.3125,348167.15625,287751.71875,256414.21875,223973.703125,244618.75,0.0087890625,0.994140625,0.155029296875,0.0915527269244194,-0.7629393935203552,-0.7019042372703552,80.0,66537.0,1.0
14398.530281,291501.28125,296652.90625,351810.46875,348206.21875,287710.59375,256399.734375,223963.953125,244629.390625,0.007568359375,0.99609375,0.15234375,-0.0610351525247097,-0.8239745497703552,-0.5493163466453552,80.0,66538.0,1.0
14398.5302822,291531.21875,296820.28125,351943.25,348230.28125,287780.5,256448.1875,224004.640625,244649.59375,0.0078125,0.99560546875,0.156494140625,-0.1525878757238388,-0.8850097060203552,-0.5493163466453552,80.0,66539.0,1.0
14398.53554,291532.75,297099.75,352086.40625,348199.59375,287855.875,256479.484375,224026.984375,244640.390625,0.008544921875,0.99609375,0.16015625,-0.2136230319738388,-0.9765624403953552,-0.5798339247703552,80.0,66540.0,1.0
14398.5355423,291503.15625,297118.90625,352047.21875,348156.15625,287837.8125,256455.609375,224004.09375,244620.71875,0.008544921875,0.99560546875,0.16064453125,-0.2746581733226776,-0.9460448622703552,-0.5187987685203552,80.0,66541.0,1.0
14398.5355435,291475.0625,296845.40625,351873.0625,348155.25,287745.90625,256400.09375,223958.765625,244617.859375,0.007080078125,0.997314453125,0.15673828125,-0.3051757514476776,-1.0070799589157104,-0.6103515028953552,80.0,66542.0,1.0
14398.5355461,291475.0625,296845.40625,351873.0625,348155.25,287745.90625,256400.09375,223958.765625,244617.859375,0.007080078125,0.997314453125,0.15673828125,-0.3051757514476776,-1.0070799589157104,-0.6103515028953552,80.0,66543.0,0.0
14398.5355463,291475.0625,296845.40625,351873.0625,348155.25,287745.90625,256400.09375,223958.765625,244617.859375,0.007080078125,0.997314453125,0.15673828125,-0.3051757514476776,-1.0070799589157104,-0.6103515028953552,80.0,66544.0,0.0
14398.5355465,291475.0625,296845.40625,351873.0625,348155.25,287745.90625,256400.09375,223958.765625,244617.859375,0.007080078125,0.997314453125,0.15673828125,-0.3051757514476776,-1.0070799589157104,-0.6103515028953552,80.0,66545.0,0.0
14398.5355467,291475.0625,296845.40625,351873.0625,348155.25,287745.90625,256400.09375,223958.765625,244617.859375,0.007080078125,0.997314453125,0.15673828125,-0.3051757514476776,-1.0070799589157104,-0.6103515028953552,80.0,66546.0,0.0
14398.5355469,291475.0625,296845.40625,351873.0625,348155.25,287745.90625,256400.09375,223958.765625,244617.859375,0.007080078125,0.997314453125,0.15673828125,-0.3051757514476776,-1.0070799589157104,-0.6103515028953552,80.0,66547.0,0.0
14398.5355471,291475.0625,296845.40625,351873.0625,348155.25,287745.90625,256400.09375,223958.765625,244617.859375,0.007080078125,0.997314453125,0.15673828125,-0.3051757514476776,-1.0070799589157104,-0.6103515028953552,80.0,66548.0,0.0
14398.5355473,291475.0625,296845.40625,351873.0625,348155.25,287745.90625,256400.09375,223958.765625,244617.859375,0.007080078125,0.997314453125,0.15673828125,-0.3051757514476776,-1.0070799589157104,-0.6103515028953552,80.0,66549.0,0.0
14398.5355475,291475.0625,296845.40625,351873.0625,348155.25,287745.90625,256400.09375,223958.765625,244617.859375,0.007080078125,0.997314453125,0.15673828125,-0.3051757514476776,-1.0070799589157104,-0.6103515028953552,80.0,66550.0,0.0
14398.5355476,291475.0625,296845.40625,351873.0625,348155.25,287745.90625,256400.09375,223958.765625,244617.859375,0.007080078125,0.997314453125,0.15673828125,-0.3051757514476776,-1.0070799589157104,-0.6103515028953552,80.0,66551.0,0.0
14398.5355478,291475.0625,296845.40625,351873.0625,348155.25,287745.90625,256400.09375,223958.765625,244617.859375,0.007080078125,0.997314453125,0.15673828125,-0.3051757514476776,-1.0070799589157104,-0.6103515028953552,80.0,66552.0,0.0
14398.535548,291475.0625,296845.40625,351873.0625,348155.25,287745.90625,256400.09375,223958.765625,244617.859375,0.007080078125,0.997314453125,0.15673828125,-0.3051757514476776,-1.0070799589157104,-0.6103515028953552,80.0,66553.0,0.0
14398.5355482,291475.0625,296845.40625,351873.0625,348155.25,287745.90625,256400.09375,223958.765625,244617.859375,0.007080078125,0.997314453125,0.15673828125,-0.3051757514476776,-1.0070799589157104,-0.6103515028953552,80.0,66554.0,0.0
14398.5355483,291475.0625,296845.40625,351873.0625,348155.25,287745.90625,256400.09375,223958.765625,244617.859375,0.007080078125,0.997314453125,0.15673828125,-0.3051757514476776,-1.0070799589157104,-0.6103515028953552,80.0,66555.0,0.0
14398.5355485,291475.0625,296845.40625,351873.0625,348155.25,287745.90625,256400.09375,223958.765625,244617.859375,0.007080078125,0.997314453125,0.15673828125,-0.3051757514476776,-1.0070799589157104,-0.6103515028953552,80.0,66556.0,0.0
14398.5355487,291475.0625,296845.40625,351873.0625,348155.25,287745.90625,256400.09375,223958.765625,244617.859375,0.007080078125,0.997314453125,0.15673828125,-0.3051757514476776,-1.0070799589157104,-0.6103515028953552,80.0,66557.0,0.0
14398.5355488,291475.0625,296845.40625,351873.0625,348155.25,287745.90625,256400.09375,223958.765625,244617.859375,0.007080078125,0.997314453125,0.15673828125,-0.3051757514476776,-1.0070799589157104,-0.6103515028953552,80.0,66558.0,0.0
14398.535549,291475.0625,296845.40625,351873.0625,348155.25,287745.90625,256400.09375,223958.765625,244617.859375,0.007080078125,0.997314453125,0.15673828125,-0.3051757514476776,-1.0070799589157104,-0.6103515028953552,80.0,66559.0,0.0
14398.5355492,291475.0625,296845.40625,351873.0625,348155.25,287745.90625,256400.09375,223958.765625,244617.859375,0.007080078125,0.997314453125,0.15673828125,-0.3051757514476776,-1.0070799589157104,-0.6103515028953552,80.0,66560.0,0.0
14398.5355493,291475.0625,296845.40625,351873.0625,348155.25,287745.90625,256400.09375,223958.765625,244617.859375,0.007080078125,0.997314453125,0.15673828125,-0.3051757514476776,-1.0070799589157104,-0.6103515028953552,80.0,66561.0,0.0
14398.5355495,291475.0625,296845.40625,351873.0625,348155.25,287745.90625,256400.09375,223958.765625,244617.859375,0.007080078125,0.997314453125,0.15673828125,-0.3051757514476776,-1.0070799589157104,-0.6103515028953552,80.0,66562.0,0.0
14398.5355497,291475.0625,296845.40625,351873.0625,348155.25,287745.90625,256400.09375,223958.765625,244617.859375,0.007080078125,0.997314453125,0.15673828125,-0.3051757514476776,-1.0070799589157104,-0.6103515028953552,80.0,66563.0,0.0
14398.5355498,291475.0625,296845.40625,351873.0625,348155.25,287745.90625,256400.09375,223958.765625,244617.859375,0.007080078125,0.997314453125,0.15673828125,-0.3051757514476776,-1.0070799589157104,-0.6103515028953552,80.0,66564.0,0.0
14398.53555,291475.0625,296845.40625,351873.0625,348155.25,287745.90625,256400.09375,223958.765625,244617.859375,0.007080078125,0.997314453125,0.15673828125,-0.3051757514476776,-1.0070799589157104,-0.6103515028953552,80.0,66565.0,0.0
14398.5355502,291475.0625,296845.40625,351873.0625,348155.25,287745.90625,256400.09375,223958.765625,244617.859375,0.007080078125,0.997314453125,0.15673828125,-0.3051757514476776,-1.0070799589157104,-0.6103515028953552,80.0,66566.0,0.0
14398.5355503,291475.0625,296845.40625,351873.0625,348155.25,287745.90625,256400.09375,223958.765625,244617.859375,0.007080078125,0.997314453125,0.15673828125,-0.3051757514476776,-1.0070799589157104,-0.6103515028953552,80.0,66567.0,0.0
14398.5355505,291475.0625,296845.40625,351873.0625,348155.25,287745.90625,256400.09375,223958.765625,244617.859375,0.007080078125,0.997314453125,0.15673828125,-0.3051757514476776,-1.0070799589157104,-0.6103515028953552,80.0,66568.0,0.0
14398.5355507,291475.0625,296845.40625,351873.0625,348155.25,287745.90625,256400.09375,223958.765625,244617.859375,0.007080078125,0.997314453125,0.15673828125,-0.3051757514476776,-1.0070799589157104,-0.6103515028953552,80.0,66569.0,0.0
14398.5355509,291475.0625,296845.40625,351873.0625,348155.25,287745.90625,256400.09375,223958.765625,244617.859375,0.007080078125,0.997314453125,0.15673828125,-0.3051757514476776,-1.0070799589157104,-0.6103515028953552,80.0,66570.0,0.0
14398.535551,291497.25,297089.3125,352006.09375,348140.5,287818.59375,256437.375,223990.6875,244625.546875,0.013916015625,0.994384765625,0.160888671875,0.1831054538488388,-0.7324218153953552,-0.3356933295726776,80.0,66571.0,1.0
14398.5355523,291490.53125,296837.25,351854.28125,348157.6875,287752.25,256417.25,223972.625,244631.0,0.0146484375,0.99365234375,0.15771484375,0.0610351525247097,-0.8239745497703552,-0.3356933295726776,80.0,66572.0,1.0
14398.5355535,291511.09375,296646.375,351781.96875,348202.03125,287718.1875,256409.484375,223979.78125,244655.046875,0.01611328125,0.99365234375,0.15283203125,0.0,-0.7629393935203552,-0.3662109076976776,80.0,66573.0,1.0
14398.5355547,291544.71875,296816.4375,351925.1875,348224.09375,287785.25,256437.546875,224012.6875,244659.796875,0.015869140625,0.994140625,0.150390625,-0.0610351525247097,-0.8544921278953552,-0.2746581733226776,80.0,66574.0,1.0
14398.5355558,291554.03125,297099.5,352076.5625,348203.71875,287867.15625,256483.234375,224046.921875,244659.53125,0.0146484375,0.992431640625,0.14990234375,0.0610351525247097,-0.8239745497703552,-0.3967284858226776,80.0,66575.0,1.0
14398.5383522,291519.0625,297119.0625,352036.875,348156.5,287845.6875,256462.859375,224013.9375,244638.328125,0.01318359375,0.994873046875,0.15185546875,0.1831054538488388,-0.8239745497703552,-0.5798339247703552,80.0,66576.0,1.0
14398.5408564,291496.34375,296838.59375,351860.09375,348153.1875,287749.125,256399.015625,223955.1875,244634.84375,0.01318359375,0.994384765625,0.15380859375,0.1831054538488388,-0.8544921278953552,-0.5798339247703552,80.0,66577.0,1.0
14398.5468082,291506.625,296632.0625,351768.03125,348186.8125,287695.65625,256380.25,223946.703125,244639.3125,0.014404296875,0.99755859375,0.156982421875,0.1831054538488388,-0.9460448622703552,-0.7019042372703552,80.0,66578.0,1.0
14398.5468108,291534.8125,296792.90625,351894.34375,348208.09375,287755.3125,256411.796875,223985.59375,244649.515625,0.013671875,0.995849609375,0.1572265625,0.1831054538488388,-0.9460448622703552,-0.7629393935203552,80.0,66579.0,1.0
14398.5468125,291534.8125,296792.90625,351894.34375,348208.09375,287755.3125,256411.796875,223985.59375,244649.515625,0.013671875,0.995849609375,0.1572265625,0.1831054538488388,-0.9460448622703552,-0.7629393935203552,80.0,66580.0,0.0
14398.5468127,291534.8125,296792.90625,351894.34375,348208.09375,287755.3125,256411.796875,223985.59375,244649.515625,0.013671875,0.995849609375,0.1572265625,0.1831054538488388,-0.9460448622703552,-0.7629393935203552,80.0,66581.0,0.0
14398.5468129,291534.8125,296792.90625,351894.34375,348208.09375,287755.3125,256411.796875,223985.59375,244649.515625,0.013671875,0.995849609375,0.1572265625,0.1831054538488388,-0.9460448622703552,-0.7629393935203552,80.0,66582.0,0.0
14398.5468131,291534.8125,296792.90625,351894.34375,348208.09375,287755.3125,256411.796875,223985.59375,244649.515625,0.013671875,0.995849609375,0.1572265625,0.1831054538488388,-0.9460448622703552,-0.7629393935203552,80.0,66583.0,0.0
14398.5468133,291534.8125,296792.90625,351894.34375,348208.09375,287755.3125,256411.796875,223985.59375,244649.515625,0.013671875,0.995849609375,0.1572265625,0.1831054538488388,-0.9460448622703552,-0.7629393935203552,80.0,66584.0,0.0
14398.5468135,291534.8125,296792.90625,351894.34375,348208.09375,287755.3125,256411.796875,223985.59375,244649.515625,0.013671875,0.995849609375,0.1572265625,0.1831054538488388,-0.9460448622703552,-0.7629393935203552,80.0,66585.0,0.0
14398.5468137,291534.8125,296792.90625,351894.34375,348208.09375,287755.3125,256411.796875,223985.59375,244649.515625,0.013671875,0.995849609375,0.1572265625,0.1831054538488388,-0.9460448622703552,-0.7629393935203552,80.0,66586.0,0.0
14398.5468139,291534.8125,296792.90625,351894.34375,348208.09375,287755.3125,256411.796875,223985.59375,244649.515625,0.013671875,0.995849609375,0.1572265625,0.1831054538488388,-0.9460448622703552,-0.7629393935203552,80.0,66587.0,0.0
14398.5468141,291534.8125,296792.90625,351894.34375,348208.09375,287755.3125,256411.796875,223985.59375,244649.515625,0.013671875,0.995849609375,0.1572265625,0.1831054538488388,-0.9460448622703552,-0.7629393935203552,80.0,66588.0,0.0
14398.5468143,291548.9375,296819.65625,351912.78125,348212.84375,287771.9375,256445.78125,224011.25,244667.03125,0.012939453125,0.998046875,0.156005859375,-0.03051757626235485,-1.5563963651657104,-1.0986326932907104,80.0,66589.0,1.0
14398.5468155,291550.28125,297103.96875,352058.84375,348183.15625,287849.90625,256478.765625,224037.71875,244661.140625,0.011474609375,0.99609375,0.1591796875,-0.2136230319738388,-1.5258787870407104,-1.0681151151657104,80.0,66590.0,1.0
14398.5468167,291515.65625,297119.875,352015.84375,348143.0,287834.96875,256464.640625,224024.84375,244653.0,0.012939453125,0.998046875,0.157958984375,-0.1831054538488388,-1.6479490995407104,-1.0070799589157104,80.0,66591.0,1.0
14398.5468179,291494.3125,296854.53125,351852.6875,348145.0625,287749.5625,256420.46875,223986.3125,244644.6875,0.009765625,0.9970703125,0.1591796875,-0.2746581733226776,-1.8005369901657104,-0.9155272841453552,80.0,66592.0,1.0
14398.5468192,291509.6875,296665.6875,351783.65625,348180.1875,287706.125,256401.34375,223971.734375,244647.8125,0.009521484375,0.996826171875,0.161376953125,-0.4272460639476776,-1.9531248807907104,-0.9155272841453552,80.0,66593.0,1.0
14398.5468205,291537.46875,296816.78125,351906.25,348201.40625,287764.34375,256425.484375,224002.40625,244657.640625,0.013427734375,0.993896484375,0.156982421875,-0.3967284858226776,-2.014159917831421,-0.7324218153953552,80.0,66594.0,1.0
14398.5489324,291539.8125,297087.0625,352035.625,348175.46875,287836.75,256459.8125,224025.828125,244657.203125,0.01318359375,0.991455078125,0.156005859375,-0.3356933295726776,-1.8920897245407104,-0.7934569716453552,80.0,66595.0,1.0
14398.5489407,291514.25,297113.875,351998.15625,348140.40625,287825.9375,256462.5,224015.625,244641.28125,0.013916015625,0.993408203125,0.157958984375,-0.2441406100988388,-1.8310545682907104,-0.7629393935203552,80.0,66596.0,1.0
14398.5739185,291495.375,296845.84375,351831.9375,348145.6875,287741.875,256413.6875,223973.703125,244644.328125,0.011962890625,0.993408203125,0.158203125,-0.2746581733226776,-1.9531248807907104,-0.7324218153953552,80.0,66597.0,1.0
14398.5739428,291502.15625,296636.8125,351747.53125,348172.6875,287685.75,256367.71875,223942.9375,244638.515625,0.011962890625,0.994140625,0.155517578125,-0.2441406100988388,-2.044677495956421,-0.7019042372703552,80.0,66598.0,1.0
14398.5983477,291539.71875,296816.0625,351894.0,348199.875,287762.4375,256420.03125,223994.265625,244659.34375,0.01318359375,0.993408203125,0.158447265625,-0.1831054538488388,-2.044677495956421,-0.7019042372703552,80.0,66599.0,1.0
14398.6233373,291548.21875,297107.34375,352048.5625,348181.625,287850.0625,256480.109375,224037.09375,244666.3125,0.013916015625,0.99560546875,0.158935546875,-0.0915527269244194,-2.014159917831421,-0.7019042372703552,80.0,66600.0,1.0
14398.6608493,291522.28125,297130.78125,352009.0625,348142.90625,287835.75,256466.15625,224012.40625,244647.359375,0.013916015625,0.9951171875,0.160400390625,-0.0610351525247097,-1.9226073026657104,-0.7324218153953552,80.0,66601.0,1.0
14398.6858517,291501.09375,296861.40625,351843.375,348142.75,287752.0,256419.046875,223972.890625,244642.359375,0.013671875,0.995849609375,0.157470703125,0.03051757626235485,-2.014159917831421,-0.7629393935203552,80.0,66602.0,1.0
14398.7108529,291514.15625,296666.125,351771.9375,348184.40625,287712.65625,256398.484375,223970.296875,244656.84375,0.013671875,0.9931640625,0.1591796875,0.03051757626235485,-2.044677495956421,-0.7019042372703552,80.0,66603.0,1.0
14398.7358585,291542.84375,296827.5,351903.46875,348210.78125,287779.53125,256436.390625,224007.9375,244673.734375,0.0146484375,0.994140625,0.156982421875,0.0610351525247097,-1.9836424589157104,-0.8239745497703552,80.0,66604.0,1.0
14398.7607894,291541.5,297112.1875,352053.9375,348184.9375,287862.3125,256480.109375,224036.828125,244674.8125,0.014404296875,0.994384765625,0.158447265625,0.1525878757238388,-2.044677495956421,-0.8544921278953552,80.0,66605.0,1.0
14398.785857,291510.21875,297121.125,352008.25,348138.09375,287837.1875,256448.1875,224008.296875,244647.90625,0.014892578125,0.99267578125,0.157470703125,0.2136230319738388,-1.9836424589157104,-0.9155272841453552,80.0,66606.0,1.0
14398.7883066,291487.59375,296839.75,351823.09375,348132.625,287739.90625,256398.921875,223964.578125,244637.53125,0.016357421875,0.991455078125,0.1572265625,0.3051757514476776,-1.8005369901657104,-0.9765624403953552,80.0,66607.0,1.0
14398.7930785,291514.78125,296648.34375,351749.34375,348177.96875,287701.84375,256388.296875,223959.03125,244657.828125,0.017578125,0.9931640625,0.15673828125,0.3356933295726776,-1.7700194120407104,-1.0375975370407104,80.0,66608.0,1.0
14398.7930844,291554.5625,296821.71875,351894.4375,348200.5,287770.21875,256428.515625,223992.296875,244663.09375,0.019287109375,0.993408203125,0.158935546875,0.4272460639476776,-1.6479490995407104,-1.0986326932907104,80.0,66609.0,1.0
14398.7930857,291561.1875,297113.09375,352048.9375,348177.0625,287856.6875,256485.921875,224034.859375,244667.390625,0.01953125,0.994140625,0.157958984375,0.4882812201976776,-1.4953612089157104,-1.0375975370407104,80.0,66610.0,1.0
14398.793087,291539.0,297144.65625,352021.21875,348144.625,287852.125,256484.140625,224029.671875,244664.984375,0.017578125,0.994140625,0.159912109375,0.4882812201976776,-1.5258787870407104,-1.0681151151657104,80.0,66611.0,1.0
14398.7930882,291512.90625,296862.90625,351847.9375,348142.5625,287760.3125,256413.765625,223977.28125,244658.453125,0.015625,0.9931640625,0.16162109375,0.7019042372703552,-1.4343260526657104,-1.0986326932907104,80.0,66612.0,1.0
14398.7930894,291523.90625,296652.1875,351752.8125,348176.53125,287706.9375,256386.859375,223968.6875,244676.15625,0.017333984375,0.994873046875,0.163330078125,0.7019042372703552,-1.1901854276657104,-1.1596678495407104,80.0,66613.0,1.0
14398.7930906,291560.0,296826.25,351889.53125,348198.0,287773.28125,256438.71875,224012.140625,244677.9375,0.01806640625,0.99609375,0.161865234375,0.6408690810203552,-1.0986326932907104,-1.2207030057907104,80.0,66614.0,1.0
14398.7946228,291561.4375,297106.46875,352039.90625,348162.78125,287845.875,256469.03125,224024.484375,244645.578125,0.02001953125,0.994873046875,0.157470703125,0.5798339247703552,-1.0986326932907104,-1.1901854276657104,80.0,66615.0,1.0
14398.8195958,291536.84375,297131.40625,352007.1875,348127.4375,287833.34375,256454.71875,224007.5,244642.8125,0.018310546875,0.99609375,0.1572265625,0.6103515028953552,-1.0375975370407104,-1.0986326932907104,80.0,66616.0,1.0
14398.8445996,291520.125,296873.46875,351854.375,348134.25,287756.71875,256430.3125,223982.28125,244644.234375,0.01708984375,0.996337890625,0.163330078125,0.5493163466453552,-0.9460448622703552,-1.0681151151657104,80.0,66617.0,1.0
14398.8889398,291536.0625,296684.46875,351789.125,348175.1875,287721.40625,256426.46875,223988.359375,244665.96875,0.016845703125,0.993408203125,0.161865234375,0.5493163466453552,-0.9765624403953552,-1.1291502714157104,80.0,66618.0,1.0
14398.8889448,291572.875,296855.40625,351939.0625,348203.8125,287793.84375,256459.09375,224024.578125,244686.171875,0.013427734375,0.994140625,0.1572265625,0.4882812201976776,-0.8239745497703552,-1.1291502714157104,80.0,66619.0,1.0
14398.8889466,291569.40625,297120.3125,352067.8125,348171.25,287859.1875,256489.5,224047.109375,244677.765625,0.012939453125,0.996826171875,0.1552734375,0.5798339247703552,-0.8544921278953552,-1.1901854276657104,80.0,66620.0,1.0
14398.9380902,291532.84375,297129.25,352015.40625,348124.0625,287832.1875,256461.875,224013.390625,244647.984375,0.010498046875,0.99609375,0.157958984375,0.5798339247703552,-0.8239745497703552,-1.2512205839157104,80.0,66621.0,1.0
14398.9380951,291505.90625,296865.59375,351852.6875,348122.4375,287743.6875,256403.671875,223964.40625,244642.625,0.01171875,0.998291015625,0.156005859375,0.6408690810203552,-0.8544921278953552,-1.2512205839157104,80.0,66622.0,1.0
14398.938098,291505.90625,296865.59375,351852.6875,348122.4375,287743.6875,256403.671875,223964.40625,244642.625,0.01171875,0.998291015625,0.156005859375,0.6408690810203552,-0.8544921278953552,-1.2512205839157104,80.0,66623.0,0.0
14398.9380982,291505.90625,296865.59375,351852.6875,348122.4375,287743.6875,256403.671875,223964.40625,244642.625,0.01171875,0.998291015625,0.156005859375,0.6408690810203552,-0.8544921278953552,-1.2512205839157104,80.0,66624.0,0.0
14398.9380984,291505.90625,296865.59375,351852.6875,348122.4375,287743.6875,256403.671875,223964.40625,244642.625,0.01171875,0.998291015625,0.156005859375,0.6408690810203552,-0.8544921278953552,-1.2512205839157104,80.0,66625.0,0.0
14398.9380987,291505.90625,296865.59375,351852.6875,348122.4375,287743.6875,256403.671875,223964.40625,244642.625,0.01171875,0.998291015625,0.156005859375,0.6408690810203552,-0.8544921278953552,-1.2512205839157104,80.0,66626.0,0.0
14398.9380988,291505.90625,296865.59375,351852.6875,348122.4375,287743.6875,256403.671875,223964.40625,244642.625,0.01171875,0.998291015625,0.156005859375,0.6408690810203552,-0.8544921278953552,-1.2512205839157104,80.0,66627.0,0.0
14398.938099,291505.90625,296865.59375,351852.6875,348122.4375,287743.6875,256403.671875,223964.40625,244642.625,0.01171875,0.998291015625,0.156005859375,0.6408690810203552,-0.8544921278953552,-1.2512205839157104,80.0,66628.0,0.0
14398.9380992,291505.90625,296865.59375,351852.6875,348122.4375,287743.6875,256403.671875,223964.40625,244642.625,0.01171875,0.998291015625,0.156005859375,0.6408690810203552,-0.8544921278953552,-1.2512205839157104,80.0,66629.0,0.0
14398.9380993,291505.90625,296865.59375,351852.6875,348122.4375,287743.6875,256403.671875,223964.40625,244642.625,0.01171875,0.998291015625,0.156005859375,0.6408690810203552,-0.8544921278953552,-1.2512205839157104,80.0,66630.0,0.0
14398.9380995,291505.90625,296865.59375,351852.6875,348122.4375,287743.6875,256403.671875,223964.40625,244642.625,0.01171875,0.998291015625,0.156005859375,0.6408690810203552,-0.8544921278953552,-1.2512205839157104,80.0,66631.0,0.0
14398.9380997,291505.90625,296865.59375,351852.6875,348122.4375,287743.6875,256403.671875,223964.40625,244642.625,0.01171875,0.998291015625,0.156005859375,0.6408690810203552,-0.8544921278953552,-1.2512205839157104,80.0,66632.0,0.0
14398.9380999,291505.90625,296865.59375,351852.6875,348122.4375,287743.6875,256403.671875,223964.40625,244642.625,0.01171875,0.998291015625,0.156005859375,0.6408690810203552,-0.8544921278953552,-1.2512205839157104,80.0,66633.0,0.0
14398.9381,291505.90625,296865.59375,351852.6875,348122.4375,287743.6875,256403.671875,223964.40625,244642.625,0.01171875,0.998291015625,0.156005859375,0.6408690810203552,-0.8544921278953552,-1.2512205839157104,80.0,66634.0,0.0
14398.9381003,291505.90625,296865.59375,351852.6875,348122.4375,287743.6875,256403.671875,223964.40625,244642.625,0.01171875,0.998291015625,0.156005859375,0.6408690810203552,-0.8544921278953552,-1.2512205839157104,80.0,66635.0,0.0
14398.9381005,291505.90625,296865.59375,351852.6875,348122.4375,287743.6875,256403.671875,223964.40625,244642.625,0.01171875,0.998291015625,0.156005859375,0.6408690810203552,-0.8544921278953552,-1.2512205839157104,80.0,66636.0,0.0
14398.9381006,291505.90625,296865.59375,351852.6875,348122.4375,287743.6875,256403.671875,223964.40625,244642.625,0.01171875,0.998291015625,0.156005859375,0.6408690810203552,-0.8544921278953552,-1.2512205839157104,80.0,66637.0,0.0
14398.9381008,291505.90625,296865.59375,351852.6875,348122.4375,287743.6875,256403.671875,223964.40625,244642.625,0.01171875,0.998291015625,0.156005859375,0.6408690810203552,-0.8544921278953552,-1.2512205839157104,80.0,66638.0,0.0
14398.938101,291505.90625,296865.59375,351852.6875,348122.4375,287743.6875,256403.671875,223964.40625,244642.625,0.01171875,0.998291015625,0.156005859375,0.6408690810203552,-0.8544921278953552,-1.2512205839157104,80.0,66639.0,0.0
14398.9381011,291505.90625,296865.59375,351852.6875,348122.4375,287743.6875,256403.671875,223964.40625,244642.625,0.01171875,0.998291015625,0.156005859375,0.6408690810203552,-0.8544921278953552,-1.2512205839157104,80.0,66640.0,0.0
14398.9381013,291505.90625,296865.59375,351852.6875,348122.4375,287743.6875,256403.671875,223964.40625,244642.625,0.01171875,0.998291015625,0.156005859375,0.6408690810203552,-0.8544921278953552,-1.2512205839157104,80.0,66641.0,0.0
14398.9381015,291505.90625,296865.59375,351852.6875,348122.4375,287743.6875,256403.671875,223964.40625,244642.625,0.01171875,0.998291015625,0.156005859375,0.6408690810203552,-0.8544921278953552,-1.2512205839157104,80.0,66642.0,0.0
14398.9381017,291505.90625,296865.59375,351852.6875,348122.4375,287743.6875,256403.671875,223964.40625,244642.625,0.01171875,0.998291015625,0.156005859375,0.6408690810203552,-0.8544921278953552,-1.2512205839157104,80.0,66643.0,0.0
14398.9381018,291505.90625,296865.59375,351852.6875,348122.4375,287743.6875,256403.671875,223964.40625,244642.625,0.01171875,0.998291015625,0.156005859375,0.6408690810203552,-0.8544921278953552,-1.2512205839157104,80.0,66644.0,0.0
14398.938102,291505.90625,296865.59375,351852.6875,348122.4375,287743.6875,256403.671875,223964.40625,244642.625,0.01171875,0.998291015625,0.156005859375,0.6408690810203552,-0.8544921278953552,-1.2512205839157104,80.0,66645.0,0.0
14398.9381022,291505.90625,296865.59375,351852.6875,348122.4375,287743.6875,256403.671875,223964.40625,244642.625,0.01171875,0.998291015625,0.156005859375,0.6408690810203552,-0.8544921278953552,-1.2512205839157104,80.0,66646.0,0.0
14398.9381024,291505.90625,296865.59375,351852.6875,348122.4375,287743.6875,256403.671875,223964.40625,244642.625,0.01171875,0.998291015625,0.156005859375,0.6408690810203552,-0.8544921278953552,-1.2512205839157104,80.0,66647.0,0.0
14398.9381025,291505.90625,296865.59375,351852.6875,348122.4375,287743.6875,256403.671875,223964.40625,244642.625,0.01171875,0.998291015625,0.156005859375,0.6408690810203552,-0.8544921278953552,-1.2512205839157104,80.0,66648.0,0.0
14398.9381027,291505.90625,296865.59375,351852.6875,348122.4375,287743.6875,256403.671875,223964.40625,244642.625,0.01171875,0.998291015625,0.156005859375,0.6408690810203552,-0.8544921278953552,-1.2512205839157104,80.0,66649.0,0.0
14398.9381029,291505.90625,296865.59375,351852.6875,348122.4375,287743.6875,256403.671875,223964.40625,244642.625,0.01171875,0.998291015625,0.156005859375,0.6408690810203552,-0.8544921278953552,-1.2512205839157104,80.0,66650.0,0.0
14398.9381031,291505.90625,296865.59375,351852.6875,348122.4375,287743.6875,256403.671875,223964.40625,244642.625,0.01171875,0.998291015625,0.156005859375,0.6408690810203552,-0.8544921278953552,-1.2512205839157104,80.0,66651.0,0.0
14398.9381032,291505.90625,296865.59375,351852.6875,348122.4375,287743.6875,256403.671875,223964.40625,244642.625,0.01171875,0.998291015625,0.156005859375,0.6408690810203552,-0.8544921278953552,-1.2512205839157104,80.0,66652.0,0.0
14398.9381034,291505.90625,296865.59375,351852.6875,348122.4375,287743.6875,256403.671875,223964.40625,244642.625,0.01171875,0.998291015625,0.156005859375,0.6408690810203552,-0.8544921278953552,-1.2512205839157104,80.0,66653.0,0.0
14398.9381036,291505.90625,296865.59375,351852.6875,348122.4375,287743.6875,256403.671875,223964.40625,244642.625,0.01171875,0.998291015625,0.156005859375,0.6408690810203552,-0.8544921278953552,-1.2512205839157104,80.0,66654.0,0.0
14398.9381037,291505.90625,296865.59375,351852.6875,348122.4375,287743.6875,256403.671875,223964.40625,244642.625,0.01171875,0.998291015625,0.156005859375,0.6408690810203552,-0.8544921278953552,-1.2512205839157104,80.0,66655.0,0.0
14398.9381039,291505.90625,296865.59375,351852.6875,348122.4375,287743.6875,256403.671875,223964.40625,244642.625,0.01171875,0.998291015625,0.156005859375,0.6408690810203552,-0.8544921278953552,-1.2512205839157104,80.0,66656.0,0.0
14398.9381041,291505.90625,296865.59375,351852.6875,348122.4375,287743.6875,256403.671875,223964.40625,244642.625,0.01171875,0.998291015625,0.156005859375,0.6408690810203552,-0.8544921278953552,-1.2512205839157104,80.0,66657.0,0.0
14398.9381042,291518.4375,296662.28125,351753.0,348147.75,287704.875,256403.21875,223968.328125,244668.828125,0.00732421875,0.9970703125,0.1533203125,1.2512205839157104,-1.5258787870407104,-1.0070799589157104,80.0,66658.0,1.0
14398.9381055,291551.875,296820.53125,351890.59375,348175.46875,287774.6875,256448.546875,224016.34375,244692.875,0.00732421875,0.9951171875,0.154296875,1.2817381620407104,-1.5869139432907104,-1.0375975370407104,80.0,66659.0,1.0
14398.9381067,291550.09375,297103.78125,352030.0625,348144.34375,287847.21875,256488.875,224043.4375,244680.359375,0.0078125,0.99658203125,0.1572265625,1.2207030057907104,-1.6784666776657104,-0.9460448622703552,80.0,66660.0,1.0
14398.9381079,291524.53125,297135.0,352000.03125,348107.875,287839.0625,256477.96875,224027.796875,244668.109375,0.007080078125,0.998779296875,0.1552734375,1.1901854276657104,-1.6784666776657104,-0.8850097060203552,80.0,66661.0,1.0
14398.9381091,291514.0625,296882.21875,351849.1875,348117.15625,287764.59375,256445.875,223990.234375,244659.609375,0.00537109375,0.99853515625,0.156494140625,1.1291502714157104,-1.7700194120407104,-0.9155272841453552,80.0,66662.0,1.0
14398.9381102,291520.6875,296673.65625,351767.375,348150.6875,287712.46875,256403.125,223966.8125,244666.046875,0.006103515625,0.996826171875,0.152099609375,1.0375975370407104,-1.8615721464157104,-0.8850097060203552,80.0,66663.0,1.0
14398.9646069,291553.21875,296838.15625,351906.25,348176.625,287783.71875,256443.453125,224009.015625,244683.3125,0.007080078125,0.99609375,0.15185546875,0.9155272841453552,-1.8920897245407104,-0.9155272841453552,80.0,66664.0,1.0
14398.9670706,291560.28125,297117.625,352049.8125,348152.03125,287863.9375,256485.65625,224042.1875,244682.953125,0.009521484375,0.99462890625,0.1513671875,0.9460448622703552,-2.044677495956421,-0.8544921278953552,80.0,66665.0,1.0
14398.9730763,291527.375,297143.75,352015.5,348110.90625,287850.0625,256476.71875,224026.8125,244664.0,0.010009765625,0.99560546875,0.153564453125,1.0070799589157104,-1.9836424589157104,-0.8239745497703552,80.0,66666.0,1.0
14398.9730829,291498.40625,296870.4375,351840.0,348106.625,287755.75,256427.625,223981.296875,244655.40625,0.00927734375,0.995361328125,0.1513671875,1.0681151151657104,-1.9836424589157104,-0.7629393935203552,80.0,66667.0,1.0
14398.9730849,291515.40625,296672.125,351764.15625,348148.8125,287715.5,256419.3125,223981.296875,244678.390625,0.0126953125,0.994140625,0.151611328125,1.0375975370407104,-1.9531248807907104,-0.7934569716453552,80.0,66668.0,1.0
14398.9730867,291546.5,296822.15625,351881.5625,348173.6875,287776.5625,256462.40625,224026.53125,244700.734375,0.01416015625,0.9951171875,0.150390625,0.9765624403953552,-1.9226073026657104,-0.7934569716453552,80.0,66669.0,1.0
14398.9730886,291551.6875,297094.5625,352001.71875,348143.28125,287846.84375,256504.96875,224054.515625,244685.71875,0.013671875,0.996826171875,0.14990234375,0.8850097060203552,-2.014159917831421,-0.8544921278953552,80.0,66670.0,1.0
14398.9730905,291525.21875,297124.53125,351968.09375,348108.21875,287834.6875,256482.078125,224032.625,244678.125,0.01171875,0.99560546875,0.1533203125,0.8239745497703552,-1.8920897245407104,-0.8850097060203552,80.0,66671.0,1.0
14398.9730922,291499.3125,296861.03125,351815.5,348107.6875,287750.28125,256427.625,223981.828125,244673.109375,0.0146484375,0.9970703125,0.152587890625,0.8544921278953552,-1.7700194120407104,-0.9155272841453552,80.0,66672.0,1.0
14398.973094,291511.28125,296672.21875,351755.0625,348140.78125,287710.25,256403.21875,223966.09375,244670.515625,0.015625,0.99658203125,0.151611328125,0.6103515028953552,-1.7089842557907104,-0.8239745497703552,80.0,66673.0,1.0
14398.9751559,291550.34375,296845.5,351906.96875,348169.5625,287786.3125,256445.328125,224009.28125,244685.359375,0.014892578125,0.997314453125,0.1494140625,0.6103515028953552,-1.6479490995407104,-0.9155272841453552,80.0,66674.0,1.0
14398.9751622,291561.0,297119.53125,352043.46875,348146.84375,287861.4375,256492.71875,224044.78125,244690.8125,0.01416015625,0.997314453125,0.150390625,0.5798339247703552,-1.6174315214157104,-0.9460448622703552,80.0,66675.0,1.0
14398.9776548,291528.8125,297130.34375,351987.78125,348099.03125,287832.1875,256470.90625,224014.203125,244663.90625,0.015869140625,0.99609375,0.15185546875,0.5187987685203552,-1.5563963651657104,-0.9155272841453552,80.0,66676.0,1.0
14398.977661,291513.0625,296874.90625,351832.65625,348105.625,287752.53125,256443.71875,223985.671875,244659.34375,0.01416015625,0.99462890625,0.15087890625,0.4577636420726776,-1.4343260526657104,-1.0070799589157104,80.0,66677.0,1.0
14398.9776649,291513.0625,296874.90625,351832.65625,348105.625,287752.53125,256443.71875,223985.671875,244659.34375,0.01416015625,0.99462890625,0.15087890625,0.4577636420726776,-1.4343260526657104,-1.0070799589157104,80.0,66678.0,0.0
14398.9776653,291513.0625,296874.90625,351832.65625,348105.625,287752.53125,256443.71875,223985.671875,244659.34375,0.01416015625,0.99462890625,0.15087890625,0.4577636420726776,-1.4343260526657104,-1.0070799589157104,80.0,66679.0,0.0
14398.9776656,291513.0625,296874.90625,351832.65625,348105.625,287752.53125,256443.71875,223985.671875,244659.34375,0.01416015625,0.99462890625,0.15087890625,0.4577636420726776,-1.4343260526657104,-1.0070799589157104,80.0,66680.0,0.0
14398.9776659,291513.0625,296874.90625,351832.65625,348105.625,287752.53125,256443.71875,223985.671875,244659.34375,0.01416015625,0.99462890625,0.15087890625,0.4577636420726776,-1.4343260526657104,-1.0070799589157104,80.0,66681.0,0.0
14398.9776663,291513.0625,296874.90625,351832.65625,348105.625,287752.53125,256443.71875,223985.671875,244659.34375,0.01416015625,0.99462890625,0.15087890625,0.4577636420726776,-1.4343260526657104,-1.0070799589157104,80.0,66682.0,0.0
14398.9776667,291513.0625,296874.90625,351832.65625,348105.625,287752.53125,256443.71875,223985.671875,244659.34375,0.01416015625,0.99462890625,0.15087890625,0.4577636420726776,-1.4343260526657104,-1.0070799589157104,80.0,66683.0,0.0
14398.9776671,291513.0625,296874.90625,351832.65625,348105.625,287752.53125,256443.71875,223985.671875,244659.34375,0.01416015625,0.99462890625,0.15087890625,0.4577636420726776,-1.4343260526657104,-1.0070799589157104,80.0,66684.0,0.0
14398.9776675,291513.0625,296874.90625,351832.65625,348105.625,287752.53125,256443.71875,223985.671875,244659.34375,0.01416015625,0.99462890625,0.15087890625,0.4577636420726776,-1.4343260526657104,-1.0070799589157104,80.0,66685.0,0.0
14398.9776678,291513.0625,296874.90625,351832.65625,348105.625,287752.53125,256443.71875,223985.671875,244659.34375,0.01416015625,0.99462890625,0.15087890625,0.4577636420726776,-1.4343260526657104,-1.0070799589157104,80.0,66686.0,0.0
14398.9776681,291513.0625,296874.90625,351832.65625,348105.625,287752.53125,256443.71875,223985.671875,244659.34375,0.01416015625,0.99462890625,0.15087890625,0.4577636420726776,-1.4343260526657104,-1.0070799589157104,80.0,66687.0,0.0
14398.9776684,291513.0625,296874.90625,351832.65625,348105.625,287752.53125,256443.71875,223985.671875,244659.34375,0.01416015625,0.99462890625,0.15087890625,0.4577636420726776,-1.4343260526657104,-1.0070799589157104,80.0,66688.0,0.0
14398.9776687,291513.0625,296874.90625,351832.65625,348105.625,287752.53125,256443.71875,223985.671875,244659.34375,0.01416015625,0.99462890625,0.15087890625,0.4577636420726776,-1.4343260526657104,-1.0070799589157104,80.0,66689.0,0.0
14398.9776691,291513.0625,296874.90625,351832.65625,348105.625,287752.53125,256443.71875,223985.671875,244659.34375,0.01416015625,0.99462890625,0.15087890625,0.4577636420726776,-1.4343260526657104,-1.0070799589157104,80.0,66690.0,0.0
14398.9776694,291513.0625,296874.90625,351832.65625,348105.625,287752.53125,256443.71875,223985.671875,244659.34375,0.01416015625,0.99462890625,0.15087890625,0.4577636420726776,-1.4343260526657104,-1.0070799589157104,80.0,66691.0,0.0
14398.9776698,291513.0625,296874.90625,351832.65625,348105.625,287752.53125,256443.71875,223985.671875,244659.34375,0.01416015625,0.99462890625,0.15087890625,0.4577636420726776,-1.4343260526657104,-1.0070799589157104,80.0,66692.0,0.0
14398.9776701,291513.0625,296874.90625,351832.65625,348105.625,287752.53125,256443.71875,223985.671875,244659.34375,0.01416015625,0.99462890625,0.15087890625,0.4577636420726776,-1.4343260526657104,-1.0070799589157104,80.0,66693.0,0.0
14398.9776704,291513.0625,296874.90625,351832.65625,348105.625,287752.53125,256443.71875,223985.671875,244659.34375,0.01416015625,0.99462890625,0.15087890625,0.4577636420726776,-1.4343260526657104,-1.0070799589157104,80.0,66694.0,0.0
14398.9776707,291513.0625,296874.90625,351832.65625,348105.625,287752.53125,256443.71875,223985.671875,244659.34375,0.01416015625,0.99462890625,0.15087890625,0.4577636420726776,-1.4343260526657104,-1.0070799589157104,80.0,66695.0,0.0
14398.977671,291513.0625,296874.90625,351832.65625,348105.625,287752.53125,256443.71875,223985.671875,244659.34375,0.01416015625,0.99462890625,0.15087890625,0.4577636420726776,-1.4343260526657104,-1.0070799589157104,80.0,66696.0,0.0
14398.9776714,291513.0625,296874.90625,351832.65625,348105.625,287752.53125,256443.71875,223985.671875,244659.34375,0.01416015625,0.99462890625,0.15087890625,0.4577636420726776,-1.4343260526657104,-1.0070799589157104,80.0,66697.0,0.0
14398.9776717,291614.375,296695.0,351768.46875,348171.4375,287723.125,256416.359375,223986.75,244697.875,0.00634765625,0.994140625,0.152587890625,0.3662109076976776,-2.014159917831421,-0.8544921278953552,80.0,66698.0,1.0
14398.9795727,291652.1875,296861.21875,351908.21875,348194.59375,287785.0625,256443.453125,224012.140625,244696.09375,0.00634765625,0.995361328125,0.150634765625,0.3356933295726776,-2.075195074081421,-0.8850097060203552,80.0,66699.0,1.0
14399.0052095,291662.65625,297144.46875,352056.0,348171.1875,287863.75,256487.078125,224041.015625,244692.0625,0.0078125,0.99560546875,0.15087890625,0.2746581733226776,-2.136230230331421,-0.9155272841453552,80.0,66700.0,1.0
14399.005229,291644.15625,297172.625,352019.0625,348138.1875,287858.375,256496.734375,224035.484375,244676.953125,0.010009765625,0.996337890625,0.151123046875,0.3967284858226776,-2.044677495956421,-0.8239745497703552,80.0,66701.0,1.0
14399.0301267,291629.5625,296911.65625,351857.96875,348146.6875,287780.78125,256458.390625,224003.375,244684.015625,0.012451171875,0.994873046875,0.15283203125,0.3356933295726776,-2.014159917831421,-0.7019042372703552,80.0,66702.0,1.0
14399.0301459,291639.21875,296705.65625,351780.09375,348182.4375,287732.0625,256418.234375,223979.78125,244695.46875,0.0107421875,0.9970703125,0.1533203125,0.2746581733226776,-1.9836424589157104,-0.6103515028953552,80.0,66703.0,1.0
14399.0514185,291671.875,296858.375,351911.6875,348202.03125,287792.5,256449.4375,224016.171875,244703.15625,0.010986328125,0.9970703125,0.154541015625,0.2746581733226776,-2.044677495956421,-0.6103515028953552,80.0,66704.0,1.0
14399.0514338,291686.0625,297149.125,352066.28125,348180.5625,287876.90625,256500.3125,224055.953125,244694.921875,0.01220703125,0.9970703125,0.1513671875,0.3662109076976776,-2.014159917831421,-0.7019042372703552,80.0,66705.0,1.0
14399.0532963,291658.625,297180.6875,352030.875,348141.9375,287863.46875,256491.203125,224043.53125,244689.03125,0.01171875,0.997314453125,0.1533203125,0.3356933295726776,-1.8615721464157104,-0.6713866591453552,80.0,66706.0,1.0
14399.0580973,291642.8125,296916.46875,351862.6875,348149.1875,287779.0,256450.34375,224005.625,244692.0625,0.0126953125,0.9990234375,0.154052734375,0.3662109076976776,-1.7700194120407104,-0.7324218153953552,80.0,66707.0,1.0
14399.0581223,291653.53125,296704.75,351770.53125,348181.90625,287726.59375,256426.28125,223987.640625,244691.359375,0.012939453125,0.9990234375,0.15380859375,0.3356933295726776,-1.7700194120407104,-0.6408690810203552,80.0,66708.0,1.0
14399.0581236,291683.9375,296870.34375,351907.75,348205.875,287798.46875,256465.53125,224026.984375,244709.5,0.013671875,0.99853515625,0.154541015625,0.2441406100988388,-1.6479490995407104,-0.7324218153953552,80.0,66709.0,1.0
14399.0581249,291687.875,297160.03125,352059.5625,348180.65625,287883.25,256514.0,224064.09375,244710.125,0.014404296875,0.997314453125,0.155029296875,0.1831054538488388,-1.5869139432907104,-0.5493163466453552,80.0,66710.0,1.0
14399.0581261,291658.4375,297185.9375,352024.15625,348141.9375,287867.78125,256501.75,224042.359375,244694.484375,0.012939453125,0.99755859375,0.15478515625,0.2136230319738388,-1.5258787870407104,-0.6103515028953552,80.0,66711.0,1.0
14399.0581275,291640.125,296926.84375,351866.8125,348149.53125,287788.125,256453.640625,224003.375,244690.640625,0.012939453125,0.99853515625,0.15380859375,0.1220703050494194,-1.4038084745407104,-0.6408690810203552,80.0,66712.0,1.0
14399.0581288,291644.15625,296705.65625,351765.96875,348180.1875,287730.90625,256434.6875,223989.96875,244693.953125,0.01416015625,0.999267578125,0.157470703125,0.2136230319738388,-1.2512205839157104,-0.6408690810203552,80.0,66713.0,1.0
14399.0595557,291688.125,296882.78125,351918.84375,348217.3125,287814.5625,256493.078125,224045.765625,244719.34375,0.01220703125,0.998291015625,0.15673828125,0.03051757626235485,-1.2512205839157104,-0.6408690810203552,80.0,66714.0,1.0
14399.062118,291681.15625,297155.625,352067.4375,348180.28125,287885.21875,256507.5625,224053.265625,244697.171875,0.01220703125,0.997802734375,0.15283203125,-0.03051757626235485,-1.1901854276657104,-0.6103515028953552,80.0,66715.0,1.0
14399.0645904,291643.6875,297166.1875,352011.03125,348134.15625,287860.0,256481.8125,224033.25,244684.640625,0.011962890625,0.996826171875,0.152587890625,-0.0915527269244194,-1.0986326932907104,-0.7019042372703552,80.0,66716.0,1.0
14399.0677035,291617.21875,296895.65625,351834.90625,348134.96875,287774.96875,256447.921875,224008.828125,244694.75,0.012451171875,0.997314453125,0.151123046875,0.03051757626235485,-1.0375975370407104,-0.7629393935203552,80.0,66717.0,1.0
14399.0677162,291633.15625,296706.46875,351769.34375,348176.0,287738.59375,256434.78125,224002.671875,244707.71875,0.01318359375,0.998046875,0.15380859375,-0.03051757626235485,-1.0375975370407104,-0.7324218153953552,80.0,66718.0,1.0
14399.067724,291664.34375,296863.46875,351901.21875,348200.5,287803.03125,256468.84375,224039.6875,244722.640625,0.01220703125,0.998779296875,0.153564453125,-0.0610351525247097,-1.0986326932907104,-0.7934569716453552,80.0,66719.0,1.0
14399.0731135,291664.34375,296863.46875,351901.21875,348200.5,287803.03125,256468.84375,224039.6875,244722.640625,0.01220703125,0.998779296875,0.153564453125,-0.0610351525247097,-1.0986326932907104,-0.7934569716453552,80.0,66720.0,0.0
14399.0731144,291664.34375,296863.46875,351901.21875,348200.5,287803.03125,256468.84375,224039.6875,244722.640625,0.01220703125,0.998779296875,0.153564453125,-0.0610351525247097,-1.0986326932907104,-0.7934569716453552,80.0,66721.0,0.0
14399.0731147,291664.34375,296863.46875,351901.21875,348200.5,287803.03125,256468.84375,224039.6875,244722.640625,0.01220703125,0.998779296875,0.153564453125,-0.0610351525247097,-1.0986326932907104,-0.7934569716453552,80.0,66722.0,0.0
14399.0731149,291664.34375,296863.46875,351901.21875,348200.5,287803.03125,256468.84375,224039.6875,244722.640625,0.01220703125,0.998779296875,0.153564453125,-0.0610351525247097,-1.0986326932907104,-0.7934569716453552,80.0,66723.0,0.0
14399.0731152,291664.34375,296863.46875,351901.21875,348200.5,287803.03125,256468.84375,224039.6875,244722.640625,0.01220703125,0.998779296875,0.153564453125,-0.0610351525247097,-1.0986326932907104,-0.7934569716453552,80.0,66724.0,0.0
14399.0731155,291664.34375,296863.46875,351901.21875,348200.5,287803.03125,256468.84375,224039.6875,244722.640625,0.01220703125,0.998779296875,0.153564453125,-0.0610351525247097,-1.0986326932907104,-0.7934569716453552,80.0,66725.0,0.0
14399.0731157,291664.34375,296863.46875,351901.21875,348200.5,287803.03125,256468.84375,224039.6875,244722.640625,0.01220703125,0.998779296875,0.153564453125,-0.0610351525247097,-1.0986326932907104,-0.7934569716453552,80.0,66726.0,0.0
14399.0731217,291664.34375,296863.46875,351901.21875,348200.5,287803.03125,256468.84375,224039.6875,244722.640625,0.01220703125,0.998779296875,0.153564453125,-0.0610351525247097,-1.0986326932907104,-0.7934569716453552,80.0,66727.0,0.0
14399.073122,291664.34375,296863.46875,351901.21875,348200.5,287803.03125,256468.84375,224039.6875,244722.640625,0.01220703125,0.998779296875,0.153564453125,-0.0610351525247097,-1.0986326932907104,-0.7934569716453552,80.0,66728.0,0.0
14399.0731222,291664.34375,296863.46875,351901.21875,348200.5,287803.03125,256468.84375,224039.6875,244722.640625,0.01220703125,0.998779296875,0.153564453125,-0.0610351525247097,-1.0986326932907104,-0.7934569716453552,80.0,66729.0,0.0
14399.0731225,291664.34375,296863.46875,351901.21875,348200.5,287803.03125,256468.84375,224039.6875,244722.640625,0.01220703125,0.998779296875,0.153564453125,-0.0610351525247097,-1.0986326932907104,-0.7934569716453552,80.0,66730.0,0.0
14399.0731229,291664.34375,296863.46875,351901.21875,348200.5,287803.03125,256468.84375,224039.6875,244722.640625,0.01220703125,0.998779296875,0.153564453125,-0.0610351525247097,-1.0986326932907104,-0.7934569716453552,80.0,66731.0,0.0
14399.0731233,291664.34375,296863.46875,351901.21875,348200.5,287803.03125,256468.84375,224039.6875,244722.640625,0.01220703125,0.998779296875,0.153564453125,-0.0610351525247097,-1.0986326932907104,-0.7934569716453552,80.0,66732.0,0.0
14399.0731236,291664.34375,296863.46875,351901.21875,348200.5,287803.03125,256468.84375,224039.6875,244722.640625,0.01220703125,0.998779296875,0.153564453125,-0.0610351525247097,-1.0986326932907104,-0.7934569716453552,80.0,66733.0,0.0
14399.073124,291664.34375,296863.46875,351901.21875,348200.5,287803.03125,256468.84375,224039.6875,244722.640625,0.01220703125,0.998779296875,0.153564453125,-0.0610351525247097,-1.0986326932907104,-0.7934569716453552,80.0,66734.0,0.0
14399.0731244,291664.34375,296863.46875,351901.21875,348200.5,287803.03125,256468.84375,224039.6875,244722.640625,0.01220703125,0.998779296875,0.153564453125,-0.0610351525247097,-1.0986326932907104,-0.7934569716453552,80.0,66735.0,0.0
14399.0731247,291664.34375,296863.46875,351901.21875,348200.5,287803.03125,256468.84375,224039.6875,244722.640625,0.01220703125,0.998779296875,0.153564453125,-0.0610351525247097,-1.0986326932907104,-0.7934569716453552,80.0,66736.0,0.0
14399.073125,291664.34375,296863.46875,351901.21875,348200.5,287803.03125,256468.84375,224039.6875,244722.640625,0.01220703125,0.998779296875,0.153564453125,-0.0610351525247097,-1.0986326932907104,-0.7934569716453552,80.0,66737.0,0.0
14399.0731253,291664.34375,296863.46875,351901.21875,348200.5,287803.03125,256468.84375,224039.6875,244722.640625,0.01220703125,0.998779296875,0.153564453125,-0.0610351525247097,-1.0986326932907104,-0.7934569716453552,80.0,66738.0,0.0
14399.0731256,291664.34375,296863.46875,351901.21875,348200.5,287803.03125,256468.84375,224039.6875,244722.640625,0.01220703125,0.998779296875,0.153564453125,-0.0610351525247097,-1.0986326932907104,-0.7934569716453552,80.0,66739.0,0.0
14399.0731259,291664.34375,296863.46875,351901.21875,348200.5,287803.03125,256468.84375,224039.6875,244722.640625,0.01220703125,0.998779296875,0.153564453125,-0.0610351525247097,-1.0986326932907104,-0.7934569716453552,80.0,66740.0,0.0
14399.0731262,291664.34375,296863.46875,351901.21875,348200.5,287803.03125,256468.84375,224039.6875,244722.640625,0.01220703125,0.998779296875,0.153564453125,-0.0610351525247097,-1.0986326932907104,-0.7934569716453552,80.0,66741.0,0.0
14399.0731265,291664.34375,296863.46875,351901.21875,348200.5,287803.03125,256468.84375,224039.6875,244722.640625,0.01220703125,0.998779296875,0.153564453125,-0.0610351525247097,-1.0986326932907104,-0.7934569716453552,80.0,66742.0,0.0
14399.0731269,291539.625,296653.15625,351707.65625,348113.25,287698.15625,256388.296875,223956.359375,244669.890625,0.015625,0.994384765625,0.1572265625,0.03051757626235485,-1.1291502714157104,-0.7629393935203552,80.0,66743.0,1.0
14399.0731323,291563.6875,296808.46875,351833.71875,348128.96875,287756.90625,256424.328125,223984.0625,244668.46875,0.015625,0.993896484375,0.15869140625,0.1220703050494194,-1.0986326932907104,-0.7629393935203552,80.0,66744.0,1.0
14399.0731341,291566.09375,297089.5625,351973.65625,348102.875,287834.6875,256468.3125,224021.53125,244669.265625,0.015869140625,0.994384765625,0.15380859375,0.1831054538488388,-1.0375975370407104,-0.7324218153953552,80.0,66745.0,1.0
14399.073136,291543.84375,297129.625,351951.75,348071.03125,287838.09375,256476.265625,224016.25,244665.421875,0.013671875,0.99609375,0.154541015625,0.2441406100988388,-1.0375975370407104,-0.6713866591453552,80.0,66746.0,1.0
14399.0731376,291520.21875,296870.34375,351798.5,348074.0625,287762.28125,256434.78125,223977.546875,244666.765625,0.013427734375,0.995849609375,0.15380859375,0.1831054538488388,-1.0681151151657104,-0.6713866591453552,80.0,66747.0,1.0
14399.0731392,291533.0,296667.9375,351720.71875,348116.0,287716.125,256405.09375,223965.109375,244684.015625,0.011474609375,0.995361328125,0.15576171875,0.2441406100988388,-1.0681151151657104,-0.7019042372703552,80.0,66748.0,1.0
14399.0731409,291561.8125,296823.75,351849.90625,348137.90625,287778.8125,256435.859375,224002.21875,244697.515625,0.01171875,0.995361328125,0.153564453125,0.3356933295726776,-1.0681151151657104,-0.6713866591453552,80.0,66749.0,1.0
14399.0731426,291558.125,297094.40625,351984.375,348108.9375,287852.46875,256477.078125,224035.84375,244700.46875,0.01123046875,0.995849609375,0.15380859375,0.3967284858226776,-1.1596678495407104,-0.7934569716453552,80.0,66750.0,1.0
14399.0989475,291527.75,297116.9375,351941.375,348067.71875,287835.84375,256472.78125,224026.53125,244684.375,0.010498046875,0.99853515625,0.155517578125,0.3967284858226776,-1.3122557401657104,-0.8239745497703552,80.0,66751.0,1.0
14399.0989672,291510.40625,296850.75,351774.71875,348073.4375,287750.375,256433.53125,223993.28125,244686.25,0.0126953125,0.997314453125,0.158447265625,0.3967284858226776,-1.3122557401657104,-0.7934569716453552,80.0,66752.0,1.0
14399.1237917,291510.40625,296850.75,351774.71875,348073.4375,287750.375,256433.53125,223993.28125,244686.25,0.0126953125,0.997314453125,0.158447265625,0.3967284858226776,-1.3122557401657104,-0.7934569716453552,80.0,66753.0,0.0
14399.1237963,291510.40625,296850.75,351774.71875,348073.4375,287750.375,256433.53125,223993.28125,244686.25,0.0126953125,0.997314453125,0.158447265625,0.3967284858226776,-1.3122557401657104,-0.7934569716453552,80.0,66754.0,0.0
14399.1237974,291510.40625,296850.75,351774.71875,348073.4375,287750.375,256433.53125,223993.28125,244686.25,0.0126953125,0.997314453125,0.158447265625,0.3967284858226776,-1.3122557401657104,-0.7934569716453552,80.0,66755.0,0.0
14399.1237984,291510.40625,296850.75,351774.71875,348073.4375,287750.375,256433.53125,223993.28125,244686.25,0.0126953125,0.997314453125,0.158447265625,0.3967284858226776,-1.3122557401657104,-0.7934569716453552,80.0,66756.0,0.0
14399.1237996,291510.40625,296850.75,351774.71875,348073.4375,287750.375,256433.53125,223993.28125,244686.25,0.0126953125,0.997314453125,0.158447265625,0.3967284858226776,-1.3122557401657104,-0.7934569716453552,80.0,66757.0,0.0
14399.1238007,291510.40625,296850.75,351774.71875,348073.4375,287750.375,256433.53125,223993.28125,244686.25,0.0126953125,0.997314453125,0.158447265625,0.3967284858226776,-1.3122557401657104,-0.7934569716453552,80.0,66758.0,0.0
14399.1238024,291510.40625,296850.75,351774.71875,348073.4375,287750.375,256433.53125,223993.28125,244686.25,0.0126953125,0.997314453125,0.158447265625,0.3967284858226776,-1.3122557401657104,-0.7934569716453552,80.0,66759.0,0.0
14399.1238025,291510.40625,296850.75,351774.71875,348073.4375,287750.375,256433.53125,223993.28125,244686.25,0.0126953125,0.997314453125,0.158447265625,0.3967284858226776,-1.3122557401657104,-0.7934569716453552,80.0,66760.0,0.0
14399.1238027,291510.40625,296850.75,351774.71875,348073.4375,287750.375,256433.53125,223993.28125,244686.25,0.0126953125,0.997314453125,0.158447265625,0.3967284858226776,-1.3122557401657104,-0.7934569716453552,80.0,66761.0,0.0
14399.1238029,291510.40625,296850.75,351774.71875,348073.4375,287750.375,256433.53125,223993.28125,244686.25,0.0126953125,0.997314453125,0.158447265625,0.3967284858226776,-1.3122557401657104,-0.7934569716453552,80.0,66762.0,0.0
14399.1238031,291510.40625,296850.75,351774.71875,348073.4375,287750.375,256433.53125,223993.28125,244686.25,0.0126953125,0.997314453125,0.158447265625,0.3967284858226776,-1.3122557401657104,-0.7934569716453552,80.0,66763.0,0.0
14399.1238033,291510.40625,296850.75,351774.71875,348073.4375,287750.375,256433.53125,223993.28125,244686.25,0.0126953125,0.997314453125,0.158447265625,0.3967284858226776,-1.3122557401657104,-0.7934569716453552,80.0,66764.0,0.0
14399.1238034,291510.40625,296850.75,351774.71875,348073.4375,287750.375,256433.53125,223993.28125,244686.25,0.0126953125,0.997314453125,0.158447265625,0.3967284858226776,-1.3122557401657104,-0.7934569716453552,80.0,66765.0,0.0
14399.1238036,291510.40625,296850.75,351774.71875,348073.4375,287750.375,256433.53125,223993.28125,244686.25,0.0126953125,0.997314453125,0.158447265625,0.3967284858226776,-1.3122557401657104,-0.7934569716453552,80.0,66766.0,0.0
14399.1238038,291510.40625,296850.75,351774.71875,348073.4375,287750.375,256433.53125,223993.28125,244686.25,0.0126953125,0.997314453125,0.158447265625,0.3967284858226776,-1.3122557401657104,-0.7934569716453552,80.0,66767.0,0.0
14399.123804,291520.40625,296644.40625,351693.625,348099.90625,287707.8125,256409.21875,223976.828125,244687.0625,0.01513671875,0.99365234375,0.156494140625,0.0610351525247097,-1.2817381620407104,-0.6408690810203552,80.0,66768.0,1.0
14399.1238082,291548.9375,296798.46875,351824.4375,348118.875,287770.3125,256449.265625,224014.734375,244689.5625,0.0126953125,0.994873046875,0.15625,0.1220703050494194,-1.1901854276657104,-0.7019042372703552,80.0,66769.0,1.0
14399.1483574,291552.0625,297083.5625,351971.59375,348092.21875,287847.84375,256491.109375,224048.625,244682.859375,0.012939453125,0.995849609375,0.15283203125,0.2746581733226776,-1.2817381620407104,-0.8544921278953552,80.0,66770.0,1.0
14399.1733427,291517.09375,297102.71875,351914.71875,348043.59375,287816.90625,256467.6875,224017.515625,244664.265625,0.016845703125,0.996337890625,0.154541015625,0.3356933295726776,-1.3122557401657104,-1.0375975370407104,80.0,66771.0,1.0
14399.1983576,291486.78125,296832.78125,351745.3125,348041.25,287726.78125,256415.734375,223977.28125,244663.1875,0.013671875,0.998291015625,0.154052734375,0.3967284858226776,-1.4038084745407104,-1.1291502714157104,80.0,66772.0,1.0
14399.2233491,291499.75,296635.75,351678.25,348088.03125,287691.65625,256401.609375,223979.0625,244691.796875,0.01513671875,0.997802734375,0.156982421875,0.4577636420726776,-1.5563963651657104,-1.1901854276657104,80.0,66773.0,1.0
14399.2483579,291544.8125,296805.96875,351829.625,348121.46875,287769.875,256450.96875,224017.328125,244693.140625,0.0166015625,1.000732421875,0.156005859375,0.4272460639476776,-1.5258787870407104,-1.3427733182907104,80.0,66774.0,1.0
14399.2858849,291553.3125,297086.71875,351980.90625,348097.84375,287848.71875,256490.578125,224043.171875,244683.578125,0.01416015625,1.00146484375,0.15771484375,0.3356933295726776,-1.5869139432907104,-1.2817381620407104,80.0,66775.0,1.0
14399.3108791,291521.75,297108.875,351936.375,348057.625,287832.28125,256483.78125,224026.984375,244670.15625,0.01416015625,1.00146484375,0.155029296875,0.1525878757238388,-1.6479490995407104,-1.3122557401657104,80.0,66776.0,1.0
14399.3358918,291497.96875,296841.375,351769.34375,348060.125,287743.40625,256428.515625,223981.75,244672.3125,0.013671875,0.998046875,0.15478515625,0.0915527269244194,-1.7395018339157104,-1.3732908964157104,80.0,66777.0,1.0
14399.362692,291519.875,296644.3125,351696.9375,348101.0625,287700.59375,256414.75,223975.9375,244688.140625,0.014892578125,0.996337890625,0.154296875,0.1525878757238388,-1.6174315214157104,-1.4648436307907104,80.0,66778.0,1.0
14399.3626971,291551.15625,296799.625,351824.34375,348122.09375,287763.25,256453.375,224007.671875,244701.1875,0.01318359375,0.994384765625,0.1572265625,0.2136230319738388,-1.5869139432907104,-1.4038084745407104,80.0,66779.0,1.0
14399.3626984,291554.1875,297083.03125,351962.9375,348093.125,287838.34375,256488.6875,224038.34375,244692.0625,0.011962890625,0.9951171875,0.159423828125,0.3051757514476776,-1.6174315214157104,-1.4038084745407104,80.0,66780.0,1.0
14399.3626998,291518.4375,297111.84375,351924.03125,348049.75,287824.21875,256462.765625,224020.28125,244682.140625,0.01220703125,0.99560546875,0.1572265625,0.3356933295726776,-1.6784666776657104,-1.4038084745407104,80.0,66781.0,1.0
14399.3814398,291491.875,296851.75,351768.46875,348049.65625,287742.78125,256412.421875,223976.46875,244683.9375,0.014404296875,0.994873046875,0.159912109375,0.2746581733226776,-1.6784666776657104,-1.3427733182907104,80.0,66782.0,1.0
14399.3814574,291503.6875,296635.90625,351674.40625,348082.75,287684.9375,256383.375,223946.4375,244675.265625,0.015625,0.995361328125,0.16015625,0.1831054538488388,-1.6174315214157104,-1.3427733182907104,80.0,66783.0,1.0
14399.3839697,291545.875,296797.75,351796.1875,348110.09375,287747.875,256427.359375,223982.015625,244680.890625,0.0166015625,0.998046875,0.16064453125,0.1831054538488388,-1.6174315214157104,-1.2207030057907104,80.0,66784.0,1.0
14399.3839725,291552.9375,297091.625,351947.8125,348088.03125,287834.6875,256474.5625,224010.890625,244677.859375,0.0166015625,0.99951171875,0.15771484375,0.1220703050494194,-1.5869139432907104,-1.0986326932907104,80.0,66785.0,1.0
14399.3864107,291523.71875,297123.4375,351918.65625,348052.34375,287827.90625,256465.265625,223999.890625,244666.59375,0.011962890625,0.99658203125,0.15625,0.03051757626235485,-1.5258787870407104,-0.9765624403953552,80.0,66786.0,1.0
14399.3864142,291499.3125,296854.4375,351752.625,348055.46875,287746.28125,256420.46875,223967.265625,244677.671875,0.012451171875,0.9970703125,0.15478515625,0.03051757626235485,-1.4343260526657104,-0.9155272841453552,80.0,66787.0,1.0
14399.3918454,291510.3125,296653.15625,351676.90625,348091.875,287702.625,256403.484375,223959.484375,244682.59375,0.011474609375,0.995849609375,0.156494140625,0.0610351525247097,-1.5869139432907104,-0.8544921278953552,80.0,66788.0,1.0
14399.3918493,291556.96875,296831.0,351836.40625,348129.15625,287787.3125,256463.21875,224022.0625,244708.96875,0.009765625,0.9951171875,0.15771484375,0.1525878757238388,-1.6479490995407104,-0.7934569716453552,80.0,66789.0,1.0
14399.3918505,291556.71875,297111.125,351984.03125,348101.875,287865.53125,256504.078125,224056.9375,244713.796875,0.0107421875,0.99755859375,0.158447265625,0.2136230319738388,-1.6479490995407104,-0.6408690810203552,80.0,66790.0,1.0
14399.3918518,291523.90625,297137.40625,351948.53125,348055.3125,287847.5625,256489.046875,224020.640625,244684.828125,0.010986328125,0.997314453125,0.15673828125,0.2441406100988388,-1.7089842557907104,-0.5798339247703552,80.0,66791.0,1.0
14399.3918531,291506.625,296874.625,351785.53125,348055.84375,287758.78125,256437.28125,223972.265625,244675.890625,0.011474609375,0.99609375,0.1611328125,0.1220703050494194,-1.6784666776657104,-0.6408690810203552,80.0,66792.0,1.0
14399.3918543,291503.6875,296634.125,351660.5625,348076.3125,287683.3125,256384.890625,223947.765625,244676.78125,0.013427734375,0.99853515625,0.158935546875,0.0,-1.6784666776657104,-0.7324218153953552,80.0,66793.0,1.0
14399.3918566,291503.6875,296634.125,351660.5625,348076.3125,287683.3125,256384.890625,223947.765625,244676.78125,0.013427734375,0.99853515625,0.158935546875,0.0,-1.6784666776657104,-0.7324218153953552,80.0,66794.0,0.0
14399.3918568,291503.6875,296634.125,351660.5625,348076.3125,287683.3125,256384.890625,223947.765625,244676.78125,0.013427734375,0.99853515625,0.158935546875,0.0,-1.6784666776657104,-0.7324218153953552,80.0,66795.0,0.0
14399.391857,291503.6875,296634.125,351660.5625,348076.3125,287683.3125,256384.890625,223947.765625,244676.78125,0.013427734375,0.99853515625,0.158935546875,0.0,-1.6784666776657104,-0.7324218153953552,80.0,66796.0,0.0
14399.3918572,291503.6875,296634.125,351660.5625,348076.3125,287683.3125,256384.890625,223947.765625,244676.78125,0.013427734375,0.99853515625,0.158935546875,0.0,-1.6784666776657104,-0.7324218153953552,80.0,66797.0,0.0
14399.3918574,291503.6875,296634.125,351660.5625,348076.3125,287683.3125,256384.890625,223947.765625,244676.78125,0.013427734375,0.99853515625,0.158935546875,0.0,-1.6784666776657104,-0.7324218153953552,80.0,66798.0,0.0
14399.3918576,291503.6875,296634.125,351660.5625,348076.3125,287683.3125,256384.890625,223947.765625,244676.78125,0.013427734375,0.99853515625,0.158935546875,0.0,-1.6784666776657104,-0.7324218153953552,80.0,66799.0,0.0
14399.3918577,291503.6875,296634.125,351660.5625,348076.3125,287683.3125,256384.890625,223947.765625,244676.78125,0.013427734375,0.99853515625,0.158935546875,0.0,-1.6784666776657104,-0.7324218153953552,80.0,66800.0,0.0
14399.3918579,291503.6875,296634.125,351660.5625,348076.3125,287683.3125,256384.890625,223947.765625,244676.78125,0.013427734375,0.99853515625,0.158935546875,0.0,-1.6784666776657104,-0.7324218153953552,80.0,66801.0,0.0
14399.3918581,291503.6875,296634.125,351660.5625,348076.3125,287683.3125,256384.890625,223947.765625,244676.78125,0.013427734375,0.99853515625,0.158935546875,0.0,-1.6784666776657104,-0.7324218153953552,80.0,66802.0,0.0
14399.3918582,291503.6875,296634.125,351660.5625,348076.3125,287683.3125,256384.890625,223947.765625,244676.78125,0.013427734375,0.99853515625,0.158935546875,0.0,-1.6784666776657104,-0.7324218153953552,80.0,66803.0,0.0
14399.3918584,291503.6875,296634.125,351660.5625,348076.3125,287683.3125,256384.890625,223947.765625,244676.78125,0.013427734375,0.99853515625,0.158935546875,0.0,-1.6784666776657104,-0.7324218153953552,80.0,66804.0,0.0
14399.3918586,291503.6875,296634.125,351660.5625,348076.3125,287683.3125,256384.890625,223947.765625,244676.78125,0.013427734375,0.99853515625,0.158935546875,0.0,-1.6784666776657104,-0.7324218153953552,80.0,66805.0,0.0
14399.3918587,291503.6875,296634.125,351660.5625,348076.3125,287683.3125,256384.890625,223947.765625,244676.78125,0.013427734375,0.99853515625,0.158935546875,0.0,-1.6784666776657104,-0.7324218153953552,80.0,66806.0,0.0
14399.3918589,291503.6875,296634.125,351660.5625,348076.3125,287683.3125,256384.890625,223947.765625,244676.78125,0.013427734375,0.99853515625,0.158935546875,0.0,-1.6784666776657104,-0.7324218153953552,80.0,66807.0,0.0
14399.3918591,291503.6875,296634.125,351660.5625,348076.3125,287683.3125,256384.890625,223947.765625,244676.78125,0.013427734375,0.99853515625,0.158935546875,0.0,-1.6784666776657104,-0.7324218153953552,80.0,66808.0,0.0
14399.3918593,291503.6875,296634.125,351660.5625,348076.3125,287683.3125,256384.890625,223947.765625,244676.78125,0.013427734375,0.99853515625,0.158935546875,0.0,-1.6784666776657104,-0.7324218153953552,80.0,66809.0,0.0
14399.3918595,291503.6875,296634.125,351660.5625,348076.3125,287683.3125,256384.890625,223947.765625,244676.78125,0.013427734375,0.99853515625,0.158935546875,0.0,-1.6784666776657104,-0.7324218153953552,80.0,66810.0,0.0
14399.3918596,291503.6875,296634.125,351660.5625,348076.3125,287683.3125,256384.890625,223947.765625,244676.78125,0.013427734375,0.99853515625,0.158935546875,0.0,-1.6784666776657104,-0.7324218153953552,80.0,66811.0,0.0
14399.3918598,291503.6875,296634.125,351660.5625,348076.3125,287683.3125,256384.890625,223947.765625,244676.78125,0.013427734375,0.99853515625,0.158935546875,0.0,-1.6784666776657104,-0.7324218153953552,80.0,66812.0,0.0
14399.39186,291503.6875,296634.125,351660.5625,348076.3125,287683.3125,256384.890625,223947.765625,244676.78125,0.013427734375,0.99853515625,0.158935546875,0.0,-1.6784666776657104,-0.7324218153953552,80.0,66813.0,0.0
14399.3918601,291503.6875,296634.125,351660.5625,348076.3125,287683.3125,256384.890625,223947.765625,244676.78125,0.013427734375,0.99853515625,0.158935546875,0.0,-1.6784666776657104,-0.7324218153953552,80.0,66814.0,0.0
14399.3918603,291503.6875,296634.125,351660.5625,348076.3125,287683.3125,256384.890625,223947.765625,244676.78125,0.013427734375,0.99853515625,0.158935546875,0.0,-1.6784666776657104,-0.7324218153953552,80.0,66815.0,0.0
14399.3918605,291524.0625,297122.75,351933.6875,348039.84375,287838.4375,256487.796875,224026.984375,244683.125,0.01220703125,0.999755859375,0.15771484375,0.8239745497703552,-0.9460448622703552,-1.0375975370407104,80.0,66816.0,1.0
14399.3918619,291497.4375,296856.40625,351765.78125,348036.71875,287750.1875,256425.484375,223980.21875,244680.796875,0.01220703125,0.999755859375,0.1572265625,0.8544921278953552,-1.0070799589157104,-1.0681151151657104,80.0,66817.0,1.0
14399.3932807,291497.53125,296629.03125,351659.46875,348060.21875,287686.46875,256387.125,223954.03125,244683.3125,0.008544921875,0.999755859375,0.156005859375,0.8239745497703552,-1.0375975370407104,-1.0986326932907104,80.0,66818.0,1.0
14399.3958704,291531.59375,296790.0625,351796.0,348087.21875,287755.9375,256426.015625,223990.5,244697.796875,0.00927734375,0.99853515625,0.154296875,0.7934569716453552,-1.1291502714157104,-1.1901854276657104,80.0,66819.0,1.0
14399.3983879,291539.09375,297074.09375,351948.875,348065.75,287840.25,256468.9375,224027.796875,244696.0,0.012451171875,0.99609375,0.154541015625,0.7934569716453552,-1.2817381620407104,-1.0375975370407104,80.0,66820.0,1.0
14399.4014555,291510.75,297105.03125,351914.1875,348027.75,287831.75,256476.984375,224026.09375,244685.265625,0.01025390625,0.994140625,0.15283203125,0.8544921278953552,-1.3122557401657104,-1.0070799589157104,80.0,66821.0,1.0
14399.4014619,291484.5625,296831.71875,351741.0,348025.875,287737.15625,256411.09375,223975.84375,244685.90625,0.014892578125,0.9921875,0.153076171875,0.7934569716453552,-1.3122557401657104,-1.0070799589157104,80.0,66822.0,1.0
14399.4033187,291504.9375,296628.21875,351662.59375,348065.75,287690.5625,256388.921875,223960.28125,244692.25,0.016357421875,0.992919921875,0.156494140625,0.7629393935203552,-1.4038084745407104,-1.0375975370407104,80.0,66823.0,1.0
14399.4544461,291538.71875,296790.6875,351799.75,348088.375,287752.25,256419.046875,223989.34375,244696.453125,0.013671875,0.996337890625,0.1591796875,0.8239745497703552,-1.3427733182907104,-0.9765624403953552,80.0,66824.0,1.0
14399.4544512,291530.96875,297060.40625,351931.0,348053.78125,287822.1875,256454.1875,224016.25,244691.625,0.01318359375,0.997802734375,0.15478515625,0.6408690810203552,-1.3427733182907104,-0.9155272841453552,80.0,66825.0,1.0
14399.4544526,291499.65625,297089.46875,351892.5625,348012.65625,287809.84375,256449.984375,224000.609375,244672.484375,0.012939453125,0.99658203125,0.15771484375,0.6103515028953552,-1.3122557401657104,-0.7934569716453552,80.0,66826.0,1.0
14399.4544539,291477.125,296822.96875,351727.25,348010.78125,287724.375,256411.984375,223960.375,244657.828125,0.012451171875,0.9951171875,0.156005859375,0.6103515028953552,-1.3427733182907104,-0.8544921278953552,80.0,66827.0,1.0
14399.4544551,291489.1875,296616.59375,351644.625,348045.90625,287677.0625,256385.078125,223950.453125,244665.328125,0.015380859375,0.992431640625,0.151123046875,0.4882812201976776,-1.4038084745407104,-0.8544921278953552,80.0,66828.0,1.0
14399.4544563,291538.1875,296790.59375,351796.53125,348090.25,287760.75,256440.765625,224007.3125,244699.21875,0.0166015625,0.99169921875,0.152587890625,0.4882812201976776,-1.4953612089157104,-0.7629393935203552,80.0,66829.0,1.0
14399.4544576,291550.90625,297081.53125,351947.46875,348072.65625,287849.0,256500.5,224055.328125,244712.546875,0.015869140625,0.99365234375,0.15478515625,0.5493163466453552,-1.4648436307907104,-0.7934569716453552,80.0,66830.0,1.0
14399.4544588,291521.3125,297115.84375,351914.46875,348028.21875,287835.125,256487.171875,224026.984375,244685.453125,0.013671875,0.99267578125,0.15283203125,0.7324218153953552,-1.4038084745407104,-0.8239745497703552,80.0,66831.0,1.0
14399.48133,291492.875,296845.3125,351742.8125,348022.59375,287738.84375,256411.890625,223965.921875,244672.578125,0.010498046875,0.99560546875,0.15185546875,0.7934569716453552,-1.4648436307907104,-1.0375975370407104,80.0,66832.0,1.0
14399.4813518,291501.09375,296633.5,351657.6875,348058.53125,287690.03125,256385.34375,223956.4375,244681.25,0.008056640625,1.000244140625,0.155029296875,0.8850097060203552,-1.4953612089157104,-1.0375975370407104,80.0,66833.0,1.0
14399.4813531,291539.625,296789.34375,351792.4375,348091.25,287761.8125,256432.90625,224006.421875,244711.65625,0.009521484375,1.0,0.153564453125,0.7934569716453552,-1.6479490995407104,-1.0681151151657104,80.0,66834.0,1.0
14399.4813544,291549.09375,297072.75,351944.40625,348070.5,287845.6875,256487.359375,224042.71875,244704.765625,0.008544921875,1.0009765625,0.1572265625,0.6713866591453552,-1.7089842557907104,-1.2512205839157104,80.0,66835.0,1.0
14399.4813556,291519.4375,297098.875,351905.34375,348027.0625,287825.46875,256470.984375,224011.78125,244679.109375,0.01025390625,0.998779296875,0.156982421875,0.6713866591453552,-1.8615721464157104,-1.2817381620407104,80.0,66836.0,1.0
14399.4813569,291500.65625,296844.15625,351744.5,348027.59375,287744.9375,256431.65625,223972.984375,244674.1875,0.011962890625,0.998291015625,0.15771484375,0.5798339247703552,-1.8615721464157104,-1.3732908964157104,80.0,66837.0,1.0
14399.5183872,291515.9375,296645.9375,351669.5,348067.90625,287708.09375,256421.453125,223975.3125,244689.296875,0.01318359375,0.998291015625,0.15625,0.4882812201976776,-1.8920897245407104,-1.3732908964157104,80.0,66838.0,1.0
14399.5433939,291549.03125,296800.875,351806.28125,348094.71875,287773.09375,256442.015625,224012.59375,244703.6875,0.013916015625,0.998046875,0.155517578125,0.4577636420726776,-1.8920897245407104,-1.3732908964157104,80.0,66839.0,1.0
14399.5683676,291553.40625,297081.625,351951.5625,348067.625,287848.0,256474.828125,224037.625,244703.15625,0.013427734375,0.995849609375,0.1533203125,0.3967284858226776,-1.9836424589157104,-1.4038084745407104,80.0,66840.0,1.0
14399.5871212,291510.125,297102.25,351900.0625,348016.59375,287823.875,256449.71875,224005.078125,244683.75,0.0126953125,0.9951171875,0.15087890625,0.4882812201976776,-1.9531248807907104,-1.4343260526657104,80.0,66841.0,1.0
14399.5896108,291485.8125,296836.09375,351732.34375,348020.53125,287746.34375,256417.703125,223976.46875,244684.640625,0.011962890625,0.994873046875,0.14892578125,0.4272460639476776,-1.9836424589157104,-1.4648436307907104,80.0,66842.0,1.0
14399.5933734,291500.125,296636.53125,351654.8125,348056.1875,287702.375,256401.703125,223972.8125,244692.25,0.010986328125,0.99609375,0.1484375,0.5187987685203552,-1.9531248807907104,-1.3732908964157104,80.0,66843.0,1.0
14399.5976622,291531.40625,296788.34375,351787.78125,348077.84375,287763.0625,256424.234375,224000.515625,244707.71875,0.01318359375,0.994873046875,0.148193359375,0.5187987685203552,-2.075195074081421,-1.4038084745407104,80.0,66844.0,1.0
14399.5976649,291527.5625,297054.78125,351917.15625,348044.75,287833.09375,256462.59375,224026.890625,244698.234375,0.013671875,0.9951171875,0.152587890625,0.6103515028953552,-2.075195074081421,-1.4343260526657104,80.0,66845.0,1.0
14399.5976661,291498.59375,297087.875,351884.34375,348005.9375,287822.8125,256467.421875,224016.703125,244674.984375,0.013916015625,0.995361328125,0.15185546875,0.7324218153953552,-2.044677495956421,-1.3122557401657104,80.0,66846.0,1.0
14399.5976674,291472.65625,296832.0,351726.71875,348006.03125,287741.25,256425.125,223978.171875,244679.109375,0.01416015625,0.996337890625,0.153564453125,0.6103515028953552,-1.9531248807907104,-1.2512205839157104,80.0,66847.0,1.0
14399.5976686,291488.03125,296635.75,351651.875,348045.09375,287697.625,256401.515625,223965.65625,244697.96875,0.012451171875,0.99755859375,0.15234375,0.7019042372703552,-2.014159917831421,-1.0986326932907104,80.0,66848.0,1.0
14399.5976698,291516.75,296788.53125,351779.90625,348063.53125,287757.625,256439.4375,223998.640625,244701.8125,0.009765625,0.997802734375,0.1533203125,0.5798339247703552,-1.9226073026657104,-1.1596678495407104,80.0,66849.0,1.0
14399.6002025,291518.15625,297060.78125,351915.90625,348029.5625,287827.625,256471.265625,224015.90625,244679.734375,0.0087890625,0.99609375,0.154541015625,0.4577636420726776,-1.8615721464157104,-1.0070799589157104,80.0,66850.0,1.0
14399.6002111,291498.84375,297093.5,351883.625,347992.90625,287823.25,256470.546875,224010.625,244675.078125,0.01123046875,0.99560546875,0.1533203125,0.4882812201976776,-1.8920897245407104,-0.9460448622703552,80.0,66851.0,1.0
14399.6026882,291480.53125,296834.65625,351722.5,347993.4375,287741.0,256430.9375,223975.484375,244667.484375,0.00927734375,0.992919921875,0.15087890625,0.4577636420726776,-1.8615721464157104,-1.0375975370407104,80.0,66852.0,1.0
14399.6026905,291498.40625,296641.09375,351654.375,348036.15625,287700.40625,256411.984375,223965.390625,244682.328125,0.00732421875,0.99365234375,0.151123046875,0.5798339247703552,-1.8920897245407104,-1.0681151151657104,80.0,66853.0,1.0
14399.6080137,291542.75,296814.46875,351805.125,348071.03125,287777.03125,256452.3125,224009.015625,244703.15625,0.00830078125,0.99365234375,0.147216796875,0.5798339247703552,-1.9226073026657104,-1.0681151151657104,80.0,66854.0,1.0
14399.6080281,291539.09375,297071.3125,351922.0625,348038.21875,287840.6875,256492.0,224037.625,244707.71875,0.00830078125,0.993896484375,0.14892578125,0.7019042372703552,-1.9836424589157104,-1.1901854276657104,80.0,66855.0,1.0
14399.6080294,291514.0625,297107.4375,351883.96875,348000.21875,287829.96875,256486.28125,224024.65625,244688.9375,0.009765625,0.99560546875,0.15234375,0.7324218153953552,-1.9531248807907104,-1.2512205839157104,80.0,66856.0,1.0
14399.6080306,291493.5,296856.46875,351738.96875,348002.46875,287750.46875,256422.625,223979.59375,244677.671875,0.010986328125,0.995849609375,0.150634765625,0.6713866591453552,-1.9836424589157104,-1.1901854276657104,80.0,66857.0,1.0
14399.6080318,291515.84375,296660.5,351675.125,348047.0625,287713.1875,256408.578125,223972.0,244691.078125,0.011962890625,0.9970703125,0.151123046875,0.6408690810203552,-2.014159917831421,-1.1291502714157104,80.0,66858.0,1.0
14399.608033,291547.40625,296810.25,351800.1875,348070.78125,287774.4375,256457.3125,224017.59375,244704.5,0.01318359375,0.999267578125,0.155517578125,0.6103515028953552,-1.8920897245407104,-1.2512205839157104,80.0,66859.0,1.0
14399.6080342,291548.9375,297083.40625,351932.4375,348042.96875,287844.25,256491.46875,224043.53125,244702.171875,0.012939453125,0.99658203125,0.156494140625,0.6408690810203552,-1.8920897245407104,-1.3122557401657104,80.0,66860.0,1.0
14399.6329103,291524.59375,297128.28125,351911.96875,348006.5,287841.125,256478.765625,224026.359375,244691.265625,0.010986328125,0.997802734375,0.1552734375,0.4577636420726776,-1.9226073026657104,-1.3122557401657104,80.0,66861.0,1.0
14399.6596001,291524.59375,297128.28125,351911.96875,348006.5,287841.125,256478.765625,224026.359375,244691.265625,0.010986328125,0.997802734375,0.1552734375,0.4577636420726776,-1.9226073026657104,-1.3122557401657104,80.0,66862.0,0.0
14399.659601,291524.59375,297128.28125,351911.96875,348006.5,287841.125,256478.765625,224026.359375,244691.265625,0.010986328125,0.997802734375,0.1552734375,0.4577636420726776,-1.9226073026657104,-1.3122557401657104,80.0,66863.0,0.0
14399.6596012,291524.59375,297128.28125,351911.96875,348006.5,287841.125,256478.765625,224026.359375,244691.265625,0.010986328125,0.997802734375,0.1552734375,0.4577636420726776,-1.9226073026657104,-1.3122557401657104,80.0,66864.0,0.0
14399.6596014,291524.59375,297128.28125,351911.96875,348006.5,287841.125,256478.765625,224026.359375,244691.265625,0.010986328125,0.997802734375,0.1552734375,0.4577636420726776,-1.9226073026657104,-1.3122557401657104,80.0,66865.0,0.0
14399.6596016,291524.59375,297128.28125,351911.96875,348006.5,287841.125,256478.765625,224026.359375,244691.265625,0.010986328125,0.997802734375,0.1552734375,0.4577636420726776,-1.9226073026657104,-1.3122557401657104,80.0,66866.0,0.0
14399.6596018,291524.59375,297128.28125,351911.96875,348006.5,287841.125,256478.765625,224026.359375,244691.265625,0.010986328125,0.997802734375,0.1552734375,0.4577636420726776,-1.9226073026657104,-1.3122557401657104,80.0,66867.0,0.0
14399.659602,291524.59375,297128.28125,351911.96875,348006.5,287841.125,256478.765625,224026.359375,244691.265625,0.010986328125,0.997802734375,0.1552734375,0.4577636420726776,-1.9226073026657104,-1.3122557401657104,80.0,66868.0,0.0
14399.6596022,291524.59375,297128.28125,351911.96875,348006.5,287841.125,256478.765625,224026.359375,244691.265625,0.010986328125,0.997802734375,0.1552734375,0.4577636420726776,-1.9226073026657104,-1.3122557401657104,80.0,66869.0,0.0
14399.6596024,291524.59375,297128.28125,351911.96875,348006.5,287841.125,256478.765625,224026.359375,244691.265625,0.010986328125,0.997802734375,0.1552734375,0.4577636420726776,-1.9226073026657104,-1.3122557401657104,80.0,66870.0,0.0
14399.6596025,291524.59375,297128.28125,351911.96875,348006.5,287841.125,256478.765625,224026.359375,244691.265625,0.010986328125,0.997802734375,0.1552734375,0.4577636420726776,-1.9226073026657104,-1.3122557401657104,80.0,66871.0,0.0
14399.6596027,291524.59375,297128.28125,351911.96875,348006.5,287841.125,256478.765625,224026.359375,244691.265625,0.010986328125,0.997802734375,0.1552734375,0.4577636420726776,-1.9226073026657104,-1.3122557401657104,80.0,66872.0,0.0
14399.6596029,291524.59375,297128.28125,351911.96875,348006.5,287841.125,256478.765625,224026.359375,244691.265625,0.010986328125,0.997802734375,0.1552734375,0.4577636420726776,-1.9226073026657104,-1.3122557401657104,80.0,66873.0,0.0
14399.659603,291524.59375,297128.28125,351911.96875,348006.5,287841.125,256478.765625,224026.359375,244691.265625,0.010986328125,0.997802734375,0.1552734375,0.4577636420726776,-1.9226073026657104,-1.3122557401657104,80.0,66874.0,0.0
14399.6596032,291524.59375,297128.28125,351911.96875,348006.5,287841.125,256478.765625,224026.359375,244691.265625,0.010986328125,0.997802734375,0.1552734375,0.4577636420726776,-1.9226073026657104,-1.3122557401657104,80.0,66875.0,0.0
14399.6596034,291524.59375,297128.28125,351911.96875,348006.5,287841.125,256478.765625,224026.359375,244691.265625,0.010986328125,0.997802734375,0.1552734375,0.4577636420726776,-1.9226073026657104,-1.3122557401657104,80.0,66876.0,0.0
14399.6596036,291524.59375,297128.28125,351911.96875,348006.5,287841.125,256478.765625,224026.359375,244691.265625,0.010986328125,0.997802734375,0.1552734375,0.4577636420726776,-1.9226073026657104,-1.3122557401657104,80.0,66877.0,0.0
14399.6596037,291524.59375,297128.28125,351911.96875,348006.5,287841.125,256478.765625,224026.359375,244691.265625,0.010986328125,0.997802734375,0.1552734375,0.4577636420726776,-1.9226073026657104,-1.3122557401657104,80.0,66878.0,0.0
14399.6596039,291524.59375,297128.28125,351911.96875,348006.5,287841.125,256478.765625,224026.359375,244691.265625,0.010986328125,0.997802734375,0.1552734375,0.4577636420726776,-1.9226073026657104,-1.3122557401657104,80.0,66879.0,0.0
14399.6596041,291524.59375,297128.28125,351911.96875,348006.5,287841.125,256478.765625,224026.359375,244691.265625,0.010986328125,0.997802734375,0.1552734375,0.4577636420726776,-1.9226073026657104,-1.3122557401657104,80.0,66880.0,0.0
14399.6596043,291524.59375,297128.28125,351911.96875,348006.5,287841.125,256478.765625,224026.359375,244691.265625,0.010986328125,0.997802734375,0.1552734375,0.4577636420726776,-1.9226073026657104,-1.3122557401657104,80.0,66881.0,0.0
14399.6596044,291524.59375,297128.28125,351911.96875,348006.5,287841.125,256478.765625,224026.359375,244691.265625,0.010986328125,0.997802734375,0.1552734375,0.4577636420726776,-1.9226073026657104,-1.3122557401657104,80.0,66882.0,0.0
14399.6596046,291524.59375,297128.28125,351911.96875,348006.5,287841.125,256478.765625,224026.359375,244691.265625,0.010986328125,0.997802734375,0.1552734375,0.4577636420726776,-1.9226073026657104,-1.3122557401657104,80.0,66883.0,0.0
14399.6596048,291565.90625,296836.28125,351799.40625,348074.625,287794.71875,256466.703125,224038.421875,244733.90625,0.00927734375,0.99658203125,0.153076171875,0.3051757514476776,-1.8920897245407104,-0.9765624403953552,80.0,66884.0,1.0
14399.6846048,291569.03125,297118.90625,351947.375,348047.15625,287872.6875,256502.109375,224061.859375,244726.21875,0.009033203125,0.996337890625,0.15234375,0.2746581733226776,-1.8920897245407104,-0.9765624403953552,80.0,66885.0,1.0
14399.72646,291536.78125,297134.53125,351900.25,348006.5625,287855.4375,256480.203125,224038.609375,244717.90625,0.01025390625,0.996337890625,0.151123046875,0.2746581733226776,-1.9836424589157104,-1.0070799589157104,80.0,66886.0,1.0
14399.7264651,291513.96875,296867.75,351727.875,348003.71875,287766.125,256434.953125,223988.0,244692.421875,0.0107421875,0.996337890625,0.151123046875,0.2746581733226776,-1.9836424589157104,-1.0070799589157104,80.0,66887.0,1.0
14399.7264664,291522.8125,296660.59375,351643.46875,348036.875,287714.875,256414.484375,223969.59375,244684.828125,0.01123046875,0.996826171875,0.148681640625,0.1525878757238388,-1.9836424589157104,-1.0070799589157104,80.0,66888.0,1.0
14399.7508885,291556.96875,296813.84375,351769.1875,348063.25,287779.71875,256455.34375,224012.765625,244696.984375,0.012451171875,0.997802734375,0.1494140625,0.1831054538488388,-2.105712652206421,-1.0070799589157104,80.0,66889.0,1.0
14399.7791446,291570.375,297108.875,351927.59375,348049.65625,287871.34375,256502.109375,224053.1875,244706.90625,0.011474609375,0.996337890625,0.153564453125,0.1220703050494194,-2.014159917831421,-0.9765624403953552,80.0,66890.0,1.0
14399.7791615,291529.4375,297131.6875,351884.0625,347998.15625,287849.0,256481.1875,224020.453125,244676.875,0.00927734375,0.99755859375,0.15234375,0.1525878757238388,-2.014159917831421,-0.9460448622703552,80.0,66891.0,1.0
14399.7791627,291501.625,296866.9375,351726.625,347995.75,287763.4375,256429.953125,223978.265625,244670.609375,0.01123046875,0.995361328125,0.150390625,0.1220703050494194,-2.044677495956421,-0.9460448622703552,80.0,66892.0,1.0
14399.779164,291514.0625,296660.9375,351654.125,348038.03125,287721.3125,256414.21875,223975.84375,244687.328125,0.010498046875,0.99658203125,0.150146484375,0.1220703050494194,-2.014159917831421,-1.0375975370407104,80.0,66893.0,1.0
14399.7791652,291547.84375,296819.8125,351793.75,348068.71875,287792.3125,256457.046875,224021.703125,244706.734375,0.01123046875,0.996826171875,0.153076171875,0.1525878757238388,-1.9531248807907104,-0.9765624403953552,80.0,66894.0,1.0
14399.7791664,291546.78125,297091.4375,351928.6875,348037.875,287859.71875,256486.640625,224038.078125,244694.921875,0.009765625,0.99755859375,0.151123046875,0.1831054538488388,-1.9226073026657104,-0.8850097060203552,80.0,66895.0,1.0
14399.7791677,291510.21875,297107.90625,351879.6875,347992.34375,287837.375,256470.984375,224014.46875,244677.671875,0.010498046875,0.99658203125,0.156005859375,0.1831054538488388,-1.9531248807907104,-0.8239745497703552,80.0,66896.0,1.0
14399.8034519,291478.03125,296841.0,351717.21875,347986.5625,287751.8125,256428.4375,223977.359375,244674.640625,0.01123046875,0.997314453125,0.15283203125,0.1220703050494194,-1.9226073026657104,-0.7629393935203552,80.0,66897.0,1.0
14399.8034583,291478.03125,296841.0,351717.21875,347986.5625,287751.8125,256428.4375,223977.359375,244674.640625,0.01123046875,0.997314453125,0.15283203125,0.1220703050494194,-1.9226073026657104,-0.7629393935203552,80.0,66898.0,0.0
14399.8034585,291478.03125,296841.0,351717.21875,347986.5625,287751.8125,256428.4375,223977.359375,244674.640625,0.01123046875,0.997314453125,0.15283203125,0.1220703050494194,-1.9226073026657104,-0.7629393935203552,80.0,66899.0,0.0
14399.8034587,291478.03125,296841.0,351717.21875,347986.5625,287751.8125,256428.4375,223977.359375,244674.640625,0.01123046875,0.997314453125,0.15283203125,0.1220703050494194,-1.9226073026657104,-0.7629393935203552,80.0,66900.0,0.0
14399.8034589,291478.03125,296841.0,351717.21875,347986.5625,287751.8125,256428.4375,223977.359375,244674.640625,0.01123046875,0.997314453125,0.15283203125,0.1220703050494194,-1.9226073026657104,-0.7629393935203552,80.0,66901.0,0.0
14399.8034591,291478.03125,296841.0,351717.21875,347986.5625,287751.8125,256428.4375,223977.359375,244674.640625,0.01123046875,0.997314453125,0.15283203125,0.1220703050494194,-1.9226073026657104,-0.7629393935203552,80.0,66902.0,0.0
14399.8034594,291478.03125,296841.0,351717.21875,347986.5625,287751.8125,256428.4375,223977.359375,244674.640625,0.01123046875,0.997314453125,0.15283203125,0.1220703050494194,-1.9226073026657104,-0.7629393935203552,80.0,66903.0,0.0
14399.8034596,291478.03125,296841.0,351717.21875,347986.5625,287751.8125,256428.4375,223977.359375,244674.640625,0.01123046875,0.997314453125,0.15283203125,0.1220703050494194,-1.9226073026657104,-0.7629393935203552,80.0,66904.0,0.0
14399.8034597,291478.03125,296841.0,351717.21875,347986.5625,287751.8125,256428.4375,223977.359375,244674.640625,0.01123046875,0.997314453125,0.15283203125,0.1220703050494194,-1.9226073026657104,-0.7629393935203552,80.0,66905.0,0.0
14399.8034599,291478.03125,296841.0,351717.21875,347986.5625,287751.8125,256428.4375,223977.359375,244674.640625,0.01123046875,0.997314453125,0.15283203125,0.1220703050494194,-1.9226073026657104,-0.7629393935203552,80.0,66906.0,0.0
14399.8034601,291478.03125,296841.0,351717.21875,347986.5625,287751.8125,256428.4375,223977.359375,244674.640625,0.01123046875,0.997314453125,0.15283203125,0.1220703050494194,-1.9226073026657104,-0.7629393935203552,80.0,66907.0,0.0
14399.8034603,291478.03125,296841.0,351717.21875,347986.5625,287751.8125,256428.4375,223977.359375,244674.640625,0.01123046875,0.997314453125,0.15283203125,0.1220703050494194,-1.9226073026657104,-0.7629393935203552,80.0,66908.0,0.0
14399.8034604,291478.03125,296841.0,351717.21875,347986.5625,287751.8125,256428.4375,223977.359375,244674.640625,0.01123046875,0.997314453125,0.15283203125,0.1220703050494194,-1.9226073026657104,-0.7629393935203552,80.0,66909.0,0.0
14399.8034606,291478.03125,296841.0,351717.21875,347986.5625,287751.8125,256428.4375,223977.359375,244674.640625,0.01123046875,0.997314453125,0.15283203125,0.1220703050494194,-1.9226073026657104,-0.7629393935203552,80.0,66910.0,0.0
14399.8034608,291478.03125,296841.0,351717.21875,347986.5625,287751.8125,256428.4375,223977.359375,244674.640625,0.01123046875,0.997314453125,0.15283203125,0.1220703050494194,-1.9226073026657104,-0.7629393935203552,80.0,66911.0,0.0
14399.803461,291478.03125,296841.0,351717.21875,347986.5625,287751.8125,256428.4375,223977.359375,244674.640625,0.01123046875,0.997314453125,0.15283203125,0.1220703050494194,-1.9226073026657104,-0.7629393935203552,80.0,66912.0,0.0
14399.8034612,291478.03125,296841.0,351717.21875,347986.5625,287751.8125,256428.4375,223977.359375,244674.640625,0.01123046875,0.997314453125,0.15283203125,0.1220703050494194,-1.9226073026657104,-0.7629393935203552,80.0,66913.0,0.0
14399.8034613,291478.03125,296841.0,351717.21875,347986.5625,287751.8125,256428.4375,223977.359375,244674.640625,0.01123046875,0.997314453125,0.15283203125,0.1220703050494194,-1.9226073026657104,-0.7629393935203552,80.0,66914.0,0.0
14399.8034615,291478.03125,296841.0,351717.21875,347986.5625,287751.8125,256428.4375,223977.359375,244674.640625,0.01123046875,0.997314453125,0.15283203125,0.1220703050494194,-1.9226073026657104,-0.7629393935203552,80.0,66915.0,0.0
14399.8034617,291478.03125,296841.0,351717.21875,347986.5625,287751.8125,256428.4375,223977.359375,244674.640625,0.01123046875,0.997314453125,0.15283203125,0.1220703050494194,-1.9226073026657104,-0.7629393935203552,80.0,66916.0,0.0
14399.8034618,291478.03125,296841.0,351717.21875,347986.5625,287751.8125,256428.4375,223977.359375,244674.640625,0.01123046875,0.997314453125,0.15283203125,0.1220703050494194,-1.9226073026657104,-0.7629393935203552,80.0,66917.0,0.0
14399.803462,291478.03125,296841.0,351717.21875,347986.5625,287751.8125,256428.4375,223977.359375,244674.640625,0.01123046875,0.997314453125,0.15283203125,0.1220703050494194,-1.9226073026657104,-0.7629393935203552,80.0,66918.0,0.0
14399.8034622,291528.8125,296779.59375,351752.46875,348050.90625,287778.375,256453.5625,223998.734375,244674.015625,0.0087890625,0.992919921875,0.15771484375,-0.6713866591453552,-0.8850097060203552,-0.8544921278953552,80.0,66919.0,1.0
14399.8034635,291546.15625,297078.84375,351909.71875,348040.28125,287873.59375,256519.546875,224051.75,244692.78125,0.006591796875,0.994384765625,0.156005859375,-0.4882812201976776,-1.0070799589157104,-1.0070799589157104,80.0,66920.0,1.0
14399.8034647,291523.28125,297121.3125,351881.46875,348004.15625,287866.6875,256515.609375,224036.90625,244674.640625,0.005126953125,0.994873046875,0.15869140625,-0.5187987685203552,-1.1901854276657104,-1.0070799589157104,80.0,66921.0,1.0
14399.8034661,291494.3125,296852.625,351714.28125,347998.25,287775.9375,256457.40625,223990.234375,244664.796875,0.004150390625,0.99365234375,0.158203125,-0.4577636420726776,-1.3122557401657104,-0.9765624403953552,80.0,66922.0,1.0
14399.8296258,291505.46875,296648.4375,351640.53125,348033.9375,287727.3125,256411.0,223974.0625,244674.453125,0.003173828125,0.993896484375,0.158447265625,-0.3967284858226776,-1.5258787870407104,-0.9460448622703552,80.0,66923.0,1.0
14399.8546171,291537.84375,296806.78125,351781.53125,348059.5,287791.59375,256431.46875,224004.09375,244679.546875,0.0029296875,0.991943359375,0.15869140625,-0.2746581733226776,-1.6784666776657104,-0.9460448622703552,80.0,66924.0,1.0
14399.8796239,291550.71875,297100.65625,351943.6875,348041.1875,287880.125,256485.921875,224035.21875,244675.625,0.00341796875,0.99462890625,0.16162109375,-0.2746581733226776,-1.9226073026657104,-0.9155272841453552,80.0,66925.0,1.0
14399.9046298,291521.125,297137.03125,351919.5625,347999.96875,287867.25,256469.203125,224010.53125,244657.109375,0.00390625,0.996826171875,0.16357421875,-0.3356933295726776,-2.227782964706421,-0.8239745497703552,80.0,66926.0,1.0
14399.9146238,291490.53125,296864.875,351750.40625,347991.28125,287776.125,256414.3125,223965.46875,244651.03125,0.00439453125,0.9931640625,0.16162109375,-0.3662109076976776,-2.380370855331421,-0.6713866591453552,80.0,66927.0,1.0
14399.9170288,291489.03125,296619.65625,351628.0,348011.21875,287702.1875,256369.96875,223928.1875,244638.25,0.0029296875,0.992919921875,0.16357421875,-0.3967284858226776,-2.593993902206421,-0.6103515028953552,80.0,66928.0,1.0
14399.9196282,291516.65625,296752.78125,351732.25,348029.03125,287751.46875,256406.265625,223956.078125,244634.3125,0.00390625,0.994384765625,0.160400390625,-0.3356933295726776,-2.655029058456421,-0.3967284858226776,80.0,66929.0,1.0
14399.9263392,291520.84375,297017.5,351838.46875,348002.90625,287816.1875,256453.5625,223989.4375,244633.953125,0.0078125,0.99267578125,0.162841796875,-0.2746581733226776,-2.868652105331421,-0.3356933295726776,80.0,66930.0,1.0
14399.9263579,291497.25,297057.8125,351787.78125,347966.875,287804.375,256445.875,223979.25,244621.4375,0.008544921875,0.993896484375,0.1611328125,-0.2136230319738388,-3.021239995956421,-0.3356933295726776,80.0,66931.0,1.0
14399.9263591,291481.6875,296821.4375,351648.75,347976.0,287741.96875,256414.125,223955.1875,244628.140625,0.0107421875,0.9931640625,0.1591796875,-0.1220703050494194,-3.082275152206421,-0.2441406100988388,80.0,66932.0,1.0
14399.9263604,291496.8125,296625.375,351583.46875,348017.46875,287707.46875,256404.390625,223953.140625,244640.65625,0.012451171875,0.993896484375,0.16015625,0.0,-3.326415777206421,-0.3051757514476776,80.0,66933.0,1.0
14399.9263616,291543.46875,296804.1875,351751.9375,348058.0625,287794.71875,256456.234375,224008.03125,244673.375,0.016845703125,0.9951171875,0.15966796875,0.1831054538488388,-3.234863042831421,-0.2746581733226776,80.0,66934.0,1.0
14399.9263628,291544.90625,297085.1875,351908.03125,348027.40625,287871.96875,256490.296875,224023.59375,244656.3125,0.01904296875,0.99609375,0.16357421875,0.1831054538488388,-3.143310308456421,-0.3051757514476776,80.0,66935.0,1.0
14399.926364,291517.71875,297115.21875,351872.625,347985.375,287857.125,256483.6875,224003.828125,244625.546875,0.019775390625,0.99755859375,0.160888671875,0.3356933295726776,-3.021239995956421,-0.3356933295726776,80.0,66936.0,1.0
14399.9263652,291499.125,296853.34375,351709.8125,347989.40625,287775.6875,256452.3125,223974.328125,244629.65625,0.022216796875,0.997314453125,0.157958984375,0.3967284858226776,-2.960204839706421,-0.2746581733226776,80.0,66937.0,1.0
14399.9263664,291507.96875,296626.53125,351602.96875,348021.40625,287718.03125,256414.484375,223963.234375,244653.890625,0.022216796875,0.99658203125,0.159423828125,0.3662109076976776,-2.807616949081421,-0.4882812201976776,80.0,66938.0,1.0
14399.9288962,291534.96875,296763.59375,351705.6875,348035.90625,287765.21875,256430.84375,223982.734375,244635.03125,0.02294921875,0.994873046875,0.15673828125,0.4577636420726776,-2.685546636581421,-0.5798339247703552,80.0,66939.0,1.0
14399.9288985,291534.09375,297041.1875,351837.40625,348004.875,287836.46875,256467.765625,224004.28125,244619.65625,0.0224609375,0.994384765625,0.1572265625,0.5187987685203552,-2.624511480331421,-0.7934569716453552,80.0,66940.0,1.0
14399.9343477,291514.5,297099.03125,351833.625,347980.5625,287845.25,256464.828125,223996.40625,244617.765625,0.021484375,0.994873046875,0.15625,0.7324218153953552,-2.380370855331421,-0.9765624403953552,80.0,66941.0,1.0
14399.9343516,291493.0625,296840.21875,351683.34375,347982.4375,287766.03125,256422.625,223952.328125,244601.046875,0.022216796875,0.992919921875,0.15771484375,0.7934569716453552,-2.105712652206421,-1.0986326932907104,80.0,66942.0,1.0
14399.9343528,291518.96875,296646.90625,351613.78125,348026.96875,287724.09375,256397.234375,223940.890625,244612.765625,0.02294921875,0.994873046875,0.158203125,0.7324218153953552,-1.9226073026657104,-1.4038084745407104,80.0,66943.0,1.0
14399.9343541,291561.53125,296809.0,351756.84375,348061.65625,287799.1875,256447.75,223992.109375,244639.3125,0.022705078125,0.995849609375,0.15673828125,0.8239745497703552,-1.6479490995407104,-1.4953612089157104,80.0,66944.0,1.0
14399.9343553,291558.21875,297072.3125,351890.15625,348026.78125,287860.4375,256472.15625,224004.640625,244613.75,0.023193359375,0.993408203125,0.158447265625,1.0986326932907104,-1.4038084745407104,-1.4953612089157104,80.0,66945.0,1.0
14399.9343565,291530.96875,297095.90625,351846.34375,347986.375,287841.5,256456.953125,223982.90625,244603.28125,0.023681640625,0.994140625,0.158447265625,1.1596678495407104,-1.1291502714157104,-1.5563963651657104,80.0,66946.0,1.0
14399.9343577,291515.75,296841.09375,351682.625,347990.3125,287761.375,256425.390625,223948.3125,244593.90625,0.021484375,0.996337890625,0.161865234375,1.1901854276657104,-1.0070799589157104,-1.6174315214157104,80.0,66947.0,1.0
14399.9353489,291550.53125,296656.3125,351625.15625,348047.78125,287734.8125,256419.046875,223953.765625,244615.0,0.0185546875,0.995361328125,0.15966796875,1.1596678495407104,-0.8239745497703552,-1.5869139432907104,80.0,66948.0,1.0
14399.9622573,291583.34375,296810.4375,351758.71875,348074.875,287800.1875,256458.65625,223994.078125,244622.0625,0.017822265625,0.995849609375,0.158447265625,1.1291502714157104,-0.5798339247703552,-1.5869139432907104,80.0,66949.0,1.0
14399.9622772,291585.0625,297086.34375,351899.90625,348046.28125,287877.0625,256497.71875,224026.890625,244617.328125,0.01708984375,0.99560546875,0.157470703125,1.1901854276657104,-0.4577636420726776,-1.4953612089157104,80.0,66950.0,1.0
14399.9622784,291561.0,297120.3125,351869.40625,348007.375,287867.78125,256491.90625,224010.625,244604.453125,0.015625,0.99853515625,0.159423828125,1.1901854276657104,-0.3051757514476776,-1.5563963651657104,80.0,66951.0,1.0
14399.9622803,291561.0,297120.3125,351869.40625,348007.375,287867.78125,256491.90625,224010.625,244604.453125,0.015625,0.99853515625,0.159423828125,1.1901854276657104,-0.3051757514476776,-1.5563963651657104,80.0,66952.0,0.0
14399.9622805,291561.0,297120.3125,351869.40625,348007.375,287867.78125,256491.90625,224010.625,244604.453125,0.015625,0.99853515625,0.159423828125,1.1901854276657104,-0.3051757514476776,-1.5563963651657104,80.0,66953.0,0.0
14399.9622807,291561.0,297120.3125,351869.40625,348007.375,287867.78125,256491.90625,224010.625,244604.453125,0.015625,0.99853515625,0.159423828125,1.1901854276657104,-0.3051757514476776,-1.5563963651657104,80.0,66954.0,0.0
14399.9622809,291561.0,297120.3125,351869.40625,348007.375,287867.78125,256491.90625,224010.625,244604.453125,0.015625,0.99853515625,0.159423828125,1.1901854276657104,-0.3051757514476776,-1.5563963651657104,80.0,66955.0,0.0
