Time,FZ,C3,CZ,C4,PZ,PO7,OZ,PO8,AccX,AccY,AccZ,Gyro1,Gyro2,Gyro3,Battery,Counter,Validation
14859.5213018,294472.28125,295203.875,327986.84375,321642.875,285181.90625,255872.40625,221965.4375,246198.75,0.028564453125,0.98779296875,0.0634765625,0.9460448622703552,-2.380370855331421,-0.3967284858226776,73.33333587646484,181852.0,1.0
14859.5463385,294453.75,294883.625,327759.125,321651.8125,285027.65625,255813.40625,221910.09375,246196.515625,0.02783203125,0.9873046875,0.060546875,0.8850097060203552,-2.593993902206421,-0.2441406100988388,73.33333587646484,181853.0,1.0
14859.571283,294478.34375,294863.875,327776.90625,321692.40625,285026.875,255814.390625,221923.859375,246212.796875,0.032470703125,0.98779296875,0.060546875,0.8544921278953552,-2.716064214706421,-0.1831054538488388,73.33333587646484,181854.0,1.0
14859.6101169,294510.0,295172.6875,328015.25,321704.65625,285180.8125,255873.125,221989.578125,246226.921875,0.03466796875,0.989501953125,0.0634765625,0.8239745497703552,-2.716064214706421,-0.2746581733226776,73.33333587646484,181855.0,1.0
14859.6350752,294501.5,295376.53125,328128.1875,321665.3125,285268.4375,255905.9375,222011.21875,246213.0625,0.03564453125,0.98828125,0.063232421875,0.7324218153953552,-2.807616949081421,-0.3356933295726776,73.33333587646484,181856.0,1.0
14859.686654,294475.21875,295207.46875,327981.03125,321639.90625,285186.09375,255869.546875,221968.65625,246201.53125,0.037841796875,0.98828125,0.062255859375,0.7324218153953552,-2.716064214706421,-0.4272460639476776,73.33333587646484,181857.0,1.0
14859.6866611,294457.5,294893.8125,327768.5,321653.25,285043.3125,255818.5,221921.359375,246202.6875,0.0390625,0.9873046875,0.064208984375,0.7934569716453552,-2.593993902206421,-0.4882812201976776,73.33333587646484,181858.0,1.0
14859.6866623,294490.59375,294893.09375,327806.84375,321702.9375,285056.625,255837.625,221952.296875,246228.609375,0.041015625,0.989013671875,0.062744140625,0.7629393935203552,-2.471923589706421,-0.4272460639476776,73.33333587646484,181859.0,1.0
14859.6866635,294516.625,295191.53125,328034.21875,321712.59375,285202.5625,255897.265625,222013.09375,246237.828125,0.03955078125,0.989013671875,0.06103515625,0.6408690810203552,-2.319335699081421,-0.5187987685203552,73.33333587646484,181860.0,1.0
14859.6866648,294503.5625,295386.09375,328135.34375,321671.75,285282.3125,255926.234375,222028.03125,246223.515625,0.0380859375,0.98876953125,0.060302734375,0.6103515028953552,-2.258300542831421,-0.6103515028953552,73.33333587646484,181861.0,1.0
14859.686666,294474.0625,295214.0,327983.78125,321645.28125,285193.6875,255881.171875,221977.953125,246209.03125,0.03857421875,0.98681640625,0.060302734375,0.4882812201976776,-2.105712652206421,-0.7934569716453552,73.33333587646484,181862.0,1.0
14859.6866672,294458.9375,294901.15625,327771.1875,321656.46875,285048.15625,255817.25,221919.484375,246199.65625,0.038330078125,0.9892578125,0.060791015625,0.6408690810203552,-1.9226073026657104,-0.8850097060203552,73.33333587646484,181863.0,1.0
14859.6866685,294488.625,294886.5,327804.96875,321699.65625,285055.21875,255830.296875,221937.09375,246218.6875,0.0390625,0.990478515625,0.0615234375,0.6103515028953552,-1.8615721464157104,-0.9460448622703552,73.33333587646484,181864.0,1.0
14859.6866697,294524.46875,295197.09375,328039.03125,321711.34375,285205.3125,255902.09375,222003.265625,246235.140625,0.036865234375,0.99072265625,0.065185546875,0.4882812201976776,-1.8005369901657104,-1.0070799589157104,73.33333587646484,181865.0,1.0
14859.6866709,294510.96875,295396.5625,328148.125,321668.71875,285286.9375,255927.578125,222020.421875,246217.796875,0.037841796875,0.98828125,0.065185546875,0.4272460639476776,-1.6479490995407104,-1.0681151151657104,73.33333587646484,181866.0,1.0
14859.6866722,294467.875,295210.0625,327989.15625,321633.9375,285192.625,255867.9375,221965.171875,246197.40625,0.03662109375,0.989013671875,0.06103515625,0.3356933295726776,-1.5258787870407104,-1.0986326932907104,73.33333587646484,181867.0,1.0
14859.6866735,294451.0625,294883.1875,327759.1875,321645.46875,285037.59375,255804.640625,221911.703125,246197.0625,0.036865234375,0.99072265625,0.0625,0.3662109076976776,-1.4648436307907104,-1.2512205839157104,73.33333587646484,181868.0,1.0
14859.686675,294475.40625,294862.53125,327780.125,321684.96875,285034.1875,255811.609375,221925.296875,246209.9375,0.035400390625,0.98974609375,0.06005859375,0.3662109076976776,-1.3427733182907104,-1.4343260526657104,73.33333587646484,181869.0,1.0
14859.7106058,294502.65625,295160.875,328009.71875,321693.21875,285177.53125,255869.28125,221984.125,246219.140625,0.03515625,0.9912109375,0.0625,0.3051757514476776,-1.3732908964157104,-1.4038084745407104,73.33333587646484,181870.0,1.0
14859.7106116,294491.75,295364.46875,328120.75,321652.78125,285262.625,255902.546875,222002.984375,246205.015625,0.033203125,0.991455078125,0.06201171875,0.2441406100988388,-1.3122557401657104,-1.4038084745407104,73.33333587646484,181871.0,1.0
14859.7318776,294455.71875,295188.875,327965.71875,321620.53125,285169.46875,255857.84375,221950.0625,246184.265625,0.032470703125,0.990478515625,0.06298828125,0.1220703050494194,-1.2512205839157104,-1.3732908964157104,73.33333587646484,181872.0,1.0
14859.7318833,294452.40625,294879.5,327755.34375,321643.0625,285031.96875,255818.140625,221910.640625,246192.40625,0.0322265625,0.9892578125,0.06298828125,0.0610351525247097,-1.2207030057907104,-1.3122557401657104,73.33333587646484,181873.0,1.0
14859.7338564,294484.875,294869.9375,327786.8125,321689.28125,285040.46875,255833.25,221937.984375,246215.03125,0.03173828125,0.99072265625,0.063232421875,0.0,-1.2207030057907104,-1.3732908964157104,73.33333587646484,181874.0,1.0
14859.73634,294518.3125,295187.78125,328027.59375,321702.6875,285192.53125,255889.578125,222000.046875,246228.703125,0.029541015625,0.98828125,0.062744140625,-0.0610351525247097,-1.1291502714157104,-1.2817381620407104,73.33333587646484,181875.0,1.0
14859.7387559,294501.875,295383.3125,328135.96875,321661.375,285272.75,255911.921875,222008.265625,246216.015625,0.029052734375,0.990234375,0.0615234375,-0.0610351525247097,-1.3122557401657104,-1.2512205839157104,73.33333587646484,181876.0,1.0
14859.7426468,294461.90625,295192.4375,327973.59375,321624.4375,285171.96875,255864.8125,221951.3125,246189.8125,0.0283203125,0.990234375,0.0625,-0.1220703050494194,-1.3122557401657104,-1.2207030057907104,73.33333587646484,181877.0,1.0
14859.7426516,294445.90625,294872.375,327754.09375,321634.65625,285023.46875,255799.453125,221894.71875,246184.453125,0.028076171875,0.9921875,0.063232421875,-0.0915527269244194,-1.4343260526657104,-1.1291502714157104,73.33333587646484,181878.0,1.0
14859.7426529,294483.71875,294871.65625,327802.90625,321686.0625,285045.5625,255812.859375,221924.046875,246210.921875,0.028076171875,0.9912109375,0.06396484375,-0.0915527269244194,-1.4648436307907104,-1.0375975370407104,73.33333587646484,181879.0,1.0
14859.7426542,294514.75,295171.59375,328028.21875,321696.25,285186.625,255878.21875,221985.90625,246223.78125,0.030029296875,0.98828125,0.069091796875,-0.0915527269244194,-1.5563963651657104,-0.9765624403953552,73.33333587646484,181880.0,1.0
14859.7426555,294494.34375,295351.59375,328104.75,321650.03125,285245.90625,255898.96875,221996.015625,246207.421875,0.029296875,0.988525390625,0.066650390625,-0.1831054538488388,-1.6479490995407104,-0.7934569716453552,73.33333587646484,181881.0,1.0
14859.745055,294462.53125,295189.59375,327956.625,321624.0,285163.65625,255866.15625,221958.828125,246191.953125,0.0283203125,0.98681640625,0.0625,-0.0915527269244194,-1.6784666776657104,-0.6408690810203552,73.33333587646484,181882.0,1.0
14859.7481995,294455.90625,294887.90625,327763.59375,321645.71875,285036.25,255821.625,221915.453125,246198.046875,0.02880859375,0.989501953125,0.065185546875,-0.0915527269244194,-1.7089842557907104,-0.6408690810203552,73.33333587646484,181883.0,1.0
14859.7482016,294492.125,294884.78125,327806.40625,321696.78125,285054.59375,255839.328125,221940.859375,246225.578125,0.031005859375,0.98974609375,0.067138671875,-0.1525878757238388,-1.7089842557907104,-0.5187987685203552,73.33333587646484,181884.0,1.0
14859.7482029,294522.34375,295183.6875,328027.96875,321707.40625,285196.03125,255899.859375,221999.953125,246232.8125,0.03125,0.989501953125,0.06689453125,-0.0915527269244194,-1.7089842557907104,-0.4882812201976776,73.33333587646484,181885.0,1.0
14859.7500398,294505.875,295377.25,328126.84375,321665.03125,285268.71875,255920.515625,222016.40625,246219.765625,0.031494140625,0.9892578125,0.065673828125,-0.1831054538488388,-1.8005369901657104,-0.3051757514476776,73.33333587646484,181886.0,1.0
14859.7525305,294467.71875,295194.0625,327964.375,321628.65625,285170.625,255871.15625,221961.140625,246198.578125,0.031982421875,0.98779296875,0.064453125,-0.1525878757238388,-1.7700194120407104,-0.3662109076976776,73.33333587646484,181887.0,1.0
14859.7775551,294454.75,294882.71875,327746.59375,321638.3125,285024.53125,255817.515625,221908.390625,246196.34375,0.03369140625,0.986328125,0.06591796875,-0.2136230319738388,-1.7700194120407104,-0.3356933295726776,73.33333587646484,181888.0,1.0
14859.8261235,294488.375,294884.0,327793.625,321687.3125,285042.4375,255827.078125,221933.796875,246218.953125,0.03369140625,0.9873046875,0.06689453125,0.0,-1.7395018339157104,-0.3356933295726776,73.33333587646484,181889.0,1.0
14859.8261297,294521.875,295190.75,328032.78125,321700.8125,285192.71875,255887.796875,221995.84375,246227.1875,0.036376953125,0.988037109375,0.067626953125,0.0,-1.7089842557907104,-0.3051757514476776,73.33333587646484,181890.0,1.0
14859.826131,294507.40625,295387.09375,328133.71875,321661.8125,285268.90625,255920.609375,222015.234375,246212.796875,0.03759765625,0.98779296875,0.06787109375,0.0915527269244194,-1.6174315214157104,-0.3662109076976776,73.33333587646484,181891.0,1.0
14859.8261322,294462.0,295196.03125,327967.53125,321628.21875,285169.46875,255880.1875,221967.765625,246194.90625,0.038818359375,0.98876953125,0.067138671875,0.03051757626235485,-1.6784666776657104,-0.4272460639476776,73.33333587646484,181892.0,1.0
14859.8261335,294455.0,294889.15625,327764.65625,321649.03125,285034.28125,255825.296875,221923.234375,246202.0625,0.038818359375,0.987548828125,0.068115234375,0.03051757626235485,-1.5258787870407104,-0.3662109076976776,73.33333587646484,181893.0,1.0
14859.8261347,294483.09375,294879.5,327800.34375,321692.5,285041.34375,255827.890625,221937.984375,246224.328125,0.040771484375,0.98974609375,0.06884765625,0.1220703050494194,-1.3122557401657104,-0.3356933295726776,73.33333587646484,181894.0,1.0
14859.826136,294511.15625,295174.28125,328021.4375,321698.21875,285178.0625,255891.640625,221997.171875,246235.234375,0.0380859375,0.988525390625,0.066650390625,0.3051757514476776,-1.3122557401657104,-0.4577636420726776,73.33333587646484,181895.0,1.0
14859.8261373,294503.46875,295374.65625,328124.34375,321659.15625,285256.1875,255919.171875,222015.328125,246216.90625,0.03857421875,0.988037109375,0.065673828125,0.2746581733226776,-1.2207030057907104,-0.5187987685203552,73.33333587646484,181896.0,1.0
14859.82878,294475.65625,295212.28125,327989.34375,321636.0,285180.46875,255880.640625,221974.921875,246202.6875,0.039794921875,0.988525390625,0.065185546875,0.2746581733226776,-1.1291502714157104,-0.5798339247703552,73.33333587646484,181897.0,1.0
14859.8312498,294463.15625,294898.75,327774.21875,321648.9375,285037.40625,255822.25,221917.15625,246197.0625,0.0390625,0.991455078125,0.066162109375,0.2136230319738388,-1.0681151151657104,-0.6103515028953552,73.33333587646484,181898.0,1.0
14859.8337976,294491.21875,294877.71875,327792.46875,321690.4375,285035.09375,255826.71875,221931.015625,246215.734375,0.037841796875,0.990966796875,0.06494140625,0.2746581733226776,-0.8850097060203552,-0.7629393935203552,73.33333587646484,181899.0,1.0
14859.8362683,294517.25,295170.53125,328012.84375,321699.1875,285173.6875,255887.609375,221996.375,246229.15625,0.039794921875,0.990966796875,0.064697265625,0.3356933295726776,-0.7934569716453552,-0.7934569716453552,73.33333587646484,181900.0,1.0
14859.8435444,294503.5625,295373.9375,328121.375,321662.09375,285258.15625,255920.328125,222017.109375,246215.921875,0.03857421875,0.990966796875,0.062255859375,0.3662109076976776,-0.7019042372703552,-0.7934569716453552,73.33333587646484,181901.0,1.0
14859.8435492,294466.71875,295205.6875,327976.5625,321633.03125,285175.46875,255877.0625,221971.421875,246198.125,0.038330078125,0.9912109375,0.063232421875,0.3051757514476776,-0.7629393935203552,-0.9155272841453552,73.33333587646484,181902.0,1.0
14859.8435505,294443.3125,294880.15625,327751.875,321638.84375,285023.46875,255811.078125,221912.78125,246191.953125,0.037353515625,0.98974609375,0.06103515625,0.3051757514476776,-0.6408690810203552,-0.8544921278953552,73.33333587646484,181903.0,1.0
14859.8435518,294478.4375,294868.25,327785.125,321686.6875,285035.53125,255826.09375,221937.453125,246213.0625,0.036376953125,0.988525390625,0.064697265625,0.3662109076976776,-0.7019042372703552,-0.8239745497703552,73.33333587646484,181904.0,1.0
14859.843553,294514.5625,295181.53125,328026.34375,321700.96875,285189.3125,255889.75,222000.75,246226.46875,0.035400390625,0.989990234375,0.06494140625,0.3051757514476776,-0.6103515028953552,-0.8544921278953552,73.33333587646484,181905.0,1.0
14859.8435543,294507.65625,295387.96875,328142.03125,321664.25,285276.59375,255917.921875,222018.453125,246216.1875,0.033203125,0.98974609375,0.064208984375,0.3662109076976776,-0.6408690810203552,-0.7629393935203552,73.33333587646484,181906.0,1.0
14859.8435555,294469.84375,295209.4375,327985.3125,321631.25,285185.375,255877.59375,221972.0625,246199.921875,0.030029296875,0.989013671875,0.064208984375,0.3356933295726776,-0.6713866591453552,-0.9460448622703552,73.33333587646484,181907.0,1.0
14859.8435568,294452.78125,294884.15625,327760.53125,321637.5,285031.5,255813.578125,221910.71875,246191.328125,0.031982421875,0.98828125,0.064208984375,0.2441406100988388,-0.7629393935203552,-0.9765624403953552,73.33333587646484,181908.0,1.0
14859.8456033,294495.78125,294881.5625,327795.40625,321691.5,285044.75,255834.140625,221938.171875,246222.171875,0.03076171875,0.98779296875,0.066162109375,0.2746581733226776,-0.7934569716453552,-1.0375975370407104,73.33333587646484,181909.0,1.0
14859.8456065,294525.90625,295187.0625,328028.6875,321701.4375,285190.9375,255890.921875,222002.984375,246233.71875,0.031494140625,0.989501953125,0.065673828125,0.3662109076976776,-0.8544921278953552,-0.9460448622703552,73.33333587646484,181910.0,1.0
14859.8475223,294519.90625,295395.21875,328142.65625,321663.4375,285276.21875,255920.421875,222023.640625,246216.1875,0.030517578125,0.989501953125,0.06689453125,0.3967284858226776,-0.8544921278953552,-0.8239745497703552,73.33333587646484,181911.0,1.0
14859.8725608,294482.28125,295220.15625,327990.6875,321628.125,285185.21875,255875.0,221968.75,246195.09375,0.031982421875,0.990478515625,0.064453125,0.3662109076976776,-0.9460448622703552,-0.7934569716453552,73.33333587646484,181912.0,1.0
14859.8976011,294458.3125,294894.71875,327766.34375,321634.1875,285031.78125,255813.21875,221911.609375,246187.84375,0.03369140625,0.99169921875,0.06640625,0.4577636420726776,-1.0681151151657104,-0.7629393935203552,73.33333587646484,181913.0,1.0
14859.9255315,294495.34375,294892.84375,327808.71875,321689.8125,285048.59375,255830.296875,221940.765625,246217.078125,0.0302734375,0.9892578125,0.06787109375,0.4272460639476776,-1.0986326932907104,-0.8544921278953552,73.33333587646484,181914.0,1.0
14859.9255381,294530.46875,295204.875,328051.75,321707.875,285209.25,255903.4375,222013.265625,246234.78125,0.02978515625,0.990234375,0.0693359375,0.4272460639476776,-1.2207030057907104,-0.7324218153953552,73.33333587646484,181915.0,1.0
14859.9255394,294513.125,295389.40625,328143.65625,321662.0,285279.0,255925.609375,222026.953125,246217.0,0.031005859375,0.98828125,0.06787109375,0.3662109076976776,-1.3427733182907104,-0.6713866591453552,73.33333587646484,181916.0,1.0
14859.9255406,294477.28125,295208.53125,327976.1875,321628.125,285178.59375,255882.875,221977.953125,246195.171875,0.03125,0.9873046875,0.065185546875,0.4577636420726776,-1.4648436307907104,-0.4882812201976776,73.33333587646484,181917.0,1.0
14859.9255419,294456.96875,294891.9375,327757.59375,321639.375,285031.96875,255824.84375,221928.78125,246200.71875,0.03125,0.98681640625,0.066162109375,0.4577636420726776,-1.5563963651657104,-0.6103515028953552,73.33333587646484,181918.0,1.0
14859.9255431,294482.1875,294871.03125,327787.09375,321681.3125,285035.375,255829.140625,221947.375,246221.46875,0.0302734375,0.98779296875,0.064208984375,0.4577636420726776,-1.7089842557907104,-0.5187987685203552,73.33333587646484,181919.0,1.0
14859.9476067,294510.09375,295167.6875,328015.8125,321688.03125,285177.78125,255889.578125,222001.015625,246219.5,0.031005859375,0.988525390625,0.065185546875,0.4882812201976776,-1.8310545682907104,-0.4577636420726776,73.33333587646484,181920.0,1.0
14859.9514698,294494.15625,295367.40625,328123.09375,321644.65625,285259.0625,255912.828125,222011.03125,246203.3125,0.033447265625,0.98876953125,0.064697265625,0.4577636420726776,-1.8615721464157104,-0.5187987685203552,73.33333587646484,181921.0,1.0
14859.9514753,294450.1875,295179.03125,327953.9375,321603.4375,285154.625,255856.40625,221951.40625,246176.140625,0.033203125,0.989990234375,0.064697265625,0.3967284858226776,-1.9531248807907104,-0.5798339247703552,73.33333587646484,181922.0,1.0
14859.9514772,294433.90625,294854.46875,327723.15625,321617.375,284999.15625,255788.90625,221895.875,246176.140625,0.0341796875,0.9892578125,0.06689453125,0.3662109076976776,-1.8920897245407104,-0.5187987685203552,73.33333587646484,181923.0,1.0
14859.9514784,294467.71875,294846.4375,327762.5,321669.6875,285014.625,255800.96875,221922.703125,246203.765625,0.034912109375,0.989990234375,0.06689453125,0.5187987685203552,-1.8920897245407104,-0.4577636420726776,73.33333587646484,181924.0,1.0
14859.9514797,294500.25,295141.03125,327986.65625,321682.65625,285155.0,255865.171875,221982.0625,246212.171875,0.035888671875,0.988037109375,0.064453125,0.5187987685203552,-1.9531248807907104,-0.4882812201976776,73.33333587646484,181925.0,1.0
14859.953852,294502.5625,295366.59375,328117.46875,321655.375,285257.09375,255906.75,222008.359375,246207.25,0.037841796875,0.98876953125,0.06201171875,0.5493163466453552,-1.9836424589157104,-0.5187987685203552,73.33333587646484,181926.0,1.0
14859.9568841,294468.78125,295202.8125,327977.34375,321624.53125,285179.5625,255864.984375,221962.75,246195.171875,0.039794921875,0.98779296875,0.0625,0.4272460639476776,-1.9531248807907104,-0.5798339247703552,73.33333587646484,181927.0,1.0
14859.9568894,294452.34375,294877.09375,327748.90625,321632.5,285028.46875,255809.375,221907.140625,246188.109375,0.0400390625,0.986083984375,0.064697265625,0.5493163466453552,-1.8920897245407104,-0.6713866591453552,73.33333587646484,181928.0,1.0
14859.9568907,294485.21875,294859.21875,327769.03125,321676.65625,285031.34375,255814.828125,221929.234375,246209.03125,0.03857421875,0.98681640625,0.06494140625,0.5187987685203552,-1.8310545682907104,-0.5798339247703552,73.33333587646484,181929.0,1.0
14859.9587738,294485.21875,294859.21875,327769.03125,321676.65625,285031.34375,255814.828125,221929.234375,246209.03125,0.03857421875,0.98681640625,0.06494140625,0.5187987685203552,-1.8310545682907104,-0.5798339247703552,73.33333587646484,181930.0,0.0
14859.9587743,294485.21875,294859.21875,327769.03125,321676.65625,285031.34375,255814.828125,221929.234375,246209.03125,0.03857421875,0.98681640625,0.06494140625,0.5187987685203552,-1.8310545682907104,-0.5798339247703552,73.33333587646484,181931.0,0.0
14859.9587745,294485.21875,294859.21875,327769.03125,321676.65625,285031.34375,255814.828125,221929.234375,246209.03125,0.03857421875,0.98681640625,0.06494140625,0.5187987685203552,-1.8310545682907104,-0.5798339247703552,73.33333587646484,181932.0,0.0
14859.9587747,294485.21875,294859.21875,327769.03125,321676.65625,285031.34375,255814.828125,221929.234375,246209.03125,0.03857421875,0.98681640625,0.06494140625,0.5187987685203552,-1.8310545682907104,-0.5798339247703552,73.33333587646484,181933.0,0.0
14859.9587749,294485.21875,294859.21875,327769.03125,321676.65625,285031.34375,255814.828125,221929.234375,246209.03125,0.03857421875,0.98681640625,0.06494140625,0.5187987685203552,-1.8310545682907104,-0.5798339247703552,73.33333587646484,181934.0,0.0
14859.9587751,294485.21875,294859.21875,327769.03125,321676.65625,285031.34375,255814.828125,221929.234375,246209.03125,0.03857421875,0.98681640625,0.06494140625,0.5187987685203552,-1.8310545682907104,-0.5798339247703552,73.33333587646484,181935.0,0.0
14859.9587752,294485.21875,294859.21875,327769.03125,321676.65625,285031.34375,255814.828125,221929.234375,246209.03125,0.03857421875,0.98681640625,0.06494140625,0.5187987685203552,-1.8310545682907104,-0.5798339247703552,73.33333587646484,181936.0,0.0
14859.9587754,294485.21875,294859.21875,327769.03125,321676.65625,285031.34375,255814.828125,221929.234375,246209.03125,0.03857421875,0.98681640625,0.06494140625,0.5187987685203552,-1.8310545682907104,-0.5798339247703552,73.33333587646484,181937.0,0.0
14859.9587756,294485.21875,294859.21875,327769.03125,321676.65625,285031.34375,255814.828125,221929.234375,246209.03125,0.03857421875,0.98681640625,0.06494140625,0.5187987685203552,-1.8310545682907104,-0.5798339247703552,73.33333587646484,181938.0,0.0
14859.9587757,294485.21875,294859.21875,327769.03125,321676.65625,285031.34375,255814.828125,221929.234375,246209.03125,0.03857421875,0.98681640625,0.06494140625,0.5187987685203552,-1.8310545682907104,-0.5798339247703552,73.33333587646484,181939.0,0.0
14859.9587759,294485.21875,294859.21875,327769.03125,321676.65625,285031.34375,255814.828125,221929.234375,246209.03125,0.03857421875,0.98681640625,0.06494140625,0.5187987685203552,-1.8310545682907104,-0.5798339247703552,73.33333587646484,181940.0,0.0
14859.9587761,294485.21875,294859.21875,327769.03125,321676.65625,285031.34375,255814.828125,221929.234375,246209.03125,0.03857421875,0.98681640625,0.06494140625,0.5187987685203552,-1.8310545682907104,-0.5798339247703552,73.33333587646484,181941.0,0.0
14859.9587763,294485.21875,294859.21875,327769.03125,321676.65625,285031.34375,255814.828125,221929.234375,246209.03125,0.03857421875,0.98681640625,0.06494140625,0.5187987685203552,-1.8310545682907104,-0.5798339247703552,73.33333587646484,181942.0,0.0
14859.9587764,294485.21875,294859.21875,327769.03125,321676.65625,285031.34375,255814.828125,221929.234375,246209.03125,0.03857421875,0.98681640625,0.06494140625,0.5187987685203552,-1.8310545682907104,-0.5798339247703552,73.33333587646484,181943.0,0.0
14859.9587766,294485.21875,294859.21875,327769.03125,321676.65625,285031.34375,255814.828125,221929.234375,246209.03125,0.03857421875,0.98681640625,0.06494140625,0.5187987685203552,-1.8310545682907104,-0.5798339247703552,73.33333587646484,181944.0,0.0
14859.9587768,294485.21875,294859.21875,327769.03125,321676.65625,285031.34375,255814.828125,221929.234375,246209.03125,0.03857421875,0.98681640625,0.06494140625,0.5187987685203552,-1.8310545682907104,-0.5798339247703552,73.33333587646484,181945.0,0.0
14859.958777,294485.21875,294859.21875,327769.03125,321676.65625,285031.34375,255814.828125,221929.234375,246209.03125,0.03857421875,0.98681640625,0.06494140625,0.5187987685203552,-1.8310545682907104,-0.5798339247703552,73.33333587646484,181946.0,0.0
14859.9587772,294485.21875,294859.21875,327769.03125,321676.65625,285031.34375,255814.828125,221929.234375,246209.03125,0.03857421875,0.98681640625,0.06494140625,0.5187987685203552,-1.8310545682907104,-0.5798339247703552,73.33333587646484,181947.0,0.0
14859.9587773,294485.21875,294859.21875,327769.03125,321676.65625,285031.34375,255814.828125,221929.234375,246209.03125,0.03857421875,0.98681640625,0.06494140625,0.5187987685203552,-1.8310545682907104,-0.5798339247703552,73.33333587646484,181948.0,0.0
14859.9587775,294485.21875,294859.21875,327769.03125,321676.65625,285031.34375,255814.828125,221929.234375,246209.03125,0.03857421875,0.98681640625,0.06494140625,0.5187987685203552,-1.8310545682907104,-0.5798339247703552,73.33333587646484,181949.0,0.0
14859.9587777,294485.21875,294859.21875,327769.03125,321676.65625,285031.34375,255814.828125,221929.234375,246209.03125,0.03857421875,0.98681640625,0.06494140625,0.5187987685203552,-1.8310545682907104,-0.5798339247703552,73.33333587646484,181950.0,0.0
14859.9587779,294485.21875,294859.21875,327769.03125,321676.65625,285031.34375,255814.828125,221929.234375,246209.03125,0.03857421875,0.98681640625,0.06494140625,0.5187987685203552,-1.8310545682907104,-0.5798339247703552,73.33333587646484,181951.0,0.0
14859.958778,294485.21875,294859.21875,327769.03125,321676.65625,285031.34375,255814.828125,221929.234375,246209.03125,0.03857421875,0.98681640625,0.06494140625,0.5187987685203552,-1.8310545682907104,-0.5798339247703552,73.33333587646484,181952.0,0.0
14859.9587782,294485.21875,294859.21875,327769.03125,321676.65625,285031.34375,255814.828125,221929.234375,246209.03125,0.03857421875,0.98681640625,0.06494140625,0.5187987685203552,-1.8310545682907104,-0.5798339247703552,73.33333587646484,181953.0,0.0
14859.9587788,294485.21875,294859.21875,327769.03125,321676.65625,285031.34375,255814.828125,221929.234375,246209.03125,0.03857421875,0.98681640625,0.06494140625,0.5187987685203552,-1.8310545682907104,-0.5798339247703552,73.33333587646484,181954.0,0.0
14859.958779,294485.21875,294859.21875,327769.03125,321676.65625,285031.34375,255814.828125,221929.234375,246209.03125,0.03857421875,0.98681640625,0.06494140625,0.5187987685203552,-1.8310545682907104,-0.5798339247703552,73.33333587646484,181955.0,0.0
14859.9587792,294485.21875,294859.21875,327769.03125,321676.65625,285031.34375,255814.828125,221929.234375,246209.03125,0.03857421875,0.98681640625,0.06494140625,0.5187987685203552,-1.8310545682907104,-0.5798339247703552,73.33333587646484,181956.0,0.0
14859.9587793,294485.21875,294859.21875,327769.03125,321676.65625,285031.34375,255814.828125,221929.234375,246209.03125,0.03857421875,0.98681640625,0.06494140625,0.5187987685203552,-1.8310545682907104,-0.5798339247703552,73.33333587646484,181957.0,0.0
14859.9587795,294485.21875,294859.21875,327769.03125,321676.65625,285031.34375,255814.828125,221929.234375,246209.03125,0.03857421875,0.98681640625,0.06494140625,0.5187987685203552,-1.8310545682907104,-0.5798339247703552,73.33333587646484,181958.0,0.0
14859.9587797,294485.21875,294859.21875,327769.03125,321676.65625,285031.34375,255814.828125,221929.234375,246209.03125,0.03857421875,0.98681640625,0.06494140625,0.5187987685203552,-1.8310545682907104,-0.5798339247703552,73.33333587646484,181959.0,0.0
14859.9587798,294485.21875,294859.21875,327769.03125,321676.65625,285031.34375,255814.828125,221929.234375,246209.03125,0.03857421875,0.98681640625,0.06494140625,0.5187987685203552,-1.8310545682907104,-0.5798339247703552,73.33333587646484,181960.0,0.0
14859.95878,294485.21875,294859.21875,327769.03125,321676.65625,285031.34375,255814.828125,221929.234375,246209.03125,0.03857421875,0.98681640625,0.06494140625,0.5187987685203552,-1.8310545682907104,-0.5798339247703552,73.33333587646484,181961.0,0.0
14859.9587802,294503.75,295209.875,327977.8125,321640.09375,285192.1875,255882.328125,221974.46875,246217.4375,0.036376953125,0.990966796875,0.060791015625,0.1525878757238388,-2.105712652206421,-0.9155272841453552,73.33333587646484,181962.0,1.0
14859.9612518,294490.3125,294892.75,327758.21875,321657.34375,285046.53125,255819.84375,221920.109375,246216.71875,0.03759765625,0.990234375,0.063232421875,0.2441406100988388,-2.044677495956421,-1.0375975370407104,73.33333587646484,181963.0,1.0
14859.9963675,294525.1875,294868.53125,327775.375,321707.78125,285044.46875,255829.578125,221944.703125,246242.390625,0.037841796875,0.990234375,0.06201171875,0.1525878757238388,-2.044677495956421,-1.0070799589157104,73.33333587646484,181964.0,1.0
14860.0484175,294562.21875,295170.71875,328003.09375,321722.0,285186.0,255893.328125,222004.59375,246254.359375,0.037841796875,0.989501953125,0.06396484375,0.2136230319738388,-2.014159917831421,-0.9765624403953552,73.33333587646484,181965.0,1.0
14860.0484264,294557.375,295387.96875,328137.21875,321686.59375,285281.0625,255915.0625,222023.375,246237.921875,0.036376953125,0.98828125,0.064697265625,0.2441406100988388,-1.9531248807907104,-0.9155272841453552,73.33333587646484,181966.0,1.0
14860.0484277,294523.9375,295221.59375,327994.53125,321656.71875,285198.96875,255870.984375,221975.625,246222.171875,0.037109375,0.988037109375,0.065673828125,0.2136230319738388,-1.9226073026657104,-1.0070799589157104,73.33333587646484,181967.0,1.0
14860.0484289,294508.3125,294892.125,327764.03125,321666.84375,285044.46875,255814.65625,221916.53125,246215.5625,0.038330078125,0.98876953125,0.0673828125,0.2441406100988388,-1.9226073026657104,-1.0986326932907104,73.33333587646484,181968.0,1.0
14860.0484302,294545.3125,294865.46875,327774.40625,321713.78125,285038.75,255830.65625,221934.6875,246235.40625,0.03759765625,0.987548828125,0.069580078125,0.3356933295726776,-1.8615721464157104,-1.1901854276657104,73.33333587646484,181969.0,1.0
14860.0484314,294592.25,295196.1875,328026.625,321738.28125,285200.84375,255896.109375,222004.953125,246254.09375,0.037841796875,0.988037109375,0.06787109375,0.4882812201976776,-1.7395018339157104,-1.1291502714157104,73.33333587646484,181970.0,1.0
14860.0484326,294586.0,295415.78125,328155.625,321703.03125,285297.78125,255931.59375,222029.09375,246242.125,0.039306640625,0.989013671875,0.06494140625,0.4272460639476776,-1.6784666776657104,-1.0375975370407104,73.33333587646484,181971.0,1.0
14860.0484338,294559.875,295259.75,328020.8125,321675.6875,285223.84375,255895.921875,221986.359375,246226.03125,0.037109375,0.99072265625,0.066162109375,0.3967284858226776,-1.7089842557907104,-0.9765624403953552,73.33333587646484,181972.0,1.0
14860.0484351,294550.21875,294943.625,327805.4375,321688.375,285078.09375,255838.171875,221934.140625,246223.78125,0.036376953125,0.991455078125,0.06494140625,0.4272460639476776,-1.6479490995407104,-0.9460448622703552,73.33333587646484,181973.0,1.0
14860.0484363,294587.5,294925.28125,327831.1875,321738.71875,285081.21875,255859.171875,221960.4375,246247.75,0.037353515625,0.9892578125,0.066162109375,0.5187987685203552,-1.6479490995407104,-0.9460448622703552,73.33333587646484,181974.0,1.0
14860.0484382,294587.5,294925.28125,327831.1875,321738.71875,285081.21875,255859.171875,221960.4375,246247.75,0.037353515625,0.9892578125,0.066162109375,0.5187987685203552,-1.6479490995407104,-0.9460448622703552,73.33333587646484,181975.0,0.0
14860.0484383,294587.5,294925.28125,327831.1875,321738.71875,285081.21875,255859.171875,221960.4375,246247.75,0.037353515625,0.9892578125,0.066162109375,0.5187987685203552,-1.6479490995407104,-0.9460448622703552,73.33333587646484,181976.0,0.0
14860.0484385,294587.5,294925.28125,327831.1875,321738.71875,285081.21875,255859.171875,221960.4375,246247.75,0.037353515625,0.9892578125,0.066162109375,0.5187987685203552,-1.6479490995407104,-0.9460448622703552,73.33333587646484,181977.0,0.0
14860.0484387,294587.5,294925.28125,327831.1875,321738.71875,285081.21875,255859.171875,221960.4375,246247.75,0.037353515625,0.9892578125,0.066162109375,0.5187987685203552,-1.6479490995407104,-0.9460448622703552,73.33333587646484,181978.0,0.0
14860.0484389,294587.5,294925.28125,327831.1875,321738.71875,285081.21875,255859.171875,221960.4375,246247.75,0.037353515625,0.9892578125,0.066162109375,0.5187987685203552,-1.6479490995407104,-0.9460448622703552,73.33333587646484,181979.0,0.0
14860.0484391,294587.5,294925.28125,327831.1875,321738.71875,285081.21875,255859.171875,221960.4375,246247.75,0.037353515625,0.9892578125,0.066162109375,0.5187987685203552,-1.6479490995407104,-0.9460448622703552,73.33333587646484,181980.0,0.0
14860.0484392,294587.5,294925.28125,327831.1875,321738.71875,285081.21875,255859.171875,221960.4375,246247.75,0.037353515625,0.9892578125,0.066162109375,0.5187987685203552,-1.6479490995407104,-0.9460448622703552,73.33333587646484,181981.0,0.0
14860.0484394,294587.5,294925.28125,327831.1875,321738.71875,285081.21875,255859.171875,221960.4375,246247.75,0.037353515625,0.9892578125,0.066162109375,0.5187987685203552,-1.6479490995407104,-0.9460448622703552,73.33333587646484,181982.0,0.0
14860.0484396,294587.5,294925.28125,327831.1875,321738.71875,285081.21875,255859.171875,221960.4375,246247.75,0.037353515625,0.9892578125,0.066162109375,0.5187987685203552,-1.6479490995407104,-0.9460448622703552,73.33333587646484,181983.0,0.0
14860.0484398,294587.5,294925.28125,327831.1875,321738.71875,285081.21875,255859.171875,221960.4375,246247.75,0.037353515625,0.9892578125,0.066162109375,0.5187987685203552,-1.6479490995407104,-0.9460448622703552,73.33333587646484,181984.0,0.0
14860.0484399,294587.5,294925.28125,327831.1875,321738.71875,285081.21875,255859.171875,221960.4375,246247.75,0.037353515625,0.9892578125,0.066162109375,0.5187987685203552,-1.6479490995407104,-0.9460448622703552,73.33333587646484,181985.0,0.0
14860.0484402,294587.5,294925.28125,327831.1875,321738.71875,285081.21875,255859.171875,221960.4375,246247.75,0.037353515625,0.9892578125,0.066162109375,0.5187987685203552,-1.6479490995407104,-0.9460448622703552,73.33333587646484,181986.0,0.0
14860.0484404,294553.0,295250.03125,328018.40625,321662.71875,285215.6875,255891.359375,221976.53125,246215.203125,0.037353515625,0.987548828125,0.0654296875,0.6103515028953552,-1.0986326932907104,-0.8850097060203552,73.33333587646484,181987.0,1.0
14860.0484416,294529.84375,294929.84375,327799.625,321669.5,285071.40625,255834.59375,221928.328125,246209.75,0.036865234375,0.9892578125,0.065673828125,0.7019042372703552,-1.0986326932907104,-0.8239745497703552,73.33333587646484,181988.0,1.0
14860.0911563,294554.0,294892.03125,327807.9375,321709.21875,285061.8125,255830.21875,221935.21875,246224.5,0.0390625,0.98974609375,0.069091796875,0.8239745497703552,-1.1596678495407104,-0.8544921278953552,73.33333587646484,181989.0,1.0
14860.0911631,294581.53125,295189.65625,328036.53125,321720.46875,285201.03125,255882.875,221989.21875,246234.25,0.037841796875,0.988037109375,0.065673828125,0.8850097060203552,-1.0681151151657104,-0.8544921278953552,73.33333587646484,181990.0,1.0
14860.0911644,294559.4375,295391.0,328141.0625,321676.3125,285279.25,255907.453125,222003.796875,246221.375,0.03759765625,0.98876953125,0.069580078125,0.8239745497703552,-1.0070799589157104,-0.7019042372703552,73.33333587646484,181991.0,1.0
14860.0911656,294517.59375,295229.90625,327994.53125,321644.125,285197.375,255867.9375,221961.78125,246204.125,0.037109375,0.9892578125,0.06787109375,0.7934569716453552,-0.9765624403953552,-0.6713866591453552,73.33333587646484,181992.0,1.0
14860.0911668,294497.9375,294915.28125,327781.09375,321657.34375,285059.6875,255824.75,221921.546875,246207.15625,0.03564453125,0.99072265625,0.06640625,0.7934569716453552,-0.9155272841453552,-0.7019042372703552,73.33333587646484,181993.0,1.0
14860.0911681,294522.59375,294893.09375,327805.78125,321698.21875,285063.0625,255835.484375,221939.953125,246226.296875,0.03369140625,0.989501953125,0.064697265625,0.7934569716453552,-0.9460448622703552,-0.6103515028953552,73.33333587646484,181994.0,1.0
14860.0911693,294549.4375,295197.71875,328039.84375,321706.96875,285209.78125,255886.1875,222000.671875,246238.09375,0.032470703125,0.9912109375,0.06787109375,0.7934569716453552,-0.9460448622703552,-0.6408690810203552,73.33333587646484,181995.0,1.0
14860.0911706,294535.3125,295405.21875,328150.71875,321666.90625,285293.03125,255916.671875,222015.953125,246226.65625,0.031982421875,0.989990234375,0.0654296875,0.7629393935203552,-1.0070799589157104,-0.6713866591453552,73.33333587646484,181996.0,1.0
14860.0944111,294501.78125,295238.84375,328003.375,321639.90625,285209.875,255882.15625,221974.921875,246215.65625,0.031494140625,0.98974609375,0.064697265625,0.7324218153953552,-1.0375975370407104,-0.7019042372703552,73.33333587646484,181997.0,1.0
14860.0944159,294472.90625,294905.25,327772.15625,321641.25,285052.78125,255815.734375,221918.953125,246206.0,0.0322265625,0.98876953125,0.064208984375,0.7629393935203552,-1.1901854276657104,-0.7629393935203552,73.33333587646484,181998.0,1.0
14860.0962885,294502.3125,294888.1875,327801.9375,321687.3125,285060.65625,255836.921875,221947.5625,246227.28125,0.03369140625,0.990234375,0.0654296875,0.6713866591453552,-1.3122557401657104,-0.7629393935203552,73.33333587646484,181999.0,1.0
14860.1461944,294536.625,295195.125,328038.25,321702.9375,285212.28125,255911.03125,222014.875,246243.28125,0.033203125,0.990234375,0.064208984375,0.7934569716453552,-1.4038084745407104,-0.7934569716453552,73.33333587646484,182000.0,1.0
14860.1462023,294524.125,295401.28125,328146.4375,321660.65625,285290.0,255939.375,222024.625,246220.65625,0.03271484375,0.9912109375,0.064697265625,0.7019042372703552,-1.5563963651657104,-0.7629393935203552,73.33333587646484,182001.0,1.0
14860.1462047,294479.40625,295230.4375,327989.15625,321622.125,285195.40625,255884.921875,221967.046875,246193.921875,0.032470703125,0.990966796875,0.064208984375,0.7629393935203552,-1.5258787870407104,-0.9460448622703552,73.33333587646484,182002.0,1.0
14860.1462068,294457.5,294905.1875,327761.34375,321632.15625,285044.75,255818.5,221913.140625,246196.25,0.033203125,0.990966796875,0.06298828125,0.6408690810203552,-1.6174315214157104,-0.7934569716453552,73.33333587646484,182003.0,1.0
14860.1462089,294481.84375,294871.28125,327778.34375,321676.40625,285046.1875,255826.28125,221934.5,246218.15625,0.031982421875,0.99169921875,0.064697265625,0.6408690810203552,-1.7700194120407104,-0.8544921278953552,73.33333587646484,182004.0,1.0
14860.1462111,294515.09375,295175.0,328011.34375,321689.1875,285193.875,255892.265625,221999.328125,246227.0,0.03173828125,0.994140625,0.065673828125,0.5798339247703552,-1.8310545682907104,-0.8544921278953552,73.33333587646484,182005.0,1.0
14860.1462132,294499.09375,295387.875,328123.53125,321651.53125,285279.0,255929.28125,222020.875,246216.375,0.03466796875,0.9921875,0.067138671875,0.5187987685203552,-1.9531248807907104,-0.8850097060203552,73.33333587646484,182006.0,1.0
14860.1462153,294454.5625,295215.5,327970.125,321614.4375,285186.46875,255879.921875,221966.6875,246191.6875,0.035888671875,0.989013671875,0.070068359375,0.5187987685203552,-2.075195074081421,-0.8544921278953552,73.33333587646484,182007.0,1.0
14860.1721196,294436.9375,294895.15625,327754.46875,321628.03125,285045.09375,255824.125,221918.859375,246196.78125,0.039306640625,0.987060546875,0.064208984375,0.4577636420726776,-2.136230230331421,-0.8239745497703552,73.33333587646484,182008.0,1.0
14860.1721248,294468.34375,294867.1875,327778.6875,321679.0,285052.53125,255834.328125,221940.671875,246223.609375,0.040283203125,0.98828125,0.06591796875,0.4882812201976776,-2.136230230331421,-0.7934569716453552,73.33333587646484,182009.0,1.0
14860.1721261,294501.0625,295165.71875,328013.5625,321690.6875,285199.59375,255893.515625,222001.375,246232.640625,0.040283203125,0.990478515625,0.064697265625,0.5798339247703552,-2.014159917831421,-0.7629393935203552,73.33333587646484,182010.0,1.0
14860.1958957,294484.34375,295363.5625,328120.125,321645.28125,285276.59375,255914.34375,222011.21875,246210.734375,0.039306640625,0.990478515625,0.063232421875,0.5187987685203552,-2.075195074081421,-0.7629393935203552,73.33333587646484,182011.0,1.0
14860.1976074,294484.34375,295363.5625,328120.125,321645.28125,285276.59375,255914.34375,222011.21875,246210.734375,0.039306640625,0.990478515625,0.063232421875,0.5187987685203552,-2.075195074081421,-0.7629393935203552,73.33333587646484,182012.0,0.0
14860.1976084,294484.34375,295363.5625,328120.125,321645.28125,285276.59375,255914.34375,222011.21875,246210.734375,0.039306640625,0.990478515625,0.063232421875,0.5187987685203552,-2.075195074081421,-0.7629393935203552,73.33333587646484,182013.0,0.0
14860.1976087,294484.34375,295363.5625,328120.125,321645.28125,285276.59375,255914.34375,222011.21875,246210.734375,0.039306640625,0.990478515625,0.063232421875,0.5187987685203552,-2.075195074081421,-0.7629393935203552,73.33333587646484,182014.0,0.0
14860.1976091,294496.21875,295155.5,327998.09375,321685.15625,285195.03125,255880.546875,221991.453125,246229.875,0.0400390625,0.98681640625,0.0615234375,0.4272460639476776,-1.8615721464157104,-0.6103515028953552,73.33333587646484,182015.0,1.0
14860.2225594,294489.96875,295374.03125,328121.21875,321649.65625,285286.40625,255915.421875,222014.875,246220.75,0.0400390625,0.987548828125,0.061279296875,0.3662109076976776,-1.8005369901657104,-0.7324218153953552,73.33333587646484,182016.0,1.0
14860.2475983,294452.40625,295211.40625,327975.84375,321617.125,285200.0625,255881.625,221972.0625,246203.046875,0.03955078125,0.98828125,0.06396484375,0.4272460639476776,-1.6784666776657104,-0.6408690810203552,73.33333587646484,182017.0,1.0
14860.2726081,294433.65625,294889.09375,327752.84375,321625.25,285050.1875,255816.984375,221912.515625,246194.015625,0.034912109375,0.989501953125,0.063232421875,0.4882812201976776,-1.5258787870407104,-0.7629393935203552,73.33333587646484,182018.0,1.0
14860.2975967,294465.5625,294858.78125,327762.25,321667.09375,285042.96875,255812.234375,221918.953125,246212.25,0.03515625,0.989501953125,0.061767578125,0.4272460639476776,-1.4953612089157104,-0.9460448622703552,73.33333587646484,182019.0,1.0
14860.3050474,294505.15625,295162.3125,327993.28125,321682.84375,285186.1875,255873.21875,221988.0625,246227.09375,0.032958984375,0.99169921875,0.06396484375,0.3356933295726776,-1.5563963651657104,-1.0375975370407104,73.33333587646484,182020.0,1.0
14860.3113487,294506.875,295381.1875,328116.75,321650.65625,285278.46875,255915.78125,222018.8125,246222.0,0.032470703125,0.99169921875,0.0634765625,0.4272460639476776,-1.5869139432907104,-1.2512205839157104,73.33333587646484,182021.0,1.0
14860.3138471,294464.84375,295220.78125,327971.8125,321611.5625,285191.46875,255867.40625,221964.359375,246199.375,0.033203125,0.9912109375,0.06201171875,0.2136230319738388,-1.5869139432907104,-1.2512205839157104,73.33333587646484,182022.0,1.0
14860.3176073,294449.375,294903.375,327753.21875,321626.34375,285047.59375,255816.984375,221914.296875,246198.484375,0.034912109375,0.989501953125,0.06298828125,0.2746581733226776,-1.6784666776657104,-1.2817381620407104,73.33333587646484,182023.0,1.0
14860.3240689,294481.84375,294876.21875,327777.34375,321674.96875,285051.0,255829.859375,221937.453125,246217.703125,0.03515625,0.99072265625,0.063720703125,0.3967284858226776,-1.7089842557907104,-1.4038084745407104,73.33333587646484,182024.0,1.0
14860.3240743,294512.0625,295175.90625,328002.9375,321684.0,285191.65625,255883.59375,221994.3125,246226.203125,0.03466796875,0.990966796875,0.064697265625,0.1831054538488388,-1.6479490995407104,-1.5869139432907104,73.33333587646484,182025.0,1.0
14860.3240757,294505.0,295389.5,328119.875,321647.78125,285279.71875,255914.34375,222015.328125,246213.859375,0.03564453125,0.989990234375,0.065673828125,0.2136230319738388,-1.6174315214157104,-1.4953612089157104,73.33333587646484,182026.0,1.0
14860.324077,294467.4375,295222.125,327968.40625,321615.15625,285191.1875,255870.53125,221963.109375,246195.171875,0.035888671875,0.989013671875,0.0654296875,0.1831054538488388,-1.6479490995407104,-1.5258787870407104,73.33333587646484,182027.0,1.0
14860.3240782,294449.8125,294899.625,327742.21875,321629.1875,285041.96875,255818.3125,221914.125,246200.0,0.03515625,0.986572265625,0.0654296875,0.1831054538488388,-1.8005369901657104,-1.5258787870407104,73.33333587646484,182028.0,1.0
14860.3240794,294482.0,294882.03125,327768.5,321680.59375,285048.0625,255828.609375,221942.1875,246226.296875,0.03564453125,0.987060546875,0.061767578125,0.2441406100988388,-1.8005369901657104,-1.5258787870407104,73.33333587646484,182029.0,1.0
14860.3240806,294518.5,295189.5,328015.34375,321698.65625,285204.53125,255888.5,222000.671875,246235.140625,0.034912109375,0.988525390625,0.063232421875,0.3356933295726776,-1.6784666776657104,-1.4648436307907104,73.33333587646484,182030.0,1.0
14860.3240818,294507.84375,295397.4375,328134.8125,321655.65625,285290.78125,255910.765625,222015.953125,246213.859375,0.032958984375,0.987548828125,0.065185546875,0.3662109076976776,-1.7700194120407104,-1.4648436307907104,73.33333587646484,182031.0,1.0
14860.3240832,294469.125,295226.40625,327982.53125,321620.53125,285198.875,255867.765625,221962.3125,246195.171875,0.0322265625,0.988037109375,0.06494140625,0.3051757514476776,-1.7089842557907104,-1.4343260526657104,73.33333587646484,182032.0,1.0
14860.3263557,294450.8125,294893.65625,327743.28125,321631.15625,285039.21875,255807.59375,221902.671875,246196.078125,0.03271484375,0.989501953125,0.06396484375,0.2746581733226776,-1.7089842557907104,-1.3732908964157104,73.33333587646484,182033.0,1.0
14860.3520892,294484.5,294867.28125,327771.90625,321685.6875,285045.90625,255819.75,221928.96875,246226.5625,0.033447265625,0.989990234375,0.06298828125,0.4272460639476776,-1.7395018339157104,-1.3122557401657104,73.33333587646484,182034.0,1.0
14860.3520945,294522.59375,295171.59375,328016.34375,321703.5625,285199.40625,255887.875,221995.296875,246240.15625,0.035400390625,0.98828125,0.063720703125,0.4272460639476776,-1.6479490995407104,-1.0986326932907104,73.33333587646484,182035.0,1.0
14860.377326,294511.15625,295383.15625,328133.28125,321659.3125,285284.53125,255912.828125,222010.40625,246220.296875,0.03369140625,0.98876953125,0.062255859375,0.4272460639476776,-1.6784666776657104,-1.0375975370407104,73.33333587646484,182036.0,1.0
14860.3773314,294470.46875,295214.96875,327980.3125,321624.90625,285194.875,255872.765625,221961.859375,246201.078125,0.031982421875,0.98876953125,0.06494140625,0.4272460639476776,-1.7395018339157104,-0.8850097060203552,73.33333587646484,182037.0,1.0
14860.3773327,294452.78125,294898.28125,327759.65625,321637.40625,285049.84375,255824.484375,221908.9375,246198.84375,0.03076171875,0.989013671875,0.066162109375,0.3662109076976776,-1.6479490995407104,-0.8850097060203552,73.33333587646484,182038.0,1.0
14860.3773341,294479.40625,294868.78125,327775.125,321682.9375,285049.5,255829.9375,221932.0,246224.421875,0.029541015625,0.990478515625,0.064697265625,0.4577636420726776,-1.7700194120407104,-0.8850097060203552,73.33333587646484,182039.0,1.0
14860.4013561,294511.34375,295164.0,328007.9375,321694.46875,285195.125,255881.53125,221990.734375,246238.09375,0.031005859375,0.990966796875,0.06689453125,0.4272460639476776,-1.7700194120407104,-0.7934569716453552,73.33333587646484,182040.0,1.0
14860.4082794,294505.0,295382.875,328132.375,321658.34375,285289.375,255911.296875,222013.265625,246223.15625,0.0302734375,0.99267578125,0.064208984375,0.4882812201976776,-1.9226073026657104,-0.7019042372703552,73.33333587646484,182041.0,1.0
14860.408285,294472.53125,295222.65625,327983.0625,321624.4375,285203.8125,255876.875,221964.8125,246204.828125,0.03173828125,0.9921875,0.062255859375,0.4272460639476776,-2.014159917831421,-0.8239745497703552,73.33333587646484,182042.0,1.0
14860.4101081,294461.28125,294909.375,327762.59375,321635.71875,285061.28125,255830.390625,221920.28125,246207.421875,0.031982421875,0.99072265625,0.063232421875,0.4272460639476776,-2.075195074081421,-0.8239745497703552,73.33333587646484,182043.0,1.0
14860.4163469,294494.8125,294891.3125,327788.15625,321679.71875,285067.09375,255839.953125,221941.5625,246227.453125,0.03076171875,0.9892578125,0.0634765625,0.2746581733226776,-2.014159917831421,-0.7934569716453552,73.33333587646484,182044.0,1.0
14860.4188393,294527.0625,295192.71875,328019.65625,321693.125,285211.75,255899.234375,222003.890625,246237.734375,0.03369140625,0.98876953125,0.06298828125,0.2746581733226776,-2.044677495956421,-0.7934569716453552,73.33333587646484,182045.0,1.0
14860.4212805,294514.5625,295402.375,328137.125,321651.4375,285294.1875,255919.265625,222014.34375,246221.546875,0.034912109375,0.98876953125,0.061279296875,0.2441406100988388,-2.166747808456421,-0.7629393935203552,73.33333587646484,182046.0,1.0
14860.4283124,294476.65625,295235.625,327985.84375,321616.84375,285203.4375,255870.890625,221961.78125,246201.890625,0.036376953125,0.99072265625,0.062255859375,0.2746581733226776,-2.105712652206421,-0.7934569716453552,73.33333587646484,182047.0,1.0
14860.4283173,294460.09375,294912.15625,327760.4375,321628.65625,285055.65625,255815.546875,221912.515625,246199.5625,0.03662109375,0.98876953125,0.059326171875,0.3051757514476776,-2.014159917831421,-0.8850097060203552,73.33333587646484,182048.0,1.0
14860.4283186,294492.65625,294889.09375,327787.53125,321680.15625,285062.625,255834.765625,221941.390625,246227.09375,0.03759765625,0.988525390625,0.0625,0.3051757514476776,-1.9226073026657104,-0.8544921278953552,73.33333587646484,182049.0,1.0
14860.4283199,294525.46875,295186.90625,328017.9375,321695.1875,285207.46875,255907.28125,222002.8125,246242.03125,0.03564453125,0.988037109375,0.06298828125,0.4272460639476776,-1.9226073026657104,-0.8850097060203552,73.33333587646484,182050.0,1.0
14860.4283212,294517.875,295402.90625,328140.6875,321658.96875,285298.03125,255932.671875,222026.859375,246233.4375,0.035400390625,0.98681640625,0.0625,0.4272460639476776,-1.8310545682907104,-0.8239745497703552,73.33333587646484,182051.0,1.0
14860.4283224,294482.5625,295241.875,328003.5625,321626.0625,285217.03125,255890.203125,221977.515625,246210.109375,0.03515625,0.98974609375,0.06201171875,0.3662109076976776,-1.7089842557907104,-0.9765624403953552,73.33333587646484,182052.0,1.0
14860.4283237,294461.28125,294911.0625,327774.125,321631.875,285062.09375,255825.46875,221916.09375,246204.390625,0.034912109375,0.988525390625,0.06494140625,0.2441406100988388,-1.5869139432907104,-1.0070799589157104,73.33333587646484,182053.0,1.0
14860.4283249,294493.0,294880.84375,327787.28125,321679.96875,285059.5,255833.78125,221940.234375,246231.203125,0.03662109375,0.98876953125,0.0625,0.2441406100988388,-1.6479490995407104,-1.0986326932907104,73.33333587646484,182054.0,1.0
14860.4283261,294526.1875,295176.96875,328017.84375,321695.8125,285200.75,255884.390625,221995.75,246234.703125,0.037109375,0.98876953125,0.06591796875,0.2136230319738388,-1.5258787870407104,-1.0681151151657104,73.33333587646484,182055.0,1.0
14860.4283273,294514.375,295383.59375,328133.375,321659.3125,285282.21875,255909.609375,222009.96875,246220.484375,0.03759765625,0.989501953125,0.063232421875,0.1220703050494194,-1.4343260526657104,-1.0070799589157104,73.33333587646484,182056.0,1.0
14860.4283287,294473.875,295215.0625,327980.65625,321623.375,285190.9375,255869.1875,221964.09375,246202.78125,0.037353515625,0.987060546875,0.0615234375,0.1525878757238388,-1.3122557401657104,-1.0986326932907104,73.33333587646484,182057.0,1.0
14860.4546269,294457.78125,294896.59375,327765.375,321636.625,285050.65625,255820.5625,221917.421875,246200.28125,0.037109375,0.987548828125,0.06298828125,0.3051757514476776,-1.3427733182907104,-1.0070799589157104,73.33333587646484,182058.0,1.0
14860.4563831,294485.84375,294857.6875,327777.09375,321682.65625,285047.25,255828.328125,221935.9375,246221.546875,0.03759765625,0.98876953125,0.05908203125,0.3662109076976776,-1.3732908964157104,-1.0070799589157104,73.33333587646484,182059.0,1.0
14860.482707,294521.4375,295164.71875,328007.5,321697.59375,285194.15625,255892.796875,221995.296875,246238.8125,0.0341796875,0.990234375,0.06298828125,0.4272460639476776,-1.4038084745407104,-0.9765624403953552,73.33333587646484,182060.0,1.0
14860.4827123,294505.53125,295375.09375,328120.59375,321653.875,285278.09375,255917.5625,222004.0625,246219.046875,0.034423828125,0.98974609375,0.060546875,0.3967284858226776,-1.3732908964157104,-1.0375975370407104,73.33333587646484,182061.0,1.0
14860.4827136,294466.625,295215.15625,327979.3125,321619.625,285196.125,255864.359375,221954.4375,246200.09375,0.034423828125,0.988525390625,0.064697265625,0.3662109076976776,-1.3427733182907104,-1.0070799589157104,73.33333587646484,182062.0,1.0
14860.4827148,294454.21875,294897.40625,327764.03125,321632.0625,285049.5,255812.78125,221910.0,246203.21875,0.035888671875,0.9912109375,0.066162109375,0.4882812201976776,-1.3732908964157104,-0.9765624403953552,73.33333587646484,182063.0,1.0
14860.482716,294487.1875,294877.28125,327787.53125,321678.53125,285053.40625,255829.3125,221938.890625,246229.59375,0.03662109375,0.988525390625,0.06494140625,0.3662109076976776,-1.4038084745407104,-0.9155272841453552,73.33333587646484,182064.0,1.0
14860.5063254,294517.59375,295173.125,328019.8125,321689.28125,285201.125,255891.09375,221999.234375,246237.46875,0.035888671875,0.98828125,0.060546875,0.4577636420726776,-1.4343260526657104,-1.0070799589157104,73.33333587646484,182065.0,1.0
14860.5251505,294505.78125,295380.46875,328124.96875,321646.0,285278.0,255912.015625,222012.28125,246216.8125,0.03271484375,0.98876953125,0.06494140625,0.4882812201976776,-1.4648436307907104,-0.9765624403953552,73.33333587646484,182066.0,1.0
14860.5277122,294467.625,295219.875,327975.125,321611.5,285187.4375,255867.578125,221960.4375,246195.453125,0.033203125,0.9912109375,0.0634765625,0.4272460639476776,-1.3732908964157104,-0.9460448622703552,73.33333587646484,182067.0,1.0
14860.5309938,294453.21875,294905.8125,327762.15625,321624.375,285046.625,255818.765625,221910.71875,246196.25,0.03466796875,0.989013671875,0.061767578125,0.3967284858226776,-1.4038084745407104,-0.9155272841453552,73.33333587646484,182068.0,1.0
14860.530999,294483.53125,294877.0,327784.875,321669.875,285048.59375,255827.0,221930.578125,246216.640625,0.033935546875,0.98779296875,0.06591796875,0.4577636420726776,-1.3732908964157104,-0.9460448622703552,73.33333587646484,182069.0,1.0
14860.5310003,294514.90625,295172.875,328012.03125,321684.8125,285190.3125,255883.5,221984.390625,246231.125,0.034912109375,0.9892578125,0.06396484375,0.3662109076976776,-1.3427733182907104,-0.9460448622703552,73.33333587646484,182070.0,1.0
14860.5310017,294503.125,295380.90625,328130.15625,321651.0,285279.875,255916.3125,222007.546875,246223.875,0.035400390625,0.990966796875,0.064697265625,0.3051757514476776,-1.3732908964157104,-0.8544921278953552,73.33333587646484,182071.0,1.0
14860.5325419,294460.03125,295209.59375,327965.65625,321611.5,285180.46875,255861.234375,221953.546875,246195.359375,0.035888671875,0.991943359375,0.060302734375,0.3356933295726776,-1.3732908964157104,-0.7934569716453552,73.33333587646484,182072.0,1.0
14860.535081,294460.03125,295209.59375,327965.65625,321611.5,285180.46875,255861.234375,221953.546875,246195.359375,0.035888671875,0.991943359375,0.060302734375,0.3356933295726776,-1.3732908964157104,-0.7934569716453552,73.33333587646484,182073.0,0.0
14860.5350822,294460.03125,295209.59375,327965.65625,321611.5,285180.46875,255861.234375,221953.546875,246195.359375,0.035888671875,0.991943359375,0.060302734375,0.3356933295726776,-1.3732908964157104,-0.7934569716453552,73.33333587646484,182074.0,0.0
14860.5350825,294460.03125,295209.59375,327965.65625,321611.5,285180.46875,255861.234375,221953.546875,246195.359375,0.035888671875,0.991943359375,0.060302734375,0.3356933295726776,-1.3732908964157104,-0.7934569716453552,73.33333587646484,182075.0,0.0
14860.5350827,294460.03125,295209.59375,327965.65625,321611.5,285180.46875,255861.234375,221953.546875,246195.359375,0.035888671875,0.991943359375,0.060302734375,0.3356933295726776,-1.3732908964157104,-0.7934569716453552,73.33333587646484,182076.0,0.0
14860.5350829,294460.03125,295209.59375,327965.65625,321611.5,285180.46875,255861.234375,221953.546875,246195.359375,0.035888671875,0.991943359375,0.060302734375,0.3356933295726776,-1.3732908964157104,-0.7934569716453552,73.33333587646484,182077.0,0.0
14860.535083,294460.03125,295209.59375,327965.65625,321611.5,285180.46875,255861.234375,221953.546875,246195.359375,0.035888671875,0.991943359375,0.060302734375,0.3356933295726776,-1.3732908964157104,-0.7934569716453552,73.33333587646484,182078.0,0.0
14860.5350832,294460.03125,295209.59375,327965.65625,321611.5,285180.46875,255861.234375,221953.546875,246195.359375,0.035888671875,0.991943359375,0.060302734375,0.3356933295726776,-1.3732908964157104,-0.7934569716453552,73.33333587646484,182079.0,0.0
14860.5350834,294460.03125,295209.59375,327965.65625,321611.5,285180.46875,255861.234375,221953.546875,246195.359375,0.035888671875,0.991943359375,0.060302734375,0.3356933295726776,-1.3732908964157104,-0.7934569716453552,73.33333587646484,182080.0,0.0
14860.5350836,294460.03125,295209.59375,327965.65625,321611.5,285180.46875,255861.234375,221953.546875,246195.359375,0.035888671875,0.991943359375,0.060302734375,0.3356933295726776,-1.3732908964157104,-0.7934569716453552,73.33333587646484,182081.0,0.0
14860.5350838,294460.03125,295209.59375,327965.65625,321611.5,285180.46875,255861.234375,221953.546875,246195.359375,0.035888671875,0.991943359375,0.060302734375,0.3356933295726776,-1.3732908964157104,-0.7934569716453552,73.33333587646484,182082.0,0.0
14860.535084,294460.03125,295209.59375,327965.65625,321611.5,285180.46875,255861.234375,221953.546875,246195.359375,0.035888671875,0.991943359375,0.060302734375,0.3356933295726776,-1.3732908964157104,-0.7934569716453552,73.33333587646484,182083.0,0.0
14860.5350842,294460.03125,295209.59375,327965.65625,321611.5,285180.46875,255861.234375,221953.546875,246195.359375,0.035888671875,0.991943359375,0.060302734375,0.3356933295726776,-1.3732908964157104,-0.7934569716453552,73.33333587646484,182084.0,0.0
14860.5350844,294460.03125,295209.59375,327965.65625,321611.5,285180.46875,255861.234375,221953.546875,246195.359375,0.035888671875,0.991943359375,0.060302734375,0.3356933295726776,-1.3732908964157104,-0.7934569716453552,73.33333587646484,182085.0,0.0
14860.5350845,294460.03125,295209.59375,327965.65625,321611.5,285180.46875,255861.234375,221953.546875,246195.359375,0.035888671875,0.991943359375,0.060302734375,0.3356933295726776,-1.3732908964157104,-0.7934569716453552,73.33333587646484,182086.0,0.0
14860.5350847,294460.03125,295209.59375,327965.65625,321611.5,285180.46875,255861.234375,221953.546875,246195.359375,0.035888671875,0.991943359375,0.060302734375,0.3356933295726776,-1.3732908964157104,-0.7934569716453552,73.33333587646484,182087.0,0.0
14860.5350849,294460.03125,295209.59375,327965.65625,321611.5,285180.46875,255861.234375,221953.546875,246195.359375,0.035888671875,0.991943359375,0.060302734375,0.3356933295726776,-1.3732908964157104,-0.7934569716453552,73.33333587646484,182088.0,0.0
14860.5350851,294460.03125,295209.59375,327965.65625,321611.5,285180.46875,255861.234375,221953.546875,246195.359375,0.035888671875,0.991943359375,0.060302734375,0.3356933295726776,-1.3732908964157104,-0.7934569716453552,73.33333587646484,182089.0,0.0
14860.5350852,294460.03125,295209.59375,327965.65625,321611.5,285180.46875,255861.234375,221953.546875,246195.359375,0.035888671875,0.991943359375,0.060302734375,0.3356933295726776,-1.3732908964157104,-0.7934569716453552,73.33333587646484,182090.0,0.0
14860.5350854,294460.03125,295209.59375,327965.65625,321611.5,285180.46875,255861.234375,221953.546875,246195.359375,0.035888671875,0.991943359375,0.060302734375,0.3356933295726776,-1.3732908964157104,-0.7934569716453552,73.33333587646484,182091.0,0.0
14860.5350856,294460.03125,295209.59375,327965.65625,321611.5,285180.46875,255861.234375,221953.546875,246195.359375,0.035888671875,0.991943359375,0.060302734375,0.3356933295726776,-1.3732908964157104,-0.7934569716453552,73.33333587646484,182092.0,0.0
14860.5350858,294460.03125,295209.59375,327965.65625,321611.5,285180.46875,255861.234375,221953.546875,246195.359375,0.035888671875,0.991943359375,0.060302734375,0.3356933295726776,-1.3732908964157104,-0.7934569716453552,73.33333587646484,182093.0,0.0
14860.5350859,294460.03125,295209.59375,327965.65625,321611.5,285180.46875,255861.234375,221953.546875,246195.359375,0.035888671875,0.991943359375,0.060302734375,0.3356933295726776,-1.3732908964157104,-0.7934569716453552,73.33333587646484,182094.0,0.0
14860.5350861,294460.03125,295209.59375,327965.65625,321611.5,285180.46875,255861.234375,221953.546875,246195.359375,0.035888671875,0.991943359375,0.060302734375,0.3356933295726776,-1.3732908964157104,-0.7934569716453552,73.33333587646484,182095.0,0.0
14860.5350863,294460.03125,295209.59375,327965.65625,321611.5,285180.46875,255861.234375,221953.546875,246195.359375,0.035888671875,0.991943359375,0.060302734375,0.3356933295726776,-1.3732908964157104,-0.7934569716453552,73.33333587646484,182096.0,0.0
14860.5350865,294460.03125,295209.59375,327965.65625,321611.5,285180.46875,255861.234375,221953.546875,246195.359375,0.035888671875,0.991943359375,0.060302734375,0.3356933295726776,-1.3732908964157104,-0.7934569716453552,73.33333587646484,182097.0,0.0
14860.5350866,294460.03125,295209.59375,327965.65625,321611.5,285180.46875,255861.234375,221953.546875,246195.359375,0.035888671875,0.991943359375,0.060302734375,0.3356933295726776,-1.3732908964157104,-0.7934569716453552,73.33333587646484,182098.0,0.0
14860.5350868,294460.03125,295209.59375,327965.65625,321611.5,285180.46875,255861.234375,221953.546875,246195.359375,0.035888671875,0.991943359375,0.060302734375,0.3356933295726776,-1.3732908964157104,-0.7934569716453552,73.33333587646484,182099.0,0.0
14860.535087,294460.03125,295209.59375,327965.65625,321611.5,285180.46875,255861.234375,221953.546875,246195.359375,0.035888671875,0.991943359375,0.060302734375,0.3356933295726776,-1.3732908964157104,-0.7934569716453552,73.33333587646484,182100.0,0.0
14860.5350872,294460.03125,295209.59375,327965.65625,321611.5,285180.46875,255861.234375,221953.546875,246195.359375,0.035888671875,0.991943359375,0.060302734375,0.3356933295726776,-1.3732908964157104,-0.7934569716453552,73.33333587646484,182101.0,0.0
14860.5350874,294460.03125,295209.59375,327965.65625,321611.5,285180.46875,255861.234375,221953.546875,246195.359375,0.035888671875,0.991943359375,0.060302734375,0.3356933295726776,-1.3732908964157104,-0.7934569716453552,73.33333587646484,182102.0,0.0
14860.5350875,294460.03125,295209.59375,327965.65625,321611.5,285180.46875,255861.234375,221953.546875,246195.359375,0.035888671875,0.991943359375,0.060302734375,0.3356933295726776,-1.3732908964157104,-0.7934569716453552,73.33333587646484,182103.0,0.0
14860.5350877,294460.03125,295209.59375,327965.65625,321611.5,285180.46875,255861.234375,221953.546875,246195.359375,0.035888671875,0.991943359375,0.060302734375,0.3356933295726776,-1.3732908964157104,-0.7934569716453552,73.33333587646484,182104.0,0.0
14860.5350879,294460.03125,295209.59375,327965.65625,321611.5,285180.46875,255861.234375,221953.546875,246195.359375,0.035888671875,0.991943359375,0.060302734375,0.3356933295726776,-1.3732908964157104,-0.7934569716453552,73.33333587646484,182105.0,0.0
14860.535088,294460.03125,295209.59375,327965.65625,321611.5,285180.46875,255861.234375,221953.546875,246195.359375,0.035888671875,0.991943359375,0.060302734375,0.3356933295726776,-1.3732908964157104,-0.7934569716453552,73.33333587646484,182106.0,0.0
14860.5350882,294460.03125,295209.59375,327965.65625,321611.5,285180.46875,255861.234375,221953.546875,246195.359375,0.035888671875,0.991943359375,0.060302734375,0.3356933295726776,-1.3732908964157104,-0.7934569716453552,73.33333587646484,182107.0,0.0
14860.5350884,294460.03125,295209.59375,327965.65625,321611.5,285180.46875,255861.234375,221953.546875,246195.359375,0.035888671875,0.991943359375,0.060302734375,0.3356933295726776,-1.3732908964157104,-0.7934569716453552,73.33333587646484,182108.0,0.0
14860.5350886,294460.03125,295209.59375,327965.65625,321611.5,285180.46875,255861.234375,221953.546875,246195.359375,0.035888671875,0.991943359375,0.060302734375,0.3356933295726776,-1.3732908964157104,-0.7934569716453552,73.33333587646484,182109.0,0.0
14860.5350887,294460.03125,295209.59375,327965.65625,321611.5,285180.46875,255861.234375,221953.546875,246195.359375,0.035888671875,0.991943359375,0.060302734375,0.3356933295726776,-1.3732908964157104,-0.7934569716453552,73.33333587646484,182110.0,0.0
14860.5350889,294460.03125,295209.59375,327965.65625,321611.5,285180.46875,255861.234375,221953.546875,246195.359375,0.035888671875,0.991943359375,0.060302734375,0.3356933295726776,-1.3732908964157104,-0.7934569716453552,73.33333587646484,182111.0,0.0
14860.5350891,294460.03125,295209.59375,327965.65625,321611.5,285180.46875,255861.234375,221953.546875,246195.359375,0.035888671875,0.991943359375,0.060302734375,0.3356933295726776,-1.3732908964157104,-0.7934569716453552,73.33333587646484,182112.0,0.0
14860.5350892,294460.03125,295209.59375,327965.65625,321611.5,285180.46875,255861.234375,221953.546875,246195.359375,0.035888671875,0.991943359375,0.060302734375,0.3356933295726776,-1.3732908964157104,-0.7934569716453552,73.33333587646484,182113.0,0.0
14860.5350894,294460.03125,295209.59375,327965.65625,321611.5,285180.46875,255861.234375,221953.546875,246195.359375,0.035888671875,0.991943359375,0.060302734375,0.3356933295726776,-1.3732908964157104,-0.7934569716453552,73.33333587646484,182114.0,0.0
14860.5350896,294494.625,295139.25,327983.15625,321651.1875,285168.84375,255861.328125,221974.5625,246216.1875,0.03662109375,0.986572265625,0.070556640625,-0.03051757626235485,-1.1901854276657104,-1.0375975370407104,73.33333587646484,182115.0,1.0
14860.5375751,294480.5,295344.4375,328084.8125,321610.9375,285243.5,255884.21875,221991.546875,246201.703125,0.036376953125,0.986328125,0.064697265625,0.03051757626235485,-1.1901854276657104,-0.9460448622703552,73.33333587646484,182116.0,1.0
14860.5415127,294445.90625,295191.46875,327941.0625,321583.25,285162.40625,255853.640625,221952.03125,246188.65625,0.03662109375,0.987060546875,0.069091796875,0.1525878757238388,-1.1901854276657104,-0.9460448622703552,73.33333587646484,182117.0,1.0
14860.5415156,294428.8125,294871.75,327712.96875,321594.0625,285011.75,255798.828125,221896.5,246184.71875,0.037841796875,0.98681640625,0.06884765625,0.1831054538488388,-1.2817381620407104,-1.0070799589157104,73.33333587646484,182118.0,1.0
14860.541517,294468.78125,294851.34375,327744.1875,321650.75,285022.40625,255815.546875,221923.6875,246215.65625,0.038330078125,0.98681640625,0.06884765625,0.3967284858226776,-1.3732908964157104,-1.0375975370407104,73.33333587646484,182119.0,1.0
14860.5415182,294508.03125,295150.6875,327980.46875,321672.28125,285174.375,255875.0,221991.28125,246234.703125,0.035888671875,0.98779296875,0.0693359375,0.4272460639476776,-1.2817381620407104,-0.9460448622703552,73.33333587646484,182120.0,1.0
14860.5415195,294506.25,295367.78125,328108.25,321641.15625,285270.6875,255899.59375,222007.8125,246224.6875,0.037109375,0.989013671875,0.068603515625,0.4577636420726776,-1.2817381620407104,-1.0681151151657104,73.33333587646484,182121.0,1.0
14860.5446917,294470.46875,295203.4375,327964.3125,321609.25,285186.71875,255859.890625,221956.671875,246205.90625,0.037109375,0.99072265625,0.0693359375,0.4577636420726776,-1.1901854276657104,-1.0375975370407104,73.33333587646484,182122.0,1.0
14860.5446936,294452.59375,294879.5,327735.5,321619.96875,285036.0625,255800.34375,221900.703125,246199.296875,0.03515625,0.991455078125,0.06982421875,0.5187987685203552,-1.1596678495407104,-1.0986326932907104,73.33333587646484,182123.0,1.0
14860.5446949,294485.0625,294848.5,327761.4375,321668.34375,285043.21875,255808.390625,221922.96875,246223.4375,0.037109375,0.9892578125,0.0703125,0.4882812201976776,-1.2817381620407104,-1.0681151151657104,73.33333587646484,182124.0,1.0
14860.5446962,294523.0625,295146.65625,327998.09375,321687.125,285195.5,255871.34375,221990.109375,246240.59375,0.0361328125,0.990478515625,0.070556640625,0.5493163466453552,-1.1901854276657104,-1.0375975370407104,73.33333587646484,182125.0,1.0
14860.5463068,294511.78125,295361.34375,328118.4375,321647.875,285283.09375,255905.671875,222013.09375,246226.65625,0.03515625,0.98828125,0.067138671875,0.5493163466453552,-1.1596678495407104,-1.0375975370407104,73.33333587646484,182126.0,1.0
14860.572716,294475.5625,295217.03125,327986.21875,321619.09375,285207.28125,255876.609375,221974.828125,246210.5625,0.034912109375,0.98974609375,0.069091796875,0.5493163466453552,-1.1596678495407104,-1.0681151151657104,73.33333587646484,182127.0,1.0
14860.5727215,294453.75,294889.09375,327752.40625,321625.34375,285052.09375,255809.921875,221911.53125,246204.5625,0.033935546875,0.990234375,0.069580078125,0.6713866591453552,-1.1901854276657104,-1.0375975370407104,73.33333587646484,182128.0,1.0
14860.5727228,294485.84375,294854.21875,327760.71875,321671.21875,285043.6875,255810.8125,221923.59375,246226.03125,0.03271484375,0.990966796875,0.07177734375,0.7324218153953552,-1.3122557401657104,-1.0375975370407104,73.33333587646484,182129.0,1.0
14860.572724,294521.0,295152.375,327993.1875,321683.8125,285187.875,255864.640625,221983.59375,246236.9375,0.033447265625,0.990478515625,0.067138671875,0.7324218153953552,-1.3732908964157104,-1.2512205839157104,73.33333587646484,182130.0,1.0
14860.5727253,294511.15625,295365.0,328112.28125,321642.0625,285274.34375,255894.9375,222002.453125,246220.65625,0.035888671875,0.99072265625,0.06982421875,0.6713866591453552,-1.3427733182907104,-1.1596678495407104,73.33333587646484,182131.0,1.0
14860.596304,294477.0,295212.5625,327971.46875,321608.0,285193.875,255863.03125,221961.234375,246202.875,0.036376953125,0.991943359375,0.072265625,0.6713866591453552,-1.4648436307907104,-1.1901854276657104,73.33333587646484,182132.0,1.0
14860.6461581,294456.1875,294886.5,327744.09375,321614.34375,285042.34375,255797.484375,221903.921875,246200.28125,0.03662109375,0.9912109375,0.0703125,0.6408690810203552,-1.5258787870407104,-1.0986326932907104,73.33333587646484,182133.0,1.0
14860.6461637,294490.6875,294856.28125,327766.0,321659.78125,285044.9375,255805.984375,221922.34375,246216.1875,0.034912109375,0.98974609375,0.068115234375,0.7019042372703552,-1.4343260526657104,-1.0375975370407104,73.33333587646484,182134.0,1.0
14860.646165,294523.6875,295152.75,327991.75,321667.53125,285182.875,255869.90625,221979.46875,246221.734375,0.03369140625,0.9892578125,0.066650390625,0.6713866591453552,-1.4343260526657104,-1.0681151151657104,73.33333587646484,182135.0,1.0
14860.6461662,294522.34375,295380.90625,328120.5,321634.5625,285275.0625,255905.484375,222006.5625,246213.6875,0.034912109375,0.98974609375,0.06787109375,0.7019042372703552,-1.5258787870407104,-0.9765624403953552,73.33333587646484,182136.0,1.0
14860.6461674,294484.96875,295226.875,327982.71875,321603.4375,285196.1875,255868.75,221963.921875,246197.953125,0.03369140625,0.991455078125,0.06689453125,0.8239745497703552,-1.5563963651657104,-0.9155272841453552,73.33333587646484,182137.0,1.0
14860.6461687,294459.75,294901.40625,327754.1875,321608.625,285045.71875,255810.90625,221908.9375,246194.1875,0.034912109375,0.98828125,0.0673828125,0.7629393935203552,-1.6784666776657104,-0.8850097060203552,73.33333587646484,182138.0,1.0
14860.6461699,294489.96875,294868.15625,327770.65625,321656.0,285047.6875,255829.5,221934.59375,246223.703125,0.03662109375,0.990966796875,0.0654296875,0.7629393935203552,-1.6479490995407104,-0.7629393935203552,73.33333587646484,182139.0,1.0
14860.6461713,294521.0,295154.875,327995.6875,321671.3125,285187.34375,255885.375,221988.234375,246236.65625,0.03857421875,0.991943359375,0.064208984375,0.7019042372703552,-1.6479490995407104,-0.5798339247703552,73.33333587646484,182140.0,1.0
14860.6476229,294505.53125,295355.6875,328108.875,321632.0625,285269.4375,255905.484375,222005.765625,246221.734375,0.038330078125,0.990478515625,0.062255859375,0.8239745497703552,-1.6784666776657104,-0.4882812201976776,73.33333587646484,182141.0,1.0
14860.6726348,294473.0625,295206.46875,327974.21875,321602.5625,285192.28125,255871.15625,221966.15625,246204.75,0.038330078125,0.989501953125,0.061767578125,0.7934569716453552,-1.7089842557907104,-0.3967284858226776,73.33333587646484,182142.0,1.0
14860.6976087,294457.78125,294892.03125,327757.21875,321616.5,285050.46875,255815.375,221913.578125,246207.15625,0.038330078125,0.988525390625,0.064453125,0.7934569716453552,-1.5869139432907104,-0.3662109076976776,73.33333587646484,182143.0,1.0
14860.7484214,294487.1875,294850.8125,327767.6875,321663.625,285049.03125,255819.484375,221928.328125,246229.875,0.038330078125,0.987548828125,0.066162109375,0.7019042372703552,-1.6174315214157104,-0.3051757514476776,73.33333587646484,182144.0,1.0
14860.8035434,294516.0625,295133.6875,327976.8125,321675.6875,285180.03125,255880.375,221984.390625,246241.84375,0.0380859375,0.987548828125,0.06591796875,0.8239745497703552,-1.5869139432907104,-0.3967284858226776,73.33333587646484,182145.0,1.0
14860.8035503,294502.65625,295346.03125,328090.90625,321639.03125,285264.34375,255906.5625,222006.75,246228.96875,0.03955078125,0.989501953125,0.065673828125,0.7934569716453552,-1.6174315214157104,-0.4577636420726776,73.33333587646484,182146.0,1.0
14860.8035516,294459.75,295187.96875,327948.9375,321599.59375,285181.0,255859.890625,221954.796875,246198.046875,0.03857421875,0.989013671875,0.066162109375,0.7019042372703552,-1.4953612089157104,-0.5798339247703552,73.33333587646484,182147.0,1.0
14860.8035528,294443.21875,294869.78125,327732.28125,321611.5625,285039.375,255805.796875,221904.90625,246197.59375,0.039794921875,0.990966796875,0.063720703125,0.7934569716453552,-1.4953612089157104,-0.5798339247703552,73.33333587646484,182148.0,1.0
14860.8035541,294477.8125,294844.1875,327755.53125,321662.09375,285043.40625,255816.984375,221925.921875,246224.5,0.039794921875,0.989013671875,0.0634765625,0.7019042372703552,-1.4953612089157104,-0.6408690810203552,73.33333587646484,182149.0,1.0
14860.8035553,294514.46875,295136.375,327983.0,321677.8125,285185.90625,255880.71875,221984.9375,246236.578125,0.0361328125,0.990234375,0.0625,0.8239745497703552,-1.4343260526657104,-0.7934569716453552,73.33333587646484,182150.0,1.0
14860.8035565,294506.5,295357.65625,328103.40625,321640.1875,285272.90625,255909.609375,222009.0625,246221.375,0.036865234375,0.987060546875,0.061279296875,0.7934569716453552,-1.4038084745407104,-0.8850097060203552,73.33333587646484,182151.0,1.0
14860.8035577,294467.78125,295207.0,327960.28125,321603.4375,285189.0625,255861.859375,221957.484375,246199.46875,0.038818359375,0.98828125,0.0625,0.7629393935203552,-1.4038084745407104,-0.9765624403953552,73.33333587646484,182152.0,1.0
14860.803559,294449.8125,294882.5625,327724.6875,321612.03125,285037.3125,255803.921875,221901.25,246199.375,0.0380859375,0.991943359375,0.06103515625,0.7324218153953552,-1.4343260526657104,-1.1901854276657104,73.33333587646484,182153.0,1.0
14860.8035602,294485.15625,294856.0,327745.78125,321660.3125,285042.34375,255821.359375,221928.875,246223.15625,0.037109375,0.994384765625,0.062255859375,0.7019042372703552,-1.4038084745407104,-1.2817381620407104,73.33333587646484,182154.0,1.0
14860.8035614,294523.0625,295156.59375,327979.3125,321673.53125,285187.34375,255888.59375,221992.53125,246230.9375,0.038330078125,0.994873046875,0.0625,0.6713866591453552,-1.4038084745407104,-1.3732908964157104,73.33333587646484,182155.0,1.0
14860.8035627,294517.5,295382.59375,328108.5,321633.3125,285282.125,255919.4375,222014.25,246220.484375,0.03759765625,0.99560546875,0.063720703125,0.6103515028953552,-1.4038084745407104,-1.4953612089157104,73.33333587646484,182156.0,1.0
14860.803564,294483.4375,295241.4375,327978.6875,321600.59375,285208.625,255879.921875,221971.703125,246203.40625,0.037841796875,0.994140625,0.062744140625,0.5798339247703552,-1.4038084745407104,-1.4953612089157104,73.33333587646484,182157.0,1.0
14860.8035652,294466.90625,294919.75,327753.75,321612.125,285060.40625,255818.953125,221912.515625,246199.375,0.0380859375,0.993408203125,0.0625,0.5798339247703552,-1.4343260526657104,-1.5563963651657104,73.33333587646484,182158.0,1.0
14860.8035664,294493.71875,294870.75,327754.03125,321654.5,285049.03125,255820.90625,221920.109375,246218.15625,0.0390625,0.9912109375,0.06494140625,0.4882812201976776,-1.4648436307907104,-1.5869139432907104,73.33333587646484,182159.0,1.0
14860.8050459,294528.78125,295162.75,327977.53125,321672.28125,285190.40625,255883.40625,221983.59375,246236.9375,0.0390625,0.989501953125,0.061767578125,0.4272460639476776,-1.5258787870407104,-1.4343260526657104,73.33333587646484,182160.0,1.0
14860.8315198,294519.84375,295384.75,328094.03125,321635.28125,285272.90625,255914.34375,222011.9375,246225.84375,0.037109375,0.98828125,0.065673828125,0.3967284858226776,-1.5258787870407104,-1.5563963651657104,73.33333587646484,182161.0,1.0
14860.8315255,294477.1875,295231.34375,327950.96875,321601.90625,285191.375,255872.140625,221965.265625,246205.640625,0.037353515625,0.988037109375,0.064453125,0.4272460639476776,-1.4343260526657104,-1.4038084745407104,73.33333587646484,182162.0,1.0
14860.8315269,294458.40625,294914.90625,327737.75,321616.125,285051.0,255816.0,221913.84375,246205.640625,0.037109375,0.98876953125,0.060302734375,0.4272460639476776,-1.3732908964157104,-1.4038084745407104,73.33333587646484,182163.0,1.0
14860.8315296,294491.03125,294878.0,327756.6875,321665.21875,285052.71875,255826.8125,221936.03125,246230.21875,0.03564453125,0.98876953125,0.06005859375,0.3356933295726776,-1.4038084745407104,-1.3122557401657104,73.33333587646484,182164.0,1.0
14860.8315308,294527.625,295174.28125,327990.84375,321682.84375,285201.03125,255899.59375,222003.890625,246243.015625,0.036376953125,0.990234375,0.062744140625,0.3356933295726776,-1.4038084745407104,-1.2207030057907104,73.33333587646484,182165.0,1.0
14860.8947293,294515.0,295384.03125,328109.59375,321642.59375,285284.09375,255921.578125,222020.515625,246226.109375,0.03466796875,0.990234375,0.06298828125,0.1525878757238388,-1.4038084745407104,-1.1901854276657104,73.33333587646484,182166.0,1.0
14860.8947392,294470.9375,295214.34375,327954.8125,321596.28125,285187.25,255867.40625,221964.015625,246199.375,0.0322265625,0.9921875,0.06494140625,0.0610351525247097,-1.4343260526657104,-1.0986326932907104,73.33333587646484,182167.0,1.0
14860.8947405,294453.9375,294896.25,327734.78125,321607.46875,285039.5625,255814.75,221912.6875,246199.296875,0.03125,0.9931640625,0.064208984375,0.1220703050494194,-1.4343260526657104,-1.0681151151657104,73.33333587646484,182168.0,1.0
14860.8947417,294487.1875,294859.84375,327747.21875,321657.34375,285036.4375,255816.890625,221932.53125,246223.96875,0.034423828125,0.99169921875,0.06787109375,-0.0610351525247097,-1.4953612089157104,-1.0070799589157104,73.33333587646484,182169.0,1.0
14860.8963154,294520.71875,295156.0625,327984.0625,321675.78125,285183.875,255879.5625,221996.28125,246236.03125,0.033447265625,0.990478515625,0.06689453125,-0.1220703050494194,-1.5563963651657104,-0.8239745497703552,73.33333587646484,182170.0,1.0
14860.9226704,294505.15625,295371.53125,328108.15625,321635.0,285271.9375,255911.921875,222015.5,246220.65625,0.033203125,0.990478515625,0.06640625,-0.1525878757238388,-1.4953612089157104,-0.9155272841453552,73.33333587646484,182171.0,1.0
14860.9226776,294465.125,295218.28125,327967.6875,321598.78125,285188.78125,255868.484375,221967.234375,246199.828125,0.034423828125,0.9892578125,0.070556640625,-0.1525878757238388,-1.4953612089157104,-0.8544921278953552,73.33333587646484,182172.0,1.0
14860.9226789,294450.4375,294898.75,327743.1875,321611.9375,285042.15625,255807.328125,221915.546875,246204.65625,0.0341796875,0.988037109375,0.067626953125,-0.2441406100988388,-1.5563963651657104,-0.7629393935203552,73.33333587646484,182173.0,1.0
14860.9226801,294479.875,294858.875,327755.1875,321656.90625,285040.71875,255821.453125,221937.984375,246226.109375,0.032470703125,0.98681640625,0.066162109375,-0.3051757514476776,-1.6479490995407104,-0.7629393935203552,73.33333587646484,182174.0,1.0
14860.9226814,294515.53125,295161.5,327985.21875,321671.03125,285186.09375,255884.390625,221998.703125,246237.109375,0.031494140625,0.986083984375,0.064453125,-0.1831054538488388,-1.7089842557907104,-0.7324218153953552,73.33333587646484,182175.0,1.0
14860.9463356,294509.46875,295389.03125,328117.09375,321635.71875,285280.59375,255911.75,222018.8125,246222.171875,0.032470703125,0.985107421875,0.064453125,-0.1525878757238388,-1.6479490995407104,-0.7934569716453552,73.33333587646484,182176.0,1.0
14860.973095,294473.4375,295238.5625,327978.78125,321599.0625,285199.15625,255873.9375,221970.0,246200.625,0.034423828125,0.986328125,0.06591796875,-0.2136230319738388,-1.5869139432907104,-0.7934569716453552,73.33333587646484,182177.0,1.0
14860.9731003,294451.6875,294907.84375,327742.65625,321600.9375,285039.84375,255815.015625,221910.71875,246194.734375,0.03662109375,0.9873046875,0.065673828125,-0.1525878757238388,-1.6174315214157104,-0.8239745497703552,73.33333587646484,182178.0,1.0
14860.9731016,294482.28125,294869.6875,327754.90625,321645.90625,285034.8125,255819.578125,221928.96875,246214.40625,0.035888671875,0.990478515625,0.071044921875,-0.0915527269244194,-1.6479490995407104,-0.8544921278953552,73.33333587646484,182179.0,1.0
14860.9731028,294531.0,295176.34375,328001.84375,321673.625,285192.8125,255889.578125,222001.65625,246239.875,0.036865234375,0.9892578125,0.0693359375,-0.03051757626235485,-1.6174315214157104,-0.9460448622703552,73.33333587646484,182180.0,1.0
14860.973104,294515.71875,295387.78125,328113.0,321629.0,285270.84375,255911.65625,222012.828125,246222.625,0.03857421875,0.989501953125,0.068359375,0.0,-1.6174315214157104,-0.8850097060203552,73.33333587646484,182181.0,1.0
14860.9939117,294471.09375,295234.0,327966.96875,321590.3125,285188.59375,255869.546875,221965.890625,246200.09375,0.0400390625,0.991455078125,0.071044921875,0.0915527269244194,-1.5258787870407104,-0.9460448622703552,73.33333587646484,182182.0,1.0
14860.9939172,294451.875,294908.40625,327738.0,321599.0625,285036.0,255811.609375,221905.265625,246190.34375,0.041015625,0.990478515625,0.068603515625,0.0915527269244194,-1.5563963651657104,-0.8544921278953552,73.33333587646484,182183.0,1.0
14860.9994566,294451.875,294908.40625,327738.0,321599.0625,285036.0,255811.609375,221905.265625,246190.34375,0.041015625,0.990478515625,0.068603515625,0.0915527269244194,-1.5563963651657104,-0.8544921278953552,73.33333587646484,182184.0,0.0
14860.9994577,294451.875,294908.40625,327738.0,321599.0625,285036.0,255811.609375,221905.265625,246190.34375,0.041015625,0.990478515625,0.068603515625,0.0915527269244194,-1.5563963651657104,-0.8544921278953552,73.33333587646484,182185.0,0.0
14860.9994579,294451.875,294908.40625,327738.0,321599.0625,285036.0,255811.609375,221905.265625,246190.34375,0.041015625,0.990478515625,0.068603515625,0.0915527269244194,-1.5563963651657104,-0.8544921278953552,73.33333587646484,182186.0,0.0
14860.9994582,294451.875,294908.40625,327738.0,321599.0625,285036.0,255811.609375,221905.265625,246190.34375,0.041015625,0.990478515625,0.068603515625,0.0915527269244194,-1.5563963651657104,-0.8544921278953552,73.33333587646484,182187.0,0.0
14860.9994583,294455.71875,294893.65625,327737.9375,321606.65625,285034.71875,255806.25,221904.90625,246191.875,0.03955078125,0.9873046875,0.066650390625,0.3356933295726776,-1.1596678495407104,-1.0986326932907104,73.33333587646484,182188.0,1.0
14860.9994625,294488.1875,294851.25,327748.46875,321655.375,285030.34375,255813.9375,221926.453125,246214.9375,0.0400390625,0.986572265625,0.06640625,0.4577636420726776,-1.0681151151657104,-1.1901854276657104,73.33333587646484,182189.0,1.0
14861.0012968,294521.1875,295153.8125,327982.90625,321669.4375,285175.28125,255869.46875,221985.203125,246227.1875,0.038818359375,0.98779296875,0.06884765625,0.4882812201976776,-1.0681151151657104,-1.0986326932907104,73.33333587646484,182190.0,1.0
14861.0038218,294513.84375,295382.6875,328111.46875,321635.625,285268.53125,255906.390625,222013.71875,246223.4375,0.04052734375,0.98876953125,0.06591796875,0.4882812201976776,-1.0070799589157104,-1.1291502714157104,73.33333587646484,182191.0,1.0
14861.0083444,294471.09375,295223.90625,327967.4375,321596.125,285183.6875,255864.1875,221963.921875,246199.734375,0.039306640625,0.987548828125,0.06640625,0.4882812201976776,-0.9460448622703552,-1.2207030057907104,73.33333587646484,182192.0,1.0
14861.0157198,294448.75,294892.65625,327731.9375,321600.65625,285027.59375,255796.765625,221897.671875,246190.890625,0.03759765625,0.989990234375,0.06689453125,0.5493163466453552,-0.9765624403953552,-1.1596678495407104,73.33333587646484,182193.0,1.0
14861.0157227,294481.28125,294856.4375,327750.25,321652.71875,285032.5,255812.953125,221925.828125,246221.203125,0.03564453125,0.989013671875,0.065185546875,0.5493163466453552,-1.0375975370407104,-1.1596678495407104,73.33333587646484,182194.0,1.0
14861.015724,294519.03125,295157.21875,327987.71875,321676.125,285184.9375,255881.703125,221994.9375,246237.375,0.034912109375,0.989013671875,0.067138671875,0.4882812201976776,-1.0681151151657104,-1.2817381620407104,73.33333587646484,182195.0,1.0
14861.0157253,294511.4375,295380.65625,328114.59375,321641.875,285279.25,255922.921875,222019.359375,246228.53125,0.033447265625,0.9892578125,0.0654296875,0.4272460639476776,-0.9765624403953552,-1.4343260526657104,73.33333587646484,182196.0,1.0
14861.0157265,294475.3125,295234.5625,327977.90625,321605.3125,285198.78125,255875.1875,221972.328125,246208.765625,0.0322265625,0.991455078125,0.06591796875,0.4577636420726776,-1.1901854276657104,-1.4343260526657104,73.33333587646484,182197.0,1.0
14861.0157278,294452.34375,294905.71875,327741.5,321608.34375,285039.46875,255801.515625,221904.46875,246201.703125,0.03271484375,0.9921875,0.068603515625,0.6103515028953552,-1.3427733182907104,-1.5563963651657104,73.33333587646484,182198.0,1.0
14861.015729,294483.0,294859.84375,327745.25,321652.4375,285028.46875,255799.90625,221918.328125,246218.6875,0.03076171875,0.991455078125,0.06689453125,0.6408690810203552,-1.4953612089157104,-1.6174315214157104,73.33333587646484,182199.0,1.0
14861.0157302,294514.75,295149.0625,327967.34375,321664.0625,285165.0,255864.546875,221979.75,246227.71875,0.03125,0.989501953125,0.065185546875,0.5798339247703552,-1.5869139432907104,-1.6174315214157104,73.33333587646484,182200.0,1.0
14861.0157315,294510.25,295379.125,328098.6875,321627.84375,285261.8125,255909.34375,222011.3125,246216.640625,0.031494140625,0.9873046875,0.065185546875,0.5798339247703552,-1.6174315214157104,-1.4953612089157104,73.33333587646484,182201.0,1.0
14861.0157327,294477.0,295237.3125,327972.625,321591.8125,285192.09375,255874.109375,221970.171875,246198.3125,0.03564453125,0.98828125,0.066162109375,0.4882812201976776,-1.6784666776657104,-1.4648436307907104,73.33333587646484,182202.0,1.0
14861.0157339,294459.03125,294915.0,327746.0625,321597.71875,285043.125,255811.609375,221911.53125,246195.171875,0.03662109375,0.990478515625,0.063232421875,0.5798339247703552,-1.6174315214157104,-1.3427733182907104,73.33333587646484,182203.0,1.0
14861.0157352,294488.28125,294863.34375,327748.65625,321643.9375,285031.25,255809.734375,221922.53125,246215.65625,0.035400390625,0.991455078125,0.062744140625,0.6103515028953552,-1.7395018339157104,-1.2207030057907104,73.33333587646484,182204.0,1.0
14861.0181924,294518.75,295142.375,327959.46875,321656.1875,285161.0625,255864.71875,221975.984375,246224.0625,0.03271484375,0.9921875,0.069580078125,0.6103515028953552,-1.7700194120407104,-1.2207030057907104,73.33333587646484,182205.0,1.0
14861.0181952,294518.75,295142.375,327959.46875,321656.1875,285161.0625,255864.71875,221975.984375,246224.0625,0.03271484375,0.9921875,0.069580078125,0.6103515028953552,-1.7700194120407104,-1.2207030057907104,73.33333587646484,182206.0,0.0
14861.0181954,294518.75,295142.375,327959.46875,321656.1875,285161.0625,255864.71875,221975.984375,246224.0625,0.03271484375,0.9921875,0.069580078125,0.6103515028953552,-1.7700194120407104,-1.2207030057907104,73.33333587646484,182207.0,0.0
14861.0181956,294518.75,295142.375,327959.46875,321656.1875,285161.0625,255864.71875,221975.984375,246224.0625,0.03271484375,0.9921875,0.069580078125,0.6103515028953552,-1.7700194120407104,-1.2207030057907104,73.33333587646484,182208.0,0.0
14861.0181958,294518.75,295142.375,327959.46875,321656.1875,285161.0625,255864.71875,221975.984375,246224.0625,0.03271484375,0.9921875,0.069580078125,0.6103515028953552,-1.7700194120407104,-1.2207030057907104,73.33333587646484,182209.0,0.0
14861.0181961,294518.75,295142.375,327959.46875,321656.1875,285161.0625,255864.71875,221975.984375,246224.0625,0.03271484375,0.9921875,0.069580078125,0.6103515028953552,-1.7700194120407104,-1.2207030057907104,73.33333587646484,182210.0,0.0
14861.0181964,294518.75,295142.375,327959.46875,321656.1875,285161.0625,255864.71875,221975.984375,246224.0625,0.03271484375,0.9921875,0.069580078125,0.6103515028953552,-1.7700194120407104,-1.2207030057907104,73.33333587646484,182211.0,0.0
14861.0181966,294518.75,295142.375,327959.46875,321656.1875,285161.0625,255864.71875,221975.984375,246224.0625,0.03271484375,0.9921875,0.069580078125,0.6103515028953552,-1.7700194120407104,-1.2207030057907104,73.33333587646484,182212.0,0.0
14861.0181968,294518.75,295142.375,327959.46875,321656.1875,285161.0625,255864.71875,221975.984375,246224.0625,0.03271484375,0.9921875,0.069580078125,0.6103515028953552,-1.7700194120407104,-1.2207030057907104,73.33333587646484,182213.0,0.0
14861.018197,294518.75,295142.375,327959.46875,321656.1875,285161.0625,255864.71875,221975.984375,246224.0625,0.03271484375,0.9921875,0.069580078125,0.6103515028953552,-1.7700194120407104,-1.2207030057907104,73.33333587646484,182214.0,0.0
14861.0181971,294515.8125,295150.875,327983.625,321674.15625,285179.9375,255890.03125,221993.875,246237.5625,0.03466796875,0.991455078125,0.0615234375,0.4272460639476776,-1.7089842557907104,-1.1901854276657104,73.33333587646484,182215.0,1.0
14861.0426383,294509.09375,295376.71875,328105.03125,321635.1875,285268.71875,255923.640625,222015.0625,246224.6875,0.03173828125,0.989990234375,0.059326171875,0.5187987685203552,-1.8615721464157104,-1.3122557401657104,73.33333587646484,182216.0,1.0
14861.0676267,294474.875,295230.78125,327970.375,321600.125,285190.3125,255868.921875,221966.328125,246200.359375,0.031005859375,0.98974609375,0.05908203125,0.4272460639476776,-1.8310545682907104,-1.4343260526657104,73.33333587646484,182217.0,1.0
14861.0944256,294457.25,294907.78125,327742.46875,321608.625,285040.71875,255805.265625,221912.421875,246198.3125,0.03369140625,0.987548828125,0.061279296875,0.4882812201976776,-1.8310545682907104,-1.5258787870407104,73.33333587646484,182218.0,1.0
14861.094431,294486.3125,294862.4375,327747.75,321654.03125,285032.5,255808.21875,221926.375,246218.25,0.03515625,0.987548828125,0.061279296875,0.5798339247703552,-1.9226073026657104,-1.4953612089157104,73.33333587646484,182219.0,1.0
14861.0944324,294519.46875,295154.4375,327976.46875,321671.03125,285176.8125,255879.65625,221992.53125,246233.0,0.03466796875,0.989501953125,0.0615234375,0.4577636420726776,-2.044677495956421,-1.6174315214157104,73.33333587646484,182220.0,1.0
14861.1126402,294512.6875,295381.34375,328109.125,321633.03125,285272.65625,255919.4375,222015.78125,246217.984375,0.03564453125,0.98876953125,0.060302734375,0.5798339247703552,-1.9531248807907104,-1.6479490995407104,73.33333587646484,182221.0,1.0
14861.1151329,294475.21875,295234.375,327972.34375,321592.1875,285192.28125,255869.109375,221966.421875,246197.0625,0.03564453125,0.990478515625,0.06494140625,0.7019042372703552,-1.8920897245407104,-1.6784666776657104,73.33333587646484,182222.0,1.0
14861.1197074,294457.5,294907.21875,327742.9375,321597.1875,285039.375,255803.296875,221905.984375,246194.1875,0.03466796875,0.990478515625,0.062255859375,0.7019042372703552,-1.8005369901657104,-1.6784666776657104,73.33333587646484,182223.0,1.0
14861.1197128,294488.71875,294860.125,327749.53125,321643.40625,285031.59375,255805.265625,221923.5,246216.90625,0.032470703125,0.990234375,0.06396484375,0.7324218153953552,-1.7395018339157104,-1.5869139432907104,73.33333587646484,182224.0,1.0
14861.119714,294523.3125,295147.8125,327968.3125,321655.375,285166.875,255868.296875,221980.8125,246226.734375,0.03515625,0.991455078125,0.06298828125,0.7019042372703552,-1.7395018339157104,-1.5869139432907104,73.33333587646484,182225.0,1.0
14861.1197155,294516.6875,295379.03125,328100.65625,321619.625,285262.09375,255909.421875,222007.640625,246213.953125,0.033935546875,0.9921875,0.064208984375,0.7629393935203552,-1.7700194120407104,-1.5258787870407104,73.33333587646484,182226.0,1.0
14861.1243558,294487.1875,295243.65625,327979.3125,321591.71875,285193.4375,255873.75,221970.796875,246195.890625,0.032958984375,0.990478515625,0.06494140625,0.8850097060203552,-1.8615721464157104,-1.4343260526657104,73.33333587646484,182227.0,1.0
14861.1243603,294462.96875,294909.65625,327746.25,321596.5625,285037.3125,255805.625,221905.0,246188.734375,0.03466796875,0.991943359375,0.065673828125,0.7324218153953552,-1.7395018339157104,-1.4343260526657104,73.33333587646484,182228.0,1.0
14861.1243616,294491.75,294858.78125,327750.71875,321641.71875,285025.34375,255812.515625,221922.34375,246214.84375,0.033935546875,0.99169921875,0.061767578125,0.7324218153953552,-1.7700194120407104,-1.3732908964157104,73.33333587646484,182229.0,1.0
14861.1243629,294524.3125,295144.0625,327976.90625,321661.5625,285165.28125,255875.453125,221984.65625,246230.9375,0.03271484375,0.9921875,0.060302734375,0.7019042372703552,-1.8005369901657104,-1.2512205839157104,73.33333587646484,182230.0,1.0
14861.1243642,294520.90625,295367.40625,328102.34375,321631.96875,285257.53125,255913.890625,222013.71875,246223.15625,0.032470703125,0.994384765625,0.059814453125,0.7019042372703552,-1.8615721464157104,-1.1901854276657104,73.33333587646484,182231.0,1.0
14861.1243654,294480.59375,295216.3125,327963.5,321596.5625,285177.6875,255873.9375,221970.09375,246201.890625,0.031005859375,0.994140625,0.061767578125,0.6713866591453552,-1.8310545682907104,-1.0986326932907104,73.33333587646484,182232.0,1.0
14861.1283939,294458.0625,294892.65625,327741.59375,321603.0,285031.5,255813.140625,221905.71875,246194.828125,0.03076171875,0.9921875,0.06103515625,0.5493163466453552,-1.8920897245407104,-1.0375975370407104,73.33333587646484,182233.0,1.0
14861.1283962,294488.8125,294846.25,327755.34375,321653.5,285031.15625,255820.109375,221929.59375,246222.0,0.0302734375,0.9931640625,0.0654296875,0.4272460639476776,-1.9531248807907104,-1.0070799589157104,73.33333587646484,182234.0,1.0
14861.1283974,294528.875,295145.5,327992.1875,321674.25,285181.28125,255880.1875,221992.265625,246241.84375,0.03173828125,0.991943359375,0.065673828125,0.4272460639476776,-1.8920897245407104,-1.0681151151657104,73.33333587646484,182235.0,1.0
14861.1283986,294514.03125,295365.71875,328109.125,321633.9375,285267.625,255913.09375,222016.40625,246227.09375,0.031005859375,0.989990234375,0.064453125,0.2136230319738388,-1.9836424589157104,-0.8850097060203552,73.33333587646484,182236.0,1.0
14861.1283998,294475.40625,295226.78125,327969.3125,321599.0625,285190.03125,255885.109375,221973.390625,246207.25,0.03173828125,0.9892578125,0.060546875,0.1831054538488388,-2.014159917831421,-0.9155272841453552,73.33333587646484,182237.0,1.0
14861.1284011,294458.0625,294910.0,327748.375,321608.90625,285045.65625,255824.3125,221920.734375,246201.703125,0.031982421875,0.98828125,0.0595703125,0.1220703050494194,-1.9226073026657104,-0.8850097060203552,73.33333587646484,182238.0,1.0
14861.1284023,294483.625,294855.1875,327745.6875,321652.09375,285029.5625,255815.109375,221924.84375,246214.578125,0.032470703125,0.989501953125,0.0615234375,0.1220703050494194,-2.014159917831421,-0.9155272841453552,73.33333587646484,182239.0,1.0
14861.1301592,294514.65625,295135.5,327952.9375,321666.125,285158.65625,255874.640625,221979.125,246229.59375,0.034423828125,0.986083984375,0.0615234375,0.03051757626235485,-2.014159917831421,-0.9460448622703552,73.33333587646484,182240.0,1.0
14861.1331723,294506.40625,295363.28125,328083.03125,321628.75,285254.59375,255902.8125,222000.046875,246218.15625,0.0341796875,0.986328125,0.062744140625,-0.03051757626235485,-2.044677495956421,-1.0375975370407104,73.33333587646484,182241.0,1.0
14861.1331742,294473.34375,295234.625,327956.78125,321595.84375,285186.8125,255873.03125,221960.796875,246201.171875,0.035888671875,0.987060546875,0.06201171875,0.0610351525247097,-2.014159917831421,-1.0986326932907104,73.33333587646484,182242.0,1.0
14861.1331755,294455.09375,294917.6875,327739.625,321607.03125,285042.78125,255814.03125,221907.5,246199.828125,0.034423828125,0.989013671875,0.064697265625,0.0610351525247097,-1.8310545682907104,-0.9765624403953552,73.33333587646484,182243.0,1.0
14861.1350234,294490.78125,294876.21875,327756.875,321660.03125,285043.6875,255826.1875,221928.96875,246227.359375,0.03466796875,0.98876953125,0.063720703125,0.0,-1.8615721464157104,-1.0070799589157104,73.33333587646484,182244.0,1.0
14861.1846716,294525.28125,295168.75,327991.40625,321675.40625,285191.5625,255894.40625,221995.84375,246249.0,0.035400390625,0.98828125,0.064208984375,0.03051757626235485,-1.8005369901657104,-1.0681151151657104,73.33333587646484,182245.0,1.0
14861.1883441,294515.1875,295393.34375,328118.96875,321630.34375,285279.625,255923.546875,222010.234375,246222.890625,0.0361328125,0.990478515625,0.059326171875,-0.0915527269244194,-1.7395018339157104,-1.0070799589157104,73.33333587646484,182246.0,1.0
14861.1883497,294476.125,295240.71875,327972.625,321587.15625,285191.71875,255878.21875,221960.171875,246197.5,0.036376953125,0.99169921875,0.0615234375,0.0,-1.6174315214157104,-1.0681151151657104,73.33333587646484,182247.0,1.0
14861.188351,294459.3125,294912.59375,327744.53125,321594.59375,285041.53125,255815.375,221905.8125,246194.109375,0.037109375,0.988525390625,0.060546875,0.0,-1.5258787870407104,-1.0375975370407104,73.33333587646484,182248.0,1.0
14861.1883524,294486.125,294860.46875,327743.1875,321636.15625,285024.53125,255805.359375,221911.171875,246208.40625,0.036865234375,0.9873046875,0.06396484375,-0.03051757626235485,-1.4953612089157104,-1.0681151151657104,73.33333587646484,182249.0,1.0
14861.1883537,294524.40625,295159.0,327978.78125,321655.375,285170.53125,255864.984375,221975.546875,246223.4375,0.03759765625,0.988525390625,0.06005859375,-0.1525878757238388,-1.3427733182907104,-1.1901854276657104,73.33333587646484,182250.0,1.0
14861.1883549,294516.53125,295375.46875,328098.3125,321619.625,285258.78125,255897.359375,221995.65625,246211.71875,0.03759765625,0.988037109375,0.058837890625,0.0,-1.4038084745407104,-1.0375975370407104,73.33333587646484,182251.0,1.0
14861.2084278,294479.78125,295230.0,327965.09375,321585.5625,285186.46875,255860.515625,221956.234375,246194.90625,0.037109375,0.98828125,0.0615234375,-0.0610351525247097,-1.3122557401657104,-1.0986326932907104,73.33333587646484,182252.0,1.0
14861.2101549,294479.78125,295230.0,327965.09375,321585.5625,285186.46875,255860.515625,221956.234375,246194.90625,0.037109375,0.98828125,0.0615234375,-0.0610351525247097,-1.3122557401657104,-1.0986326932907104,73.33333587646484,182253.0,0.0
14861.2101562,294479.78125,295230.0,327965.09375,321585.5625,285186.46875,255860.515625,221956.234375,246194.90625,0.037109375,0.98828125,0.0615234375,-0.0610351525247097,-1.3122557401657104,-1.0986326932907104,73.33333587646484,182254.0,0.0
14861.2101565,294479.78125,295230.0,327965.09375,321585.5625,285186.46875,255860.515625,221956.234375,246194.90625,0.037109375,0.98828125,0.0615234375,-0.0610351525247097,-1.3122557401657104,-1.0986326932907104,73.33333587646484,182255.0,0.0
14861.2101567,294479.78125,295230.0,327965.09375,321585.5625,285186.46875,255860.515625,221956.234375,246194.90625,0.037109375,0.98828125,0.0615234375,-0.0610351525247097,-1.3122557401657104,-1.0986326932907104,73.33333587646484,182256.0,0.0
14861.2101569,294479.78125,295230.0,327965.09375,321585.5625,285186.46875,255860.515625,221956.234375,246194.90625,0.037109375,0.98828125,0.0615234375,-0.0610351525247097,-1.3122557401657104,-1.0986326932907104,73.33333587646484,182257.0,0.0
14861.210157,294479.78125,295230.0,327965.09375,321585.5625,285186.46875,255860.515625,221956.234375,246194.90625,0.037109375,0.98828125,0.0615234375,-0.0610351525247097,-1.3122557401657104,-1.0986326932907104,73.33333587646484,182258.0,0.0
14861.2101573,294479.78125,295230.0,327965.09375,321585.5625,285186.46875,255860.515625,221956.234375,246194.90625,0.037109375,0.98828125,0.0615234375,-0.0610351525247097,-1.3122557401657104,-1.0986326932907104,73.33333587646484,182259.0,0.0
14861.2101574,294479.78125,295230.0,327965.09375,321585.5625,285186.46875,255860.515625,221956.234375,246194.90625,0.037109375,0.98828125,0.0615234375,-0.0610351525247097,-1.3122557401657104,-1.0986326932907104,73.33333587646484,182260.0,0.0
14861.2101576,294479.78125,295230.0,327965.09375,321585.5625,285186.46875,255860.515625,221956.234375,246194.90625,0.037109375,0.98828125,0.0615234375,-0.0610351525247097,-1.3122557401657104,-1.0986326932907104,73.33333587646484,182261.0,0.0
14861.2101578,294479.78125,295230.0,327965.09375,321585.5625,285186.46875,255860.515625,221956.234375,246194.90625,0.037109375,0.98828125,0.0615234375,-0.0610351525247097,-1.3122557401657104,-1.0986326932907104,73.33333587646484,182262.0,0.0
14861.210158,294479.78125,295230.0,327965.09375,321585.5625,285186.46875,255860.515625,221956.234375,246194.90625,0.037109375,0.98828125,0.0615234375,-0.0610351525247097,-1.3122557401657104,-1.0986326932907104,73.33333587646484,182263.0,0.0
14861.2101581,294479.78125,295230.0,327965.09375,321585.5625,285186.46875,255860.515625,221956.234375,246194.90625,0.037109375,0.98828125,0.0615234375,-0.0610351525247097,-1.3122557401657104,-1.0986326932907104,73.33333587646484,182264.0,0.0
14861.2101583,294479.78125,295230.0,327965.09375,321585.5625,285186.46875,255860.515625,221956.234375,246194.90625,0.037109375,0.98828125,0.0615234375,-0.0610351525247097,-1.3122557401657104,-1.0986326932907104,73.33333587646484,182265.0,0.0
14861.2101585,294479.78125,295230.0,327965.09375,321585.5625,285186.46875,255860.515625,221956.234375,246194.90625,0.037109375,0.98828125,0.0615234375,-0.0610351525247097,-1.3122557401657104,-1.0986326932907104,73.33333587646484,182266.0,0.0
14861.2101586,294479.78125,295230.0,327965.09375,321585.5625,285186.46875,255860.515625,221956.234375,246194.90625,0.037109375,0.98828125,0.0615234375,-0.0610351525247097,-1.3122557401657104,-1.0986326932907104,73.33333587646484,182267.0,0.0
14861.2101588,294479.78125,295230.0,327965.09375,321585.5625,285186.46875,255860.515625,221956.234375,246194.90625,0.037109375,0.98828125,0.0615234375,-0.0610351525247097,-1.3122557401657104,-1.0986326932907104,73.33333587646484,182268.0,0.0
14861.210159,294479.78125,295230.0,327965.09375,321585.5625,285186.46875,255860.515625,221956.234375,246194.90625,0.037109375,0.98828125,0.0615234375,-0.0610351525247097,-1.3122557401657104,-1.0986326932907104,73.33333587646484,182269.0,0.0
14861.2101591,294479.78125,295230.0,327965.09375,321585.5625,285186.46875,255860.515625,221956.234375,246194.90625,0.037109375,0.98828125,0.0615234375,-0.0610351525247097,-1.3122557401657104,-1.0986326932907104,73.33333587646484,182270.0,0.0
14861.2101594,294479.78125,295230.0,327965.09375,321585.5625,285186.46875,255860.515625,221956.234375,246194.90625,0.037109375,0.98828125,0.0615234375,-0.0610351525247097,-1.3122557401657104,-1.0986326932907104,73.33333587646484,182271.0,0.0
14861.2101596,294479.78125,295230.0,327965.09375,321585.5625,285186.46875,255860.515625,221956.234375,246194.90625,0.037109375,0.98828125,0.0615234375,-0.0610351525247097,-1.3122557401657104,-1.0986326932907104,73.33333587646484,182272.0,0.0
14861.2101598,294479.78125,295230.0,327965.09375,321585.5625,285186.46875,255860.515625,221956.234375,246194.90625,0.037109375,0.98828125,0.0615234375,-0.0610351525247097,-1.3122557401657104,-1.0986326932907104,73.33333587646484,182273.0,0.0
14861.2101601,294479.78125,295230.0,327965.09375,321585.5625,285186.46875,255860.515625,221956.234375,246194.90625,0.037109375,0.98828125,0.0615234375,-0.0610351525247097,-1.3122557401657104,-1.0986326932907104,73.33333587646484,182274.0,0.0
14861.2101602,294479.78125,295230.0,327965.09375,321585.5625,285186.46875,255860.515625,221956.234375,246194.90625,0.037109375,0.98828125,0.0615234375,-0.0610351525247097,-1.3122557401657104,-1.0986326932907104,73.33333587646484,182275.0,0.0
14861.2101604,294479.78125,295230.0,327965.09375,321585.5625,285186.46875,255860.515625,221956.234375,246194.90625,0.037109375,0.98828125,0.0615234375,-0.0610351525247097,-1.3122557401657104,-1.0986326932907104,73.33333587646484,182276.0,0.0
14861.2101606,294479.78125,295230.0,327965.09375,321585.5625,285186.46875,255860.515625,221956.234375,246194.90625,0.037109375,0.98828125,0.0615234375,-0.0610351525247097,-1.3122557401657104,-1.0986326932907104,73.33333587646484,182277.0,0.0
14861.2101607,294479.78125,295230.0,327965.09375,321585.5625,285186.46875,255860.515625,221956.234375,246194.90625,0.037109375,0.98828125,0.0615234375,-0.0610351525247097,-1.3122557401657104,-1.0986326932907104,73.33333587646484,182278.0,0.0
14861.2101609,294479.78125,295230.0,327965.09375,321585.5625,285186.46875,255860.515625,221956.234375,246194.90625,0.037109375,0.98828125,0.0615234375,-0.0610351525247097,-1.3122557401657104,-1.0986326932907104,73.33333587646484,182279.0,0.0
14861.2101611,294479.78125,295230.0,327965.09375,321585.5625,285186.46875,255860.515625,221956.234375,246194.90625,0.037109375,0.98828125,0.0615234375,-0.0610351525247097,-1.3122557401657104,-1.0986326932907104,73.33333587646484,182280.0,0.0
14861.2101613,294479.78125,295230.0,327965.09375,321585.5625,285186.46875,255860.515625,221956.234375,246194.90625,0.037109375,0.98828125,0.0615234375,-0.0610351525247097,-1.3122557401657104,-1.0986326932907104,73.33333587646484,182281.0,0.0
14861.2101615,294479.78125,295230.0,327965.09375,321585.5625,285186.46875,255860.515625,221956.234375,246194.90625,0.037109375,0.98828125,0.0615234375,-0.0610351525247097,-1.3122557401657104,-1.0986326932907104,73.33333587646484,182282.0,0.0
14861.2101616,294479.78125,295230.0,327965.09375,321585.5625,285186.46875,255860.515625,221956.234375,246194.90625,0.037109375,0.98828125,0.0615234375,-0.0610351525247097,-1.3122557401657104,-1.0986326932907104,73.33333587646484,182283.0,0.0
14861.2101618,294479.78125,295230.0,327965.09375,321585.5625,285186.46875,255860.515625,221956.234375,246194.90625,0.037109375,0.98828125,0.0615234375,-0.0610351525247097,-1.3122557401657104,-1.0986326932907104,73.33333587646484,182284.0,0.0
14861.210162,294479.78125,295230.0,327965.09375,321585.5625,285186.46875,255860.515625,221956.234375,246194.90625,0.037109375,0.98828125,0.0615234375,-0.0610351525247097,-1.3122557401657104,-1.0986326932907104,73.33333587646484,182285.0,0.0
14861.2101621,294479.78125,295230.0,327965.09375,321585.5625,285186.46875,255860.515625,221956.234375,246194.90625,0.037109375,0.98828125,0.0615234375,-0.0610351525247097,-1.3122557401657104,-1.0986326932907104,73.33333587646484,182286.0,0.0
14861.2101623,294479.78125,295230.0,327965.09375,321585.5625,285186.46875,255860.515625,221956.234375,246194.90625,0.037109375,0.98828125,0.0615234375,-0.0610351525247097,-1.3122557401657104,-1.0986326932907104,73.33333587646484,182287.0,0.0
14861.2101625,294479.78125,295230.0,327965.09375,321585.5625,285186.46875,255860.515625,221956.234375,246194.90625,0.037109375,0.98828125,0.0615234375,-0.0610351525247097,-1.3122557401657104,-1.0986326932907104,73.33333587646484,182288.0,0.0
14861.2101627,294479.78125,295230.0,327965.09375,321585.5625,285186.46875,255860.515625,221956.234375,246194.90625,0.037109375,0.98828125,0.0615234375,-0.0610351525247097,-1.3122557401657104,-1.0986326932907104,73.33333587646484,182289.0,0.0
14861.2101628,294515.625,295139.5,327961.15625,321655.3125,285177.0625,255855.609375,221970.53125,246234.78125,0.0380859375,0.98828125,0.069091796875,0.3051757514476776,-1.3122557401657104,-1.0070799589157104,73.33333587646484,182290.0,1.0
14861.2125824,294512.9375,295374.375,328094.5625,321617.75,285273.90625,255891.90625,221994.59375,246224.765625,0.0400390625,0.988037109375,0.067626953125,0.3662109076976776,-1.1291502714157104,-1.0681151151657104,73.33333587646484,182291.0,1.0
14861.2173495,294474.40625,295226.6875,327941.78125,321573.84375,285184.9375,255852.65625,221944.515625,246200.71875,0.0400390625,0.988525390625,0.068603515625,0.3662109076976776,-1.0986326932907104,-1.1291502714157104,73.33333587646484,182292.0,1.0
14861.2173518,294454.5625,294902.03125,327710.84375,321575.53125,285029.0,255790.515625,221888.28125,246192.234375,0.037841796875,0.98876953125,0.06298828125,0.5493163466453552,-1.0375975370407104,-1.0681151151657104,73.33333587646484,182293.0,1.0
14861.2173531,294493.46875,294857.96875,327726.21875,321631.96875,285029.0,255807.59375,221914.65625,246223.703125,0.03759765625,0.9912109375,0.065185546875,0.5493163466453552,-0.8544921278953552,-1.1291502714157104,73.33333587646484,182294.0,1.0
14861.2173543,294527.25,295146.84375,327961.0,321650.03125,285175.71875,255866.328125,221976.96875,246234.078125,0.036865234375,0.9892578125,0.066650390625,0.5798339247703552,-0.7934569716453552,-1.1901854276657104,73.33333587646484,182295.0,1.0
14861.2173556,294517.59375,295375.53125,328098.3125,321613.8125,285273.90625,255901.828125,221998.078125,246219.046875,0.036865234375,0.98828125,0.06787109375,0.5798339247703552,-0.8850097060203552,-1.1901854276657104,73.33333587646484,182296.0,1.0
14861.2173568,294477.625,295235.0,327962.78125,321577.5,285194.0625,255851.3125,221940.046875,246197.859375,0.0341796875,0.989990234375,0.070068359375,0.4882812201976776,-0.8239745497703552,-1.2817381620407104,73.33333587646484,182297.0,1.0
14861.217358,294461.0,294915.46875,327739.71875,321589.3125,285046.71875,255787.203125,221887.46875,246196.25,0.033447265625,0.9892578125,0.06689453125,0.5493163466453552,-0.8850097060203552,-1.3122557401657104,73.33333587646484,182298.0,1.0
14861.2205715,294498.65625,294862.4375,327750.25,321645.65625,285045.65625,255807.0625,221914.296875,246226.296875,0.03271484375,0.99072265625,0.06982421875,0.6408690810203552,-0.9155272841453552,-1.3732908964157104,73.33333587646484,182299.0,1.0
14861.2205734,294533.96875,295137.71875,327966.34375,321660.9375,285180.46875,255871.34375,221975.625,246241.671875,0.031494140625,0.9912109375,0.0703125,0.7324218153953552,-0.9460448622703552,-1.3122557401657104,73.33333587646484,182300.0,1.0
14861.2205747,294527.0625,295356.3125,328081.78125,321623.375,285263.53125,255898.15625,221986.1875,246226.03125,0.0322265625,0.99169921875,0.069091796875,0.7324218153953552,-0.9460448622703552,-1.3427733182907104,73.33333587646484,182301.0,1.0
14861.220576,294490.875,295218.53125,327948.03125,321588.40625,285187.8125,255859.0,221941.390625,246203.671875,0.032958984375,0.99072265625,0.06787109375,0.6713866591453552,-1.0375975370407104,-1.3732908964157104,73.33333587646484,182302.0,1.0
14861.2227951,294469.3125,294894.96875,327725.125,321595.84375,285039.65625,255789.265625,221881.671875,246201.890625,0.0322265625,0.99072265625,0.06787109375,0.6408690810203552,-1.1596678495407104,-1.2817381620407104,73.33333587646484,182303.0,1.0
14861.2604732,294505.53125,294848.5,327734.625,321649.75,285038.03125,255801.59375,221905.265625,246232.640625,0.0322265625,0.99072265625,0.066650390625,0.6408690810203552,-1.2512205839157104,-1.3732908964157104,73.33333587646484,182304.0,1.0
14861.2604792,294542.375,295144.78125,327968.15625,321669.0625,285187.1875,255870.171875,221973.3125,246247.125,0.032958984375,0.9912109375,0.068115234375,0.6408690810203552,-1.2817381620407104,-1.2512205839157104,73.33333587646484,182305.0,1.0
14861.2850832,294530.65625,295374.21875,328104.125,321630.71875,285286.3125,255901.375,221993.6875,246232.546875,0.03076171875,0.990234375,0.06884765625,0.5798339247703552,-1.2512205839157104,-1.2207030057907104,73.33333587646484,182306.0,1.0
14861.3100805,294488.09375,295233.9375,327971.375,321590.9375,285209.53125,255865.796875,221950.78125,246212.4375,0.03076171875,0.990234375,0.071044921875,0.6408690810203552,-1.3732908964157104,-1.1596678495407104,73.33333587646484,182307.0,1.0
14861.3418251,294467.4375,294915.8125,327737.46875,321596.65625,285057.25,255812.78125,221897.3125,246210.921875,0.030029296875,0.992431640625,0.072509765625,0.5187987685203552,-1.4648436307907104,-1.0986326932907104,73.33333587646484,182308.0,1.0
14861.3418309,294495.875,294872.71875,327746.59375,321642.4375,285049.5,255814.5625,221913.5,246232.28125,0.03125,0.990966796875,0.06884765625,0.4577636420726776,-1.4343260526657104,-1.0070799589157104,73.33333587646484,182309.0,1.0
14861.3418322,294524.46875,295159.09375,327979.21875,321657.96875,285192.28125,255874.203125,221978.140625,246243.640625,0.03076171875,0.99072265625,0.068359375,0.3967284858226776,-1.6784666776657104,-1.0986326932907104,73.33333587646484,182310.0,1.0
14861.3418334,294523.9375,295395.21875,328117.09375,321632.15625,285292.0625,255918.015625,222011.578125,246243.28125,0.031982421875,0.989501953125,0.068603515625,0.5187987685203552,-1.7089842557907104,-1.0375975370407104,73.33333587646484,182311.0,1.0
14861.3418346,294478.96875,295247.0625,327969.9375,321587.15625,285201.65625,255874.5625,221954.890625,246210.28125,0.0322265625,0.989501953125,0.06884765625,0.4882812201976776,-1.7395018339157104,-1.0375975370407104,73.33333587646484,182312.0,1.0
14861.341836,294451.0625,294912.3125,327728.0,321582.96875,285041.09375,255799.640625,221886.5,246196.078125,0.0322265625,0.989013671875,0.0712890625,0.4272460639476776,-1.8615721464157104,-0.9460448622703552,73.33333587646484,182313.0,1.0
14861.4200193,294473.59375,294846.0625,327721.125,321621.40625,285022.21875,255786.21875,221894.546875,246212.34375,0.030517578125,0.990478515625,0.0673828125,0.3967284858226776,-1.8615721464157104,-0.9155272841453552,73.33333587646484,182314.0,1.0
14861.4200258,294508.75,295135.5,327951.53125,321638.3125,285165.0,255851.671875,221959.1875,246228.078125,0.03125,0.989990234375,0.067138671875,0.3967284858226776,-1.9531248807907104,-0.7934569716453552,73.33333587646484,182315.0,1.0
14861.4200271,294504.09375,295363.21875,328082.21875,321598.96875,285257.8125,255884.390625,221980.640625,246214.9375,0.0302734375,0.990234375,0.0654296875,0.3967284858226776,-2.075195074081421,-0.7629393935203552,73.33333587646484,182316.0,1.0
14861.4200283,294477.0,295239.65625,327960.375,321570.4375,285192.09375,255856.3125,221940.859375,246201.96875,0.031982421875,0.98876953125,0.067626953125,0.2746581733226776,-2.197265386581421,-0.7019042372703552,73.33333587646484,182317.0,1.0
14861.4200296,294463.0625,294931.28125,327751.78125,321586.53125,285056.375,255807.6875,221888.109375,246204.75,0.033203125,0.98974609375,0.066162109375,0.1525878757238388,-2.166747808456421,-0.6713866591453552,73.33333587646484,182318.0,1.0
14861.4200309,294491.65625,294868.15625,327753.46875,321632.9375,285044.65625,255798.03125,221893.46875,246220.484375,0.03369140625,0.98876953125,0.068115234375,0.1831054538488388,-2.258300542831421,-0.7324218153953552,73.33333587646484,182319.0,1.0
14861.4200321,294524.40625,295150.59375,327978.875,321649.5625,285185.375,255860.15625,221956.953125,246232.28125,0.03369140625,0.98828125,0.067626953125,0.1525878757238388,-2.258300542831421,-0.7629393935203552,73.33333587646484,182320.0,1.0
14861.4200333,294516.78125,295372.3125,328090.625,321611.03125,285265.75,255895.03125,221978.5,246219.5,0.034912109375,0.989501953125,0.06884765625,0.1220703050494194,-2.319335699081421,-0.6103515028953552,73.33333587646484,182321.0,1.0
14861.4455395,294483.34375,295237.9375,327954.65625,321578.84375,285189.5,255862.3125,221935.3125,246204.75,0.035888671875,0.98779296875,0.06591796875,0.2441406100988388,-2.288818120956421,-0.7019042372703552,73.33333587646484,182322.0,1.0
14861.4455474,294461.625,294916.34375,327729.6875,321587.09375,285042.6875,255792.84375,221879.703125,246202.953125,0.037109375,0.989013671875,0.06640625,0.3051757514476776,-2.227782964706421,-0.8239745497703552,73.33333587646484,182323.0,1.0
14861.4455487,294494.96875,294861.8125,327737.65625,321636.78125,285035.8125,255789.703125,221891.140625,246219.046875,0.036376953125,0.989013671875,0.068359375,0.3967284858226776,-2.136230230331421,-0.8239745497703552,73.33333587646484,182324.0,1.0
14861.4455502,294532.53125,295137.28125,327958.65625,321657.4375,285171.09375,255851.3125,221951.140625,246237.375,0.037353515625,0.99072265625,0.069580078125,0.3051757514476776,-2.227782964706421,-1.0070799589157104,73.33333587646484,182325.0,1.0
14861.4701062,294524.65625,295368.75,328090.8125,321620.78125,285268.25,255892.625,221982.78125,246228.53125,0.036865234375,0.9912109375,0.06689453125,0.2746581733226776,-2.075195074081421,-1.0375975370407104,73.33333587646484,182326.0,1.0
14861.4701119,294524.65625,295368.75,328090.8125,321620.78125,285268.25,255892.625,221982.78125,246228.53125,0.036865234375,0.9912109375,0.06689453125,0.2746581733226776,-2.075195074081421,-1.0375975370407104,73.33333587646484,182327.0,0.0
14861.4701121,294524.65625,295368.75,328090.8125,321620.78125,285268.25,255892.625,221982.78125,246228.53125,0.036865234375,0.9912109375,0.06689453125,0.2746581733226776,-2.075195074081421,-1.0375975370407104,73.33333587646484,182328.0,0.0
14861.4701123,294524.65625,295368.75,328090.8125,321620.78125,285268.25,255892.625,221982.78125,246228.53125,0.036865234375,0.9912109375,0.06689453125,0.2746581733226776,-2.075195074081421,-1.0375975370407104,73.33333587646484,182329.0,0.0
14861.4701125,294524.65625,295368.75,328090.8125,321620.78125,285268.25,255892.625,221982.78125,246228.53125,0.036865234375,0.9912109375,0.06689453125,0.2746581733226776,-2.075195074081421,-1.0375975370407104,73.33333587646484,182330.0,0.0
14861.4701127,294524.65625,295368.75,328090.8125,321620.78125,285268.25,255892.625,221982.78125,246228.53125,0.036865234375,0.9912109375,0.06689453125,0.2746581733226776,-2.075195074081421,-1.0375975370407104,73.33333587646484,182331.0,0.0
14861.4701129,294476.90625,295218.53125,327956.78125,321579.03125,285187.625,255851.84375,221931.46875,246207.515625,0.040771484375,0.989501953125,0.065185546875,0.5798339247703552,-1.8005369901657104,-1.0681151151657104,73.33333587646484,182332.0,1.0
14861.4701143,294455.1875,294905.8125,327745.25,321586.09375,285047.15625,255799.90625,221879.25,246202.421875,0.03955078125,0.989013671875,0.063232421875,0.5493163466453552,-1.6784666776657104,-1.1596678495407104,73.33333587646484,182333.0,1.0
14861.4939257,294474.21875,294827.3125,327721.75,321621.15625,285017.9375,255786.765625,221885.15625,246217.796875,0.03857421875,0.988525390625,0.061767578125,0.5493163466453552,-1.6174315214157104,-1.2207030057907104,73.33333587646484,182334.0,1.0
14861.5194646,294504.375,295100.8125,327926.3125,321634.5625,285142.5625,255831.734375,221940.671875,246231.203125,0.038330078125,0.98828125,0.064208984375,0.6713866591453552,-1.5258787870407104,-1.2512205839157104,73.33333587646484,182335.0,1.0
14861.5194701,294499.4375,295342.1875,328066.9375,321598.0625,285242.53125,255876.53125,221969.1875,246220.84375,0.038330078125,0.988037109375,0.065185546875,0.7324218153953552,-1.4648436307907104,-1.2512205839157104,73.33333587646484,182336.0,1.0
14861.5438953,294461.4375,295207.90625,327934.4375,321557.65625,285166.6875,255840.140625,221922.25,246199.015625,0.0400390625,0.987060546875,0.062255859375,0.6408690810203552,-1.3122557401657104,-1.1901854276657104,73.33333587646484,182337.0,1.0
14861.563924,294449.03125,294896.5,327710.375,321567.9375,285023.375,255779.703125,221869.78125,246200.09375,0.03955078125,0.988525390625,0.060302734375,0.6408690810203552,-1.3427733182907104,-1.1901854276657104,73.33333587646484,182338.0,1.0
14861.5663443,294480.125,294844.46875,327718.15625,321618.5625,285021.9375,255790.6875,221889.890625,246222.453125,0.039306640625,0.9873046875,0.064697265625,0.6713866591453552,-1.1291502714157104,-1.1596678495407104,73.33333587646484,182339.0,1.0
