Time,FZ,C3,CZ,C4,PZ,PO7,OZ,PO8,AccX,AccY,AccZ,Gyro1,Gyro2,Gyro3,Battery,Counter,Validation
14337.3016201,291163.125,297907.90625,360532.125,356598.6875,288043.0,257404.578125,223673.5625,245216.53125,0.012451171875,0.9951171875,0.2060546875,-0.0610351525247097,-1.4343260526657104,-1.0070799589157104,80.0,51231.0,1.0
14337.3771492,291136.5,297673.9375,360376.03125,356594.125,287966.21875,257362.828125,223632.875,245212.953125,0.01171875,0.996337890625,0.205810546875,-0.1220703050494194,-1.4038084745407104,-1.0986326932907104,80.0,51232.0,1.0
14337.3771651,291135.59375,297413.3125,360258.8125,356625.3125,287900.84375,257319.90625,223609.1875,245222.4375,0.010498046875,0.99658203125,0.2041015625,-0.0915527269244194,-1.4038084745407104,-1.0986326932907104,80.0,51233.0,1.0
14337.3771672,291175.65625,297519.96875,360375.3125,356665.09375,287962.71875,257364.078125,223660.328125,245253.90625,0.0107421875,0.998046875,0.203125,-0.1220703050494194,-1.4648436307907104,-1.0986326932907104,80.0,51234.0,1.0
14337.3771692,291189.96875,297824.3125,360549.5625,356643.375,288050.78125,257412.453125,223684.375,245227.078125,0.0107421875,0.9990234375,0.206787109375,-0.2136230319738388,-1.5869139432907104,-0.9765624403953552,80.0,51235.0,1.0
14337.3771711,291160.90625,297917.375,360545.375,356596.875,288052.5,257417.453125,223669.984375,245216.984375,0.009521484375,0.996337890625,0.20849609375,-0.2441406100988388,-1.6174315214157104,-0.9155272841453552,80.0,51236.0,1.0
14337.3771728,291122.53125,297666.6875,360375.59375,356578.46875,287960.5,257361.3125,223622.328125,245206.0625,0.01123046875,0.997314453125,0.20458984375,-0.3051757514476776,-1.7089842557907104,-0.8544921278953552,80.0,51237.0,1.0
14337.3771746,291125.125,297396.78125,360255.40625,356609.40625,287892.625,257313.734375,223598.28125,245209.203125,0.010498046875,0.997802734375,0.20556640625,-0.2746581733226776,-1.6479490995407104,-0.8239745497703552,80.0,51238.0,1.0
14337.3771763,291171.1875,297512.09375,360371.84375,356649.375,287952.09375,257345.84375,223636.453125,245230.921875,0.009765625,0.99658203125,0.20703125,-0.3356933295726776,-1.6479490995407104,-0.8850097060203552,80.0,51239.0,1.0
14337.3771779,291183.875,297810.28125,360538.84375,356633.71875,288041.5,257390.546875,223677.9375,245244.78125,0.008544921875,0.994140625,0.203125,-0.3662109076976776,-1.7089842557907104,-0.8850097060203552,80.0,51240.0,1.0
14337.3771809,291155.71875,297898.6875,360523.90625,356589.8125,288045.34375,257402.34375,223674.90625,245237.546875,0.01025390625,0.993896484375,0.20458984375,-0.2746581733226776,-1.7395018339157104,-0.8850097060203552,80.0,51241.0,1.0
14337.3771831,291155.71875,297898.6875,360523.90625,356589.8125,288045.34375,257402.34375,223674.90625,245237.546875,0.01025390625,0.993896484375,0.20458984375,-0.2746581733226776,-1.7395018339157104,-0.8850097060203552,80.0,51242.0,0.0
14337.3771834,291155.71875,297898.6875,360523.90625,356589.8125,288045.34375,257402.34375,223674.90625,245237.546875,0.01025390625,0.993896484375,0.20458984375,-0.2746581733226776,-1.7395018339157104,-0.8850097060203552,80.0,51243.0,0.0
14337.3771836,291155.71875,297898.6875,360523.90625,356589.8125,288045.34375,257402.34375,223674.90625,245237.546875,0.01025390625,0.993896484375,0.20458984375,-0.2746581733226776,-1.7395018339157104,-0.8850097060203552,80.0,51244.0,0.0
14337.3771839,291155.71875,297898.6875,360523.90625,356589.8125,288045.34375,257402.34375,223674.90625,245237.546875,0.01025390625,0.993896484375,0.20458984375,-0.2746581733226776,-1.7395018339157104,-0.8850097060203552,80.0,51245.0,0.0
14337.3771842,291155.71875,297898.6875,360523.90625,356589.8125,288045.34375,257402.34375,223674.90625,245237.546875,0.01025390625,0.993896484375,0.20458984375,-0.2746581733226776,-1.7395018339157104,-0.8850097060203552,80.0,51246.0,0.0
14337.3771845,291118.15625,297662.5,360362.0,356573.1875,287954.40625,257350.3125,223619.015625,245213.046875,0.015380859375,0.99365234375,0.208251953125,-0.1831054538488388,-1.6479490995407104,-0.7324218153953552,80.0,51247.0,1.0
14337.3771868,291121.46875,297385.59375,360224.21875,356604.125,287881.0,257314.453125,223597.390625,245225.921875,0.015625,0.993896484375,0.210693359375,-0.0610351525247097,-1.5869139432907104,-0.6713866591453552,80.0,51248.0,1.0
14337.4016148,291161.78125,297490.28125,360337.5,356642.5625,287939.46875,257352.28125,223642.890625,245239.6875,0.018798828125,0.993896484375,0.210693359375,0.0610351525247097,-1.5563963651657104,-0.7019042372703552,80.0,51249.0,1.0
14337.4266248,291181.71875,297806.4375,360522.125,356629.53125,288033.34375,257390.28125,223675.078125,245235.578125,0.018798828125,0.994384765625,0.20947265625,0.0610351525247097,-1.5563963651657104,-0.5798339247703552,80.0,51250.0,1.0
14337.4516095,291148.28125,297906.03125,360525.78125,356579.53125,288036.03125,257377.9375,223656.03125,245219.390625,0.018798828125,0.9931640625,0.212158203125,0.0915527269244194,-1.3427733182907104,-0.5798339247703552,80.0,51251.0,1.0
14337.4778552,291122.375,297669.625,360371.75,356574.09375,287958.96875,257347.8125,223622.15625,245217.328125,0.01708984375,0.992431640625,0.205810546875,0.2746581733226776,-1.3427733182907104,-0.7019042372703552,80.0,51252.0,1.0
14337.5144191,291136.5,297409.28125,360254.625,356613.78125,287900.0625,257335.109375,223619.109375,245233.25,0.016357421875,0.99169921875,0.20703125,0.3662109076976776,-1.1901854276657104,-0.7324218153953552,80.0,51253.0,1.0
14337.5144386,291168.21875,297499.40625,360351.625,356643.375,287943.15625,257353.609375,223642.359375,245245.859375,0.015869140625,0.992431640625,0.208740234375,0.4577636420726776,-1.1596678495407104,-0.7019042372703552,80.0,51254.0,1.0
14337.5144399,291177.25,297796.34375,360515.875,356626.65625,288027.71875,257386.25,223674.0,245253.546875,0.01806640625,0.9931640625,0.20849609375,0.5187987685203552,-0.9460448622703552,-0.7934569716453552,80.0,51255.0,1.0
14337.5144412,291144.71875,297886.625,360509.34375,356575.875,288025.75,257376.953125,223647.90625,245217.6875,0.017578125,0.995361328125,0.20751953125,0.6408690810203552,-0.8544921278953552,-0.7324218153953552,80.0,51256.0,1.0
14337.5144424,291119.78125,297646.03125,360342.0625,356564.4375,287942.25,257336.453125,223606.5,245205.71875,0.016845703125,0.99560546875,0.210693359375,0.6103515028953552,-0.8544921278953552,-0.7019042372703552,80.0,51257.0,1.0
14337.5144439,291134.34375,297397.03125,360232.8125,356607.71875,287888.15625,257310.4375,223595.0625,245230.03125,0.016845703125,0.995849609375,0.212646484375,0.5187987685203552,-0.7629393935203552,-0.7019042372703552,80.0,51258.0,1.0
14337.5391375,291173.6875,297503.6875,360352.6875,356648.28125,287945.90625,257341.28125,223633.328125,245256.5,0.0166015625,0.99609375,0.206787109375,0.5493163466453552,-0.7324218153953552,-0.7934569716453552,80.0,51259.0,1.0
14337.6297209,291182.8125,297809.375,360526.59375,356629.0625,288038.71875,257404.125,223680.0,245250.5,0.016357421875,0.9970703125,0.2041015625,0.6408690810203552,-0.7629393935203552,-0.8850097060203552,80.0,51260.0,1.0
14337.6297279,291150.34375,297910.3125,360526.875,356577.9375,288043.46875,257407.890625,223667.484375,245222.875,0.01513671875,0.995849609375,0.207763671875,0.6713866591453552,-0.7324218153953552,-0.8239745497703552,80.0,51261.0,1.0
14337.6297292,291121.5625,297665.625,360358.78125,356569.4375,287960.125,257363.1875,223626.703125,245227.34375,0.01318359375,0.99609375,0.20751953125,0.6408690810203552,-0.7629393935203552,-1.0375975370407104,80.0,51262.0,1.0
14337.6297304,291127.0,297402.40625,360238.53125,356601.8125,287895.40625,257321.078125,223598.546875,245232.984375,0.011962890625,0.99853515625,0.208740234375,0.6103515028953552,-0.7629393935203552,-1.0681151151657104,80.0,51263.0,1.0
14337.6297317,291157.15625,297492.4375,360336.34375,356629.625,287938.40625,257334.484375,223616.875,245243.625,0.011962890625,0.998779296875,0.20751953125,0.6713866591453552,-0.9155272841453552,-1.1291502714157104,80.0,51264.0,1.0
14337.6297329,291174.3125,297796.59375,360499.59375,356618.0,288026.5625,257384.375,223660.78125,245251.046875,0.007568359375,0.997314453125,0.20947265625,0.7934569716453552,-0.9460448622703552,-1.1596678495407104,80.0,51265.0,1.0
14337.6297342,291151.0625,297908.71875,360508.875,356576.6875,288039.15625,257393.21875,223655.859375,245234.328125,0.008056640625,0.99658203125,0.20849609375,0.7019042372703552,-1.0681151151657104,-1.2207030057907104,80.0,51266.0,1.0
14337.6297354,291119.5,297670.09375,360354.75,356561.65625,287955.9375,257347.359375,223609.453125,245220.828125,0.012939453125,0.9951171875,0.207763671875,0.7629393935203552,-1.2207030057907104,-1.1901854276657104,80.0,51267.0,1.0
14337.6297366,291127.65625,297408.5625,360240.03125,356598.0625,287895.03125,257333.953125,223600.421875,245239.59375,0.015869140625,0.993408203125,0.2080078125,0.6103515028953552,-1.3732908964157104,-1.1901854276657104,80.0,51268.0,1.0
14337.6310799,291154.1875,297487.4375,360336.34375,356626.84375,287937.96875,257354.515625,223619.015625,245254.609375,0.012939453125,0.994140625,0.207763671875,0.6408690810203552,-1.3122557401657104,-1.0681151151657104,80.0,51269.0,1.0
14337.6566447,291158.125,297769.96875,360480.46875,356595.09375,287999.65625,257359.34375,223629.484375,245228.953125,0.01416015625,0.993408203125,0.203857421875,0.7934569716453552,-1.4038084745407104,-0.9155272841453552,80.0,51270.0,1.0
14337.6821716,291138.5625,297877.15625,360484.125,356559.0625,288010.1875,257364.34375,223634.484375,245232.171875,0.01220703125,0.998291015625,0.205810546875,0.9765624403953552,-1.2817381620407104,-0.7934569716453552,80.0,51271.0,1.0
14337.6821777,291138.5625,297877.15625,360484.125,356559.0625,288010.1875,257364.34375,223634.484375,245232.171875,0.01220703125,0.998291015625,0.205810546875,0.9765624403953552,-1.2817381620407104,-0.7934569716453552,80.0,51272.0,0.0
14337.6821779,291138.5625,297877.15625,360484.125,356559.0625,288010.1875,257364.34375,223634.484375,245232.171875,0.01220703125,0.998291015625,0.205810546875,0.9765624403953552,-1.2817381620407104,-0.7934569716453552,80.0,51273.0,0.0
14337.6821781,291138.5625,297877.15625,360484.125,356559.0625,288010.1875,257364.34375,223634.484375,245232.171875,0.01220703125,0.998291015625,0.205810546875,0.9765624403953552,-1.2817381620407104,-0.7934569716453552,80.0,51274.0,0.0
14337.6821783,291138.5625,297877.15625,360484.125,356559.0625,288010.1875,257364.34375,223634.484375,245232.171875,0.01220703125,0.998291015625,0.205810546875,0.9765624403953552,-1.2817381620407104,-0.7934569716453552,80.0,51275.0,0.0
14337.682179,291138.5625,297877.15625,360484.125,356559.0625,288010.1875,257364.34375,223634.484375,245232.171875,0.01220703125,0.998291015625,0.205810546875,0.9765624403953552,-1.2817381620407104,-0.7934569716453552,80.0,51276.0,0.0
14337.6821792,291138.5625,297877.15625,360484.125,356559.0625,288010.1875,257364.34375,223634.484375,245232.171875,0.01220703125,0.998291015625,0.205810546875,0.9765624403953552,-1.2817381620407104,-0.7934569716453552,80.0,51277.0,0.0
14337.6821794,291138.5625,297877.15625,360484.125,356559.0625,288010.1875,257364.34375,223634.484375,245232.171875,0.01220703125,0.998291015625,0.205810546875,0.9765624403953552,-1.2817381620407104,-0.7934569716453552,80.0,51278.0,0.0
14337.6821796,291138.5625,297877.15625,360484.125,356559.0625,288010.1875,257364.34375,223634.484375,245232.171875,0.01220703125,0.998291015625,0.205810546875,0.9765624403953552,-1.2817381620407104,-0.7934569716453552,80.0,51279.0,0.0
14337.6821797,291138.5625,297877.15625,360484.125,356559.0625,288010.1875,257364.34375,223634.484375,245232.171875,0.01220703125,0.998291015625,0.205810546875,0.9765624403953552,-1.2817381620407104,-0.7934569716453552,80.0,51280.0,0.0
14337.6821799,291138.5625,297877.15625,360484.125,356559.0625,288010.1875,257364.34375,223634.484375,245232.171875,0.01220703125,0.998291015625,0.205810546875,0.9765624403953552,-1.2817381620407104,-0.7934569716453552,80.0,51281.0,0.0
14337.6821801,291138.5625,297877.15625,360484.125,356559.0625,288010.1875,257364.34375,223634.484375,245232.171875,0.01220703125,0.998291015625,0.205810546875,0.9765624403953552,-1.2817381620407104,-0.7934569716453552,80.0,51282.0,0.0
14337.6821804,291120.84375,297380.40625,360221.90625,356582.84375,287877.0625,257297.46875,223583.171875,245236.921875,0.01513671875,0.99609375,0.209228515625,0.2136230319738388,-1.6479490995407104,-1.0375975370407104,80.0,51283.0,1.0
14337.706634,291152.21875,297466.875,360315.40625,356609.84375,287921.78125,257325.0,223616.25,245247.640625,0.014404296875,0.99560546875,0.206298828125,0.2441406100988388,-1.6479490995407104,-1.0375975370407104,80.0,51284.0,1.0
14337.7141207,291161.15625,297767.375,360481.25,356586.53125,288007.875,257372.65625,223646.46875,245235.390625,0.015380859375,0.99560546875,0.205810546875,0.3356933295726776,-1.6174315214157104,-1.1901854276657104,80.0,51285.0,1.0
14337.7173194,291140.875,297877.40625,360490.03125,356550.03125,288020.84375,257373.90625,223634.75,245230.65625,0.014892578125,0.99365234375,0.203125,0.3356933295726776,-1.6174315214157104,-1.2207030057907104,80.0,51286.0,1.0
14337.7173223,291115.65625,297643.0,360330.78125,356546.1875,287946.625,257331.09375,223607.578125,245237.359375,0.015380859375,0.992919921875,0.20556640625,0.3356933295726776,-1.6479490995407104,-1.2207030057907104,80.0,51287.0,1.0
14337.7173236,291117.53125,297377.90625,360205.4375,356572.5625,287880.46875,257298.1875,223588.625,245239.5,0.013671875,0.9931640625,0.206298828125,0.4272460639476776,-1.6784666776657104,-1.2207030057907104,80.0,51288.0,1.0
14337.7191173,291150.4375,297462.75,360300.125,356600.8125,287921.25,257322.0625,223614.375,245244.96875,0.015625,0.9951171875,0.205078125,0.3967284858226776,-1.6174315214157104,-1.3427733182907104,80.0,51289.0,1.0
14337.7216357,291159.125,297759.9375,360461.0625,356583.03125,288003.84375,257369.0,223650.578125,245248.625,0.0146484375,0.99267578125,0.2041015625,0.4882812201976776,-1.5258787870407104,-1.2817381620407104,80.0,51290.0,1.0
14337.7240922,291134.53125,297872.59375,360474.65625,356544.0625,288020.46875,257371.765625,223654.96875,245244.515625,0.01416015625,0.99365234375,0.20556640625,0.5187987685203552,-1.5563963651657104,-1.3122557401657104,80.0,51291.0,1.0
14337.7310105,291111.1875,297643.25,360328.28125,356539.5,287945.8125,257328.765625,223616.875,245231.375,0.015380859375,0.99462890625,0.204345703125,0.5798339247703552,-1.4343260526657104,-1.3427733182907104,80.0,51292.0,1.0
14337.7310176,291114.3125,297371.46875,360201.0625,356569.71875,287875.09375,257288.265625,223594.25,245245.046875,0.014892578125,0.995849609375,0.205078125,0.7019042372703552,-1.4648436307907104,-1.2207030057907104,80.0,51293.0,1.0
14337.7310207,291114.3125,297371.46875,360201.0625,356569.71875,287875.09375,257288.265625,223594.25,245245.046875,0.014892578125,0.995849609375,0.205078125,0.7019042372703552,-1.4648436307907104,-1.2207030057907104,80.0,51294.0,0.0
14337.7310209,291114.3125,297371.46875,360201.0625,356569.71875,287875.09375,257288.265625,223594.25,245245.046875,0.014892578125,0.995849609375,0.205078125,0.7019042372703552,-1.4648436307907104,-1.2207030057907104,80.0,51295.0,0.0
14337.7310211,291114.3125,297371.46875,360201.0625,356569.71875,287875.09375,257288.265625,223594.25,245245.046875,0.014892578125,0.995849609375,0.205078125,0.7019042372703552,-1.4648436307907104,-1.2207030057907104,80.0,51296.0,0.0
14337.7310213,291114.3125,297371.46875,360201.0625,356569.71875,287875.09375,257288.265625,223594.25,245245.046875,0.014892578125,0.995849609375,0.205078125,0.7019042372703552,-1.4648436307907104,-1.2207030057907104,80.0,51297.0,0.0
14337.7310215,291114.3125,297371.46875,360201.0625,356569.71875,287875.09375,257288.265625,223594.25,245245.046875,0.014892578125,0.995849609375,0.205078125,0.7019042372703552,-1.4648436307907104,-1.2207030057907104,80.0,51298.0,0.0
14337.7310217,291114.3125,297371.46875,360201.0625,356569.71875,287875.09375,257288.265625,223594.25,245245.046875,0.014892578125,0.995849609375,0.205078125,0.7019042372703552,-1.4648436307907104,-1.2207030057907104,80.0,51299.0,0.0
14337.7310218,291114.3125,297371.46875,360201.0625,356569.71875,287875.09375,257288.265625,223594.25,245245.046875,0.014892578125,0.995849609375,0.205078125,0.7019042372703552,-1.4648436307907104,-1.2207030057907104,80.0,51300.0,0.0
14337.731022,291114.3125,297371.46875,360201.0625,356569.71875,287875.09375,257288.265625,223594.25,245245.046875,0.014892578125,0.995849609375,0.205078125,0.7019042372703552,-1.4648436307907104,-1.2207030057907104,80.0,51301.0,0.0
14337.7310222,291114.3125,297371.46875,360201.0625,356569.71875,287875.09375,257288.265625,223594.25,245245.046875,0.014892578125,0.995849609375,0.205078125,0.7019042372703552,-1.4648436307907104,-1.2207030057907104,80.0,51302.0,0.0
14337.7310224,291114.3125,297371.46875,360201.0625,356569.71875,287875.09375,257288.265625,223594.25,245245.046875,0.014892578125,0.995849609375,0.205078125,0.7019042372703552,-1.4648436307907104,-1.2207030057907104,80.0,51303.0,0.0
14337.7310225,291114.3125,297371.46875,360201.0625,356569.71875,287875.09375,257288.265625,223594.25,245245.046875,0.014892578125,0.995849609375,0.205078125,0.7019042372703552,-1.4648436307907104,-1.2207030057907104,80.0,51304.0,0.0
14337.7310227,291114.3125,297371.46875,360201.0625,356569.71875,287875.09375,257288.265625,223594.25,245245.046875,0.014892578125,0.995849609375,0.205078125,0.7019042372703552,-1.4648436307907104,-1.2207030057907104,80.0,51305.0,0.0
14337.7310229,291114.3125,297371.46875,360201.0625,356569.71875,287875.09375,257288.265625,223594.25,245245.046875,0.014892578125,0.995849609375,0.205078125,0.7019042372703552,-1.4648436307907104,-1.2207030057907104,80.0,51306.0,0.0
14337.731023,291114.3125,297371.46875,360201.0625,356569.71875,287875.09375,257288.265625,223594.25,245245.046875,0.014892578125,0.995849609375,0.205078125,0.7019042372703552,-1.4648436307907104,-1.2207030057907104,80.0,51307.0,0.0
14337.7310232,291114.3125,297371.46875,360201.0625,356569.71875,287875.09375,257288.265625,223594.25,245245.046875,0.014892578125,0.995849609375,0.205078125,0.7019042372703552,-1.4648436307907104,-1.2207030057907104,80.0,51308.0,0.0
14337.7310234,291114.3125,297371.46875,360201.0625,356569.71875,287875.09375,257288.265625,223594.25,245245.046875,0.014892578125,0.995849609375,0.205078125,0.7019042372703552,-1.4648436307907104,-1.2207030057907104,80.0,51309.0,0.0
14337.7310235,291114.3125,297371.46875,360201.0625,356569.71875,287875.09375,257288.265625,223594.25,245245.046875,0.014892578125,0.995849609375,0.205078125,0.7019042372703552,-1.4648436307907104,-1.2207030057907104,80.0,51310.0,0.0
14337.7310237,291114.3125,297371.46875,360201.0625,356569.71875,287875.09375,257288.265625,223594.25,245245.046875,0.014892578125,0.995849609375,0.205078125,0.7019042372703552,-1.4648436307907104,-1.2207030057907104,80.0,51311.0,0.0
14337.7310239,291114.3125,297371.46875,360201.0625,356569.71875,287875.09375,257288.265625,223594.25,245245.046875,0.014892578125,0.995849609375,0.205078125,0.7019042372703552,-1.4648436307907104,-1.2207030057907104,80.0,51312.0,0.0
14337.731024,291114.3125,297371.46875,360201.0625,356569.71875,287875.09375,257288.265625,223594.25,245245.046875,0.014892578125,0.995849609375,0.205078125,0.7019042372703552,-1.4648436307907104,-1.2207030057907104,80.0,51313.0,0.0
14337.7310243,291114.3125,297371.46875,360201.0625,356569.71875,287875.09375,257288.265625,223594.25,245245.046875,0.014892578125,0.995849609375,0.205078125,0.7019042372703552,-1.4648436307907104,-1.2207030057907104,80.0,51314.0,0.0
14337.7310245,291114.3125,297371.46875,360201.0625,356569.71875,287875.09375,257288.265625,223594.25,245245.046875,0.014892578125,0.995849609375,0.205078125,0.7019042372703552,-1.4648436307907104,-1.2207030057907104,80.0,51315.0,0.0
14337.7310246,291114.3125,297371.46875,360201.0625,356569.71875,287875.09375,257288.265625,223594.25,245245.046875,0.014892578125,0.995849609375,0.205078125,0.7019042372703552,-1.4648436307907104,-1.2207030057907104,80.0,51316.0,0.0
14337.7310248,291114.3125,297371.46875,360201.0625,356569.71875,287875.09375,257288.265625,223594.25,245245.046875,0.014892578125,0.995849609375,0.205078125,0.7019042372703552,-1.4648436307907104,-1.2207030057907104,80.0,51317.0,0.0
14337.731025,291114.3125,297371.46875,360201.0625,356569.71875,287875.09375,257288.265625,223594.25,245245.046875,0.014892578125,0.995849609375,0.205078125,0.7019042372703552,-1.4648436307907104,-1.2207030057907104,80.0,51318.0,0.0
14337.7310252,291114.3125,297371.46875,360201.0625,356569.71875,287875.09375,257288.265625,223594.25,245245.046875,0.014892578125,0.995849609375,0.205078125,0.7019042372703552,-1.4648436307907104,-1.2207030057907104,80.0,51319.0,0.0
14337.7310253,291114.3125,297371.46875,360201.0625,356569.71875,287875.09375,257288.265625,223594.25,245245.046875,0.014892578125,0.995849609375,0.205078125,0.7019042372703552,-1.4648436307907104,-1.2207030057907104,80.0,51320.0,0.0
14337.7310255,291114.3125,297371.46875,360201.0625,356569.71875,287875.09375,257288.265625,223594.25,245245.046875,0.014892578125,0.995849609375,0.205078125,0.7019042372703552,-1.4648436307907104,-1.2207030057907104,80.0,51321.0,0.0
14337.7310257,291114.3125,297371.46875,360201.0625,356569.71875,287875.09375,257288.265625,223594.25,245245.046875,0.014892578125,0.995849609375,0.205078125,0.7019042372703552,-1.4648436307907104,-1.2207030057907104,80.0,51322.0,0.0
14337.7310258,291114.3125,297371.46875,360201.0625,356569.71875,287875.09375,257288.265625,223594.25,245245.046875,0.014892578125,0.995849609375,0.205078125,0.7019042372703552,-1.4648436307907104,-1.2207030057907104,80.0,51323.0,0.0
14337.731026,291114.3125,297371.46875,360201.0625,356569.71875,287875.09375,257288.265625,223594.25,245245.046875,0.014892578125,0.995849609375,0.205078125,0.7019042372703552,-1.4648436307907104,-1.2207030057907104,80.0,51324.0,0.0
14337.7310262,291114.3125,297371.46875,360201.0625,356569.71875,287875.09375,257288.265625,223594.25,245245.046875,0.014892578125,0.995849609375,0.205078125,0.7019042372703552,-1.4648436307907104,-1.2207030057907104,80.0,51325.0,0.0
14337.7310264,291114.3125,297371.46875,360201.0625,356569.71875,287875.09375,257288.265625,223594.25,245245.046875,0.014892578125,0.995849609375,0.205078125,0.7019042372703552,-1.4648436307907104,-1.2207030057907104,80.0,51326.0,0.0
14337.7310265,291114.3125,297371.46875,360201.0625,356569.71875,287875.09375,257288.265625,223594.25,245245.046875,0.014892578125,0.995849609375,0.205078125,0.7019042372703552,-1.4648436307907104,-1.2207030057907104,80.0,51327.0,0.0
14337.7310267,291114.3125,297371.46875,360201.0625,356569.71875,287875.09375,257288.265625,223594.25,245245.046875,0.014892578125,0.995849609375,0.205078125,0.7019042372703552,-1.4648436307907104,-1.2207030057907104,80.0,51328.0,0.0
14337.7310269,291114.3125,297371.46875,360201.0625,356569.71875,287875.09375,257288.265625,223594.25,245245.046875,0.014892578125,0.995849609375,0.205078125,0.7019042372703552,-1.4648436307907104,-1.2207030057907104,80.0,51329.0,0.0
14337.731027,291114.3125,297371.46875,360201.0625,356569.71875,287875.09375,257288.265625,223594.25,245245.046875,0.014892578125,0.995849609375,0.205078125,0.7019042372703552,-1.4648436307907104,-1.2207030057907104,80.0,51330.0,0.0
14337.7310272,291114.3125,297371.46875,360201.0625,356569.71875,287875.09375,257288.265625,223594.25,245245.046875,0.014892578125,0.995849609375,0.205078125,0.7019042372703552,-1.4648436307907104,-1.2207030057907104,80.0,51331.0,0.0
14337.7310274,291095.625,297617.59375,360282.6875,356492.8125,287917.84375,257318.75,223589.96875,245215.28125,0.010498046875,0.996826171875,0.205810546875,0.5187987685203552,-1.6479490995407104,-1.1596678495407104,80.0,51332.0,1.0
14337.7310322,291097.59375,297346.0625,360155.375,356524.125,287848.28125,257281.015625,223562.25,245223.0625,0.011962890625,0.996826171875,0.203369140625,0.6103515028953552,-1.6479490995407104,-1.1596678495407104,80.0,51333.0,1.0
14337.7310336,291134.78125,297439.25,360257.5625,356562.65625,287899.5,257310.171875,223588.0,245241.203125,0.010009765625,0.995849609375,0.203857421875,0.5798339247703552,-1.7089842557907104,-1.1291502714157104,80.0,51334.0,1.0
14337.7310348,291143.1875,297736.59375,360420.375,356546.375,287986.59375,257349.859375,223626.625,245243.265625,0.010986328125,0.99755859375,0.205810546875,0.5798339247703552,-1.6784666776657104,-1.1291502714157104,80.0,51335.0,1.0
14337.731036,291110.375,297843.625,360425.75,356495.15625,287990.71875,257334.390625,223611.875,245224.75,0.01025390625,0.997314453125,0.200439453125,0.6103515028953552,-1.7089842557907104,-1.1291502714157104,80.0,51336.0,1.0
14337.7310372,291091.53125,297624.5625,360281.4375,356487.1875,287915.15625,257296.125,223564.9375,245198.375,0.01123046875,0.996826171875,0.20263671875,0.5493163466453552,-1.7700194120407104,-1.0681151151657104,80.0,51337.0,1.0
14337.7310384,291102.0625,297361.53125,360159.3125,356526.25,287854.375,257276.640625,223559.46875,245224.671875,0.01123046875,0.996337890625,0.204345703125,0.5187987685203552,-1.7395018339157104,-1.0681151151657104,80.0,51338.0,1.0
14337.7310396,291141.15625,297447.46875,360264.625,356564.25,287909.96875,257322.140625,223603.203125,245244.6875,0.01220703125,0.994140625,0.205078125,0.5493163466453552,-1.7089842557907104,-0.9155272841453552,80.0,51339.0,1.0
14337.7328943,291151.59375,297749.03125,360436.28125,356545.46875,287996.96875,257366.046875,223638.6875,245243.796875,0.009765625,0.995849609375,0.200439453125,0.4882812201976776,-1.8310545682907104,-0.9765624403953552,80.0,51340.0,1.0
14337.732899,291151.59375,297749.03125,360436.28125,356545.46875,287996.96875,257366.046875,223638.6875,245243.796875,0.009765625,0.995849609375,0.200439453125,0.4882812201976776,-1.8310545682907104,-0.9765624403953552,80.0,51341.0,0.0
14337.7328993,291151.59375,297749.03125,360436.28125,356545.46875,287996.96875,257366.046875,223638.6875,245243.796875,0.009765625,0.995849609375,0.200439453125,0.4882812201976776,-1.8310545682907104,-0.9765624403953552,80.0,51342.0,0.0
14337.7328996,291151.59375,297749.03125,360436.28125,356545.46875,287996.96875,257366.046875,223638.6875,245243.796875,0.009765625,0.995849609375,0.200439453125,0.4882812201976776,-1.8310545682907104,-0.9765624403953552,80.0,51343.0,0.0
14337.7328999,291151.59375,297749.03125,360436.28125,356545.46875,287996.96875,257366.046875,223638.6875,245243.796875,0.009765625,0.995849609375,0.200439453125,0.4882812201976776,-1.8310545682907104,-0.9765624403953552,80.0,51344.0,0.0
14337.7329002,291151.59375,297749.03125,360436.28125,356545.46875,287996.96875,257366.046875,223638.6875,245243.796875,0.009765625,0.995849609375,0.200439453125,0.4882812201976776,-1.8310545682907104,-0.9765624403953552,80.0,51345.0,0.0
14337.7329006,291151.59375,297749.03125,360436.28125,356545.46875,287996.96875,257366.046875,223638.6875,245243.796875,0.009765625,0.995849609375,0.200439453125,0.4882812201976776,-1.8310545682907104,-0.9765624403953552,80.0,51346.0,0.0
14337.7329009,291151.59375,297749.03125,360436.28125,356545.46875,287996.96875,257366.046875,223638.6875,245243.796875,0.009765625,0.995849609375,0.200439453125,0.4882812201976776,-1.8310545682907104,-0.9765624403953552,80.0,51347.0,0.0
14337.7329012,291151.59375,297749.03125,360436.28125,356545.46875,287996.96875,257366.046875,223638.6875,245243.796875,0.009765625,0.995849609375,0.200439453125,0.4882812201976776,-1.8310545682907104,-0.9765624403953552,80.0,51348.0,0.0
14337.7329015,291151.59375,297749.03125,360436.28125,356545.46875,287996.96875,257366.046875,223638.6875,245243.796875,0.009765625,0.995849609375,0.200439453125,0.4882812201976776,-1.8310545682907104,-0.9765624403953552,80.0,51349.0,0.0
14337.7329018,291151.59375,297749.03125,360436.28125,356545.46875,287996.96875,257366.046875,223638.6875,245243.796875,0.009765625,0.995849609375,0.200439453125,0.4882812201976776,-1.8310545682907104,-0.9765624403953552,80.0,51350.0,0.0
14337.7329021,291151.59375,297749.03125,360436.28125,356545.46875,287996.96875,257366.046875,223638.6875,245243.796875,0.009765625,0.995849609375,0.200439453125,0.4882812201976776,-1.8310545682907104,-0.9765624403953552,80.0,51351.0,0.0
14337.7329024,291109.5,297627.4375,360266.25,356487.90625,287923.65625,257321.703125,223582.1875,245198.296875,0.01513671875,0.99609375,0.201416015625,0.3967284858226776,-1.8310545682907104,-0.9460448622703552,80.0,51352.0,1.0
14337.7603681,291108.5,297353.9375,360132.84375,356517.3125,287851.5,257280.03125,223553.578125,245206.0625,0.013671875,0.995361328125,0.2021484375,0.4577636420726776,-1.6479490995407104,-0.9460448622703552,80.0,51353.0,1.0
14337.785379,291157.9375,297451.5625,360251.5,356568.28125,287917.125,257318.21875,223603.828125,245244.328125,0.01318359375,0.992919921875,0.202392578125,0.4577636420726776,-1.6174315214157104,-0.8239745497703552,80.0,51354.0,1.0
14337.8053776,291173.40625,297755.5625,360427.96875,356550.65625,288004.84375,257345.65625,223631.265625,245239.59375,0.013671875,0.9931640625,0.205322265625,0.3967284858226776,-1.5563963651657104,-0.8850097060203552,80.0,51355.0,1.0
14337.8091037,291143.1875,297865.625,360435.03125,356499.78125,288011.8125,257345.5625,223622.78125,245222.4375,0.0126953125,0.992431640625,0.202392578125,0.3967284858226776,-1.5258787870407104,-0.8544921278953552,80.0,51356.0,1.0
14337.8134953,291115.5625,297631.46875,360269.8125,356487.0,287929.71875,257305.96875,223578.34375,245216.703125,0.01171875,0.99169921875,0.20556640625,0.4577636420726776,-1.5563963651657104,-0.8850097060203552,80.0,51357.0,1.0
14337.8134997,291118.34375,297349.125,360130.53125,356517.9375,287857.21875,257275.296875,223556.25,245222.15625,0.012939453125,0.992919921875,0.20556640625,0.3662109076976776,-1.4648436307907104,-0.9460448622703552,80.0,51358.0,1.0
14337.813501,291150.53125,297431.8125,360221.28125,356553.53125,287904.875,257298.8125,223588.0,245244.78125,0.012451171875,0.99267578125,0.210693359375,0.4577636420726776,-1.3427733182907104,-0.9460448622703552,80.0,51359.0,1.0
14337.8135023,291167.78125,297746.34375,360403.84375,356542.875,288003.9375,257352.1875,223632.96875,245237.984375,0.014892578125,0.994873046875,0.20947265625,0.4272460639476776,-1.4038084745407104,-1.0375975370407104,80.0,51360.0,1.0
14337.8135035,291146.0625,297869.65625,360422.15625,356502.90625,288020.65625,257363.625,223628.671875,245221.265625,0.013427734375,0.9970703125,0.206787109375,0.3967284858226776,-1.3427733182907104,-0.8544921278953552,80.0,51361.0,1.0
14337.8135047,291116.65625,297640.125,360268.375,356490.5,287940.46875,257321.78125,223586.03125,245208.75,0.012451171875,0.99658203125,0.203857421875,0.3967284858226776,-1.3122557401657104,-0.8850097060203552,80.0,51362.0,1.0
14337.8153765,291112.0,297358.0625,360138.21875,356515.53125,287862.84375,257278.78125,223550.265625,245213.125,0.012451171875,0.9951171875,0.205078125,0.3662109076976776,-1.2817381620407104,-0.9155272841453552,80.0,51363.0,1.0
14337.8222726,291144.28125,297424.9375,360226.90625,356546.8125,287902.46875,257304.984375,223575.484375,245225.109375,0.0126953125,0.995849609375,0.205322265625,0.3051757514476776,-1.3122557401657104,-0.9460448622703552,80.0,51364.0,1.0
14337.8222788,291157.3125,297725.875,360390.78125,356535.28125,287993.375,257352.546875,223626.0,245236.28125,0.012939453125,0.99365234375,0.203125,0.3051757514476776,-1.2512205839157104,-0.9765624403953552,80.0,51365.0,1.0
14337.82228,291122.28125,297834.78125,360390.78125,356482.53125,287994.90625,257343.25,223612.859375,245208.125,0.013427734375,0.99560546875,0.2021484375,0.4882812201976776,-1.2512205839157104,-0.9155272841453552,80.0,51366.0,1.0
14337.8222832,291103.59375,297623.59375,360249.96875,356482.53125,287931.53125,257316.515625,223587.015625,245209.109375,0.013916015625,0.997314453125,0.202880859375,0.4272460639476776,-1.0986326932907104,-0.9460448622703552,80.0,51367.0,1.0
14337.8222859,291103.59375,297623.59375,360249.96875,356482.53125,287931.53125,257316.515625,223587.015625,245209.109375,0.013916015625,0.997314453125,0.202880859375,0.4272460639476776,-1.0986326932907104,-0.9460448622703552,80.0,51368.0,0.0
14337.8222861,291103.59375,297623.59375,360249.96875,356482.53125,287931.53125,257316.515625,223587.015625,245209.109375,0.013916015625,0.997314453125,0.202880859375,0.4272460639476776,-1.0986326932907104,-0.9460448622703552,80.0,51369.0,0.0
14337.8222863,291103.59375,297623.59375,360249.96875,356482.53125,287931.53125,257316.515625,223587.015625,245209.109375,0.013916015625,0.997314453125,0.202880859375,0.4272460639476776,-1.0986326932907104,-0.9460448622703552,80.0,51370.0,0.0
14337.8222865,291103.59375,297623.59375,360249.96875,356482.53125,287931.53125,257316.515625,223587.015625,245209.109375,0.013916015625,0.997314453125,0.202880859375,0.4272460639476776,-1.0986326932907104,-0.9460448622703552,80.0,51371.0,0.0
14337.8222867,291103.59375,297623.59375,360249.96875,356482.53125,287931.53125,257316.515625,223587.015625,245209.109375,0.013916015625,0.997314453125,0.202880859375,0.4272460639476776,-1.0986326932907104,-0.9460448622703552,80.0,51372.0,0.0
14337.8222868,291103.59375,297623.59375,360249.96875,356482.53125,287931.53125,257316.515625,223587.015625,245209.109375,0.013916015625,0.997314453125,0.202880859375,0.4272460639476776,-1.0986326932907104,-0.9460448622703552,80.0,51373.0,0.0
14337.822287,291103.59375,297623.59375,360249.96875,356482.53125,287931.53125,257316.515625,223587.015625,245209.109375,0.013916015625,0.997314453125,0.202880859375,0.4272460639476776,-1.0986326932907104,-0.9460448622703552,80.0,51374.0,0.0
14337.8222872,291103.59375,297623.59375,360249.96875,356482.53125,287931.53125,257316.515625,223587.015625,245209.109375,0.013916015625,0.997314453125,0.202880859375,0.4272460639476776,-1.0986326932907104,-0.9460448622703552,80.0,51375.0,0.0
14337.8222874,291103.59375,297623.59375,360249.96875,356482.53125,287931.53125,257316.515625,223587.015625,245209.109375,0.013916015625,0.997314453125,0.202880859375,0.4272460639476776,-1.0986326932907104,-0.9460448622703552,80.0,51376.0,0.0
14337.8222876,291103.59375,297623.59375,360249.96875,356482.53125,287931.53125,257316.515625,223587.015625,245209.109375,0.013916015625,0.997314453125,0.202880859375,0.4272460639476776,-1.0986326932907104,-0.9460448622703552,80.0,51377.0,0.0
14337.8222878,291103.59375,297623.59375,360249.96875,356482.53125,287931.53125,257316.515625,223587.015625,245209.109375,0.013916015625,0.997314453125,0.202880859375,0.4272460639476776,-1.0986326932907104,-0.9460448622703552,80.0,51378.0,0.0
14337.822288,291103.59375,297623.59375,360249.96875,356482.53125,287931.53125,257316.515625,223587.015625,245209.109375,0.013916015625,0.997314453125,0.202880859375,0.4272460639476776,-1.0986326932907104,-0.9460448622703552,80.0,51379.0,0.0
14337.8222883,291103.59375,297623.59375,360249.96875,356482.53125,287931.53125,257316.515625,223587.015625,245209.109375,0.013916015625,0.997314453125,0.202880859375,0.4272460639476776,-1.0986326932907104,-0.9460448622703552,80.0,51380.0,0.0
14337.8222885,291103.59375,297623.59375,360249.96875,356482.53125,287931.53125,257316.515625,223587.015625,245209.109375,0.013916015625,0.997314453125,0.202880859375,0.4272460639476776,-1.0986326932907104,-0.9460448622703552,80.0,51381.0,0.0
14337.8222886,291103.59375,297623.59375,360249.96875,356482.53125,287931.53125,257316.515625,223587.015625,245209.109375,0.013916015625,0.997314453125,0.202880859375,0.4272460639476776,-1.0986326932907104,-0.9460448622703552,80.0,51382.0,0.0
14337.8222888,291103.59375,297623.59375,360249.96875,356482.53125,287931.53125,257316.515625,223587.015625,245209.109375,0.013916015625,0.997314453125,0.202880859375,0.4272460639476776,-1.0986326932907104,-0.9460448622703552,80.0,51383.0,0.0
14337.822289,291103.59375,297623.59375,360249.96875,356482.53125,287931.53125,257316.515625,223587.015625,245209.109375,0.013916015625,0.997314453125,0.202880859375,0.4272460639476776,-1.0986326932907104,-0.9460448622703552,80.0,51384.0,0.0
14337.8222892,291103.59375,297623.59375,360249.96875,356482.53125,287931.53125,257316.515625,223587.015625,245209.109375,0.013916015625,0.997314453125,0.202880859375,0.4272460639476776,-1.0986326932907104,-0.9460448622703552,80.0,51385.0,0.0
14337.8222893,291103.59375,297623.59375,360249.96875,356482.53125,287931.53125,257316.515625,223587.015625,245209.109375,0.013916015625,0.997314453125,0.202880859375,0.4272460639476776,-1.0986326932907104,-0.9460448622703552,80.0,51386.0,0.0
14337.8222895,291103.59375,297623.59375,360249.96875,356482.53125,287931.53125,257316.515625,223587.015625,245209.109375,0.013916015625,0.997314453125,0.202880859375,0.4272460639476776,-1.0986326932907104,-0.9460448622703552,80.0,51387.0,0.0
14337.8222897,291103.59375,297623.59375,360249.96875,356482.53125,287931.53125,257316.515625,223587.015625,245209.109375,0.013916015625,0.997314453125,0.202880859375,0.4272460639476776,-1.0986326932907104,-0.9460448622703552,80.0,51388.0,0.0
14337.8222899,291103.59375,297623.59375,360249.96875,356482.53125,287931.53125,257316.515625,223587.015625,245209.109375,0.013916015625,0.997314453125,0.202880859375,0.4272460639476776,-1.0986326932907104,-0.9460448622703552,80.0,51389.0,0.0
14337.8222901,291103.59375,297623.59375,360249.96875,356482.53125,287931.53125,257316.515625,223587.015625,245209.109375,0.013916015625,0.997314453125,0.202880859375,0.4272460639476776,-1.0986326932907104,-0.9460448622703552,80.0,51390.0,0.0
14337.8222902,291103.59375,297623.59375,360249.96875,356482.53125,287931.53125,257316.515625,223587.015625,245209.109375,0.013916015625,0.997314453125,0.202880859375,0.4272460639476776,-1.0986326932907104,-0.9460448622703552,80.0,51391.0,0.0
14337.8222904,291103.59375,297623.59375,360249.96875,356482.53125,287931.53125,257316.515625,223587.015625,245209.109375,0.013916015625,0.997314453125,0.202880859375,0.4272460639476776,-1.0986326932907104,-0.9460448622703552,80.0,51392.0,0.0
14337.8222906,291103.59375,297623.59375,360249.96875,356482.53125,287931.53125,257316.515625,223587.015625,245209.109375,0.013916015625,0.997314453125,0.202880859375,0.4272460639476776,-1.0986326932907104,-0.9460448622703552,80.0,51393.0,0.0
14337.8222908,291103.59375,297623.59375,360249.96875,356482.53125,287931.53125,257316.515625,223587.015625,245209.109375,0.013916015625,0.997314453125,0.202880859375,0.4272460639476776,-1.0986326932907104,-0.9460448622703552,80.0,51394.0,0.0
14337.8222909,291103.59375,297623.59375,360249.96875,356482.53125,287931.53125,257316.515625,223587.015625,245209.109375,0.013916015625,0.997314453125,0.202880859375,0.4272460639476776,-1.0986326932907104,-0.9460448622703552,80.0,51395.0,0.0
14337.8222911,291103.59375,297623.59375,360249.96875,356482.53125,287931.53125,257316.515625,223587.015625,245209.109375,0.013916015625,0.997314453125,0.202880859375,0.4272460639476776,-1.0986326932907104,-0.9460448622703552,80.0,51396.0,0.0
14337.8222913,291101.96875,297630.5625,360235.40625,356464.375,287933.65625,257311.0625,223567.4375,245173.078125,0.011962890625,0.994873046875,0.207275390625,0.3967284858226776,-1.8920897245407104,-1.0681151151657104,80.0,51397.0,1.0
14337.8222925,291106.375,297359.9375,360113.875,356495.59375,287867.59375,257277.796875,223548.390625,245182.828125,0.0107421875,0.99365234375,0.2060546875,0.5493163466453552,-1.7700194120407104,-1.1291502714157104,80.0,51398.0,1.0
14337.8222937,291142.65625,297441.03125,360217.4375,356532.59375,287916.3125,257300.59375,223578.15625,245198.921875,0.0126953125,0.994873046875,0.206787109375,0.5493163466453552,-1.7395018339157104,-1.0681151151657104,80.0,51399.0,1.0
14337.8222949,291150.25,297725.875,360372.375,356509.96875,287992.75,257334.390625,223603.640625,245190.609375,0.013427734375,0.99462890625,0.207763671875,0.5798339247703552,-1.8310545682907104,-1.0681151151657104,80.0,51400.0,1.0
14337.8222962,291119.3125,297833.34375,360364.0625,356457.40625,287995.28125,257338.5,223596.40625,245174.59375,0.01416015625,0.994873046875,0.207763671875,0.5493163466453552,-1.8310545682907104,-1.0070799589157104,80.0,51401.0,1.0
14337.8235917,291094.03125,297616.09375,360214.21875,356449.53125,287925.1875,257307.125,223566.71875,245172.546875,0.015625,0.99560546875,0.204345703125,0.5798339247703552,-1.7089842557907104,-0.8850097060203552,80.0,51402.0,1.0
14337.8253912,291102.4375,297354.03125,360096.09375,356484.6875,287864.65625,257284.5,223551.515625,245178.359375,0.015869140625,0.99609375,0.20556640625,0.6103515028953552,-1.6479490995407104,-0.8239745497703552,80.0,51403.0,1.0
14337.8284754,291137.28125,297423.40625,360194.34375,356519.8125,287907.8125,257299.53125,223573.6875,245190.25,0.01416015625,0.996337890625,0.205810546875,0.5493163466453552,-1.6479490995407104,-0.6408690810203552,80.0,51404.0,1.0
14337.8284918,291137.28125,297423.40625,360194.34375,356519.8125,287907.8125,257299.53125,223573.6875,245190.25,0.01416015625,0.996337890625,0.205810546875,0.5493163466453552,-1.6479490995407104,-0.6408690810203552,80.0,51405.0,0.0
14337.8284931,291137.28125,297423.40625,360194.34375,356519.8125,287907.8125,257299.53125,223573.6875,245190.25,0.01416015625,0.996337890625,0.205810546875,0.5493163466453552,-1.6479490995407104,-0.6408690810203552,80.0,51406.0,0.0
14337.8284942,291137.28125,297423.40625,360194.34375,356519.8125,287907.8125,257299.53125,223573.6875,245190.25,0.01416015625,0.996337890625,0.205810546875,0.5493163466453552,-1.6479490995407104,-0.6408690810203552,80.0,51407.0,0.0
14337.8284954,291137.28125,297423.40625,360194.34375,356519.8125,287907.8125,257299.53125,223573.6875,245190.25,0.01416015625,0.996337890625,0.205810546875,0.5493163466453552,-1.6479490995407104,-0.6408690810203552,80.0,51408.0,0.0
14337.8284967,291137.28125,297423.40625,360194.34375,356519.8125,287907.8125,257299.53125,223573.6875,245190.25,0.01416015625,0.996337890625,0.205810546875,0.5493163466453552,-1.6479490995407104,-0.6408690810203552,80.0,51409.0,0.0
14337.8284985,291137.28125,297423.40625,360194.34375,356519.8125,287907.8125,257299.53125,223573.6875,245190.25,0.01416015625,0.996337890625,0.205810546875,0.5493163466453552,-1.6479490995407104,-0.6408690810203552,80.0,51410.0,0.0
14337.8284988,291137.28125,297423.40625,360194.34375,356519.8125,287907.8125,257299.53125,223573.6875,245190.25,0.01416015625,0.996337890625,0.205810546875,0.5493163466453552,-1.6479490995407104,-0.6408690810203552,80.0,51411.0,0.0
14337.828499,291137.28125,297423.40625,360194.34375,356519.8125,287907.8125,257299.53125,223573.6875,245190.25,0.01416015625,0.996337890625,0.205810546875,0.5493163466453552,-1.6479490995407104,-0.6408690810203552,80.0,51412.0,0.0
14337.8284991,291137.28125,297423.40625,360194.34375,356519.8125,287907.8125,257299.53125,223573.6875,245190.25,0.01416015625,0.996337890625,0.205810546875,0.5493163466453552,-1.6479490995407104,-0.6408690810203552,80.0,51413.0,0.0
14337.8284993,291137.28125,297423.40625,360194.34375,356519.8125,287907.8125,257299.53125,223573.6875,245190.25,0.01416015625,0.996337890625,0.205810546875,0.5493163466453552,-1.6479490995407104,-0.6408690810203552,80.0,51414.0,0.0
14337.8284995,291137.28125,297423.40625,360194.34375,356519.8125,287907.8125,257299.53125,223573.6875,245190.25,0.01416015625,0.996337890625,0.205810546875,0.5493163466453552,-1.6479490995407104,-0.6408690810203552,80.0,51415.0,0.0
14337.8284996,291117.53125,297837.53125,360363.0625,356450.09375,287997.0625,257347.171875,223597.75,245147.5,0.0126953125,0.994873046875,0.20361328125,0.3356933295726776,-1.3122557401657104,-0.8850097060203552,80.0,51416.0,1.0
14337.8534487,291090.96875,297618.6875,360203.125,356437.75,287920.0625,257316.78125,223572.703125,245146.703125,0.011962890625,0.99560546875,0.205078125,0.3967284858226776,-1.2512205839157104,-1.0375975370407104,80.0,51417.0,1.0
14337.8534533,291090.90625,297347.78125,360072.40625,356463.03125,287846.75,257280.84375,223548.21875,245153.765625,0.01416015625,0.997802734375,0.201904296875,0.4882812201976776,-1.2817381620407104,-1.1291502714157104,80.0,51418.0,1.0
14337.8785227,291122.0,297419.375,360173.96875,356500.3125,287891.90625,257300.515625,223582.984375,245184.171875,0.012939453125,1.0,0.19970703125,0.4577636420726776,-1.3427733182907104,-1.2512205839157104,80.0,51419.0,1.0
14337.8785421,291131.75,297715.59375,360348.3125,356480.3125,287973.90625,257335.5625,223602.65625,245165.921875,0.013671875,1.0,0.2001953125,0.4272460639476776,-1.4343260526657104,-1.4038084745407104,80.0,51420.0,1.0
14337.8785435,291108.15625,297839.78125,360365.40625,356433.8125,287987.03125,257338.953125,223589.78125,245133.46875,0.014892578125,0.99853515625,0.2041015625,0.4272460639476776,-1.5258787870407104,-1.3427733182907104,80.0,51421.0,1.0
14337.903094,291075.875,297607.84375,360202.40625,356419.0625,287904.6875,257290.234375,223551.78125,245123.1875,0.01513671875,0.99755859375,0.207763671875,0.3356933295726776,-1.4343260526657104,-1.3122557401657104,80.0,51422.0,1.0
14337.9115876,291090.1875,297346.34375,360081.53125,356461.96875,287847.65625,257282.984375,223545.703125,245141.78125,0.015625,0.9951171875,0.205810546875,0.2441406100988388,-1.4343260526657104,-1.3122557401657104,80.0,51423.0,1.0
14337.9141282,291129.96875,297421.8125,360174.34375,356495.6875,287889.78125,257310.515625,223570.921875,245154.484375,0.015625,0.992431640625,0.2080078125,0.2441406100988388,-1.3732908964157104,-1.3732908964157104,80.0,51424.0,1.0
14337.9210324,291140.34375,297712.46875,360336.25,356478.15625,287971.40625,257340.921875,223605.703125,245160.203125,0.01220703125,0.994384765625,0.205322265625,0.3051757514476776,-1.3732908964157104,-1.1901854276657104,80.0,51425.0,1.0
14337.9210401,291140.34375,297712.46875,360336.25,356478.15625,287971.40625,257340.921875,223605.703125,245160.203125,0.01220703125,0.994384765625,0.205322265625,0.3051757514476776,-1.3732908964157104,-1.1901854276657104,80.0,51426.0,0.0
14337.9210403,291140.34375,297712.46875,360336.25,356478.15625,287971.40625,257340.921875,223605.703125,245160.203125,0.01220703125,0.994384765625,0.205322265625,0.3051757514476776,-1.3732908964157104,-1.1901854276657104,80.0,51427.0,0.0
14337.9210405,291140.34375,297712.46875,360336.25,356478.15625,287971.40625,257340.921875,223605.703125,245160.203125,0.01220703125,0.994384765625,0.205322265625,0.3051757514476776,-1.3732908964157104,-1.1901854276657104,80.0,51428.0,0.0
14337.9210407,291140.34375,297712.46875,360336.25,356478.15625,287971.40625,257340.921875,223605.703125,245160.203125,0.01220703125,0.994384765625,0.205322265625,0.3051757514476776,-1.3732908964157104,-1.1901854276657104,80.0,51429.0,0.0
14337.9210409,291140.34375,297712.46875,360336.25,356478.15625,287971.40625,257340.921875,223605.703125,245160.203125,0.01220703125,0.994384765625,0.205322265625,0.3051757514476776,-1.3732908964157104,-1.1901854276657104,80.0,51430.0,0.0
14337.9210415,291140.34375,297712.46875,360336.25,356478.15625,287971.40625,257340.921875,223605.703125,245160.203125,0.01220703125,0.994384765625,0.205322265625,0.3051757514476776,-1.3732908964157104,-1.1901854276657104,80.0,51431.0,0.0
14337.9210417,291140.34375,297712.46875,360336.25,356478.15625,287971.40625,257340.921875,223605.703125,245160.203125,0.01220703125,0.994384765625,0.205322265625,0.3051757514476776,-1.3732908964157104,-1.1901854276657104,80.0,51432.0,0.0
14337.9210418,291140.34375,297712.46875,360336.25,356478.15625,287971.40625,257340.921875,223605.703125,245160.203125,0.01220703125,0.994384765625,0.205322265625,0.3051757514476776,-1.3732908964157104,-1.1901854276657104,80.0,51433.0,0.0
14337.921042,291140.34375,297712.46875,360336.25,356478.15625,287971.40625,257340.921875,223605.703125,245160.203125,0.01220703125,0.994384765625,0.205322265625,0.3051757514476776,-1.3732908964157104,-1.1901854276657104,80.0,51434.0,0.0
14337.9210422,291140.34375,297712.46875,360336.25,356478.15625,287971.40625,257340.921875,223605.703125,245160.203125,0.01220703125,0.994384765625,0.205322265625,0.3051757514476776,-1.3732908964157104,-1.1901854276657104,80.0,51435.0,0.0
14337.9210424,291140.34375,297712.46875,360336.25,356478.15625,287971.40625,257340.921875,223605.703125,245160.203125,0.01220703125,0.994384765625,0.205322265625,0.3051757514476776,-1.3732908964157104,-1.1901854276657104,80.0,51436.0,0.0
14337.9210425,291140.34375,297712.46875,360336.25,356478.15625,287971.40625,257340.921875,223605.703125,245160.203125,0.01220703125,0.994384765625,0.205322265625,0.3051757514476776,-1.3732908964157104,-1.1901854276657104,80.0,51437.0,0.0
14337.9210427,291140.34375,297712.46875,360336.25,356478.15625,287971.40625,257340.921875,223605.703125,245160.203125,0.01220703125,0.994384765625,0.205322265625,0.3051757514476776,-1.3732908964157104,-1.1901854276657104,80.0,51438.0,0.0
14337.9210429,291140.34375,297712.46875,360336.25,356478.15625,287971.40625,257340.921875,223605.703125,245160.203125,0.01220703125,0.994384765625,0.205322265625,0.3051757514476776,-1.3732908964157104,-1.1901854276657104,80.0,51439.0,0.0
14337.921043,291140.34375,297712.46875,360336.25,356478.15625,287971.40625,257340.921875,223605.703125,245160.203125,0.01220703125,0.994384765625,0.205322265625,0.3051757514476776,-1.3732908964157104,-1.1901854276657104,80.0,51440.0,0.0
14337.9210432,291140.34375,297712.46875,360336.25,356478.15625,287971.40625,257340.921875,223605.703125,245160.203125,0.01220703125,0.994384765625,0.205322265625,0.3051757514476776,-1.3732908964157104,-1.1901854276657104,80.0,51441.0,0.0
14337.9210434,291140.34375,297712.46875,360336.25,356478.15625,287971.40625,257340.921875,223605.703125,245160.203125,0.01220703125,0.994384765625,0.205322265625,0.3051757514476776,-1.3732908964157104,-1.1901854276657104,80.0,51442.0,0.0
14337.9210436,291140.34375,297712.46875,360336.25,356478.15625,287971.40625,257340.921875,223605.703125,245160.203125,0.01220703125,0.994384765625,0.205322265625,0.3051757514476776,-1.3732908964157104,-1.1901854276657104,80.0,51443.0,0.0
14337.9210438,291140.34375,297712.46875,360336.25,356478.15625,287971.40625,257340.921875,223605.703125,245160.203125,0.01220703125,0.994384765625,0.205322265625,0.3051757514476776,-1.3732908964157104,-1.1901854276657104,80.0,51444.0,0.0
14337.921044,291140.34375,297712.46875,360336.25,356478.15625,287971.40625,257340.921875,223605.703125,245160.203125,0.01220703125,0.994384765625,0.205322265625,0.3051757514476776,-1.3732908964157104,-1.1901854276657104,80.0,51445.0,0.0
14337.9210442,291140.34375,297712.46875,360336.25,356478.15625,287971.40625,257340.921875,223605.703125,245160.203125,0.01220703125,0.994384765625,0.205322265625,0.3051757514476776,-1.3732908964157104,-1.1901854276657104,80.0,51446.0,0.0
14337.9210444,291140.34375,297712.46875,360336.25,356478.15625,287971.40625,257340.921875,223605.703125,245160.203125,0.01220703125,0.994384765625,0.205322265625,0.3051757514476776,-1.3732908964157104,-1.1901854276657104,80.0,51447.0,0.0
14337.9210445,291140.34375,297712.46875,360336.25,356478.15625,287971.40625,257340.921875,223605.703125,245160.203125,0.01220703125,0.994384765625,0.205322265625,0.3051757514476776,-1.3732908964157104,-1.1901854276657104,80.0,51448.0,0.0
14337.9210447,291140.34375,297712.46875,360336.25,356478.15625,287971.40625,257340.921875,223605.703125,245160.203125,0.01220703125,0.994384765625,0.205322265625,0.3051757514476776,-1.3732908964157104,-1.1901854276657104,80.0,51449.0,0.0
14337.9210449,291140.34375,297712.46875,360336.25,356478.15625,287971.40625,257340.921875,223605.703125,245160.203125,0.01220703125,0.994384765625,0.205322265625,0.3051757514476776,-1.3732908964157104,-1.1901854276657104,80.0,51450.0,0.0
14337.921045,291140.34375,297712.46875,360336.25,356478.15625,287971.40625,257340.921875,223605.703125,245160.203125,0.01220703125,0.994384765625,0.205322265625,0.3051757514476776,-1.3732908964157104,-1.1901854276657104,80.0,51451.0,0.0
14337.9210452,291140.34375,297712.46875,360336.25,356478.15625,287971.40625,257340.921875,223605.703125,245160.203125,0.01220703125,0.994384765625,0.205322265625,0.3051757514476776,-1.3732908964157104,-1.1901854276657104,80.0,51452.0,0.0
14337.9210454,291140.34375,297712.46875,360336.25,356478.15625,287971.40625,257340.921875,223605.703125,245160.203125,0.01220703125,0.994384765625,0.205322265625,0.3051757514476776,-1.3732908964157104,-1.1901854276657104,80.0,51453.0,0.0
14337.9210456,291140.34375,297712.46875,360336.25,356478.15625,287971.40625,257340.921875,223605.703125,245160.203125,0.01220703125,0.994384765625,0.205322265625,0.3051757514476776,-1.3732908964157104,-1.1901854276657104,80.0,51454.0,0.0
14337.9210457,291140.34375,297712.46875,360336.25,356478.15625,287971.40625,257340.921875,223605.703125,245160.203125,0.01220703125,0.994384765625,0.205322265625,0.3051757514476776,-1.3732908964157104,-1.1901854276657104,80.0,51455.0,0.0
14337.9210459,291140.34375,297712.46875,360336.25,356478.15625,287971.40625,257340.921875,223605.703125,245160.203125,0.01220703125,0.994384765625,0.205322265625,0.3051757514476776,-1.3732908964157104,-1.1901854276657104,80.0,51456.0,0.0
14337.9210461,291078.75,297621.71875,360180.6875,356393.125,287902.375,257299.53125,223539.359375,245092.25,0.01513671875,0.99365234375,0.207275390625,0.3967284858226776,-0.4272460639476776,-0.7629393935203552,80.0,51457.0,1.0
14337.9210473,291083.75,297355.65625,360062.46875,356424.25,287836.9375,257259.734375,223513.078125,245095.296875,0.014892578125,0.993896484375,0.209228515625,0.3662109076976776,-0.4577636420726776,-0.7324218153953552,80.0,51458.0,1.0
14337.9210485,291117.625,297420.28125,360154.03125,356458.5625,287876.53125,257272.875,223542.125,245109.78125,0.0146484375,0.994873046875,0.211181640625,0.4577636420726776,-0.5493163466453552,-0.8544921278953552,80.0,51459.0,1.0
14337.9210497,291135.875,297719.53125,360323.625,356444.34375,287964.59375,257323.671875,223580.390625,245100.484375,0.01318359375,0.9970703125,0.207275390625,0.4577636420726776,-0.4882812201976776,-0.8850097060203552,80.0,51460.0,1.0
14337.9210509,291117.4375,297852.75,360343.3125,356401.96875,287984.28125,257344.5,223583.4375,245090.109375,0.014404296875,0.998046875,0.208740234375,0.3356933295726776,-0.4577636420726776,-0.9765624403953552,80.0,51461.0,1.0
14337.921052,291093.125,297636.75,360190.15625,356395.09375,287911.84375,257312.3125,223556.34375,245094.21875,0.013916015625,0.998779296875,0.209228515625,0.2746581733226776,-0.5187987685203552,-0.8544921278953552,80.0,51462.0,1.0
14337.9210532,291086.5,297346.4375,360047.5625,356416.46875,287833.1875,257266.0,223520.140625,245091.09375,0.012939453125,0.998291015625,0.206298828125,0.2441406100988388,-0.6103515028953552,-0.9155272841453552,80.0,51463.0,1.0
14337.9210544,291126.3125,297416.15625,360147.25,356458.84375,287882.34375,257288.796875,223552.140625,245116.75,0.0107421875,0.9990234375,0.20458984375,0.3051757514476776,-0.6713866591453552,-1.0986326932907104,80.0,51464.0,1.0
14337.9210556,291144.8125,297728.90625,360329.8125,356445.15625,287975.78125,257349.6875,223592.015625,245105.125,0.010498046875,0.997802734375,0.207275390625,0.2746581733226776,-0.7019042372703552,-1.1596678495407104,80.0,51465.0,1.0
14337.9210568,291116.1875,297858.65625,360346.09375,356397.59375,287990.875,257361.03125,223590.140625,245088.40625,0.008544921875,0.997314453125,0.206298828125,0.3051757514476776,-0.9155272841453552,-1.1596678495407104,80.0,51466.0,1.0
14337.9241721,291085.8125,297642.0,360196.9375,356387.21875,287913.8125,257303.546875,223541.59375,245086.4375,0.00830078125,0.995849609375,0.20703125,0.2441406100988388,-1.1596678495407104,-1.1901854276657104,80.0,51467.0,1.0
14337.9278925,291085.8125,297642.0,360196.9375,356387.21875,287913.8125,257303.546875,223541.59375,245086.4375,0.00830078125,0.995849609375,0.20703125,0.2441406100988388,-1.1596678495407104,-1.1901854276657104,80.0,51468.0,0.0
14337.9278966,291085.8125,297642.0,360196.9375,356387.21875,287913.8125,257303.546875,223541.59375,245086.4375,0.00830078125,0.995849609375,0.20703125,0.2441406100988388,-1.1596678495407104,-1.1901854276657104,80.0,51469.0,0.0
14337.9278986,291085.8125,297642.0,360196.9375,356387.21875,287913.8125,257303.546875,223541.59375,245086.4375,0.00830078125,0.995849609375,0.20703125,0.2441406100988388,-1.1596678495407104,-1.1901854276657104,80.0,51470.0,0.0
14337.9278988,291085.8125,297642.0,360196.9375,356387.21875,287913.8125,257303.546875,223541.59375,245086.4375,0.00830078125,0.995849609375,0.20703125,0.2441406100988388,-1.1596678495407104,-1.1901854276657104,80.0,51471.0,0.0
14337.9278989,291085.8125,297642.0,360196.9375,356387.21875,287913.8125,257303.546875,223541.59375,245086.4375,0.00830078125,0.995849609375,0.20703125,0.2441406100988388,-1.1596678495407104,-1.1901854276657104,80.0,51472.0,0.0
14337.9278991,291085.8125,297642.0,360196.9375,356387.21875,287913.8125,257303.546875,223541.59375,245086.4375,0.00830078125,0.995849609375,0.20703125,0.2441406100988388,-1.1596678495407104,-1.1901854276657104,80.0,51473.0,0.0
14337.9278993,291085.8125,297642.0,360196.9375,356387.21875,287913.8125,257303.546875,223541.59375,245086.4375,0.00830078125,0.995849609375,0.20703125,0.2441406100988388,-1.1596678495407104,-1.1901854276657104,80.0,51474.0,0.0
14337.9278995,291085.8125,297642.0,360196.9375,356387.21875,287913.8125,257303.546875,223541.59375,245086.4375,0.00830078125,0.995849609375,0.20703125,0.2441406100988388,-1.1596678495407104,-1.1901854276657104,80.0,51475.0,0.0
14337.9278996,291085.8125,297642.0,360196.9375,356387.21875,287913.8125,257303.546875,223541.59375,245086.4375,0.00830078125,0.995849609375,0.20703125,0.2441406100988388,-1.1596678495407104,-1.1901854276657104,80.0,51476.0,0.0
14337.9278998,291085.8125,297642.0,360196.9375,356387.21875,287913.8125,257303.546875,223541.59375,245086.4375,0.00830078125,0.995849609375,0.20703125,0.2441406100988388,-1.1596678495407104,-1.1901854276657104,80.0,51477.0,0.0
14337.9279,291085.8125,297642.0,360196.9375,356387.21875,287913.8125,257303.546875,223541.59375,245086.4375,0.00830078125,0.995849609375,0.20703125,0.2441406100988388,-1.1596678495407104,-1.1901854276657104,80.0,51478.0,0.0
14337.9279002,291085.8125,297642.0,360196.9375,356387.21875,287913.8125,257303.546875,223541.59375,245086.4375,0.00830078125,0.995849609375,0.20703125,0.2441406100988388,-1.1596678495407104,-1.1901854276657104,80.0,51479.0,0.0
14337.9279004,291085.8125,297642.0,360196.9375,356387.21875,287913.8125,257303.546875,223541.59375,245086.4375,0.00830078125,0.995849609375,0.20703125,0.2441406100988388,-1.1596678495407104,-1.1901854276657104,80.0,51480.0,0.0
14337.9279005,291085.8125,297642.0,360196.9375,356387.21875,287913.8125,257303.546875,223541.59375,245086.4375,0.00830078125,0.995849609375,0.20703125,0.2441406100988388,-1.1596678495407104,-1.1901854276657104,80.0,51481.0,0.0
14337.9279007,291085.8125,297642.0,360196.9375,356387.21875,287913.8125,257303.546875,223541.59375,245086.4375,0.00830078125,0.995849609375,0.20703125,0.2441406100988388,-1.1596678495407104,-1.1901854276657104,80.0,51482.0,0.0
14337.9279009,291085.8125,297642.0,360196.9375,356387.21875,287913.8125,257303.546875,223541.59375,245086.4375,0.00830078125,0.995849609375,0.20703125,0.2441406100988388,-1.1596678495407104,-1.1901854276657104,80.0,51483.0,0.0
14337.9279011,291085.8125,297642.0,360196.9375,356387.21875,287913.8125,257303.546875,223541.59375,245086.4375,0.00830078125,0.995849609375,0.20703125,0.2441406100988388,-1.1596678495407104,-1.1901854276657104,80.0,51484.0,0.0
14337.9279012,291085.8125,297642.0,360196.9375,356387.21875,287913.8125,257303.546875,223541.59375,245086.4375,0.00830078125,0.995849609375,0.20703125,0.2441406100988388,-1.1596678495407104,-1.1901854276657104,80.0,51485.0,0.0
14337.9279014,291106.375,297857.125,360327.84375,356385.4375,288000.90625,257349.953125,223569.84375,245080.28125,0.015625,0.9931640625,0.207275390625,0.5493163466453552,-1.7089842557907104,-1.2512205839157104,80.0,51486.0,1.0
14337.9310038,291072.75,297629.3125,360166.46875,356361.46875,287909.09375,257290.234375,223509.40625,245049.34375,0.0166015625,0.995361328125,0.2041015625,0.5187987685203552,-1.6479490995407104,-1.4038084745407104,80.0,51487.0,1.0
14337.9310189,291071.21875,297338.28125,360014.8125,356389.03125,287827.53125,257250.703125,223481.78125,245058.71875,0.016357421875,0.993896484375,0.205078125,0.4577636420726776,-1.6784666776657104,-1.3732908964157104,80.0,51488.0,1.0
14337.935137,291110.375,297406.25,360104.40625,356429.875,287877.6875,257290.578125,223523.625,245079.375,0.0146484375,0.994384765625,0.2060546875,0.5187987685203552,-1.6784666776657104,-1.4343260526657104,80.0,51489.0,1.0
14337.9351502,291129.875,297715.25,360285.1875,356415.84375,287969.4375,257340.75,223551.96875,245068.203125,0.0146484375,0.994384765625,0.206787109375,0.4882812201976776,-1.6479490995407104,-1.4038084745407104,80.0,51490.0,1.0
14337.935158,291117.90625,297859.09375,360318.375,356380.53125,287991.15625,257347.171875,223550.265625,245054.171875,0.0126953125,0.993896484375,0.205810546875,0.6103515028953552,-1.6174315214157104,-1.4648436307907104,80.0,51491.0,1.0
14337.9351643,291090.1875,297644.4375,360178.625,356368.71875,287918.90625,257300.859375,223508.609375,245046.203125,0.010498046875,0.993896484375,0.205322265625,0.5187987685203552,-1.6174315214157104,-1.4343260526657104,80.0,51492.0,1.0
14337.9351656,291091.25,297359.3125,360048.53125,356396.78125,287845.25,257256.15625,223470.25,245049.15625,0.00927734375,0.99560546875,0.204833984375,0.5493163466453552,-1.6784666776657104,-1.4038084745407104,80.0,51493.0,1.0
14337.9351668,291126.9375,297421.8125,360137.21875,356432.8125,287886.46875,257281.015625,223500.828125,245068.296875,0.0107421875,0.995361328125,0.2060546875,0.7019042372703552,-1.7395018339157104,-1.2512205839157104,80.0,51494.0,1.0
14337.935168,291142.65625,297716.65625,360299.21875,356423.78125,287973.0,257330.1875,223545.078125,245076.421875,0.010009765625,0.994873046875,0.206787109375,0.6713866591453552,-1.7700194120407104,-1.2207030057907104,80.0,51495.0,1.0
14337.9600197,291121.375,297856.3125,360321.9375,356380.25,287992.40625,257339.578125,223536.953125,245047.640625,0.009765625,0.99609375,0.205322265625,0.6713866591453552,-1.8005369901657104,-1.2207030057907104,80.0,51496.0,1.0
14337.9600301,291086.15625,297639.5,360170.9375,356363.1875,287915.4375,257297.296875,223503.5,245043.34375,0.00830078125,0.996337890625,0.20458984375,0.5798339247703552,-1.8310545682907104,-1.0375975370407104,80.0,51497.0,1.0
14337.9600314,291088.40625,297361.0,360036.375,356394.03125,287845.59375,257262.25,223480.984375,245051.484375,0.00830078125,0.99609375,0.206787109375,0.6103515028953552,-1.8615721464157104,-0.9765624403953552,80.0,51498.0,1.0
14337.9600329,291088.40625,297361.0,360036.375,356394.03125,287845.59375,257262.25,223480.984375,245051.484375,0.00830078125,0.99609375,0.206787109375,0.6103515028953552,-1.8615721464157104,-0.9765624403953552,80.0,51499.0,0.0
14337.9600331,291088.40625,297361.0,360036.375,356394.03125,287845.59375,257262.25,223480.984375,245051.484375,0.00830078125,0.99609375,0.206787109375,0.6103515028953552,-1.8615721464157104,-0.9765624403953552,80.0,51500.0,0.0
14337.9600333,291088.40625,297361.0,360036.375,356394.03125,287845.59375,257262.25,223480.984375,245051.484375,0.00830078125,0.99609375,0.206787109375,0.6103515028953552,-1.8615721464157104,-0.9765624403953552,80.0,51501.0,0.0
14337.9600335,291088.40625,297361.0,360036.375,356394.03125,287845.59375,257262.25,223480.984375,245051.484375,0.00830078125,0.99609375,0.206787109375,0.6103515028953552,-1.8615721464157104,-0.9765624403953552,80.0,51502.0,0.0
14337.9600337,291088.40625,297361.0,360036.375,356394.03125,287845.59375,257262.25,223480.984375,245051.484375,0.00830078125,0.99609375,0.206787109375,0.6103515028953552,-1.8615721464157104,-0.9765624403953552,80.0,51503.0,0.0
14337.9600338,291122.28125,297417.25,360110.84375,356430.78125,287883.0625,257299.96875,223513.4375,245060.78125,0.011474609375,0.9970703125,0.201171875,0.6103515028953552,-2.258300542831421,-0.7934569716453552,80.0,51504.0,1.0
14337.9600352,291141.0625,297715.875,360284.75,356424.0625,287977.9375,257355.3125,223567.078125,245072.234375,0.009765625,0.9970703125,0.204345703125,0.5187987685203552,-2.288818120956421,-0.7629393935203552,80.0,51505.0,1.0
14337.9828761,291116.65625,297856.9375,360314.25,356373.90625,287986.5,257329.65625,223533.09375,245032.171875,0.009765625,0.99658203125,0.20068359375,0.4882812201976776,-2.258300542831421,-0.8239745497703552,80.0,51506.0,1.0
14338.0084866,291086.0625,297636.5625,360159.84375,356355.5625,287902.65625,257255.984375,223478.921875,245017.953125,0.01025390625,0.996337890625,0.198974609375,0.4577636420726776,-2.349853277206421,-0.9460448622703552,80.0,51507.0,1.0
14338.0085039,291086.59375,297348.75,360016.25,356385.25,287828.0,257223.796875,223452.09375,245028.59375,0.01318359375,0.996337890625,0.199462890625,0.5493163466453552,-2.410888433456421,-1.0070799589157104,80.0,51508.0,1.0
14338.0328915,291120.40625,297405.0,360102.34375,356427.28125,287872.6875,257263.5,223491.34375,245051.125,0.01416015625,0.994384765625,0.198974609375,0.5187987685203552,-2.441406011581421,-0.8850097060203552,80.0,51509.0,1.0
14338.0584814,291131.3125,297693.96875,360266.0625,356407.78125,287954.0625,257308.90625,223524.34375,245045.578125,0.013671875,0.99609375,0.200439453125,0.4577636420726776,-2.471923589706421,-0.8544921278953552,80.0,51510.0,1.0
14338.0584862,291119.5,297843.34375,360302.34375,356370.96875,287983.65625,257339.3125,223536.953125,245035.484375,0.013671875,0.995849609375,0.2001953125,0.5798339247703552,-2.410888433456421,-0.8850097060203552,80.0,51511.0,1.0
14338.0841293,291084.625,297623.875,360146.6875,356356.03125,287906.9375,257298.625,223500.5625,245038.78125,0.013916015625,0.9990234375,0.197998046875,0.6408690810203552,-2.471923589706421,-0.9765624403953552,80.0,51512.0,1.0
14338.1108731,291089.8125,297344.90625,360010.71875,356388.84375,287836.3125,257279.859375,223484.90625,245049.875,0.014404296875,0.99658203125,0.199462890625,0.5493163466453552,-2.319335699081421,-0.9460448622703552,80.0,51513.0,1.0
14338.1108777,291133.53125,297416.25,360105.9375,356430.6875,287882.53125,257303.734375,223511.734375,245055.953125,0.015869140625,0.99658203125,0.201171875,0.4272460639476776,-2.288818120956421,-0.9460448622703552,80.0,51514.0,1.0
14338.110879,291147.84375,297717.375,360284.84375,356417.90625,287974.0,257344.9375,223547.671875,245058.453125,0.01416015625,0.9970703125,0.200439453125,0.3356933295726776,-2.227782964706421,-0.9765624403953552,80.0,51515.0,1.0
14338.1108802,291121.03125,297849.875,360308.0,356370.5,287986.9375,257347.171875,223536.046875,245034.765625,0.011474609375,0.996826171875,0.20068359375,0.2136230319738388,-2.227782964706421,-0.9460448622703552,80.0,51516.0,1.0
14338.1671681,291086.25,297633.25,360151.53125,356349.9375,287901.5625,257280.125,223489.828125,245017.6875,0.0126953125,0.994873046875,0.197265625,0.1831054538488388,-2.166747808456421,-1.0070799589157104,80.0,51517.0,1.0
14338.1671729,291088.84375,297353.125,360016.25,356379.0,287828.0,257242.9375,223461.046875,245026.359375,0.013916015625,0.99609375,0.197509765625,0.03051757626235485,-2.105712652206421,-1.0375975370407104,80.0,51518.0,1.0
14338.1671741,291125.21875,297402.125,360096.375,356418.53125,287869.21875,257282.984375,223496.4375,245049.421875,0.015380859375,0.99560546875,0.198486328125,0.03051757626235485,-2.105712652206421,-1.0070799589157104,80.0,51519.0,1.0
14338.1671753,291142.3125,297705.03125,360269.09375,356406.09375,287960.5,257340.921875,223541.234375,245051.21875,0.014404296875,0.995849609375,0.19873046875,-0.0610351525247097,-2.075195074081421,-0.9460448622703552,80.0,51520.0,1.0
14338.1671765,291114.6875,297843.53125,360292.0625,356356.75,287975.6875,257331.0,223531.765625,245028.15625,0.013916015625,0.996337890625,0.199462890625,0.0,-1.9836424589157104,-1.1291502714157104,80.0,51521.0,1.0
14338.1671777,291084.46875,297635.40625,360150.71875,356344.3125,287904.875,257294.34375,223501.265625,245024.9375,0.01416015625,0.99609375,0.20068359375,0.03051757626235485,-1.8920897245407104,-1.1596678495407104,80.0,51522.0,1.0
14338.1920903,291085.4375,297348.5,360009.1875,356371.84375,287827.1875,257253.65625,223471.859375,245027.171875,0.013671875,0.994873046875,0.19873046875,-0.03051757626235485,-1.8920897245407104,-1.2207030057907104,80.0,51523.0,1.0
14338.1920949,291113.6875,297399.28125,360097.78125,356407.0625,287866.4375,257266.796875,223497.421875,245045.21875,0.01220703125,0.995361328125,0.199951171875,0.0,-1.8615721464157104,-1.1596678495407104,80.0,51524.0,1.0
14338.1920962,291123.625,297689.40625,360267.3125,356395.375,287958.25,257326.703125,223542.75,245052.203125,0.013427734375,0.99365234375,0.2001953125,0.03051757626235485,-1.7700194120407104,-1.2207030057907104,80.0,51525.0,1.0
14338.1920975,291093.65625,297819.40625,360276.0625,356344.59375,287969.34375,257327.875,223534.625,245031.71875,0.01318359375,0.994384765625,0.202392578125,0.03051757626235485,-1.7089842557907104,-1.2512205839157104,80.0,51526.0,1.0
14338.1921001,291063.8125,297608.65625,360125.875,356330.1875,287894.3125,257285.484375,223494.296875,245017.6875,0.013671875,0.9951171875,0.202880859375,0.03051757626235485,-1.6479490995407104,-1.1596678495407104,80.0,51527.0,1.0
14338.1921014,291071.21875,297331.15625,359989.15625,356363.53125,287826.28125,257252.40625,223474.71875,245030.390625,0.015380859375,0.99462890625,0.203125,0.0915527269244194,-1.7089842557907104,-1.0986326932907104,80.0,51528.0,1.0
14338.2153931,291103.84375,297389.625,360074.09375,356396.0,287862.6875,257273.234375,223490.0,245029.3125,0.01318359375,0.995361328125,0.20166015625,0.1525878757238388,-1.6174315214157104,-1.1901854276657104,80.0,51529.0,1.0
14338.2403817,291116.71875,297686.4375,360238.53125,356379.28125,287946.71875,257323.484375,223527.921875,245027.25,0.01513671875,0.994873046875,0.201416015625,0.2136230319738388,-1.6479490995407104,-1.1901854276657104,80.0,51530.0,1.0
14338.2741273,291103.15625,297837.625,360269.90625,356343.15625,287971.21875,257341.8125,223540.609375,245025.46875,0.013916015625,0.9931640625,0.201904296875,0.2441406100988388,-1.6784666776657104,-1.2512205839157104,80.0,51531.0,1.0
14338.2766422,291078.375,297638.78125,360134.90625,356332.875,287903.96875,257299.4375,223503.59375,245016.53125,0.012451171875,0.99462890625,0.203857421875,0.2746581733226776,-1.5869139432907104,-1.1901854276657104,80.0,51532.0,1.0
14338.2798214,291078.375,297358.6875,360002.03125,356366.75,287837.375,257277.359375,223493.671875,245043.609375,0.010986328125,0.99462890625,0.201416015625,0.2441406100988388,-1.4953612089157104,-1.1901854276657104,80.0,51533.0,1.0
14338.2798241,291114.21875,297414.5625,360090.71875,356404.46875,287876.09375,257299.609375,223516.5625,245045.046875,0.010986328125,0.99560546875,0.203857421875,0.1525878757238388,-1.4953612089157104,-1.2512205839157104,80.0,51534.0,1.0
14338.2816308,291127.1875,297702.71875,360255.40625,356386.78125,287957.1875,257331.984375,223535.78125,245026.1875,0.010498046875,0.998291015625,0.20654296875,0.1220703050494194,-1.4343260526657104,-1.0681151151657104,80.0,51535.0,1.0
14338.2847441,291102.78125,297829.6875,360270.0,356340.375,287970.78125,257325.0,223533.546875,245021.53125,0.01220703125,0.99755859375,0.203125,-0.03051757626235485,-1.4953612089157104,-1.0070799589157104,80.0,51536.0,1.0
14338.2847463,291072.84375,297624.21875,360121.40625,356324.90625,287895.84375,257292.640625,223493.140625,245010.359375,0.010986328125,0.99609375,0.207275390625,0.0,-1.5563963651657104,-0.9765624403953552,80.0,51537.0,1.0
14338.3138393,291073.28125,297343.46875,359987.1875,356353.625,287822.0,257255.1875,223465.328125,245009.734375,0.01416015625,0.9970703125,0.20361328125,-0.03051757626235485,-1.5258787870407104,-0.9460448622703552,80.0,51538.0,1.0
14338.3138441,291113.5,297402.5,360080.71875,356398.59375,287868.9375,257275.828125,223507.359375,245036.203125,0.013671875,0.99560546875,0.203369140625,0.0610351525247097,-1.5258787870407104,-0.9460448622703552,80.0,51539.0,1.0
14338.3138456,291126.84375,297691.8125,360240.3125,356388.21875,287955.40625,257329.390625,223558.765625,245051.125,0.013916015625,0.995361328125,0.203369140625,0.0610351525247097,-1.5869139432907104,-0.9765624403953552,80.0,51540.0,1.0
14338.3138468,291098.75,297829.78125,360266.15625,356339.21875,287972.75,257336.890625,223549.546875,245024.578125,0.011962890625,0.99755859375,0.203125,0.0610351525247097,-1.4953612089157104,-0.9155272841453552,80.0,51541.0,1.0
14338.313848,291067.1875,297617.4375,360121.3125,356325.8125,287898.15625,257276.546875,223500.015625,245019.75,0.01318359375,0.997802734375,0.2060546875,0.0610351525247097,-1.4953612089157104,-0.8850097060203552,80.0,51542.0,1.0
14338.3138492,291067.75,297340.25,359988.625,356347.875,287819.84375,257238.8125,223460.140625,244993.640625,0.01220703125,0.99658203125,0.20751953125,0.03051757626235485,-1.5563963651657104,-0.9460448622703552,80.0,51543.0,1.0
14338.3138504,291104.3125,297396.6875,360079.46875,356386.15625,287860.53125,257249.8125,223479.546875,245011.34375,0.01220703125,0.99560546875,0.20556640625,-0.0610351525247097,-1.4953612089157104,-0.8544921278953552,80.0,51544.0,1.0
14338.4211343,291126.03125,297693.59375,360249.875,356380.625,287955.21875,257309.1875,223530.515625,245019.390625,0.01171875,0.994873046875,0.203857421875,-0.0915527269244194,-1.4953612089157104,-0.9155272841453552,80.0,51545.0,1.0
14338.4211483,291099.65625,297822.625,360263.03125,356335.28125,287973.28125,257331.359375,223539.890625,245011.515625,0.012451171875,0.9951171875,0.203369140625,-0.1220703050494194,-1.4343260526657104,-0.8544921278953552,80.0,51546.0,1.0
14338.4211496,291065.78125,297605.1875,360105.75,356317.5,287892.625,257289.515625,223493.859375,244997.84375,0.01171875,0.993896484375,0.20361328125,-0.03051757626235485,-1.5258787870407104,-0.8239745497703552,80.0,51547.0,1.0
14338.4211509,291065.78125,297605.1875,360105.75,356317.5,287892.625,257289.515625,223493.859375,244997.84375,0.01171875,0.993896484375,0.20361328125,-0.03051757626235485,-1.5258787870407104,-0.8239745497703552,80.0,51548.0,0.0
14338.4211511,291065.78125,297605.1875,360105.75,356317.5,287892.625,257289.515625,223493.859375,244997.84375,0.01171875,0.993896484375,0.20361328125,-0.03051757626235485,-1.5258787870407104,-0.8239745497703552,80.0,51549.0,0.0
14338.4211513,291128.28125,297681.09375,360241.65625,356380.875,287956.28125,257305.0625,223530.59375,245022.703125,0.012939453125,0.99609375,0.20556640625,0.0,-1.5869139432907104,-0.6713866591453552,80.0,51550.0,1.0
14338.4211525,291103.6875,297816.53125,360261.78125,356334.75,287970.3125,257311.953125,223528.71875,245009.46875,0.014892578125,0.994384765625,0.207275390625,0.0,-1.4343260526657104,-0.7934569716453552,80.0,51551.0,1.0
14338.4211537,291077.5625,297618.21875,360118.90625,356325.34375,287903.96875,257294.78125,223508.609375,245002.671875,0.01416015625,0.993896484375,0.20751953125,0.1220703050494194,-1.4648436307907104,-0.8239745497703552,80.0,51552.0,1.0
14338.4211549,291089.09375,297360.125,360001.875,356364.6875,287848.28125,257278.421875,223498.765625,245020.90625,0.012939453125,0.99658203125,0.203125,0.1831054538488388,-1.4038084745407104,-0.7629393935203552,80.0,51553.0,1.0
14338.4211565,291128.71875,297416.0,360094.125,356403.59375,287887.625,257290.578125,223516.65625,245033.328125,0.013427734375,0.995849609375,0.204345703125,0.1220703050494194,-1.3732908964157104,-0.7934569716453552,80.0,51554.0,1.0
14338.4229057,291133.375,297689.40625,360247.375,356381.25,287961.125,257324.46875,223541.5,245025.734375,0.013427734375,0.996337890625,0.20556640625,0.0610351525247097,-1.3427733182907104,-0.8239745497703552,80.0,51555.0,1.0
14338.4478815,291104.21875,297823.875,360256.6875,356330.90625,287972.46875,257327.78125,223532.921875,245010.796875,0.01318359375,0.99462890625,0.207763671875,0.0610351525247097,-1.4343260526657104,-0.8544921278953552,80.0,51556.0,1.0
14338.4729091,291086.34375,297638.15625,360124.53125,356322.84375,287907.8125,257288.96875,223501.359375,245000.25,0.015380859375,0.9931640625,0.2109375,0.0915527269244194,-1.4038084745407104,-0.8544921278953552,80.0,51557.0,1.0
14338.4766747,291083.28125,297348.5,359980.9375,356347.09375,287828.4375,257242.21875,223469.53125,245002.21875,0.013916015625,0.994140625,0.207275390625,0.1220703050494194,-1.4038084745407104,-0.8850097060203552,80.0,51558.0,1.0
14338.4791393,291115.03125,297400.6875,360065.0625,356382.75,287865.8125,257258.75,223494.5625,245017.15625,0.01416015625,0.992431640625,0.205810546875,0.1525878757238388,-1.4038084745407104,-0.9460448622703552,80.0,51559.0,1.0
14338.4816585,291134.71875,297696.8125,360241.375,356373.46875,287957.8125,257309.984375,223538.5625,245018.84375,0.013427734375,0.9951171875,0.20654296875,0.1831054538488388,-1.2512205839157104,-0.8850097060203552,80.0,51560.0,1.0
14338.4841678,291110.75,297830.40625,360263.46875,356328.03125,287977.03125,257336.359375,223550.890625,245006.421875,0.013427734375,0.996337890625,0.20751953125,0.2441406100988388,-1.1901854276657104,-0.9155272841453552,80.0,51561.0,1.0
14338.4866589,291080.625,297621.0,360125.875,356312.40625,287902.375,257284.328125,223504.578125,244994.359375,0.013671875,0.998046875,0.20556640625,0.1831054538488388,-1.3122557401657104,-0.8239745497703552,80.0,51562.0,1.0
14338.4891575,291083.28125,297337.59375,359982.28125,356336.25,287818.15625,257237.390625,223460.234375,244989.53125,0.01318359375,0.9970703125,0.203369140625,0.0610351525247097,-1.3732908964157104,-0.9155272841453552,80.0,51563.0,1.0
14338.5141698,291111.1875,297372.1875,360045.40625,356371.3125,287852.3125,257263.046875,223493.9375,245018.3125,0.01416015625,0.996826171875,0.20654296875,0.0610351525247097,-1.3122557401657104,-0.9765624403953552,80.0,51564.0,1.0
14338.5391711,291133.375,297672.40625,360221.28125,356370.78125,287953.78125,257321.4375,223546.875,245034.859375,0.014404296875,0.99560546875,0.208984375,-0.0915527269244194,-1.2817381620407104,-0.9155272841453552,80.0,51565.0,1.0
14338.5641579,291106.71875,297817.53125,360248.53125,356318.21875,287970.3125,257327.6875,223531.140625,244990.421875,0.01513671875,0.995361328125,0.210205078125,-0.1831054538488388,-1.1596678495407104,-0.8239745497703552,80.0,51566.0,1.0
14338.5979,291077.65625,297618.21875,360108.15625,356301.65625,287896.5625,257280.484375,223485.171875,244975.84375,0.01611328125,0.995361328125,0.20703125,-0.2136230319738388,-1.1291502714157104,-0.9460448622703552,80.0,51567.0,1.0
14338.6486539,291082.125,297337.59375,359977.90625,356333.84375,287827.0,257244.546875,223463.28125,244984.609375,0.01513671875,0.994873046875,0.205810546875,-0.2136230319738388,-1.0375975370407104,-0.8239745497703552,80.0,51568.0,1.0
14338.6486594,291117.625,297383.625,360056.59375,356371.65625,287863.5625,257266.359375,223488.046875,245002.484375,0.01416015625,0.994384765625,0.20556640625,-0.1220703050494194,-1.0375975370407104,-0.8544921278953552,80.0,51569.0,1.0
14338.6486607,291137.84375,297681.53125,360230.3125,356363.96875,287954.59375,257318.03125,223533.375,245010.09375,0.013427734375,0.993408203125,0.203857421875,-0.0610351525247097,-1.0375975370407104,-0.8544921278953552,80.0,51570.0,1.0
14338.648662,291111.0,297823.6875,360256.59375,356314.375,287971.65625,257316.0625,223527.203125,244987.46875,0.01318359375,0.995361328125,0.203369140625,-0.0610351525247097,-1.0375975370407104,-0.8239745497703552,80.0,51571.0,1.0
14338.6486632,291083.75,297621.4375,360117.71875,356306.75,287906.40625,257288.34375,223501.546875,244987.5625,0.01513671875,0.9931640625,0.207275390625,0.0,-1.0681151151657104,-0.9765624403953552,80.0,51572.0,1.0
14338.6486646,291083.5625,297337.59375,359983.90625,356338.6875,287837.09375,257258.046875,223477.3125,245003.65625,0.01513671875,0.993896484375,0.20654296875,0.0,-1.1901854276657104,-0.9765624403953552,80.0,51573.0,1.0
14338.6486657,291123.09375,297384.78125,360070.25,356378.46875,287878.6875,257282.53125,223509.3125,245015.1875,0.014404296875,0.99462890625,0.20703125,0.03051757626235485,-1.1596678495407104,-0.9765624403953552,80.0,51574.0,1.0
14338.6486669,291132.90625,297671.59375,360230.9375,356360.21875,287955.75,257305.6875,223533.28125,245007.859375,0.011474609375,0.993896484375,0.206298828125,0.03051757626235485,-1.0681151151657104,-0.9155272841453552,80.0,51575.0,1.0
14338.6486681,291108.0625,297816.4375,360250.15625,356314.4375,287972.75,257312.21875,223534.265625,244994.625,0.01171875,0.9951171875,0.20263671875,0.03051757626235485,-1.1291502714157104,-1.0375975370407104,80.0,51576.0,1.0
14338.6486693,291078.125,297618.5,360108.625,356300.78125,287904.78125,257282.265625,223503.0625,244985.0625,0.011962890625,0.994873046875,0.20458984375,0.1220703050494194,-1.1596678495407104,-1.0681151151657104,80.0,51577.0,1.0
14338.6486705,291074.34375,297321.84375,359956.90625,356324.90625,287823.0625,257242.9375,223474.546875,244994.4375,0.0126953125,0.99365234375,0.207763671875,0.1525878757238388,-1.1291502714157104,-1.0986326932907104,80.0,51578.0,1.0
14338.6735702,291117.4375,297382.65625,360053.90625,356367.90625,287865.53125,257264.921875,223491.53125,244999.53125,0.0126953125,0.99560546875,0.2109375,0.1525878757238388,-1.1901854276657104,-1.0681151151657104,80.0,51579.0,1.0
14338.6735959,291124.59375,297673.65625,360224.75,356348.59375,287944.9375,257297.375,223523.796875,244994.171875,0.013671875,0.99658203125,0.210693359375,0.1220703050494194,-1.2207030057907104,-1.0986326932907104,80.0,51580.0,1.0
14338.6735974,291103.15625,297817.53125,360249.875,356307.75,287963.78125,257309.359375,223533.8125,244997.03125,0.015380859375,0.9970703125,0.21044921875,0.1525878757238388,-1.1901854276657104,-0.9765624403953552,80.0,51581.0,1.0
14338.6859856,291080.875,297626.0,360112.5625,356299.59375,287898.625,257290.5,223513.4375,244990.234375,0.014404296875,0.995849609375,0.205810546875,0.2441406100988388,-1.1596678495407104,-0.8544921278953552,80.0,51582.0,1.0
14338.6859895,291076.59375,297340.53125,359975.21875,356325.96875,287825.40625,257256.796875,223487.421875,244996.59375,0.011962890625,0.996337890625,0.203125,0.1831054538488388,-1.0986326932907104,-0.9155272841453552,80.0,51583.0,1.0
14338.6899402,291107.15625,297384.4375,360061.3125,356363.96875,287866.25,257262.15625,223514.328125,245025.203125,0.011474609375,0.998046875,0.205078125,0.2136230319738388,-1.1901854276657104,-0.8850097060203552,80.0,51584.0,1.0
14338.6899573,291120.21875,297678.03125,360234.21875,356345.125,287954.40625,257309.8125,223541.6875,244994.71875,0.01318359375,0.997314453125,0.208740234375,0.0915527269244194,-1.2207030057907104,-0.9155272841453552,80.0,51585.0,1.0
14338.6899648,291094.28125,297818.78125,360255.25,356299.25,287975.59375,257332.25,223547.9375,244976.828125,0.011962890625,0.998291015625,0.210693359375,-0.03051757626235485,-1.3427733182907104,-1.0375975370407104,80.0,51586.0,1.0
14338.6899662,291064.34375,297610.28125,360100.5625,356285.125,287903.1875,257299.703125,223512.1875,244974.859375,0.0126953125,0.995849609375,0.210205078125,-0.0915527269244194,-1.4038084745407104,-0.8544921278953552,80.0,51587.0,1.0
14338.6899673,291062.46875,297317.5625,359941.78125,356309.96875,287818.5,257244.8125,223467.484375,244983.71875,0.010986328125,0.994873046875,0.210693359375,-0.2136230319738388,-1.4038084745407104,-0.9155272841453552,80.0,51588.0,1.0
14338.6899685,291094.84375,297361.0,360018.3125,356345.375,287853.65625,257254.203125,223495.109375,244998.46875,0.010009765625,0.994384765625,0.208984375,-0.1525878757238388,-1.4038084745407104,-1.0070799589157104,80.0,51589.0,1.0
14338.6899698,291113.6875,297663.65625,360197.65625,356335.46875,287944.65625,257304.359375,223535.421875,244994.890625,0.01123046875,0.99365234375,0.20751953125,-0.0610351525247097,-1.4343260526657104,-1.0375975370407104,80.0,51590.0,1.0
14338.6976437,291094.75,297816.53125,360230.65625,356295.3125,287971.21875,257322.328125,223538.28125,244988.1875,0.01025390625,0.99462890625,0.2099609375,-0.0915527269244194,-1.5563963651657104,-0.9765624403953552,80.0,51591.0,1.0
14338.6976494,291094.75,297816.53125,360230.65625,356295.3125,287971.21875,257322.328125,223538.28125,244988.1875,0.01025390625,0.99462890625,0.2099609375,-0.0915527269244194,-1.5563963651657104,-0.9765624403953552,80.0,51592.0,0.0
14338.6976496,291094.75,297816.53125,360230.65625,356295.3125,287971.21875,257322.328125,223538.28125,244988.1875,0.01025390625,0.99462890625,0.2099609375,-0.0915527269244194,-1.5563963651657104,-0.9765624403953552,80.0,51593.0,0.0
14338.6976498,291094.75,297816.53125,360230.65625,356295.3125,287971.21875,257322.328125,223538.28125,244988.1875,0.01025390625,0.99462890625,0.2099609375,-0.0915527269244194,-1.5563963651657104,-0.9765624403953552,80.0,51594.0,0.0
14338.69765,291094.75,297816.53125,360230.65625,356295.3125,287971.21875,257322.328125,223538.28125,244988.1875,0.01025390625,0.99462890625,0.2099609375,-0.0915527269244194,-1.5563963651657104,-0.9765624403953552,80.0,51595.0,0.0
14338.6976502,291094.75,297816.53125,360230.65625,356295.3125,287971.21875,257322.328125,223538.28125,244988.1875,0.01025390625,0.99462890625,0.2099609375,-0.0915527269244194,-1.5563963651657104,-0.9765624403953552,80.0,51596.0,0.0
14338.6976504,291094.75,297816.53125,360230.65625,356295.3125,287971.21875,257322.328125,223538.28125,244988.1875,0.01025390625,0.99462890625,0.2099609375,-0.0915527269244194,-1.5563963651657104,-0.9765624403953552,80.0,51597.0,0.0
14338.6976506,291094.75,297816.53125,360230.65625,356295.3125,287971.21875,257322.328125,223538.28125,244988.1875,0.01025390625,0.99462890625,0.2099609375,-0.0915527269244194,-1.5563963651657104,-0.9765624403953552,80.0,51598.0,0.0
14338.6976508,291094.75,297816.53125,360230.65625,356295.3125,287971.21875,257322.328125,223538.28125,244988.1875,0.01025390625,0.99462890625,0.2099609375,-0.0915527269244194,-1.5563963651657104,-0.9765624403953552,80.0,51599.0,0.0
14338.6976509,291094.75,297816.53125,360230.65625,356295.3125,287971.21875,257322.328125,223538.28125,244988.1875,0.01025390625,0.99462890625,0.2099609375,-0.0915527269244194,-1.5563963651657104,-0.9765624403953552,80.0,51600.0,0.0
14338.6976511,291094.75,297816.53125,360230.65625,356295.3125,287971.21875,257322.328125,223538.28125,244988.1875,0.01025390625,0.99462890625,0.2099609375,-0.0915527269244194,-1.5563963651657104,-0.9765624403953552,80.0,51601.0,0.0
14338.6976513,291094.75,297816.53125,360230.65625,356295.3125,287971.21875,257322.328125,223538.28125,244988.1875,0.01025390625,0.99462890625,0.2099609375,-0.0915527269244194,-1.5563963651657104,-0.9765624403953552,80.0,51602.0,0.0
14338.6976515,291094.75,297816.53125,360230.65625,356295.3125,287971.21875,257322.328125,223538.28125,244988.1875,0.01025390625,0.99462890625,0.2099609375,-0.0915527269244194,-1.5563963651657104,-0.9765624403953552,80.0,51603.0,0.0
14338.6976517,291094.75,297816.53125,360230.65625,356295.3125,287971.21875,257322.328125,223538.28125,244988.1875,0.01025390625,0.99462890625,0.2099609375,-0.0915527269244194,-1.5563963651657104,-0.9765624403953552,80.0,51604.0,0.0
14338.6976519,291094.75,297816.53125,360230.65625,356295.3125,287971.21875,257322.328125,223538.28125,244988.1875,0.01025390625,0.99462890625,0.2099609375,-0.0915527269244194,-1.5563963651657104,-0.9765624403953552,80.0,51605.0,0.0
14338.6976521,291094.75,297816.53125,360230.65625,356295.3125,287971.21875,257322.328125,223538.28125,244988.1875,0.01025390625,0.99462890625,0.2099609375,-0.0915527269244194,-1.5563963651657104,-0.9765624403953552,80.0,51606.0,0.0
14338.6976523,291094.75,297816.53125,360230.65625,356295.3125,287971.21875,257322.328125,223538.28125,244988.1875,0.01025390625,0.99462890625,0.2099609375,-0.0915527269244194,-1.5563963651657104,-0.9765624403953552,80.0,51607.0,0.0
14338.6976525,291094.75,297816.53125,360230.65625,356295.3125,287971.21875,257322.328125,223538.28125,244988.1875,0.01025390625,0.99462890625,0.2099609375,-0.0915527269244194,-1.5563963651657104,-0.9765624403953552,80.0,51608.0,0.0
14338.6976527,291094.75,297816.53125,360230.65625,356295.3125,287971.21875,257322.328125,223538.28125,244988.1875,0.01025390625,0.99462890625,0.2099609375,-0.0915527269244194,-1.5563963651657104,-0.9765624403953552,80.0,51609.0,0.0
14338.6976529,291094.75,297816.53125,360230.65625,356295.3125,287971.21875,257322.328125,223538.28125,244988.1875,0.01025390625,0.99462890625,0.2099609375,-0.0915527269244194,-1.5563963651657104,-0.9765624403953552,80.0,51610.0,0.0
14338.697653,291094.75,297816.53125,360230.65625,356295.3125,287971.21875,257322.328125,223538.28125,244988.1875,0.01025390625,0.99462890625,0.2099609375,-0.0915527269244194,-1.5563963651657104,-0.9765624403953552,80.0,51611.0,0.0
14338.6976532,291094.75,297816.53125,360230.65625,356295.3125,287971.21875,257322.328125,223538.28125,244988.1875,0.01025390625,0.99462890625,0.2099609375,-0.0915527269244194,-1.5563963651657104,-0.9765624403953552,80.0,51612.0,0.0
14338.6976534,291094.75,297816.53125,360230.65625,356295.3125,287971.21875,257322.328125,223538.28125,244988.1875,0.01025390625,0.99462890625,0.2099609375,-0.0915527269244194,-1.5563963651657104,-0.9765624403953552,80.0,51613.0,0.0
14338.6976536,291094.75,297816.53125,360230.65625,356295.3125,287971.21875,257322.328125,223538.28125,244988.1875,0.01025390625,0.99462890625,0.2099609375,-0.0915527269244194,-1.5563963651657104,-0.9765624403953552,80.0,51614.0,0.0
14338.6976537,291094.75,297816.53125,360230.65625,356295.3125,287971.21875,257322.328125,223538.28125,244988.1875,0.01025390625,0.99462890625,0.2099609375,-0.0915527269244194,-1.5563963651657104,-0.9765624403953552,80.0,51615.0,0.0
14338.6976539,291094.75,297816.53125,360230.65625,356295.3125,287971.21875,257322.328125,223538.28125,244988.1875,0.01025390625,0.99462890625,0.2099609375,-0.0915527269244194,-1.5563963651657104,-0.9765624403953552,80.0,51616.0,0.0
14338.6976541,291094.75,297816.53125,360230.65625,356295.3125,287971.21875,257322.328125,223538.28125,244988.1875,0.01025390625,0.99462890625,0.2099609375,-0.0915527269244194,-1.5563963651657104,-0.9765624403953552,80.0,51617.0,0.0
14338.6976543,291094.75,297816.53125,360230.65625,356295.3125,287971.21875,257322.328125,223538.28125,244988.1875,0.01025390625,0.99462890625,0.2099609375,-0.0915527269244194,-1.5563963651657104,-0.9765624403953552,80.0,51618.0,0.0
14338.6976545,291129.96875,297390.0625,360034.5,356349.6875,287883.5,257293.09375,223521.390625,245000.25,0.016357421875,0.993896484375,0.209228515625,0.3356933295726776,-1.3122557401657104,-0.8239745497703552,80.0,51619.0,1.0
14338.6976558,291137.65625,297668.03125,360197.40625,356330.90625,287959.15625,257308.734375,223540.078125,244996.671875,0.013916015625,0.99267578125,0.209228515625,0.4882812201976776,-1.3732908964157104,-0.8850097060203552,80.0,51620.0,1.0
14338.697657,291110.28125,297807.0625,360213.40625,356278.78125,287971.125,257306.5,223534.078125,244982.8125,0.01318359375,0.994140625,0.20849609375,0.4577636420726776,-1.4038084745407104,-0.9155272841453552,80.0,51621.0,1.0
14338.6976582,291083.65625,297611.625,360068.1875,356266.09375,287903.53125,257280.125,223508.328125,244970.03125,0.01123046875,0.9931640625,0.20849609375,0.4577636420726776,-1.4038084745407104,-1.0070799589157104,80.0,51622.0,1.0
14338.6976594,291079.8125,297323.28125,359926.21875,356290.65625,287826.375,257239.4375,223475.703125,244971.46875,0.011962890625,0.993896484375,0.20703125,0.4272460639476776,-1.3427733182907104,-1.1596678495407104,80.0,51623.0,1.0
14338.6976606,291114.5,297360.375,360000.96875,356323.46875,287853.65625,257243.734375,223485.53125,244972.359375,0.011474609375,0.994384765625,0.208251953125,0.5187987685203552,-1.4038084745407104,-1.3122557401657104,80.0,51624.0,1.0
14338.6976618,291125.3125,297654.4375,360172.28125,356312.5625,287943.84375,257290.671875,223533.640625,244985.765625,0.012451171875,0.997802734375,0.207275390625,0.5493163466453552,-1.4953612089157104,-1.4038084745407104,80.0,51625.0,1.0
14338.6991436,291099.65625,297809.28125,360205.875,356269.75,287970.40625,257312.21875,223540.703125,244971.546875,0.013916015625,0.997314453125,0.204345703125,0.5798339247703552,-1.5563963651657104,-1.4343260526657104,80.0,51626.0,1.0
14338.7016681,291069.625,297620.5625,360068.5625,356256.875,287903.71875,257283.796875,223511.734375,244964.484375,0.01318359375,0.99658203125,0.204833984375,0.5187987685203552,-1.6174315214157104,-1.4343260526657104,80.0,51627.0,1.0
14338.7053659,291067.125,297330.59375,359924.4375,356284.0625,287827.8125,257244.359375,223485.359375,244974.765625,0.012451171875,0.99755859375,0.20849609375,0.5187987685203552,-1.6479490995407104,-1.4648436307907104,80.0,51628.0,1.0
14338.7053771,291105.5625,297379.59375,360011.15625,356325.34375,287872.875,257276.28125,223512.0,244988.1875,0.01416015625,0.999267578125,0.20703125,0.4882812201976776,-1.6174315214157104,-1.3732908964157104,80.0,51629.0,1.0
14338.7053853,291121.5625,297677.25,360188.28125,356313.75,287961.84375,257315.890625,223544.90625,244992.203125,0.013427734375,0.99853515625,0.208251953125,0.4577636420726776,-1.6479490995407104,-1.3427733182907104,80.0,51630.0,1.0
14338.7079171,291121.5625,297677.25,360188.28125,356313.75,287961.84375,257315.890625,223544.90625,244992.203125,0.013427734375,0.99853515625,0.208251953125,0.4577636420726776,-1.6479490995407104,-1.3427733182907104,80.0,51631.0,0.0
14338.7079201,291121.5625,297677.25,360188.28125,356313.75,287961.84375,257315.890625,223544.90625,244992.203125,0.013427734375,0.99853515625,0.208251953125,0.4577636420726776,-1.6479490995407104,-1.3427733182907104,80.0,51632.0,0.0
14338.7079213,291121.5625,297677.25,360188.28125,356313.75,287961.84375,257315.890625,223544.90625,244992.203125,0.013427734375,0.99853515625,0.208251953125,0.4577636420726776,-1.6479490995407104,-1.3427733182907104,80.0,51633.0,0.0
14338.7079224,291121.5625,297677.25,360188.28125,356313.75,287961.84375,257315.890625,223544.90625,244992.203125,0.013427734375,0.99853515625,0.208251953125,0.4577636420726776,-1.6479490995407104,-1.3427733182907104,80.0,51634.0,0.0
14338.7079236,291121.5625,297677.25,360188.28125,356313.75,287961.84375,257315.890625,223544.90625,244992.203125,0.013427734375,0.99853515625,0.208251953125,0.4577636420726776,-1.6479490995407104,-1.3427733182907104,80.0,51635.0,0.0
14338.7079248,291121.5625,297677.25,360188.28125,356313.75,287961.84375,257315.890625,223544.90625,244992.203125,0.013427734375,0.99853515625,0.208251953125,0.4577636420726776,-1.6479490995407104,-1.3427733182907104,80.0,51636.0,0.0
14338.7079258,291121.5625,297677.25,360188.28125,356313.75,287961.84375,257315.890625,223544.90625,244992.203125,0.013427734375,0.99853515625,0.208251953125,0.4577636420726776,-1.6479490995407104,-1.3427733182907104,80.0,51637.0,0.0
14338.7079268,291121.5625,297677.25,360188.28125,356313.75,287961.84375,257315.890625,223544.90625,244992.203125,0.013427734375,0.99853515625,0.208251953125,0.4577636420726776,-1.6479490995407104,-1.3427733182907104,80.0,51638.0,0.0
14338.7079281,291121.5625,297677.25,360188.28125,356313.75,287961.84375,257315.890625,223544.90625,244992.203125,0.013427734375,0.99853515625,0.208251953125,0.4577636420726776,-1.6479490995407104,-1.3427733182907104,80.0,51639.0,0.0
14338.7079291,291121.5625,297677.25,360188.28125,356313.75,287961.84375,257315.890625,223544.90625,244992.203125,0.013427734375,0.99853515625,0.208251953125,0.4577636420726776,-1.6479490995407104,-1.3427733182907104,80.0,51640.0,0.0
14338.7079303,291099.21875,297827.1875,360200.53125,356269.46875,287967.1875,257332.515625,223556.890625,244992.125,0.0126953125,0.99560546875,0.205810546875,0.2746581733226776,-1.8310545682907104,-0.8850097060203552,80.0,51641.0,1.0
14338.7334665,291065.25,297626.09375,360052.5625,356251.40625,287895.3125,257298.1875,223522.46875,244986.21875,0.013427734375,0.99560546875,0.208984375,0.2136230319738388,-1.9226073026657104,-0.8239745497703552,80.0,51642.0,1.0
14338.7334704,291062.5625,297338.75,359908.875,356276.8125,287818.34375,257260.453125,223492.953125,244986.578125,0.01318359375,0.99755859375,0.20751953125,0.3356933295726776,-1.9531248807907104,-0.7019042372703552,80.0,51643.0,1.0
14338.7585126,291107.875,297394.1875,360000.34375,356322.5,287861.5,257288.96875,223523.53125,244995.609375,0.01416015625,0.996826171875,0.209228515625,0.2136230319738388,-1.8615721464157104,-0.6408690810203552,80.0,51644.0,1.0
14338.7585447,291132.1875,297694.21875,360179.4375,356316.96875,287950.84375,257333.046875,223557.953125,244993.375,0.011474609375,0.99365234375,0.208984375,0.1220703050494194,-1.9836424589157104,-0.6408690810203552,80.0,51645.0,1.0
14338.7804201,291111.46875,297850.34375,360213.65625,356275.65625,287980.4375,257355.40625,223572.984375,244997.84375,0.01025390625,0.994140625,0.20849609375,0.1831054538488388,-1.9836424589157104,-0.8239745497703552,80.0,51646.0,1.0
14338.7829029,291075.15625,297644.59375,360065.0625,356252.9375,287901.84375,257302.5625,223517.28125,244978.625,0.013671875,0.993896484375,0.207763671875,0.2746581733226776,-1.9226073026657104,-0.9155272841453552,80.0,51647.0,1.0
14338.7853947,291071.84375,297350.90625,359921.84375,356277.78125,287821.625,257241.859375,223479.09375,244977.90625,0.01513671875,0.99267578125,0.20361328125,0.2441406100988388,-1.9836424589157104,-0.8544921278953552,80.0,51648.0,1.0
14338.7912737,291109.03125,297384.4375,359995.34375,356321.25,287857.3125,257252.9375,223508.421875,245010.171875,0.015625,0.9951171875,0.207763671875,0.2746581733226776,-1.9531248807907104,-0.8850097060203552,80.0,51649.0,1.0
14338.7912787,291128.96875,297668.75,360160.46875,356309.875,287939.3125,257295.0625,223534.984375,244991.3125,0.018310546875,0.995849609375,0.208740234375,0.3662109076976776,-1.8310545682907104,-0.8544921278953552,80.0,51650.0,1.0
14338.7912802,291107.6875,297822.34375,360184.875,356262.875,287961.21875,257310.96875,223538.28125,244983.453125,0.017578125,0.9931640625,0.207275390625,0.3051757514476776,-1.7700194120407104,-0.8544921278953552,80.0,51651.0,1.0
14338.7912814,291086.6875,297643.34375,360053.90625,356252.9375,287899.6875,257282.984375,223516.65625,244979.15625,0.019287109375,0.9951171875,0.20849609375,0.2136230319738388,-1.6784666776657104,-0.8544921278953552,80.0,51652.0,1.0
14338.7912827,291083.125,297355.90625,359920.15625,356278.875,287824.84375,257250.4375,223489.109375,244977.453125,0.01953125,0.99462890625,0.208740234375,0.2136230319738388,-1.6479490995407104,-0.9155272841453552,80.0,51653.0,1.0
14338.7941092,291118.15625,297393.90625,360005.34375,356318.125,287864.03125,257269.75,223514.140625,244995.609375,0.020263671875,0.992431640625,0.206298828125,0.2746581733226776,-1.5563963651657104,-0.9155272841453552,80.0,51654.0,1.0
14338.7941161,291118.15625,297393.90625,360005.34375,356318.125,287864.03125,257269.75,223514.140625,244995.609375,0.020263671875,0.992431640625,0.206298828125,0.2746581733226776,-1.5563963651657104,-0.9155272841453552,80.0,51655.0,0.0
14338.7941163,291118.15625,297393.90625,360005.34375,356318.125,287864.03125,257269.75,223514.140625,244995.609375,0.020263671875,0.992431640625,0.206298828125,0.2746581733226776,-1.5563963651657104,-0.9155272841453552,80.0,51656.0,0.0
14338.7941165,291118.15625,297393.90625,360005.34375,356318.125,287864.03125,257269.75,223514.140625,244995.609375,0.020263671875,0.992431640625,0.206298828125,0.2746581733226776,-1.5563963651657104,-0.9155272841453552,80.0,51657.0,0.0
14338.7941167,291118.15625,297393.90625,360005.34375,356318.125,287864.03125,257269.75,223514.140625,244995.609375,0.020263671875,0.992431640625,0.206298828125,0.2746581733226776,-1.5563963651657104,-0.9155272841453552,80.0,51658.0,0.0
14338.7941169,291118.15625,297393.90625,360005.34375,356318.125,287864.03125,257269.75,223514.140625,244995.609375,0.020263671875,0.992431640625,0.206298828125,0.2746581733226776,-1.5563963651657104,-0.9155272841453552,80.0,51659.0,0.0
14338.7941171,291118.15625,297393.90625,360005.34375,356318.125,287864.03125,257269.75,223514.140625,244995.609375,0.020263671875,0.992431640625,0.206298828125,0.2746581733226776,-1.5563963651657104,-0.9155272841453552,80.0,51660.0,0.0
14338.7941174,291118.15625,297393.90625,360005.34375,356318.125,287864.03125,257269.75,223514.140625,244995.609375,0.020263671875,0.992431640625,0.206298828125,0.2746581733226776,-1.5563963651657104,-0.9155272841453552,80.0,51661.0,0.0
14338.7941176,291118.15625,297393.90625,360005.34375,356318.125,287864.03125,257269.75,223514.140625,244995.609375,0.020263671875,0.992431640625,0.206298828125,0.2746581733226776,-1.5563963651657104,-0.9155272841453552,80.0,51662.0,0.0
14338.7941177,291118.15625,297393.90625,360005.34375,356318.125,287864.03125,257269.75,223514.140625,244995.609375,0.020263671875,0.992431640625,0.206298828125,0.2746581733226776,-1.5563963651657104,-0.9155272841453552,80.0,51663.0,0.0
14338.7941179,291118.15625,297393.90625,360005.34375,356318.125,287864.03125,257269.75,223514.140625,244995.609375,0.020263671875,0.992431640625,0.206298828125,0.2746581733226776,-1.5563963651657104,-0.9155272841453552,80.0,51664.0,0.0
14338.7941181,291118.15625,297393.90625,360005.34375,356318.125,287864.03125,257269.75,223514.140625,244995.609375,0.020263671875,0.992431640625,0.206298828125,0.2746581733226776,-1.5563963651657104,-0.9155272841453552,80.0,51665.0,0.0
14338.7941183,291118.15625,297393.90625,360005.34375,356318.125,287864.03125,257269.75,223514.140625,244995.609375,0.020263671875,0.992431640625,0.206298828125,0.2746581733226776,-1.5563963651657104,-0.9155272841453552,80.0,51666.0,0.0
14338.7941184,291118.15625,297393.90625,360005.34375,356318.125,287864.03125,257269.75,223514.140625,244995.609375,0.020263671875,0.992431640625,0.206298828125,0.2746581733226776,-1.5563963651657104,-0.9155272841453552,80.0,51667.0,0.0
14338.7941186,291118.15625,297393.90625,360005.34375,356318.125,287864.03125,257269.75,223514.140625,244995.609375,0.020263671875,0.992431640625,0.206298828125,0.2746581733226776,-1.5563963651657104,-0.9155272841453552,80.0,51668.0,0.0
14338.7941188,291118.15625,297393.90625,360005.34375,356318.125,287864.03125,257269.75,223514.140625,244995.609375,0.020263671875,0.992431640625,0.206298828125,0.2746581733226776,-1.5563963651657104,-0.9155272841453552,80.0,51669.0,0.0
14338.7941189,291118.15625,297393.90625,360005.34375,356318.125,287864.03125,257269.75,223514.140625,244995.609375,0.020263671875,0.992431640625,0.206298828125,0.2746581733226776,-1.5563963651657104,-0.9155272841453552,80.0,51670.0,0.0
14338.7941191,291118.15625,297393.90625,360005.34375,356318.125,287864.03125,257269.75,223514.140625,244995.609375,0.020263671875,0.992431640625,0.206298828125,0.2746581733226776,-1.5563963651657104,-0.9155272841453552,80.0,51671.0,0.0
14338.7941193,291118.15625,297393.90625,360005.34375,356318.125,287864.03125,257269.75,223514.140625,244995.609375,0.020263671875,0.992431640625,0.206298828125,0.2746581733226776,-1.5563963651657104,-0.9155272841453552,80.0,51672.0,0.0
14338.7941195,291118.15625,297393.90625,360005.34375,356318.125,287864.03125,257269.75,223514.140625,244995.609375,0.020263671875,0.992431640625,0.206298828125,0.2746581733226776,-1.5563963651657104,-0.9155272841453552,80.0,51673.0,0.0
14338.7941197,291118.15625,297393.90625,360005.34375,356318.125,287864.03125,257269.75,223514.140625,244995.609375,0.020263671875,0.992431640625,0.206298828125,0.2746581733226776,-1.5563963651657104,-0.9155272841453552,80.0,51674.0,0.0
14338.7941198,291118.15625,297393.90625,360005.34375,356318.125,287864.03125,257269.75,223514.140625,244995.609375,0.020263671875,0.992431640625,0.206298828125,0.2746581733226776,-1.5563963651657104,-0.9155272841453552,80.0,51675.0,0.0
14338.79412,291118.15625,297393.90625,360005.34375,356318.125,287864.03125,257269.75,223514.140625,244995.609375,0.020263671875,0.992431640625,0.206298828125,0.2746581733226776,-1.5563963651657104,-0.9155272841453552,80.0,51676.0,0.0
14338.7941202,291118.15625,297393.90625,360005.34375,356318.125,287864.03125,257269.75,223514.140625,244995.609375,0.020263671875,0.992431640625,0.206298828125,0.2746581733226776,-1.5563963651657104,-0.9155272841453552,80.0,51677.0,0.0
14338.7941203,291118.15625,297393.90625,360005.34375,356318.125,287864.03125,257269.75,223514.140625,244995.609375,0.020263671875,0.992431640625,0.206298828125,0.2746581733226776,-1.5563963651657104,-0.9155272841453552,80.0,51678.0,0.0
14338.7941205,291118.15625,297393.90625,360005.34375,356318.125,287864.03125,257269.75,223514.140625,244995.609375,0.020263671875,0.992431640625,0.206298828125,0.2746581733226776,-1.5563963651657104,-0.9155272841453552,80.0,51679.0,0.0
14338.7941207,291118.15625,297393.90625,360005.34375,356318.125,287864.03125,257269.75,223514.140625,244995.609375,0.020263671875,0.992431640625,0.206298828125,0.2746581733226776,-1.5563963651657104,-0.9155272841453552,80.0,51680.0,0.0
14338.7941209,291118.15625,297393.90625,360005.34375,356318.125,287864.03125,257269.75,223514.140625,244995.609375,0.020263671875,0.992431640625,0.206298828125,0.2746581733226776,-1.5563963651657104,-0.9155272841453552,80.0,51681.0,0.0
14338.794121,291118.15625,297393.90625,360005.34375,356318.125,287864.03125,257269.75,223514.140625,244995.609375,0.020263671875,0.992431640625,0.206298828125,0.2746581733226776,-1.5563963651657104,-0.9155272841453552,80.0,51682.0,0.0
14338.7941212,291118.15625,297393.90625,360005.34375,356318.125,287864.03125,257269.75,223514.140625,244995.609375,0.020263671875,0.992431640625,0.206298828125,0.2746581733226776,-1.5563963651657104,-0.9155272841453552,80.0,51683.0,0.0
14338.7941214,291118.15625,297393.90625,360005.34375,356318.125,287864.03125,257269.75,223514.140625,244995.609375,0.020263671875,0.992431640625,0.206298828125,0.2746581733226776,-1.5563963651657104,-0.9155272841453552,80.0,51684.0,0.0
14338.7941216,291118.15625,297393.90625,360005.34375,356318.125,287864.03125,257269.75,223514.140625,244995.609375,0.020263671875,0.992431640625,0.206298828125,0.2746581733226776,-1.5563963651657104,-0.9155272841453552,80.0,51685.0,0.0
14338.7941217,291118.15625,297393.90625,360005.34375,356318.125,287864.03125,257269.75,223514.140625,244995.609375,0.020263671875,0.992431640625,0.206298828125,0.2746581733226776,-1.5563963651657104,-0.9155272841453552,80.0,51686.0,0.0
14338.7941219,291118.15625,297393.90625,360005.34375,356318.125,287864.03125,257269.75,223514.140625,244995.609375,0.020263671875,0.992431640625,0.206298828125,0.2746581733226776,-1.5563963651657104,-0.9155272841453552,80.0,51687.0,0.0
14338.7941221,291118.15625,297393.90625,360005.34375,356318.125,287864.03125,257269.75,223514.140625,244995.609375,0.020263671875,0.992431640625,0.206298828125,0.2746581733226776,-1.5563963651657104,-0.9155272841453552,80.0,51688.0,0.0
14338.7941222,291118.15625,297393.90625,360005.34375,356318.125,287864.03125,257269.75,223514.140625,244995.609375,0.020263671875,0.992431640625,0.206298828125,0.2746581733226776,-1.5563963651657104,-0.9155272841453552,80.0,51689.0,0.0
14338.7941224,291118.15625,297393.90625,360005.34375,356318.125,287864.03125,257269.75,223514.140625,244995.609375,0.020263671875,0.992431640625,0.206298828125,0.2746581733226776,-1.5563963651657104,-0.9155272841453552,80.0,51690.0,0.0
14338.7941226,291118.15625,297393.90625,360005.34375,356318.125,287864.03125,257269.75,223514.140625,244995.609375,0.020263671875,0.992431640625,0.206298828125,0.2746581733226776,-1.5563963651657104,-0.9155272841453552,80.0,51691.0,0.0
14338.7941228,291118.15625,297393.90625,360005.34375,356318.125,287864.03125,257269.75,223514.140625,244995.609375,0.020263671875,0.992431640625,0.206298828125,0.2746581733226776,-1.5563963651657104,-0.9155272841453552,80.0,51692.0,0.0
14338.7941229,291067.65625,297333.8125,359905.125,356242.21875,287822.8125,257234.265625,223503.5,244988.09375,0.013916015625,0.9970703125,0.2060546875,0.2136230319738388,-1.8920897245407104,-1.7700194120407104,80.0,51693.0,1.0
14338.7941242,291099.3125,297359.40625,359973.53125,356279.75,287850.96875,257250.078125,223527.375,245000.703125,0.01171875,0.997802734375,0.205078125,0.2441406100988388,-1.8615721464157104,-1.8005369901657104,80.0,51694.0,1.0
14338.7966653,291114.84375,297641.375,360133.5625,356269.375,287930.96875,257282.625,223560.109375,245003.734375,0.010986328125,0.998291015625,0.20556640625,0.2136230319738388,-1.8615721464157104,-1.8310545682907104,80.0,51695.0,1.0
14338.7991507,291098.40625,297811.0,360182.03125,356225.84375,287961.5625,257297.921875,223560.90625,244981.390625,0.0126953125,0.998779296875,0.207275390625,0.2136230319738388,-1.9226073026657104,-1.8005369901657104,80.0,51696.0,1.0
14338.8016586,291073.375,297626.8125,360050.78125,356214.21875,287899.875,257276.453125,223534.078125,244979.6875,0.012451171875,0.99609375,0.2041015625,0.0915527269244194,-1.8920897245407104,-1.8310545682907104,80.0,51697.0,1.0
14338.8266713,291066.21875,297326.59375,359895.65625,356237.28125,287816.28125,257232.296875,223505.03125,244989.171875,0.01220703125,0.9951171875,0.207763671875,0.0915527269244194,-1.9226073026657104,-1.7700194120407104,80.0,51698.0,1.0
14338.8516684,291095.0,297341.59375,359948.84375,356271.28125,287841.9375,257246.59375,223528.09375,245006.6875,0.01171875,0.9951171875,0.203857421875,0.3051757514476776,-1.9531248807907104,-1.6479490995407104,80.0,51699.0,1.0
14338.8766517,291113.5,297635.5625,360124.71875,356263.5,287935.71875,257301.3125,223574.9375,245010.984375,0.010986328125,0.99560546875,0.205322265625,0.3051757514476776,-1.9226073026657104,-1.6174315214157104,80.0,51700.0,1.0
14338.9103887,291093.21875,297806.25,360171.8125,356221.1875,287965.6875,257301.84375,223571.1875,244994.171875,0.010498046875,0.995849609375,0.20654296875,0.3662109076976776,-2.014159917831421,-1.5869139432907104,80.0,51701.0,1.0
14338.939174,291063.1875,297627.625,360037.90625,356201.71875,287897.09375,257261.078125,223527.640625,244977.546875,0.011962890625,0.9970703125,0.202392578125,0.2746581733226776,-2.075195074081421,-1.4648436307907104,80.0,51702.0,1.0
14338.9641606,291061.9375,297340.25,359898.25,356229.34375,287822.34375,257231.578125,223504.765625,244987.46875,0.01220703125,0.995849609375,0.207275390625,0.2441406100988388,-2.014159917831421,-1.3732908964157104,80.0,51703.0,1.0
14338.9891571,291098.125,297363.96875,359964.84375,356271.53125,287853.375,257259.5625,223539.265625,245009.734375,0.01171875,0.99755859375,0.205078125,0.1831054538488388,-1.9226073026657104,-1.3427733182907104,80.0,51704.0,1.0
14339.0091308,291115.75,297646.3125,360126.6875,356261.0625,287935.28125,257312.9375,223584.875,245011.15625,0.01171875,0.994873046875,0.202880859375,0.2441406100988388,-2.014159917831421,-1.3427733182907104,80.0,51705.0,1.0
14339.0209861,291097.59375,297813.6875,360172.71875,356215.65625,287962.09375,257322.953125,223585.40625,244998.28125,0.010009765625,0.99365234375,0.202392578125,0.3356933295726776,-2.044677495956421,-1.3122557401657104,80.0,51706.0,1.0
14339.0209917,291066.5625,297619.21875,360030.5625,356198.125,287887.625,257271.625,223538.734375,244987.5625,0.008544921875,0.993408203125,0.20263671875,0.3662109076976776,-1.9836424589157104,-1.3427733182907104,80.0,51707.0,1.0
14339.020993,291068.375,297329.96875,359886.875,356227.46875,287809.3125,257225.765625,223507.53125,244987.734375,0.00927734375,0.9951171875,0.206787109375,0.3662109076976776,-2.014159917831421,-1.3732908964157104,80.0,51708.0,1.0
14339.0209942,291096.78125,297352.0625,359956.0,356262.9375,287837.09375,257241.859375,223526.21875,244997.84375,0.010498046875,0.993408203125,0.2080078125,0.2441406100988388,-2.044677495956421,-1.3732908964157104,80.0,51709.0,1.0
14339.0209954,291112.4375,297638.0,360122.75,356249.4375,287922.125,257286.828125,223565.375,244993.546875,0.01220703125,0.99560546875,0.205810546875,0.1525878757238388,-2.166747808456421,-1.3427733182907104,80.0,51710.0,1.0
14339.0209967,291098.6875,297812.6875,360167.4375,356209.03125,287955.5625,257315.984375,223582.453125,244977.015625,0.01123046875,0.994873046875,0.204833984375,0.0915527269244194,-2.136230230331421,-1.3122557401657104,80.0,51711.0,1.0
14339.0209979,291077.75,297640.03125,360042.71875,356203.59375,287900.6875,257286.828125,223555.546875,244983.09375,0.010498046875,0.995361328125,0.203125,0.1220703050494194,-2.197265386581421,-1.4038084745407104,80.0,51712.0,1.0
14339.020999,291075.4375,297346.4375,359900.21875,356231.75,287822.625,257233.0,223518.53125,244995.96875,0.01025390625,0.994140625,0.203857421875,0.0915527269244194,-2.136230230331421,-1.3732908964157104,80.0,51713.0,1.0
14339.0210002,291105.125,297360.375,359957.0625,356261.4375,287843.46875,257245.703125,223535.15625,245005.171875,0.01123046875,0.9970703125,0.202880859375,0.1525878757238388,-2.105712652206421,-1.3732908964157104,80.0,51714.0,1.0
14339.0210014,291115.9375,297639.96875,360116.46875,356245.0625,287918.46875,257276.453125,223565.203125,244993.375,0.0126953125,0.9970703125,0.203125,0.1525878757238388,-2.166747808456421,-1.2817381620407104,80.0,51715.0,1.0
14339.0210026,291105.1875,297810.90625,360157.96875,356209.84375,287952.71875,257306.953125,223581.65625,244985.234375,0.013427734375,0.997802734375,0.2060546875,0.1525878757238388,-2.044677495956421,-1.4038084745407104,80.0,51716.0,1.0
14339.0210038,291076.21875,297622.78125,360017.59375,356193.21875,287885.125,257277.890625,223550.53125,244983.890625,0.015380859375,0.99658203125,0.205322265625,0.1220703050494194,-2.014159917831421,-1.3427733182907104,80.0,51717.0,1.0
14339.021005,291076.84375,297334.09375,359871.875,356220.3125,287808.40625,257233.984375,223515.21875,244987.109375,0.014892578125,0.996337890625,0.205810546875,0.0610351525247097,-1.9531248807907104,-1.3427733182907104,80.0,51718.0,1.0
14339.0210062,291114.9375,297369.21875,359953.3125,356267.0625,287850.96875,257256.609375,223545.4375,245014.5625,0.014892578125,0.99609375,0.20361328125,0.0915527269244194,-1.8615721464157104,-1.3427733182907104,80.0,51719.0,1.0
14339.0240897,291131.84375,297667.03125,360137.21875,356258.21875,287945.03125,257315.796875,223588.796875,245010.265625,0.012939453125,0.995361328125,0.201904296875,0.03051757626235485,-1.8615721464157104,-1.2817381620407104,80.0,51720.0,1.0
14339.0241054,291104.3125,297825.28125,360175.9375,356210.46875,287969.4375,257327.875,223590.765625,244995.0625,0.015380859375,0.9951171875,0.203369140625,0.0915527269244194,-1.7395018339157104,-1.2817381620407104,80.0,51721.0,1.0
14339.0241066,291077.03125,297637.90625,360036.65625,356196.0625,287904.25,257290.859375,223560.28125,244997.21875,0.0146484375,0.9951171875,0.20458984375,0.1525878757238388,-1.8615721464157104,-1.3122557401657104,80.0,51722.0,1.0
14339.0266833,291076.21875,297345.8125,359883.9375,356222.8125,287823.78125,257252.40625,223531.578125,245003.65625,0.0126953125,0.993896484375,0.205810546875,0.2136230319738388,-1.7700194120407104,-1.3732908964157104,80.0,51723.0,1.0
14339.029758,291105.375,297359.3125,359939.90625,356260.0,287848.8125,257259.734375,223548.296875,245026.625,0.01220703125,0.99462890625,0.2041015625,0.1831054538488388,-1.6784666776657104,-1.3427733182907104,80.0,51724.0,1.0
14339.0297613,291127.71875,297654.875,360120.15625,356252.3125,287940.625,257311.59375,223581.375,245007.3125,0.0126953125,0.994873046875,0.207763671875,0.0915527269244194,-1.6784666776657104,-1.3732908964157104,80.0,51725.0,1.0
14339.0584058,291104.5625,297808.65625,360147.96875,356204.9375,287958.78125,257301.21875,223573.875,244986.484375,0.012451171875,0.992431640625,0.20849609375,0.0915527269244194,-1.6784666776657104,-1.3427733182907104,80.0,51726.0,1.0
14339.0584126,291080.0625,297630.3125,360017.15625,356191.4375,287893.875,257262.59375,223534.359375,244975.75,0.011474609375,0.992431640625,0.2060546875,0.03051757626235485,-1.6479490995407104,-1.3427733182907104,80.0,51727.0,1.0
14339.0584138,291076.59375,297332.84375,359873.21875,356221.90625,287820.21875,257234.53125,223517.984375,244989.703125,0.01123046875,0.99267578125,0.204833984375,0.0610351525247097,-1.5563963651657104,-1.3122557401657104,80.0,51728.0,1.0
14339.0584151,291118.4375,297367.71875,359948.5625,356268.3125,287859.09375,257272.4375,223564.125,245019.828125,0.009521484375,0.99462890625,0.206787109375,0.1220703050494194,-1.5869139432907104,-1.3732908964157104,80.0,51729.0,1.0
14339.0584162,291137.28125,297669.28125,360132.21875,356256.34375,287949.59375,257327.0625,223600.0625,245009.375,0.01025390625,0.994873046875,0.205322265625,0.1525878757238388,-1.6174315214157104,-1.3732908964157104,80.0,51730.0,1.0
14339.0584174,291111.28125,297829.5,360172.375,356208.6875,287969.78125,257309.8125,223587.90625,244991.9375,0.00927734375,0.995849609375,0.20849609375,0.1525878757238388,-1.7089842557907104,-1.4343260526657104,80.0,51731.0,1.0
14339.0584186,291078.1875,297634.875,360031.53125,356192.15625,287898.25,257263.3125,223552.6875,244986.390625,0.009765625,0.99609375,0.20556640625,0.2136230319738388,-1.8310545682907104,-1.5258787870407104,80.0,51732.0,1.0
14339.0584204,291078.1875,297634.875,360031.53125,356192.15625,287898.25,257263.3125,223552.6875,244986.390625,0.009765625,0.99609375,0.20556640625,0.2136230319738388,-1.8310545682907104,-1.5258787870407104,80.0,51733.0,0.0
14339.0584206,291078.1875,297634.875,360031.53125,356192.15625,287898.25,257263.3125,223552.6875,244986.390625,0.009765625,0.99609375,0.20556640625,0.2136230319738388,-1.8310545682907104,-1.5258787870407104,80.0,51734.0,0.0
14339.0584208,291078.1875,297634.875,360031.53125,356192.15625,287898.25,257263.3125,223552.6875,244986.390625,0.009765625,0.99609375,0.20556640625,0.2136230319738388,-1.8310545682907104,-1.5258787870407104,80.0,51735.0,0.0
14339.058421,291078.1875,297634.875,360031.53125,356192.15625,287898.25,257263.3125,223552.6875,244986.390625,0.009765625,0.99609375,0.20556640625,0.2136230319738388,-1.8310545682907104,-1.5258787870407104,80.0,51736.0,0.0
14339.0584211,291078.1875,297634.875,360031.53125,356192.15625,287898.25,257263.3125,223552.6875,244986.390625,0.009765625,0.99609375,0.20556640625,0.2136230319738388,-1.8310545682907104,-1.5258787870407104,80.0,51737.0,0.0
14339.0584213,291078.1875,297634.875,360031.53125,356192.15625,287898.25,257263.3125,223552.6875,244986.390625,0.009765625,0.99609375,0.20556640625,0.2136230319738388,-1.8310545682907104,-1.5258787870407104,80.0,51738.0,0.0
14339.0584215,291078.1875,297634.875,360031.53125,356192.15625,287898.25,257263.3125,223552.6875,244986.390625,0.009765625,0.99609375,0.20556640625,0.2136230319738388,-1.8310545682907104,-1.5258787870407104,80.0,51739.0,0.0
14339.0584216,291078.1875,297634.875,360031.53125,356192.15625,287898.25,257263.3125,223552.6875,244986.390625,0.009765625,0.99609375,0.20556640625,0.2136230319738388,-1.8310545682907104,-1.5258787870407104,80.0,51740.0,0.0
14339.0584218,291078.1875,297634.875,360031.53125,356192.15625,287898.25,257263.3125,223552.6875,244986.390625,0.009765625,0.99609375,0.20556640625,0.2136230319738388,-1.8310545682907104,-1.5258787870407104,80.0,51741.0,0.0
14339.058422,291078.1875,297634.875,360031.53125,356192.15625,287898.25,257263.3125,223552.6875,244986.390625,0.009765625,0.99609375,0.20556640625,0.2136230319738388,-1.8310545682907104,-1.5258787870407104,80.0,51742.0,0.0
14339.0584222,291078.1875,297634.875,360031.53125,356192.15625,287898.25,257263.3125,223552.6875,244986.390625,0.009765625,0.99609375,0.20556640625,0.2136230319738388,-1.8310545682907104,-1.5258787870407104,80.0,51743.0,0.0
14339.0584223,291078.1875,297634.875,360031.53125,356192.15625,287898.25,257263.3125,223552.6875,244986.390625,0.009765625,0.99609375,0.20556640625,0.2136230319738388,-1.8310545682907104,-1.5258787870407104,80.0,51744.0,0.0
14339.0584225,291125.3125,297643.875,360098.5,356237.125,287938.59375,257298.625,223602.03125,245015.546875,0.010986328125,0.996337890625,0.205322265625,0.1220703050494194,-2.258300542831421,-1.3427733182907104,80.0,51745.0,1.0
