Time,FZ,C3,CZ,C4,PZ,PO7,OZ,PO8,AccX,AccY,AccZ,Gyro1,Gyro2,Gyro3,Battery,Counter,Validation
14931.1920923,294875.5,294980.53125,326493.1875,319818.53125,285175.46875,255791.234375,221678.625,246253.5625,0.0078125,0.99169921875,0.06982421875,-0.7324218153953552,-1.2817381620407104,-0.5798339247703552,73.33333587646484,199722.0,1.0
14931.2395463,294884.4375,295288.5625,326699.625,319799.03125,285320.125,255836.375,221731.28125,246252.40625,0.00830078125,0.991455078125,0.072998046875,-0.6408690810203552,-1.4953612089157104,-0.5798339247703552,73.33333587646484,199723.0,1.0
14931.2646271,294856.34375,295278.28125,326665.3125,319763.8125,285311.71875,255835.21875,221714.390625,246235.859375,0.010498046875,0.989501953125,0.073974609375,-0.6713866591453552,-1.6174315214157104,-0.3967284858226776,73.33333587646484,199724.0,1.0
14931.2896031,294824.53125,294956.6875,326445.28125,319752.90625,285161.6875,255764.59375,221642.859375,246219.671875,0.0107421875,0.98779296875,0.0673828125,-0.6408690810203552,-1.7395018339157104,-0.1220703050494194,73.33333587646484,199725.0,1.0
14931.3146201,294829.09375,294746.03125,326317.0625,319780.53125,285059.3125,255725.96875,221617.5625,246227.984375,0.0107421875,0.987548828125,0.069091796875,-0.4882812201976776,-2.014159917831421,0.0,73.33333587646484,199726.0,1.0
14931.3458131,294863.59375,294953.46875,326468.0,319807.53125,285151.6875,255782.015625,221676.125,246249.1875,0.012451171875,0.98681640625,0.067138671875,-0.4272460639476776,-2.319335699081421,0.1831054538488388,73.33333587646484,199727.0,1.0
14931.3708901,294871.125,295257.71875,326653.40625,319787.6875,285285.6875,255836.828125,221727.890625,246246.9375,0.01513671875,0.984619140625,0.071044921875,-0.3356933295726776,-2.502441167831421,0.2441406100988388,73.33333587646484,199728.0,1.0
14931.398039,294845.4375,295248.21875,326610.0625,319752.8125,285276.59375,255835.671875,221718.671875,246228.890625,0.01708984375,0.98681640625,0.06640625,-0.1831054538488388,-2.624511480331421,0.2441406100988388,73.33333587646484,199729.0,1.0
14931.3980481,294819.25,294942.625,326400.3125,319748.5,285137.09375,255761.015625,221642.59375,246213.6875,0.017822265625,0.98486328125,0.065673828125,-0.0610351525247097,-2.746581792831421,0.4882812201976776,73.33333587646484,199730.0,1.0
14931.3980494,294822.75,294737.96875,326283.90625,319775.0625,285040.53125,255710.046875,221606.734375,246222.0,0.0234375,0.983154296875,0.068359375,0.1220703050494194,-2.777099370956421,0.4272460639476776,73.33333587646484,199731.0,1.0
14931.3980518,294852.25,294924.84375,326429.90625,319797.59375,285125.5625,255754.84375,221659.40625,246239.609375,0.026611328125,0.98193359375,0.0693359375,0.3967284858226776,-2.624511480331421,0.3051757514476776,73.33333587646484,199732.0,1.0
14931.3980531,294865.46875,295233.84375,326611.75,319782.84375,285257.09375,255812.59375,221707.5,246239.078125,0.029541015625,0.981689453125,0.06640625,0.5187987685203552,-2.380370855331421,0.2136230319738388,73.33333587646484,199733.0,1.0
14931.3980544,294835.34375,295224.0,326574.65625,319747.875,285251.625,255809.5625,221694.890625,246225.046875,0.0341796875,0.98193359375,0.0693359375,0.7629393935203552,-2.288818120956421,0.2136230319738388,73.33333587646484,199734.0,1.0
14931.3980556,294810.40625,294915.46875,326361.6875,319744.03125,285116.28125,255756.1875,221640.890625,246218.78125,0.035888671875,0.981689453125,0.068603515625,0.9765624403953552,-2.075195074081421,0.2136230319738388,73.33333587646484,199735.0,1.0
14931.4208684,294828.1875,294742.0,326278.53125,319783.5625,285046.1875,255727.484375,221624.171875,246233.0,0.03564453125,0.9814453125,0.06689453125,1.1596678495407104,-1.9226073026657104,0.1220703050494194,73.33333587646484,199736.0,1.0
14931.4433298,294868.6875,294959.96875,326454.65625,319814.40625,285154.53125,255775.3125,221683.265625,246253.109375,0.035888671875,0.984375,0.068359375,1.3732908964157104,-1.7089842557907104,-0.1831054538488388,73.33333587646484,199737.0,1.0
14931.4458285,294878.4375,295261.0,326648.6875,319794.46875,285294.28125,255839.421875,221737.71875,246252.84375,0.0361328125,0.985595703125,0.0693359375,1.4953612089157104,-1.3427733182907104,-0.3356933295726776,73.33333587646484,199738.0,1.0
14931.4483087,294850.71875,295247.78125,326609.15625,319757.71875,285284.96875,255834.6875,221720.46875,246236.578125,0.037841796875,0.9873046875,0.071533203125,1.7395018339157104,-0.9155272841453552,-0.5187987685203552,73.33333587646484,199739.0,1.0
14931.4508046,294822.03125,294925.65625,326381.34375,319750.46875,285131.46875,255750.28125,221641.34375,246221.28125,0.03857421875,0.990478515625,0.0703125,1.8005369901657104,-0.5798339247703552,-0.8544921278953552,73.33333587646484,199740.0,1.0
14931.453289,294829.4375,294728.34375,326270.21875,319781.40625,285038.59375,255706.46875,221612.453125,246227.984375,0.040283203125,0.991943359375,0.072021484375,1.8005369901657104,-0.1831054538488388,-0.9155272841453552,73.33333587646484,199741.0,1.0
14931.4559229,294868.59375,294952.46875,326455.65625,319815.03125,285149.25,255765.921875,221674.234375,246251.0625,0.0400390625,0.994140625,0.070068359375,1.9226073026657104,0.1220703050494194,-1.0986326932907104,73.33333587646484,199742.0,1.0
14931.4826971,294874.25,295256.625,326657.34375,319793.75,285289.46875,255823.6875,221724.484375,246248.203125,0.036865234375,0.992919921875,0.069580078125,1.8920897245407104,0.4272460639476776,-1.3732908964157104,73.33333587646484,199743.0,1.0
14931.4827028,294836.5,295225.625,326602.1875,319747.4375,285263.875,255806.15625,221694.796875,246222.625,0.036376953125,0.9912109375,0.071044921875,1.9226073026657104,0.8239745497703552,-1.4953612089157104,73.33333587646484,199744.0,1.0
14931.482704,294799.75,294902.3125,326367.5,319733.21875,285104.375,255737.578125,221622.390625,246204.125,0.032958984375,0.99267578125,0.0693359375,1.9226073026657104,1.1291502714157104,-1.6479490995407104,73.33333587646484,199745.0,1.0
14931.4827053,294814.4375,294718.84375,326267.8125,319771.21875,285022.125,255714.78125,221605.125,246213.6875,0.029541015625,0.992431640625,0.07275390625,1.8920897245407104,1.2207030057907104,-1.7395018339157104,73.33333587646484,199746.0,1.0
14931.4827065,294864.84375,294954.0,326458.875,319812.71875,285143.71875,255783.0,221678.359375,246248.46875,0.025634765625,0.9921875,0.06982421875,1.8310545682907104,1.2512205839157104,-1.8615721464157104,73.33333587646484,199747.0,1.0
14931.4827077,294894.71875,295282.125,326681.21875,319814.9375,285307.4375,255858.828125,221750.953125,246270.28125,0.020263671875,0.991455078125,0.068115234375,1.7395018339157104,1.3427733182907104,-1.8920897245407104,73.33333587646484,199748.0,1.0
14931.5081969,294862.34375,295256.625,326631.96875,319770.6875,285284.96875,255835.671875,221718.671875,246243.015625,0.016845703125,0.991455078125,0.067138671875,1.7700194120407104,1.2512205839157104,-1.8310545682907104,73.33333587646484,199749.0,1.0
14931.5082058,294862.34375,295256.625,326631.96875,319770.6875,285284.96875,255835.671875,221718.671875,246243.015625,0.016845703125,0.991455078125,0.067138671875,1.7700194120407104,1.2512205839157104,-1.8310545682907104,73.33333587646484,199750.0,0.0
14931.508206,294862.34375,295256.625,326631.96875,319770.6875,285284.96875,255835.671875,221718.671875,246243.015625,0.016845703125,0.991455078125,0.067138671875,1.7700194120407104,1.2512205839157104,-1.8310545682907104,73.33333587646484,199751.0,0.0
14931.5082062,294862.34375,295256.625,326631.96875,319770.6875,285284.96875,255835.671875,221718.671875,246243.015625,0.016845703125,0.991455078125,0.067138671875,1.7700194120407104,1.2512205839157104,-1.8310545682907104,73.33333587646484,199752.0,0.0
14931.5082065,294862.34375,295256.625,326631.96875,319770.6875,285284.96875,255835.671875,221718.671875,246243.015625,0.016845703125,0.991455078125,0.067138671875,1.7700194120407104,1.2512205839157104,-1.8310545682907104,73.33333587646484,199753.0,0.0
14931.5082067,294862.34375,295256.625,326631.96875,319770.6875,285284.96875,255835.671875,221718.671875,246243.015625,0.016845703125,0.991455078125,0.067138671875,1.7700194120407104,1.2512205839157104,-1.8310545682907104,73.33333587646484,199754.0,0.0
14931.5082068,294862.34375,295256.625,326631.96875,319770.6875,285284.96875,255835.671875,221718.671875,246243.015625,0.016845703125,0.991455078125,0.067138671875,1.7700194120407104,1.2512205839157104,-1.8310545682907104,73.33333587646484,199755.0,0.0
14931.508207,294862.34375,295256.625,326631.96875,319770.6875,285284.96875,255835.671875,221718.671875,246243.015625,0.016845703125,0.991455078125,0.067138671875,1.7700194120407104,1.2512205839157104,-1.8310545682907104,73.33333587646484,199756.0,0.0
14931.5082072,294862.34375,295256.625,326631.96875,319770.6875,285284.96875,255835.671875,221718.671875,246243.015625,0.016845703125,0.991455078125,0.067138671875,1.7700194120407104,1.2512205839157104,-1.8310545682907104,73.33333587646484,199757.0,0.0
14931.5082073,294862.34375,295256.625,326631.96875,319770.6875,285284.96875,255835.671875,221718.671875,246243.015625,0.016845703125,0.991455078125,0.067138671875,1.7700194120407104,1.2512205839157104,-1.8310545682907104,73.33333587646484,199758.0,0.0
14931.5082075,294862.34375,295256.625,326631.96875,319770.6875,285284.96875,255835.671875,221718.671875,246243.015625,0.016845703125,0.991455078125,0.067138671875,1.7700194120407104,1.2512205839157104,-1.8310545682907104,73.33333587646484,199759.0,0.0
14931.5082077,294862.34375,295256.625,326631.96875,319770.6875,285284.96875,255835.671875,221718.671875,246243.015625,0.016845703125,0.991455078125,0.067138671875,1.7700194120407104,1.2512205839157104,-1.8310545682907104,73.33333587646484,199760.0,0.0
14931.5082078,294862.34375,295256.625,326631.96875,319770.6875,285284.96875,255835.671875,221718.671875,246243.015625,0.016845703125,0.991455078125,0.067138671875,1.7700194120407104,1.2512205839157104,-1.8310545682907104,73.33333587646484,199761.0,0.0
14931.508208,294862.34375,295256.625,326631.96875,319770.6875,285284.96875,255835.671875,221718.671875,246243.015625,0.016845703125,0.991455078125,0.067138671875,1.7700194120407104,1.2512205839157104,-1.8310545682907104,73.33333587646484,199762.0,0.0
14931.5082082,294862.34375,295256.625,326631.96875,319770.6875,285284.96875,255835.671875,221718.671875,246243.015625,0.016845703125,0.991455078125,0.067138671875,1.7700194120407104,1.2512205839157104,-1.8310545682907104,73.33333587646484,199763.0,0.0
14931.5082084,294862.34375,295256.625,326631.96875,319770.6875,285284.96875,255835.671875,221718.671875,246243.015625,0.016845703125,0.991455078125,0.067138671875,1.7700194120407104,1.2512205839157104,-1.8310545682907104,73.33333587646484,199764.0,0.0
14931.5082085,294862.34375,295256.625,326631.96875,319770.6875,285284.96875,255835.671875,221718.671875,246243.015625,0.016845703125,0.991455078125,0.067138671875,1.7700194120407104,1.2512205839157104,-1.8310545682907104,73.33333587646484,199765.0,0.0
14931.5082087,294862.34375,295256.625,326631.96875,319770.6875,285284.96875,255835.671875,221718.671875,246243.015625,0.016845703125,0.991455078125,0.067138671875,1.7700194120407104,1.2512205839157104,-1.8310545682907104,73.33333587646484,199766.0,0.0
14931.5082089,294862.34375,295256.625,326631.96875,319770.6875,285284.96875,255835.671875,221718.671875,246243.015625,0.016845703125,0.991455078125,0.067138671875,1.7700194120407104,1.2512205839157104,-1.8310545682907104,73.33333587646484,199767.0,0.0
14931.508209,294862.34375,295256.625,326631.96875,319770.6875,285284.96875,255835.671875,221718.671875,246243.015625,0.016845703125,0.991455078125,0.067138671875,1.7700194120407104,1.2512205839157104,-1.8310545682907104,73.33333587646484,199768.0,0.0
14931.5082092,294862.34375,295256.625,326631.96875,319770.6875,285284.96875,255835.671875,221718.671875,246243.015625,0.016845703125,0.991455078125,0.067138671875,1.7700194120407104,1.2512205839157104,-1.8310545682907104,73.33333587646484,199769.0,0.0
14931.5082094,294862.34375,295256.625,326631.96875,319770.6875,285284.96875,255835.671875,221718.671875,246243.015625,0.016845703125,0.991455078125,0.067138671875,1.7700194120407104,1.2512205839157104,-1.8310545682907104,73.33333587646484,199770.0,0.0
14931.5082096,294862.34375,295256.625,326631.96875,319770.6875,285284.96875,255835.671875,221718.671875,246243.015625,0.016845703125,0.991455078125,0.067138671875,1.7700194120407104,1.2512205839157104,-1.8310545682907104,73.33333587646484,199771.0,0.0
14931.5082098,294862.34375,295256.625,326631.96875,319770.6875,285284.96875,255835.671875,221718.671875,246243.015625,0.016845703125,0.991455078125,0.067138671875,1.7700194120407104,1.2512205839157104,-1.8310545682907104,73.33333587646484,199772.0,0.0
14931.5082099,294862.34375,295256.625,326631.96875,319770.6875,285284.96875,255835.671875,221718.671875,246243.015625,0.016845703125,0.991455078125,0.067138671875,1.7700194120407104,1.2512205839157104,-1.8310545682907104,73.33333587646484,199773.0,0.0
14931.5082102,294862.34375,295256.625,326631.96875,319770.6875,285284.96875,255835.671875,221718.671875,246243.015625,0.016845703125,0.991455078125,0.067138671875,1.7700194120407104,1.2512205839157104,-1.8310545682907104,73.33333587646484,199774.0,0.0
14931.5082104,294862.34375,295256.625,326631.96875,319770.6875,285284.96875,255835.671875,221718.671875,246243.015625,0.016845703125,0.991455078125,0.067138671875,1.7700194120407104,1.2512205839157104,-1.8310545682907104,73.33333587646484,199775.0,0.0
14931.5082106,294862.34375,295256.625,326631.96875,319770.6875,285284.96875,255835.671875,221718.671875,246243.015625,0.016845703125,0.991455078125,0.067138671875,1.7700194120407104,1.2512205839157104,-1.8310545682907104,73.33333587646484,199776.0,0.0
14931.5082108,294862.34375,295256.625,326631.96875,319770.6875,285284.96875,255835.671875,221718.671875,246243.015625,0.016845703125,0.991455078125,0.067138671875,1.7700194120407104,1.2512205839157104,-1.8310545682907104,73.33333587646484,199777.0,0.0
14931.508211,294862.34375,295256.625,326631.96875,319770.6875,285284.96875,255835.671875,221718.671875,246243.015625,0.016845703125,0.991455078125,0.067138671875,1.7700194120407104,1.2512205839157104,-1.8310545682907104,73.33333587646484,199778.0,0.0
14931.5082111,294862.34375,295256.625,326631.96875,319770.6875,285284.96875,255835.671875,221718.671875,246243.015625,0.016845703125,0.991455078125,0.067138671875,1.7700194120407104,1.2512205839157104,-1.8310545682907104,73.33333587646484,199779.0,0.0
14931.5082113,294862.34375,295256.625,326631.96875,319770.6875,285284.96875,255835.671875,221718.671875,246243.015625,0.016845703125,0.991455078125,0.067138671875,1.7700194120407104,1.2512205839157104,-1.8310545682907104,73.33333587646484,199780.0,0.0
14931.5082115,294862.34375,295256.625,326631.96875,319770.6875,285284.96875,255835.671875,221718.671875,246243.015625,0.016845703125,0.991455078125,0.067138671875,1.7700194120407104,1.2512205839157104,-1.8310545682907104,73.33333587646484,199781.0,0.0
14931.5082117,294862.34375,295256.625,326631.96875,319770.6875,285284.96875,255835.671875,221718.671875,246243.015625,0.016845703125,0.991455078125,0.067138671875,1.7700194120407104,1.2512205839157104,-1.8310545682907104,73.33333587646484,199782.0,0.0
14931.5082118,294862.34375,295256.625,326631.96875,319770.6875,285284.96875,255835.671875,221718.671875,246243.015625,0.016845703125,0.991455078125,0.067138671875,1.7700194120407104,1.2512205839157104,-1.8310545682907104,73.33333587646484,199783.0,0.0
14931.508212,294862.34375,295256.625,326631.96875,319770.6875,285284.96875,255835.671875,221718.671875,246243.015625,0.016845703125,0.991455078125,0.067138671875,1.7700194120407104,1.2512205839157104,-1.8310545682907104,73.33333587646484,199784.0,0.0
14931.5082122,294862.34375,295256.625,326631.96875,319770.6875,285284.96875,255835.671875,221718.671875,246243.015625,0.016845703125,0.991455078125,0.067138671875,1.7700194120407104,1.2512205839157104,-1.8310545682907104,73.33333587646484,199785.0,0.0
14931.5082123,294862.34375,295256.625,326631.96875,319770.6875,285284.96875,255835.671875,221718.671875,246243.015625,0.016845703125,0.991455078125,0.067138671875,1.7700194120407104,1.2512205839157104,-1.8310545682907104,73.33333587646484,199786.0,0.0
14931.5082125,294862.34375,295256.625,326631.96875,319770.6875,285284.96875,255835.671875,221718.671875,246243.015625,0.016845703125,0.991455078125,0.067138671875,1.7700194120407104,1.2512205839157104,-1.8310545682907104,73.33333587646484,199787.0,0.0
14931.5082127,294862.34375,295256.625,326631.96875,319770.6875,285284.96875,255835.671875,221718.671875,246243.015625,0.016845703125,0.991455078125,0.067138671875,1.7700194120407104,1.2512205839157104,-1.8310545682907104,73.33333587646484,199788.0,0.0
14931.5082129,294862.34375,295256.625,326631.96875,319770.6875,285284.96875,255835.671875,221718.671875,246243.015625,0.016845703125,0.991455078125,0.067138671875,1.7700194120407104,1.2512205839157104,-1.8310545682907104,73.33333587646484,199789.0,0.0
14931.508213,294862.34375,295256.625,326631.96875,319770.6875,285284.96875,255835.671875,221718.671875,246243.015625,0.016845703125,0.991455078125,0.067138671875,1.7700194120407104,1.2512205839157104,-1.8310545682907104,73.33333587646484,199790.0,0.0
14931.5082132,294862.34375,295256.625,326631.96875,319770.6875,285284.96875,255835.671875,221718.671875,246243.015625,0.016845703125,0.991455078125,0.067138671875,1.7700194120407104,1.2512205839157104,-1.8310545682907104,73.33333587646484,199791.0,0.0
14931.5082134,294862.34375,295256.625,326631.96875,319770.6875,285284.96875,255835.671875,221718.671875,246243.015625,0.016845703125,0.991455078125,0.067138671875,1.7700194120407104,1.2512205839157104,-1.8310545682907104,73.33333587646484,199792.0,0.0
14931.5082136,294862.34375,295256.625,326631.96875,319770.6875,285284.96875,255835.671875,221718.671875,246243.015625,0.016845703125,0.991455078125,0.067138671875,1.7700194120407104,1.2512205839157104,-1.8310545682907104,73.33333587646484,199793.0,0.0
14931.5082138,294860.5625,295264.0625,326648.3125,319761.65625,285293.9375,255812.6875,221711.171875,246233.625,0.023193359375,0.98583984375,0.0732421875,-0.6408690810203552,-3.173827886581421,-0.1831054538488388,73.33333587646484,199794.0,1.0
14931.5082152,294825.59375,294926.90625,326396.1875,319747.71875,285123.25,255745.359375,221638.125,246218.421875,0.024169921875,0.985595703125,0.07177734375,-0.3967284858226776,-3.112792730331421,-0.2136230319738388,73.33333587646484,199795.0,1.0
14931.5082164,294831.6875,294712.6875,326251.875,319774.4375,285011.5,255707.28125,221609.15625,246230.21875,0.026611328125,0.988037109375,0.072021484375,-0.2136230319738388,-3.112792730331421,-0.2441406100988388,73.33333587646484,199796.0,1.0
14931.5082176,294872.4375,294927.71875,326419.25,319808.3125,285116.1875,255765.75,221675.21875,246255.265625,0.028076171875,0.98974609375,0.071533203125,-0.03051757626235485,-3.112792730331421,-0.3051757514476776,73.33333587646484,199797.0,1.0
14931.5082188,294887.03125,295260.46875,326649.125,319797.59375,285281.40625,255833.78125,221741.296875,246262.5,0.031982421875,0.989990234375,0.07421875,0.1220703050494194,-2.899169683456421,-0.4577636420726776,73.33333587646484,199798.0,1.0
14931.5082201,294856.4375,295252.15625,326614.625,319757.375,285274.53125,255819.75,221717.609375,246244.890625,0.0341796875,0.98876953125,0.072998046875,0.1525878757238388,-2.716064214706421,-0.7324218153953552,73.33333587646484,199799.0,1.0
14931.532735,294824.8125,294923.5,326372.6875,319746.0,285114.9375,255756.359375,221652.875,246232.109375,0.034912109375,0.98974609375,0.07177734375,0.2746581733226776,-2.593993902206421,-0.9155272841453552,73.33333587646484,199800.0,1.0
14931.5327405,294838.46875,294732.34375,326269.78125,319782.03125,285034.46875,255732.9375,221640.71875,246242.828125,0.038818359375,0.9892578125,0.072509765625,0.5493163466453552,-2.380370855331421,-1.0070799589157104,73.33333587646484,199801.0,1.0
14931.5327418,294869.6875,294947.1875,326447.0625,319805.90625,285139.78125,255778.265625,221687.5625,246256.15625,0.04052734375,0.9892578125,0.06982421875,0.6713866591453552,-2.136230230331421,-1.1596678495407104,73.33333587646484,199802.0,1.0
14931.5327431,294882.09375,295259.9375,326652.53125,319788.125,285283.1875,255833.96875,221732.71875,246256.6875,0.039306640625,0.988037109375,0.071044921875,0.9155272841453552,-1.8005369901657104,-1.4038084745407104,73.33333587646484,199803.0,1.0
14931.5341493,294853.78125,295252.4375,326613.28125,319747.625,285272.90625,255813.9375,221708.390625,246238.546875,0.03955078125,0.98876953125,0.070068359375,1.0070799589157104,-1.2817381620407104,-1.5869139432907104,73.33333587646484,199804.0,1.0
14931.5363936,294853.78125,295252.4375,326613.28125,319747.625,285272.90625,255813.9375,221708.390625,246238.546875,0.03955078125,0.98876953125,0.070068359375,1.0070799589157104,-1.2817381620407104,-1.5869139432907104,73.33333587646484,199805.0,0.0
14931.5363942,294853.78125,295252.4375,326613.28125,319747.625,285272.90625,255813.9375,221708.390625,246238.546875,0.03955078125,0.98876953125,0.070068359375,1.0070799589157104,-1.2817381620407104,-1.5869139432907104,73.33333587646484,199806.0,0.0
14931.5363944,294853.78125,295252.4375,326613.28125,319747.625,285272.90625,255813.9375,221708.390625,246238.546875,0.03955078125,0.98876953125,0.070068359375,1.0070799589157104,-1.2817381620407104,-1.5869139432907104,73.33333587646484,199807.0,0.0
14931.5363946,294877.71875,295253.6875,326646.25,319778.5625,285277.03125,255808.9375,221718.59375,246247.484375,0.0322265625,0.990478515625,0.07275390625,1.4343260526657104,0.2136230319738388,-2.197265386581421,73.33333587646484,199808.0,1.0
14931.5363965,294841.96875,295242.25,326601.03125,319735.28125,285259.15625,255796.234375,221692.296875,246224.234375,0.031494140625,0.989990234375,0.072509765625,1.4038084745407104,0.3662109076976776,-2.197265386581421,73.33333587646484,199809.0,1.0
14931.5383012,294822.28125,294938.34375,326386.0,319740.46875,285118.875,255744.46875,221636.15625,246219.671875,0.030029296875,0.991943359375,0.074462890625,1.4038084745407104,0.6713866591453552,-2.349853277206421,73.33333587646484,199810.0,1.0
14931.5408087,294824.8125,294737.09375,326264.84375,319766.3125,285020.25,255709.0625,221602.890625,246219.59375,0.026123046875,0.992431640625,0.07373046875,1.3427733182907104,0.8239745497703552,-2.288818120956421,73.33333587646484,199811.0,1.0
14931.5432761,294865.125,294955.96875,326447.4375,319799.9375,285133.53125,255766.46875,221669.765625,246245.515625,0.021484375,0.99267578125,0.072509765625,1.4343260526657104,0.9155272841453552,-2.319335699081421,73.33333587646484,199812.0,1.0
14931.5475971,294903.75,295296.59375,326684.625,319811.53125,285310.28125,255855.421875,221757.125,246278.140625,0.016357421875,0.993408203125,0.07421875,1.3732908964157104,0.9765624403953552,-2.258300542831421,73.33333587646484,199813.0,1.0
14931.5476003,294869.5,295283.8125,326641.78125,319766.84375,285296.25,255841.296875,221732.0,246253.296875,0.012451171875,0.992919921875,0.072509765625,1.3427733182907104,0.9460448622703552,-2.136230230331421,73.33333587646484,199814.0,1.0
14931.5476016,294827.46875,294954.875,326403.15625,319747.0,285133.78125,255767.359375,221654.921875,246226.296875,0.008544921875,0.992431640625,0.072265625,1.2817381620407104,0.7324218153953552,-1.9531248807907104,73.33333587646484,199815.0,1.0
14931.5476028,294833.65625,294744.34375,326275.65625,319774.53125,285032.84375,255729.265625,221627.484375,246237.921875,0.005126953125,0.993408203125,0.07568359375,1.0681151151657104,0.5493163466453552,-1.8005369901657104,73.33333587646484,199816.0,1.0
14931.5495576,294882.65625,294963.375,326456.0,319814.5,285147.46875,255789.890625,221693.828125,246268.046875,0.001953125,0.991943359375,0.075439453125,1.0681151151657104,0.2136230319738388,-1.6174315214157104,73.33333587646484,199817.0,1.0
14931.552638,294897.84375,295282.28125,326666.5625,319800.09375,285294.46875,255846.484375,221744.6875,246270.28125,-0.00244140625,0.991455078125,0.075439453125,1.0375975370407104,-0.1220703050494194,-1.4038084745407104,73.33333587646484,199818.0,1.0
14931.55264,294875.9375,295284.8125,326637.5,319768.4375,285291.96875,255847.109375,221731.28125,246256.421875,-0.00390625,0.9912109375,0.07080078125,1.0681151151657104,-0.3967284858226776,-1.2207030057907104,73.33333587646484,199819.0,1.0
14931.5793525,294862.875,294986.53125,326429.4375,319776.3125,285158.125,255797.046875,221680.859375,246258.484375,-0.004638671875,0.99169921875,0.076171875,0.9765624403953552,-0.9155272841453552,-1.0070799589157104,73.33333587646484,199820.0,1.0
14931.5793581,294862.96875,294776.34375,326309.28125,319800.5625,285058.59375,255742.328125,221639.546875,246260.890625,-0.006103515625,0.992919921875,0.07470703125,0.9765624403953552,-1.3122557401657104,-0.7019042372703552,73.33333587646484,199821.0,1.0
14931.5793595,294890.5,294976.6875,326478.34375,319821.84375,285158.28125,255784.96875,221689.625,246268.3125,-0.004638671875,0.9912109375,0.075439453125,0.8239745497703552,-1.7395018339157104,-0.4577636420726776,73.33333587646484,199822.0,1.0
14931.5793607,294895.6875,295285.5,326686.9375,319800.375,285306.4375,255849.25,221739.515625,246263.125,-0.003662109375,0.9892578125,0.07470703125,0.7934569716453552,-2.258300542831421,-0.3356933295726776,73.33333587646484,199823.0,1.0
14931.579362,294864.59375,295295.0,326666.125,319759.34375,285307.4375,255830.484375,221717.0625,246242.125,-0.000732421875,0.99072265625,0.071533203125,0.8850097060203552,-2.655029058456421,-0.0610351525247097,73.33333587646484,199824.0,1.0
14931.5793633,294829.0,294972.84375,326440.09375,319745.46875,285154.71875,255751.0,221643.75,246228.53125,0.001953125,0.990966796875,0.072265625,0.8850097060203552,-3.051757574081421,0.1831054538488388,73.33333587646484,199825.0,1.0
14931.5793645,294837.75,294752.90625,326300.53125,319772.375,285044.75,255713.625,221609.328125,246231.65625,0.006103515625,0.990234375,0.070068359375,0.8850097060203552,-3.417968511581421,0.5187987685203552,73.33333587646484,199826.0,1.0
14931.6020979,294874.78125,294945.84375,326443.3125,319801.625,285127.90625,255763.421875,221660.828125,246247.390625,0.010009765625,0.990966796875,0.0712890625,0.9460448622703552,-3.753661870956421,0.5798339247703552,73.33333587646484,199827.0,1.0
14931.6270936,294880.84375,295243.3125,326619.8125,319785.53125,285253.5,255824.9375,221710.0,246249.1875,0.0146484375,0.989990234375,0.070068359375,0.9765624403953552,-3.936767339706421,0.8544921278953552,73.33333587646484,199828.0,1.0
14931.6483698,294845.0,295230.0,326571.0625,319742.34375,285236.78125,255805.359375,221685.0625,246225.046875,0.01904296875,0.98828125,0.07080078125,1.0681151151657104,-4.211425304412842,1.0070799589157104,73.33333587646484,199829.0,1.0
14931.6508329,294820.0625,294942.28125,326371.5,319737.0625,285107.78125,255749.203125,221627.03125,246213.78125,0.022705078125,0.987548828125,0.070068359375,1.2817381620407104,-4.211425304412842,1.0681151151657104,73.33333587646484,199830.0,1.0
14931.6532811,294833.1875,294746.46875,326264.0625,319772.125,285023.65625,255724.890625,221610.5,246229.953125,0.025390625,0.98486328125,0.071044921875,1.4038084745407104,-4.119872570037842,1.0375975370407104,73.33333587646484,199831.0,1.0
14931.6557726,294870.3125,294950.875,326435.25,319803.40625,285130.125,255775.765625,221673.4375,246251.234375,0.0302734375,0.98388671875,0.068603515625,1.5258787870407104,-4.211425304412842,0.9155272841453552,73.33333587646484,199832.0,1.0
14931.658294,294870.3125,294950.875,326435.25,319803.40625,285130.125,255775.765625,221673.4375,246251.234375,0.0302734375,0.98388671875,0.068603515625,1.5258787870407104,-4.211425304412842,0.9155272841453552,73.33333587646484,199833.0,0.0
14931.6582945,294870.3125,294950.875,326435.25,319803.40625,285130.125,255775.765625,221673.4375,246251.234375,0.0302734375,0.98388671875,0.068603515625,1.5258787870407104,-4.211425304412842,0.9155272841453552,73.33333587646484,199834.0,0.0
14931.6582948,294870.3125,294950.875,326435.25,319803.40625,285130.125,255775.765625,221673.4375,246251.234375,0.0302734375,0.98388671875,0.068603515625,1.5258787870407104,-4.211425304412842,0.9155272841453552,73.33333587646484,199835.0,0.0
14931.658295,294870.3125,294950.875,326435.25,319803.40625,285130.125,255775.765625,221673.4375,246251.234375,0.0302734375,0.98388671875,0.068603515625,1.5258787870407104,-4.211425304412842,0.9155272841453552,73.33333587646484,199836.0,0.0
14931.6582952,294870.3125,294950.875,326435.25,319803.40625,285130.125,255775.765625,221673.4375,246251.234375,0.0302734375,0.98388671875,0.068603515625,1.5258787870407104,-4.211425304412842,0.9155272841453552,73.33333587646484,199837.0,0.0
14931.6582955,294870.3125,294950.875,326435.25,319803.40625,285130.125,255775.765625,221673.4375,246251.234375,0.0302734375,0.98388671875,0.068603515625,1.5258787870407104,-4.211425304412842,0.9155272841453552,73.33333587646484,199838.0,0.0
14931.6582957,294870.3125,294950.875,326435.25,319803.40625,285130.125,255775.765625,221673.4375,246251.234375,0.0302734375,0.98388671875,0.068603515625,1.5258787870407104,-4.211425304412842,0.9155272841453552,73.33333587646484,199839.0,0.0
14931.6582959,294870.3125,294950.875,326435.25,319803.40625,285130.125,255775.765625,221673.4375,246251.234375,0.0302734375,0.98388671875,0.068603515625,1.5258787870407104,-4.211425304412842,0.9155272841453552,73.33333587646484,199840.0,0.0
14931.6582961,294870.3125,294950.875,326435.25,319803.40625,285130.125,255775.765625,221673.4375,246251.234375,0.0302734375,0.98388671875,0.068603515625,1.5258787870407104,-4.211425304412842,0.9155272841453552,73.33333587646484,199841.0,0.0
14931.6582963,294870.3125,294950.875,326435.25,319803.40625,285130.125,255775.765625,221673.4375,246251.234375,0.0302734375,0.98388671875,0.068603515625,1.5258787870407104,-4.211425304412842,0.9155272841453552,73.33333587646484,199842.0,0.0
14931.6582965,294870.3125,294950.875,326435.25,319803.40625,285130.125,255775.765625,221673.4375,246251.234375,0.0302734375,0.98388671875,0.068603515625,1.5258787870407104,-4.211425304412842,0.9155272841453552,73.33333587646484,199843.0,0.0
14931.6582967,294870.3125,294950.875,326435.25,319803.40625,285130.125,255775.765625,221673.4375,246251.234375,0.0302734375,0.98388671875,0.068603515625,1.5258787870407104,-4.211425304412842,0.9155272841453552,73.33333587646484,199844.0,0.0
14931.6582968,294870.3125,294950.875,326435.25,319803.40625,285130.125,255775.765625,221673.4375,246251.234375,0.0302734375,0.98388671875,0.068603515625,1.5258787870407104,-4.211425304412842,0.9155272841453552,73.33333587646484,199845.0,0.0
14931.658297,294870.3125,294950.875,326435.25,319803.40625,285130.125,255775.765625,221673.4375,246251.234375,0.0302734375,0.98388671875,0.068603515625,1.5258787870407104,-4.211425304412842,0.9155272841453552,73.33333587646484,199846.0,0.0
14931.6582972,294870.3125,294950.875,326435.25,319803.40625,285130.125,255775.765625,221673.4375,246251.234375,0.0302734375,0.98388671875,0.068603515625,1.5258787870407104,-4.211425304412842,0.9155272841453552,73.33333587646484,199847.0,0.0
14931.6582974,294870.3125,294950.875,326435.25,319803.40625,285130.125,255775.765625,221673.4375,246251.234375,0.0302734375,0.98388671875,0.068603515625,1.5258787870407104,-4.211425304412842,0.9155272841453552,73.33333587646484,199848.0,0.0
14931.6582975,294870.3125,294950.875,326435.25,319803.40625,285130.125,255775.765625,221673.4375,246251.234375,0.0302734375,0.98388671875,0.068603515625,1.5258787870407104,-4.211425304412842,0.9155272841453552,73.33333587646484,199849.0,0.0
14931.6582977,294870.3125,294950.875,326435.25,319803.40625,285130.125,255775.765625,221673.4375,246251.234375,0.0302734375,0.98388671875,0.068603515625,1.5258787870407104,-4.211425304412842,0.9155272841453552,73.33333587646484,199850.0,0.0
14931.6582979,294870.3125,294950.875,326435.25,319803.40625,285130.125,255775.765625,221673.4375,246251.234375,0.0302734375,0.98388671875,0.068603515625,1.5258787870407104,-4.211425304412842,0.9155272841453552,73.33333587646484,199851.0,0.0
14931.6582981,294870.3125,294950.875,326435.25,319803.40625,285130.125,255775.765625,221673.4375,246251.234375,0.0302734375,0.98388671875,0.068603515625,1.5258787870407104,-4.211425304412842,0.9155272841453552,73.33333587646484,199852.0,0.0
14931.6582982,294870.3125,294950.875,326435.25,319803.40625,285130.125,255775.765625,221673.4375,246251.234375,0.0302734375,0.98388671875,0.068603515625,1.5258787870407104,-4.211425304412842,0.9155272841453552,73.33333587646484,199853.0,0.0
14931.6582984,294870.3125,294950.875,326435.25,319803.40625,285130.125,255775.765625,221673.4375,246251.234375,0.0302734375,0.98388671875,0.068603515625,1.5258787870407104,-4.211425304412842,0.9155272841453552,73.33333587646484,199854.0,0.0
14931.6582986,294870.3125,294950.875,326435.25,319803.40625,285130.125,255775.765625,221673.4375,246251.234375,0.0302734375,0.98388671875,0.068603515625,1.5258787870407104,-4.211425304412842,0.9155272841453552,73.33333587646484,199855.0,0.0
14931.6582988,294870.3125,294950.875,326435.25,319803.40625,285130.125,255775.765625,221673.4375,246251.234375,0.0302734375,0.98388671875,0.068603515625,1.5258787870407104,-4.211425304412842,0.9155272841453552,73.33333587646484,199856.0,0.0
14931.6582989,294870.3125,294950.875,326435.25,319803.40625,285130.125,255775.765625,221673.4375,246251.234375,0.0302734375,0.98388671875,0.068603515625,1.5258787870407104,-4.211425304412842,0.9155272841453552,73.33333587646484,199857.0,0.0
14931.6582991,294870.3125,294950.875,326435.25,319803.40625,285130.125,255775.765625,221673.4375,246251.234375,0.0302734375,0.98388671875,0.068603515625,1.5258787870407104,-4.211425304412842,0.9155272841453552,73.33333587646484,199858.0,0.0
14931.6582993,294870.3125,294950.875,326435.25,319803.40625,285130.125,255775.765625,221673.4375,246251.234375,0.0302734375,0.98388671875,0.068603515625,1.5258787870407104,-4.211425304412842,0.9155272841453552,73.33333587646484,199859.0,0.0
14931.6582995,294870.3125,294950.875,326435.25,319803.40625,285130.125,255775.765625,221673.4375,246251.234375,0.0302734375,0.98388671875,0.068603515625,1.5258787870407104,-4.211425304412842,0.9155272841453552,73.33333587646484,199860.0,0.0
14931.6582997,294870.3125,294950.875,326435.25,319803.40625,285130.125,255775.765625,221673.4375,246251.234375,0.0302734375,0.98388671875,0.068603515625,1.5258787870407104,-4.211425304412842,0.9155272841453552,73.33333587646484,199861.0,0.0
14931.6582998,294870.3125,294950.875,326435.25,319803.40625,285130.125,255775.765625,221673.4375,246251.234375,0.0302734375,0.98388671875,0.068603515625,1.5258787870407104,-4.211425304412842,0.9155272841453552,73.33333587646484,199862.0,0.0
14931.6583,294870.3125,294950.875,326435.25,319803.40625,285130.125,255775.765625,221673.4375,246251.234375,0.0302734375,0.98388671875,0.068603515625,1.5258787870407104,-4.211425304412842,0.9155272841453552,73.33333587646484,199863.0,0.0
14931.6583002,294870.3125,294950.875,326435.25,319803.40625,285130.125,255775.765625,221673.4375,246251.234375,0.0302734375,0.98388671875,0.068603515625,1.5258787870407104,-4.211425304412842,0.9155272841453552,73.33333587646484,199864.0,0.0
14931.6583003,294818.53125,294921.34375,326363.90625,319723.84375,285103.5,255739.109375,221631.234375,246213.5,0.020751953125,0.98681640625,0.06494140625,-0.0915527269244194,-3.021239995956421,-0.3356933295726776,73.33333587646484,199865.0,1.0
14931.6626336,294824.625,294705.8125,326224.1875,319756.28125,284998.4375,255702.53125,221608.609375,246222.265625,0.022705078125,0.986083984375,0.0654296875,-0.03051757626235485,-3.112792730331421,-0.3662109076976776,73.33333587646484,199866.0,1.0
14931.6626364,294875.3125,294929.3125,326404.6875,319800.5625,285114.9375,255769.0625,221679.34375,246255.53125,0.026611328125,0.98583984375,0.0634765625,0.0915527269244194,-3.082275152206421,-0.4272460639476776,73.33333587646484,199867.0,1.0
14931.6626377,294887.75,295257.78125,326629.90625,319785.8125,285276.59375,255827.171875,221744.328125,246259.109375,0.030029296875,0.987060546875,0.064453125,0.2136230319738388,-2.899169683456421,-0.5493163466453552,73.33333587646484,199868.0,1.0
14931.662639,294859.65625,295267.8125,326610.3125,319746.0,285279.71875,255818.046875,221727.171875,246240.953125,0.0302734375,0.98681640625,0.060791015625,0.2746581733226776,-2.868652105331421,-0.6103515028953552,73.33333587646484,199869.0,1.0
14931.6626403,294829.96875,294957.5625,326392.53125,319734.9375,285132.09375,255749.03125,221648.484375,246218.78125,0.03125,0.987060546875,0.06689453125,0.3051757514476776,-2.624511480331421,-0.7934569716453552,73.33333587646484,199870.0,1.0
14931.6626415,294836.15625,294743.625,326273.875,319768.53125,285036.6875,255711.03125,221618.8125,246230.046875,0.03369140625,0.9873046875,0.0615234375,0.4577636420726776,-2.471923589706421,-0.9765624403953552,73.33333587646484,199871.0,1.0
14931.6668132,294875.3125,294940.84375,326443.125,319801.53125,285138.53125,255760.109375,221670.9375,246251.328125,0.034423828125,0.988037109375,0.063232421875,0.6103515028953552,-2.288818120956421,-1.2207030057907104,73.33333587646484,199872.0,1.0
14931.6668151,294886.9375,295256.53125,326650.5625,319783.5625,285281.9375,255813.9375,221722.875,246248.109375,0.032958984375,0.987060546875,0.063232421875,0.6408690810203552,-1.9836424589157104,-1.4038084745407104,73.33333587646484,199873.0,1.0
14931.6668164,294852.25,295261.90625,326622.03125,319739.84375,285275.875,255801.875,221707.5,246228.609375,0.033447265625,0.988525390625,0.064453125,0.5493163466453552,-1.6784666776657104,-1.4953612089157104,73.33333587646484,199874.0,1.0
14931.6668177,294819.34375,294945.6875,326394.84375,319729.65625,285124.6875,255734.359375,221640.984375,246215.5625,0.03271484375,0.9912109375,0.0634765625,0.5493163466453552,-1.4038084745407104,-1.6174315214157104,73.33333587646484,199875.0,1.0
14931.66682,294819.34375,294945.6875,326394.84375,319729.65625,285124.6875,255734.359375,221640.984375,246215.5625,0.03271484375,0.9912109375,0.0634765625,0.5493163466453552,-1.4038084745407104,-1.6174315214157104,73.33333587646484,199876.0,0.0
14931.6668202,294819.34375,294945.6875,326394.84375,319729.65625,285124.6875,255734.359375,221640.984375,246215.5625,0.03271484375,0.9912109375,0.0634765625,0.5493163466453552,-1.4038084745407104,-1.6174315214157104,73.33333587646484,199877.0,0.0
14931.6668204,294819.34375,294945.6875,326394.84375,319729.65625,285124.6875,255734.359375,221640.984375,246215.5625,0.03271484375,0.9912109375,0.0634765625,0.5493163466453552,-1.4038084745407104,-1.6174315214157104,73.33333587646484,199878.0,0.0
14931.6668206,294819.34375,294945.6875,326394.84375,319729.65625,285124.6875,255734.359375,221640.984375,246215.5625,0.03271484375,0.9912109375,0.0634765625,0.5493163466453552,-1.4038084745407104,-1.6174315214157104,73.33333587646484,199879.0,0.0
14931.6668208,294819.34375,294945.6875,326394.84375,319729.65625,285124.6875,255734.359375,221640.984375,246215.5625,0.03271484375,0.9912109375,0.0634765625,0.5493163466453552,-1.4038084745407104,-1.6174315214157104,73.33333587646484,199880.0,0.0
14931.666821,294819.34375,294945.6875,326394.84375,319729.65625,285124.6875,255734.359375,221640.984375,246215.5625,0.03271484375,0.9912109375,0.0634765625,0.5493163466453552,-1.4038084745407104,-1.6174315214157104,73.33333587646484,199881.0,0.0
14931.6668212,294819.34375,294945.6875,326394.84375,319729.65625,285124.6875,255734.359375,221640.984375,246215.5625,0.03271484375,0.9912109375,0.0634765625,0.5493163466453552,-1.4038084745407104,-1.6174315214157104,73.33333587646484,199882.0,0.0
14931.6668214,294819.34375,294945.6875,326394.84375,319729.65625,285124.6875,255734.359375,221640.984375,246215.5625,0.03271484375,0.9912109375,0.0634765625,0.5493163466453552,-1.4038084745407104,-1.6174315214157104,73.33333587646484,199883.0,0.0
14931.6668215,294819.34375,294945.6875,326394.84375,319729.65625,285124.6875,255734.359375,221640.984375,246215.5625,0.03271484375,0.9912109375,0.0634765625,0.5493163466453552,-1.4038084745407104,-1.6174315214157104,73.33333587646484,199884.0,0.0
14931.6668217,294819.34375,294945.6875,326394.84375,319729.65625,285124.6875,255734.359375,221640.984375,246215.5625,0.03271484375,0.9912109375,0.0634765625,0.5493163466453552,-1.4038084745407104,-1.6174315214157104,73.33333587646484,199885.0,0.0
14931.6668219,294819.34375,294945.6875,326394.84375,319729.65625,285124.6875,255734.359375,221640.984375,246215.5625,0.03271484375,0.9912109375,0.0634765625,0.5493163466453552,-1.4038084745407104,-1.6174315214157104,73.33333587646484,199886.0,0.0
14931.666822,294819.34375,294945.6875,326394.84375,319729.65625,285124.6875,255734.359375,221640.984375,246215.5625,0.03271484375,0.9912109375,0.0634765625,0.5493163466453552,-1.4038084745407104,-1.6174315214157104,73.33333587646484,199887.0,0.0
14931.6668222,294819.34375,294945.6875,326394.84375,319729.65625,285124.6875,255734.359375,221640.984375,246215.5625,0.03271484375,0.9912109375,0.0634765625,0.5493163466453552,-1.4038084745407104,-1.6174315214157104,73.33333587646484,199888.0,0.0
14931.6668224,294819.34375,294945.6875,326394.84375,319729.65625,285124.6875,255734.359375,221640.984375,246215.5625,0.03271484375,0.9912109375,0.0634765625,0.5493163466453552,-1.4038084745407104,-1.6174315214157104,73.33333587646484,199889.0,0.0
14931.6668226,294819.34375,294945.6875,326394.84375,319729.65625,285124.6875,255734.359375,221640.984375,246215.5625,0.03271484375,0.9912109375,0.0634765625,0.5493163466453552,-1.4038084745407104,-1.6174315214157104,73.33333587646484,199890.0,0.0
14931.6668227,294819.34375,294945.6875,326394.84375,319729.65625,285124.6875,255734.359375,221640.984375,246215.5625,0.03271484375,0.9912109375,0.0634765625,0.5493163466453552,-1.4038084745407104,-1.6174315214157104,73.33333587646484,199891.0,0.0
14931.6668229,294819.34375,294945.6875,326394.84375,319729.65625,285124.6875,255734.359375,221640.984375,246215.5625,0.03271484375,0.9912109375,0.0634765625,0.5493163466453552,-1.4038084745407104,-1.6174315214157104,73.33333587646484,199892.0,0.0
14931.6668231,294819.34375,294945.6875,326394.84375,319729.65625,285124.6875,255734.359375,221640.984375,246215.5625,0.03271484375,0.9912109375,0.0634765625,0.5493163466453552,-1.4038084745407104,-1.6174315214157104,73.33333587646484,199893.0,0.0
14931.6668233,294819.34375,294945.6875,326394.84375,319729.65625,285124.6875,255734.359375,221640.984375,246215.5625,0.03271484375,0.9912109375,0.0634765625,0.5493163466453552,-1.4038084745407104,-1.6174315214157104,73.33333587646484,199894.0,0.0
14931.6668234,294819.34375,294945.6875,326394.84375,319729.65625,285124.6875,255734.359375,221640.984375,246215.5625,0.03271484375,0.9912109375,0.0634765625,0.5493163466453552,-1.4038084745407104,-1.6174315214157104,73.33333587646484,199895.0,0.0
14931.6668236,294819.34375,294945.6875,326394.84375,319729.65625,285124.6875,255734.359375,221640.984375,246215.5625,0.03271484375,0.9912109375,0.0634765625,0.5493163466453552,-1.4038084745407104,-1.6174315214157104,73.33333587646484,199896.0,0.0
14931.6668238,294819.34375,294945.6875,326394.84375,319729.65625,285124.6875,255734.359375,221640.984375,246215.5625,0.03271484375,0.9912109375,0.0634765625,0.5493163466453552,-1.4038084745407104,-1.6174315214157104,73.33333587646484,199897.0,0.0
14931.666824,294894.71875,295257.0,326643.3125,319787.40625,285272.5625,255814.296875,221727.265625,246249.0,0.02734375,0.9892578125,0.066162109375,0.4882812201976776,-2.258300542831421,0.03051757626235485,73.33333587646484,199898.0,1.0
14931.6668253,294868.78125,295261.0,326617.375,319751.375,285269.15625,255801.0625,221708.9375,246233.4375,0.029296875,0.98876953125,0.066162109375,0.4577636420726776,-2.136230230331421,0.0,73.33333587646484,199899.0,1.0
14931.6668265,294837.75,294945.84375,326381.0,319739.75,285109.3125,255735.96875,221642.859375,246219.5,0.029052734375,0.9892578125,0.068359375,0.4882812201976776,-2.136230230331421,-0.0915527269244194,73.33333587646484,199900.0,1.0
14931.6702636,294849.5625,294737.8125,326257.15625,319776.0625,285015.59375,255717.203125,221629.09375,246233.171875,0.031005859375,0.98876953125,0.06787109375,0.4882812201976776,-1.8920897245407104,-0.1831054538488388,73.33333587646484,199901.0,1.0
14931.6702657,294890.875,294954.09375,326447.78125,319812.96875,285136.21875,255778.984375,221694.71875,246258.84375,0.032958984375,0.987548828125,0.066162109375,0.5798339247703552,-1.5258787870407104,-0.4577636420726776,73.33333587646484,199902.0,1.0
14931.6702669,294898.125,295266.1875,326656.625,319792.5,285281.5,255830.75,221741.296875,246257.234375,0.034423828125,0.990478515625,0.0625,0.4882812201976776,-1.3122557401657104,-0.5187987685203552,73.33333587646484,199903.0,1.0
14931.6702682,294859.125,295261.71875,326621.6875,319744.5,285268.4375,255809.5625,221711.875,246230.046875,0.0361328125,0.98876953125,0.064453125,0.5798339247703552,-1.0681151151657104,-0.7934569716453552,73.33333587646484,199904.0,1.0
14931.6948684,294830.78125,294949.53125,326397.53125,319734.5625,285122.4375,255751.265625,221645.09375,246215.5625,0.036865234375,0.990234375,0.063232421875,0.5798339247703552,-0.8239745497703552,-0.9765624403953552,73.33333587646484,199905.0,1.0
14931.694874,294842.59375,294736.90625,326268.6875,319766.84375,285026.25,255727.578125,221626.40625,246229.875,0.03515625,0.99072265625,0.064453125,0.5493163466453552,-0.6103515028953552,-1.1291502714157104,73.33333587646484,199906.0,1.0
14931.6948753,294884.0625,294941.84375,326441.6875,319801.0,285130.84375,255774.328125,221686.046875,246255.265625,0.03271484375,0.9921875,0.0673828125,0.5187987685203552,-0.3356933295726776,-1.2207030057907104,73.33333587646484,199907.0,1.0
14931.6948766,294889.96875,295257.34375,326656.28125,319780.4375,285278.28125,255825.03125,221734.953125,246249.453125,0.03173828125,0.993896484375,0.062744140625,0.4577636420726776,-0.1220703050494194,-1.4343260526657104,73.33333587646484,199908.0,1.0
14931.6948778,294855.1875,295261.0,326626.40625,319734.9375,285271.9375,255812.0625,221707.140625,246223.34375,0.029052734375,0.990966796875,0.062255859375,0.3967284858226776,0.0610351525247097,-1.4953612089157104,73.33333587646484,199909.0,1.0
14931.6948791,294829.09375,294951.65625,326406.03125,319730.375,285129.0625,255754.578125,221643.65625,246216.1875,0.0263671875,0.991943359375,0.064453125,0.3356933295726776,0.1525878757238388,-1.6174315214157104,73.33333587646484,199910.0,1.0
14931.7202446,294843.03125,294737.28125,326279.4375,319767.28125,285035.8125,255726.140625,221628.546875,246235.234375,0.025390625,0.99072265625,0.062255859375,0.2746581733226776,0.3662109076976776,-1.6784666776657104,73.33333587646484,199911.0,1.0
14931.7202519,294887.46875,294942.71875,326449.125,319803.3125,285140.5,255774.6875,221689.703125,246259.8125,0.0224609375,0.9931640625,0.064697265625,0.2136230319738388,0.4882812201976776,-1.8005369901657104,73.33333587646484,199912.0,1.0
14931.7202532,294905.71875,295269.40625,326668.875,319793.40625,285294.375,255840.21875,221744.609375,246263.125,0.020263671875,0.992919921875,0.06201171875,0.03051757626235485,0.4882812201976776,-1.6784666776657104,73.33333587646484,199913.0,1.0
14931.7202545,294871.75,295275.40625,326635.71875,319746.71875,285285.875,255826.546875,221719.390625,246238.625,0.014892578125,0.991943359375,0.0625,-0.1525878757238388,0.4272460639476776,-1.6174315214157104,73.33333587646484,199914.0,1.0
14931.7433734,294840.4375,294963.8125,326409.25,319729.5625,285135.5,255757.4375,221646.53125,246218.609375,0.013427734375,0.989990234375,0.06494140625,-0.3662109076976776,0.1525878757238388,-1.5258787870407104,73.33333587646484,199915.0,1.0
14931.7464263,294861.46875,294758.625,326290.6875,319773.375,285047.4375,255741.34375,221635.078125,246239.171875,0.01123046875,0.988525390625,0.0625,-0.5493163466453552,0.0,-1.2817381620407104,73.33333587646484,199916.0,1.0
14931.7464314,294899.53125,294956.40625,326460.46875,319807.78125,285149.34375,255791.859375,221692.75,246259.1875,0.008056640625,0.989501953125,0.064453125,-0.6408690810203552,-0.2136230319738388,-1.2207030057907104,73.33333587646484,199917.0,1.0
14931.7523866,294926.46875,295287.84375,326687.03125,319811.71875,285312.96875,255865.890625,221764.90625,246276.265625,0.005126953125,0.9892578125,0.06494140625,-0.7019042372703552,-0.3662109076976776,-1.1901854276657104,73.33333587646484,199918.0,1.0
14931.7523918,294915.46875,295320.03125,326682.125,319793.21875,285329.78125,255876.796875,221772.046875,246280.828125,0.001953125,0.98876953125,0.066162109375,-0.6713866591453552,-0.5798339247703552,-0.9460448622703552,73.33333587646484,199919.0,1.0
14931.752393,294872.90625,294992.53125,326446.25,319769.34375,285170.0,255802.40625,221694.53125,246259.46875,0.002197265625,0.989990234375,0.065185546875,-0.7629393935203552,-0.9765624403953552,-0.7629393935203552,73.33333587646484,199920.0,1.0
14931.7523943,294869.9375,294771.25,326311.96875,319789.1875,285060.125,255747.328125,221649.390625,246256.421875,0.00146484375,0.992431640625,0.06689453125,-0.7629393935203552,-1.5258787870407104,-0.5493163466453552,73.33333587646484,199921.0,1.0
14931.7523955,294900.71875,294974.8125,326490.78125,319819.3125,285169.5625,255787.390625,221706.609375,246276.0,0.001953125,0.993408203125,0.066650390625,-0.7629393935203552,-1.9226073026657104,-0.4577636420726776,73.33333587646484,199922.0,1.0
14931.7523968,294910.09375,295296.34375,326717.6875,319803.3125,285327.71875,255850.0625,221764.359375,246275.90625,0.00439453125,0.993896484375,0.069580078125,-0.7934569716453552,-2.380370855331421,-0.2746581733226776,73.33333587646484,199923.0,1.0
14931.7523981,294876.125,295300.625,326697.84375,319760.0625,285325.5625,255832.796875,221734.765625,246253.03125,0.004150390625,0.994873046875,0.07177734375,-0.8544921278953552,-2.716064214706421,-0.03051757626235485,73.33333587646484,199924.0,1.0
14931.7523993,294838.3125,294958.0,326431.6875,319739.3125,285145.5,255747.421875,221648.9375,246229.25,0.0078125,0.992919921875,0.072998046875,-1.0681151151657104,-3.021239995956421,0.1831054538488388,73.33333587646484,199925.0,1.0
14931.7524008,294840.34375,294705.8125,326246.71875,319761.03125,285006.125,255697.625,221605.125,246230.3125,0.010009765625,0.990478515625,0.07080078125,-1.0375975370407104,-3.265380620956421,0.3662109076976776,73.33333587646484,199926.0,1.0
14931.755015,294882.90625,294911.6875,326406.46875,319799.03125,285106.96875,255756.625,221670.3125,246257.5,0.015380859375,0.98876953125,0.071533203125,-1.0375975370407104,-3.601073980331421,0.4882812201976776,73.33333587646484,199927.0,1.0
14931.7550187,294882.90625,294911.6875,326406.46875,319799.03125,285106.96875,255756.625,221670.3125,246257.5,0.015380859375,0.98876953125,0.071533203125,-1.0375975370407104,-3.601073980331421,0.4882812201976776,73.33333587646484,199928.0,0.0
14931.7550189,294882.90625,294911.6875,326406.46875,319799.03125,285106.96875,255756.625,221670.3125,246257.5,0.015380859375,0.98876953125,0.071533203125,-1.0375975370407104,-3.601073980331421,0.4882812201976776,73.33333587646484,199929.0,0.0
14931.7550191,294882.90625,294911.6875,326406.46875,319799.03125,285106.96875,255756.625,221670.3125,246257.5,0.015380859375,0.98876953125,0.071533203125,-1.0375975370407104,-3.601073980331421,0.4882812201976776,73.33333587646484,199930.0,0.0
14931.7550193,294882.90625,294911.6875,326406.46875,319799.03125,285106.96875,255756.625,221670.3125,246257.5,0.015380859375,0.98876953125,0.071533203125,-1.0375975370407104,-3.601073980331421,0.4882812201976776,73.33333587646484,199931.0,0.0
14931.7550195,294882.90625,294911.6875,326406.46875,319799.03125,285106.96875,255756.625,221670.3125,246257.5,0.015380859375,0.98876953125,0.071533203125,-1.0375975370407104,-3.601073980331421,0.4882812201976776,73.33333587646484,199932.0,0.0
14931.7550197,294882.90625,294911.6875,326406.46875,319799.03125,285106.96875,255756.625,221670.3125,246257.5,0.015380859375,0.98876953125,0.071533203125,-1.0375975370407104,-3.601073980331421,0.4882812201976776,73.33333587646484,199933.0,0.0
14931.7550198,294866.1875,295262.71875,326613.90625,319747.8125,285276.59375,255843.796875,221735.390625,246246.5,0.040283203125,0.986328125,0.067626953125,-0.7934569716453552,-3.417968511581421,0.3356933295726776,73.33333587646484,199934.0,1.0
14931.7576259,294835.34375,294962.9375,326400.65625,319737.96875,285136.9375,255779.421875,221668.34375,246232.109375,0.04541015625,0.9873046875,0.072265625,-0.7019042372703552,-3.082275152206421,0.03051757626235485,73.33333587646484,199935.0,1.0
14931.7576284,294845.09375,294742.28125,326266.46875,319772.375,285037.6875,255739.1875,221642.046875,246243.8125,0.04541015625,0.986572265625,0.07177734375,-0.5187987685203552,-2.624511480331421,-0.2136230319738388,73.33333587646484,199936.0,1.0
14931.7595589,294888.09375,294946.125,326439.71875,319806.1875,285146.3125,255788.71875,221700.96875,246268.140625,0.043701171875,0.988525390625,0.07177734375,-0.4272460639476776,-2.258300542831421,-0.4882812201976776,73.33333587646484,199937.0,1.0
14931.7646026,294904.375,295270.9375,326663.875,319791.4375,285303.125,255857.84375,221761.765625,246271.0,0.045166015625,0.9892578125,0.06884765625,-0.4577636420726776,-1.8005369901657104,-0.7629393935203552,73.33333587646484,199938.0,1.0
14931.7646053,294873.4375,295282.125,326641.625,319748.6875,285301.875,255845.046875,221738.078125,246247.296875,0.044921875,0.989013671875,0.0732421875,-0.3967284858226776,-1.2817381620407104,-1.0375975370407104,73.33333587646484,199939.0,1.0
14931.7646068,294841.25,294964.4375,326415.15625,319734.65625,285150.875,255772.546875,221664.859375,246230.671875,0.0439453125,0.99072265625,0.071044921875,-0.3356933295726776,-0.9155272841453552,-1.3732908964157104,73.33333587646484,199940.0,1.0
14931.7646081,294854.21875,294747.8125,326290.4375,319772.46875,285055.75,255748.765625,221651.53125,246249.8125,0.04345703125,0.988525390625,0.0712890625,-0.3051757514476776,-0.4882812201976776,-1.7089842557907104,73.33333587646484,199941.0,1.0
14931.7646093,294887.375,294936.46875,326448.84375,319803.40625,285146.59375,255783.1875,221695.875,246267.421875,0.041748046875,0.990234375,0.07080078125,-0.2746581733226776,-0.1220703050494194,-2.197265386581421,73.33333587646484,199942.0,1.0
14931.7670527,294902.75,295259.0625,326667.8125,319794.375,285300.375,255842.90625,221751.9375,246271.171875,0.03955078125,0.988525390625,0.068603515625,-0.3051757514476776,0.2441406100988388,-2.380370855331421,73.33333587646484,199943.0,1.0
14931.795487,294876.46875,295269.96875,326647.0625,319751.1875,285297.59375,255831.1875,221730.03125,246239.875,0.036865234375,0.988037109375,0.067138671875,-0.3967284858226776,0.6408690810203552,-2.624511480331421,73.33333587646484,199944.0,1.0
14931.7954922,294843.75,294964.625,326419.0,319735.1875,285144.625,255767.71875,221659.9375,246222.8125,0.03369140625,0.9892578125,0.070068359375,-0.3051757514476776,0.9765624403953552,-2.716064214706421,73.33333587646484,199945.0,1.0
14931.7954935,294852.0625,294750.78125,326290.6875,319768.8125,285046.96875,255733.734375,221635.96875,246238.90625,0.03076171875,0.986328125,0.07080078125,-0.3356933295726776,1.1901854276657104,-2.807616949081421,73.33333587646484,199946.0,1.0
14931.7954948,294879.6875,294937.4375,326446.0,319790.28125,285138.4375,255772.09375,221680.59375,246251.234375,0.029296875,0.985595703125,0.06982421875,-0.2441406100988388,1.3732908964157104,-2.838134527206421,73.33333587646484,199947.0,1.0
14931.7954962,294895.34375,295258.59375,326662.4375,319776.40625,285290.78125,255833.875,221736.203125,246252.125,0.02490234375,0.9892578125,0.074462890625,-0.2441406100988388,1.4343260526657104,-2.807616949081421,73.33333587646484,199948.0,1.0
14931.8183805,294885.9375,295286.75,326657.625,319753.25,285308.3125,255835.671875,221736.015625,246252.40625,0.021728515625,0.9892578125,0.07080078125,-0.1831054538488388,1.4953612089157104,-2.838134527206421,73.33333587646484,199949.0,1.0
14931.8433637,294837.3125,294957.21875,326413.53125,319725.625,285144.25,255753.765625,221651.0,246227.1875,0.0146484375,0.98828125,0.0703125,-0.0915527269244194,1.5258787870407104,-2.777099370956421,73.33333587646484,199950.0,1.0
14931.9041215,294839.1875,294737.1875,326273.34375,319748.15625,285039.65625,255709.59375,221614.515625,246222.265625,0.011962890625,0.98681640625,0.06982421875,0.0915527269244194,1.3122557401657104,-2.716064214706421,73.33333587646484,199951.0,1.0
14931.9041273,294893.8125,294946.5625,326450.1875,319793.65625,285153.1875,255778.0,221688.90625,246257.578125,0.0087890625,0.989501953125,0.07373046875,0.1525878757238388,1.1291502714157104,-2.563476324081421,73.33333587646484,199952.0,1.0
14931.9041287,294927.53125,295290.59375,326693.1875,319799.3125,285326.8125,255862.9375,221766.78125,246279.125,0.006591796875,0.98828125,0.073974609375,0.1831054538488388,0.9460448622703552,-2.288818120956421,73.33333587646484,199953.0,1.0
14931.9041304,294893.09375,295307.0625,326677.28125,319754.6875,285326.46875,255852.5625,221744.421875,246253.296875,0.00390625,0.987548828125,0.074462890625,0.2441406100988388,0.5798339247703552,-1.8920897245407104,73.33333587646484,199954.0,1.0
14931.9548528,294853.84375,294989.125,326448.3125,319734.65625,285169.28125,255778.265625,221665.484375,246231.5625,0.002197265625,0.9892578125,0.076904296875,0.3662109076976776,0.2136230319738388,-1.6479490995407104,73.33333587646484,199955.0,1.0
14931.9548573,294850.375,294742.28125,326283.0,319753.625,285041.34375,255723.8125,221624.53125,246233.171875,0.000732421875,0.990966796875,0.076171875,0.4272460639476776,-0.1220703050494194,-1.3732908964157104,73.33333587646484,199956.0,1.0
14931.9548586,294882.46875,294931.5625,326434.625,319784.53125,285132.625,255775.140625,221684.078125,246256.515625,-0.00146484375,0.992919921875,0.0732421875,0.4882812201976776,-0.6713866591453552,-1.0986326932907104,73.33333587646484,199957.0,1.0
14931.9548599,294903.3125,295268.4375,326661.71875,319780.25,285295.53125,255852.921875,221754.890625,246268.765625,0.000244140625,0.993408203125,0.07421875,0.4577636420726776,-1.0681151151657104,-0.8544921278953552,73.33333587646484,199958.0,1.0
14931.9548611,294872.8125,295293.46875,326651.625,319738.84375,285304.21875,255839.78125,221736.46875,246247.75,0.002685546875,0.99267578125,0.076171875,0.3967284858226776,-1.5258787870407104,-0.5187987685203552,73.33333587646484,199959.0,1.0
14931.9548626,294832.125,294964.09375,326410.40625,319716.96875,285143.53125,255766.734375,221657.25,246226.65625,0.005126953125,0.993408203125,0.076416015625,0.3356933295726776,-1.9836424589157104,-0.2136230319738388,73.33333587646484,199960.0,1.0
14931.9927077,294841.78125,294730.65625,326259.125,319751.8125,285031.875,255730.875,221629.0,246235.140625,0.0078125,0.990966796875,0.07763671875,0.3967284858226776,-2.380370855331421,0.0,73.33333587646484,199961.0,1.0
14931.9927128,294886.03125,294924.40625,326415.0625,319791.78125,285128.0625,255777.109375,221690.515625,246257.9375,0.00927734375,0.989990234375,0.076416015625,0.5493163466453552,-2.685546636581421,0.2746581733226776,73.33333587646484,199962.0,1.0
14931.9927142,294898.5625,295255.65625,326639.1875,319776.40625,285284.0,255839.515625,221745.5,246257.578125,0.013427734375,0.989990234375,0.072509765625,0.6103515028953552,-2.899169683456421,0.3356933295726776,73.33333587646484,199963.0,1.0
14932.0171432,294875.75,295288.28125,326638.03125,319741.71875,285301.53125,255838.796875,221734.765625,246242.5625,0.0166015625,0.9912109375,0.0732421875,0.6408690810203552,-3.173827886581421,0.3662109076976776,73.33333587646484,199964.0,1.0
14932.0422314,294844.90625,294979.65625,326420.0625,319731.4375,285160.34375,255781.578125,221675.3125,246230.671875,0.02099609375,0.990234375,0.07421875,0.6713866591453552,-3.204345464706421,0.4272460639476776,73.33333587646484,199965.0,1.0
14932.098391,294853.3125,294755.25,326282.5625,319761.9375,285058.53125,255753.5,221651.4375,246241.84375,0.02294921875,0.989501953125,0.074462890625,0.7019042372703552,-3.265380620956421,0.4272460639476776,73.33333587646484,199966.0,1.0
14932.1008911,294889.09375,294956.125,326449.125,319794.75,285159.90625,255803.484375,221709.28125,246265.625,0.024658203125,0.98583984375,0.072998046875,0.8544921278953552,-3.204345464706421,0.3967284858226776,73.33333587646484,199967.0,1.0
14932.1033936,294895.875,295271.65625,326654.21875,319774.0,285299.65625,255851.3125,221760.078125,246266.078125,0.02783203125,0.9853515625,0.072509765625,1.0375975370407104,-3.143310308456421,0.2746581733226776,73.33333587646484,199968.0,1.0
14932.1059026,294855.03125,295268.53125,326607.8125,319724.46875,285281.3125,255832.53125,221736.375,246242.5625,0.0302734375,0.984619140625,0.072265625,1.2207030057907104,-3.082275152206421,0.1831054538488388,73.33333587646484,199969.0,1.0
14932.1309114,294808.71875,294940.9375,326357.65625,319698.71875,285115.90625,255759.21875,221656.53125,246218.25,0.0322265625,0.98681640625,0.076416015625,1.4343260526657104,-2.960204839706421,-0.0610351525247097,73.33333587646484,199970.0,1.0
14932.1558803,294811.21875,294717.40625,326222.125,319726.53125,285012.125,255715.0625,221615.40625,246219.046875,0.03515625,0.986083984375,0.071533203125,1.4343260526657104,-2.746581792831421,-0.3662109076976776,73.33333587646484,199971.0,1.0
14932.1808914,294863.59375,294926.46875,326406.65625,319772.5625,285130.125,255765.125,221684.4375,246251.234375,0.035888671875,0.986572265625,0.07177734375,1.4648436307907104,-2.502441167831421,-0.5493163466453552,73.33333587646484,199972.0,1.0
14932.1995937,294886.21875,295252.25,326637.6875,319767.75,285294.46875,255840.578125,221749.96875,246257.5,0.037109375,0.98876953125,0.072998046875,1.4343260526657104,-2.258300542831421,-0.6713866591453552,73.33333587646484,199973.0,1.0
14932.2166402,294865.84375,295284.71875,326629.46875,319735.09375,285305.28125,255838.890625,221734.5,246243.71875,0.0390625,0.990234375,0.071044921875,1.5258787870407104,-2.014159917831421,-0.7934569716453552,73.33333587646484,199974.0,1.0
14932.2166482,294836.15625,294974.8125,326405.75,319725.71875,285158.28125,255768.609375,221665.75,246229.0625,0.037353515625,0.98876953125,0.069580078125,1.5258787870407104,-1.7395018339157104,-1.0986326932907104,73.33333587646484,199975.0,1.0
14932.2166496,294849.84375,294752.1875,326274.15625,319762.1875,285059.21875,255730.96875,221638.921875,246243.640625,0.0380859375,0.987548828125,0.064697265625,1.4953612089157104,-1.4343260526657104,-1.4038084745407104,73.33333587646484,199976.0,1.0
14932.2166509,294890.0625,294946.21875,326435.1875,319793.9375,285158.375,255781.578125,221692.03125,246262.234375,0.035400390625,0.988525390625,0.068603515625,1.5258787870407104,-1.2207030057907104,-1.5869139432907104,73.33333587646484,199977.0,1.0
14932.2166522,294901.15625,295265.5625,326644.65625,319775.34375,285303.5,255841.5625,221743.171875,246261.515625,0.033447265625,0.99169921875,0.068359375,1.5869139432907104,-1.0070799589157104,-1.7700194120407104,73.33333587646484,199978.0,1.0
14932.2166535,294867.09375,295276.3125,326620.15625,319730.46875,285298.65625,255829.671875,221720.828125,246235.765625,0.034423828125,0.990966796875,0.066650390625,1.6479490995407104,-0.7934569716453552,-1.8920897245407104,73.33333587646484,199979.0,1.0
14932.2166548,294830.34375,294964.375,326392.4375,319714.09375,285143.71875,255760.5625,221647.328125,246215.46875,0.03173828125,0.99169921875,0.068115234375,1.6784666776657104,-0.5798339247703552,-2.014159917831421,73.33333587646484,199980.0,1.0
14932.2166561,294847.59375,294750.5,326264.5,319754.0625,285044.3125,255728.90625,221625.875,246231.296875,0.027587890625,0.992919921875,0.069091796875,1.6479490995407104,-0.4272460639476776,-2.075195074081421,73.33333587646484,199981.0,1.0
14932.2166574,294895.875,294953.46875,326437.9375,319795.1875,285150.59375,255789.53125,221686.40625,246261.609375,0.02734375,0.99267578125,0.06884765625,1.6479490995407104,-0.2441406100988388,-2.075195074081421,73.33333587646484,199982.0,1.0
14932.2166586,294916.0,295282.5625,326663.78125,319788.125,285306.96875,255857.5625,221747.828125,246269.5625,0.0234375,0.992431640625,0.06884765625,1.5258787870407104,-0.2746581733226776,-2.105712652206421,73.33333587646484,199983.0,1.0
14932.2166599,294891.125,295304.90625,326651.4375,319750.125,285312.34375,255848.1875,221733.703125,246249.71875,0.020263671875,0.99365234375,0.068603515625,1.3732908964157104,-0.3051757514476776,-2.075195074081421,73.33333587646484,199984.0,1.0
14932.2166613,294864.59375,295000.125,326434.8125,319741.8125,285169.03125,255787.390625,221671.296875,246241.21875,0.0166015625,0.993408203125,0.06689453125,1.2512205839157104,-0.2746581733226776,-2.014159917831421,73.33333587646484,199985.0,1.0
14932.2188931,294865.125,294766.3125,326293.03125,319764.78125,285059.0625,255746.703125,221636.328125,246244.53125,0.0146484375,0.994873046875,0.0693359375,1.2817381620407104,-0.3051757514476776,-1.8920897245407104,73.33333587646484,199986.0,1.0
14932.2188995,294901.875,294954.96875,326449.375,319794.125,285151.3125,255789.265625,221685.421875,246260.0,0.015869140625,0.995849609375,0.0703125,1.1596678495407104,-0.4272460639476776,-1.9531248807907104,73.33333587646484,199987.0,1.0
14932.2214711,294909.75,295266.90625,326651.8125,319773.5625,285289.375,255831.015625,221726.28125,246253.109375,0.014892578125,0.99658203125,0.07421875,1.0070799589157104,-0.5798339247703552,-1.8005369901657104,73.33333587646484,199988.0,1.0
14932.2214793,294878.875,295288.375,326636.15625,319732.25,285295.28125,255825.828125,221710.453125,246233.171875,0.013916015625,0.99560546875,0.069580078125,0.8239745497703552,-0.7934569716453552,-1.5563963651657104,73.33333587646484,199989.0,1.0
14932.2458705,294852.5,294986.34375,326420.6875,319728.5625,285157.3125,255771.65625,221654.484375,246225.125,0.0146484375,0.99365234375,0.069580078125,0.7324218153953552,-0.9765624403953552,-1.2512205839157104,73.33333587646484,199990.0,1.0
14932.2708507,294871.03125,294774.0,326302.40625,319774.1875,285070.21875,255749.75,221644.296875,246249.71875,0.0126953125,0.992431640625,0.068115234375,0.6103515028953552,-1.1901854276657104,-1.1596678495407104,73.33333587646484,199991.0,1.0
14932.3021672,294914.125,294977.40625,326478.09375,319815.40625,285177.34375,255810.359375,221711.53125,246281.28125,0.011474609375,0.991455078125,0.065185546875,0.4577636420726776,-1.3122557401657104,-0.7324218153953552,73.33333587646484,199992.0,1.0
14932.3045782,294924.03125,295293.46875,326690.53125,319796.09375,285321.8125,255869.015625,221761.40625,246278.140625,0.011962890625,0.99169921875,0.0654296875,0.3967284858226776,-1.5258787870407104,-0.6713866591453552,73.33333587646484,199993.0,1.0
14932.307153,294884.875,295291.875,326649.21875,319742.96875,285304.21875,255834.328125,221723.421875,246242.65625,0.011962890625,0.991943359375,0.062744140625,0.3051757514476776,-1.6784666776657104,-0.3967284858226776,73.33333587646484,199994.0,1.0
14932.3107773,294851.53125,294972.15625,326405.75,319726.4375,285140.59375,255761.015625,221650.734375,246223.34375,0.013671875,0.991943359375,0.063720703125,0.0610351525247097,-1.7700194120407104,-0.2136230319738388,73.33333587646484,199995.0,1.0
14932.3107906,294860.21875,294761.21875,326282.65625,319763.71875,285051.8125,255738.75,221637.140625,246239.703125,0.017822265625,0.991455078125,0.06689453125,0.1525878757238388,-2.044677495956421,-0.1220703050494194,73.33333587646484,199996.0,1.0
14932.3108475,294899.375,294959.53125,326457.53125,319801.875,285161.96875,255794.09375,221699.09375,246259.734375,0.021240234375,0.98974609375,0.065673828125,-0.1220703050494194,-2.044677495956421,0.03051757626235485,73.33333587646484,199997.0,1.0
14932.3171664,294916.625,295281.40625,326686.6875,319791.875,285319.5,255856.3125,221753.1875,246265.453125,0.0185546875,0.9873046875,0.06591796875,-0.1220703050494194,-2.227782964706421,0.0610351525247097,73.33333587646484,199998.0,1.0
14932.3221222,294885.15625,295294.28125,326658.34375,319744.03125,285310.09375,255829.5,221725.109375,246242.46875,0.01806640625,0.9873046875,0.064208984375,-0.1220703050494194,-2.288818120956421,0.0915527269244194,73.33333587646484,199999.0,1.0
14932.3246086,294853.125,294973.65625,326414.25,319729.1875,285149.96875,255747.6875,221650.28125,246227.09375,0.020263671875,0.985595703125,0.06201171875,-0.0610351525247097,-2.380370855331421,-0.0610351525247097,73.33333587646484,200000.0,1.0
14932.3763736,294863.59375,294749.15625,326271.75,319762.28125,285046.71875,255724.4375,221627.390625,246240.15625,0.021240234375,0.986083984375,0.0654296875,0.0,-2.471923589706421,-0.0915527269244194,73.33333587646484,200001.0,1.0
14932.3763844,294910.90625,294955.78125,326445.375,319801.625,285155.4375,255786.046875,221690.0625,246263.9375,0.019775390625,0.986328125,0.064208984375,0.03051757626235485,-2.502441167831421,-0.2441406100988388,73.33333587646484,200002.0,1.0
14932.3763857,294923.25,295279.15625,326665.3125,319785.25,285307.59375,255841.484375,221741.65625,246260.359375,0.02294921875,0.988525390625,0.0654296875,-0.03051757626235485,-2.563476324081421,-0.3662109076976776,73.33333587646484,200003.0,1.0
14932.376387,294901.34375,295301.0625,326647.34375,319749.21875,285309.5625,255832.171875,221726.546875,246248.828125,0.026123046875,0.987060546875,0.068359375,0.03051757626235485,-2.563476324081421,-0.5493163466453552,73.33333587646484,200004.0,1.0
14932.3763883,294871.375,294994.5,326423.1875,319738.21875,285161.5,255770.125,221661.984375,246235.59375,0.02734375,0.987548828125,0.06884765625,0.0915527269244194,-2.532958745956421,-0.7934569716453552,73.33333587646484,200005.0,1.0
14932.3763895,294871.46875,294762.65625,326281.40625,319762.28125,285051.71875,255730.96875,221629.53125,246241.84375,0.02880859375,0.989501953125,0.06884765625,0.1831054538488388,-2.410888433456421,-0.9460448622703552,73.33333587646484,200006.0,1.0
14932.3763907,294907.0625,294951.21875,326444.375,319793.40625,285151.9375,255778.53125,221685.6875,246265.8125,0.02978515625,0.989501953125,0.066650390625,0.2441406100988388,-2.380370855331421,-1.1596678495407104,73.33333587646484,200007.0,1.0
14932.376392,294917.78125,295270.40625,326655.03125,319777.5625,285300.0,255846.390625,221746.125,246264.109375,0.02978515625,0.9892578125,0.066162109375,0.3967284858226776,-2.410888433456421,-1.4648436307907104,73.33333587646484,200008.0,1.0
14932.3763935,294886.65625,295289.90625,326632.40625,319734.3125,285298.40625,255834.328125,221723.859375,246235.5,0.031494140625,0.98876953125,0.06201171875,0.3967284858226776,-2.227782964706421,-1.5563963651657104,73.33333587646484,200009.0,1.0
14932.3996111,294853.78125,294988.78125,326420.25,319725.0,285159.53125,255769.0625,221657.609375,246221.546875,0.03173828125,0.990966796875,0.0673828125,0.3967284858226776,-2.105712652206421,-1.6784666776657104,73.33333587646484,200010.0,1.0
14932.4359242,294860.75,294766.6875,326290.78125,319760.59375,285061.5625,255740.625,221635.4375,246236.3125,0.030029296875,0.9921875,0.066650390625,0.4577636420726776,-2.136230230331421,-1.8310545682907104,73.33333587646484,200011.0,1.0
14932.4638659,294908.46875,294964.90625,326458.25,319803.78125,285167.5,255804.640625,221703.296875,246270.8125,0.0302734375,0.991943359375,0.06787109375,0.4882812201976776,-1.9226073026657104,-1.8615721464157104,73.33333587646484,200012.0,1.0
14932.4638719,294917.6875,295282.28125,326671.46875,319787.75,285312.96875,255853.375,221751.125,246271.4375,0.029052734375,0.9912109375,0.067138671875,0.3356933295726776,-1.7700194120407104,-1.8920897245407104,73.33333587646484,200013.0,1.0
14932.4638733,294881.9375,295295.78125,326642.5,319740.46875,285304.21875,255840.578125,221725.921875,246246.3125,0.02978515625,0.9912109375,0.068603515625,0.3967284858226776,-1.6174315214157104,-2.014159917831421,73.33333587646484,200014.0,1.0
14932.4638746,294844.03125,294980.28125,326406.125,319721.875,285146.9375,255774.421875,221653.953125,246226.734375,0.02734375,0.99267578125,0.069091796875,0.3051757514476776,-1.4648436307907104,-2.105712652206421,73.33333587646484,200015.0,1.0
14932.4871758,294844.28125,294751.03125,326260.75,319746.5625,285036.6875,255732.9375,221615.5,246225.390625,0.02587890625,0.9912109375,0.066162109375,0.3051757514476776,-1.4343260526657104,-2.166747808456421,73.33333587646484,200016.0,1.0
14932.512185,294886.40625,294947.90625,326433.125,319787.5,285143.90625,255779.15625,221677.640625,246254.546875,0.022705078125,0.991455078125,0.066162109375,0.3662109076976776,-1.3122557401657104,-2.105712652206421,73.33333587646484,200017.0,1.0
14932.5764621,294901.40625,295275.40625,326653.15625,319777.9375,285302.15625,255847.734375,221742.546875,246263.9375,0.0234375,0.9921875,0.067138671875,0.3662109076976776,-1.3122557401657104,-2.136230230331421,73.33333587646484,200018.0,1.0
14932.5764682,294877.28125,295302.84375,326643.5,319741.28125,285314.5,255841.484375,221728.78125,246247.03125,0.021728515625,0.991943359375,0.067626953125,0.3662109076976776,-1.2512205839157104,-2.136230230331421,73.33333587646484,200019.0,1.0
14932.5764695,294843.5,294993.0625,326418.625,319727.78125,285165.09375,255772.984375,221657.609375,246230.3125,0.020263671875,0.992919921875,0.06884765625,0.2746581733226776,-1.1901854276657104,-2.105712652206421,73.33333587646484,200020.0,1.0
14932.5764707,294846.0,294759.09375,326271.90625,319756.84375,285051.71875,255734.71875,221624.171875,246238.0,0.01904296875,0.99169921875,0.067138671875,0.2136230319738388,-1.1291502714157104,-1.9836424589157104,73.33333587646484,200021.0,1.0
14932.5764719,294888.71875,294951.40625,326430.53125,319796.53125,285148.625,255789.625,221686.671875,246266.96875,0.018798828125,0.9921875,0.07080078125,0.1831054538488388,-1.1901854276657104,-1.8005369901657104,73.33333587646484,200022.0,1.0
14932.5764732,294905.8125,295278.1875,326658.4375,319786.96875,285305.375,255846.390625,221742.8125,246267.15625,0.016357421875,0.993408203125,0.07177734375,0.1525878757238388,-1.2817381620407104,-1.7089842557907104,73.33333587646484,200023.0,1.0
14932.5764746,294878.4375,295305.375,326651.8125,319744.9375,285313.5,255838.703125,221724.046875,246248.734375,0.01318359375,0.991943359375,0.0693359375,0.0610351525247097,-1.3122557401657104,-1.6174315214157104,73.33333587646484,200024.0,1.0
14932.6008983,294849.5625,295003.15625,326432.59375,319734.84375,285171.25,255778.890625,221661.71875,246235.046875,0.011962890625,0.991455078125,0.06689453125,0.0915527269244194,-1.3732908964157104,-1.4953612089157104,73.33333587646484,200025.0,1.0
14932.6259157,294849.5625,295003.15625,326432.59375,319734.84375,285171.25,255778.890625,221661.71875,246235.046875,0.011962890625,0.991455078125,0.06689453125,0.0915527269244194,-1.3732908964157104,-1.4953612089157104,73.33333587646484,200026.0,0.0
14932.6259173,294849.5625,295003.15625,326432.59375,319734.84375,285171.25,255778.890625,221661.71875,246235.046875,0.011962890625,0.991455078125,0.06689453125,0.0915527269244194,-1.3732908964157104,-1.4953612089157104,73.33333587646484,200027.0,0.0
14932.6259175,294849.5625,295003.15625,326432.59375,319734.84375,285171.25,255778.890625,221661.71875,246235.046875,0.011962890625,0.991455078125,0.06689453125,0.0915527269244194,-1.3732908964157104,-1.4953612089157104,73.33333587646484,200028.0,0.0
14932.6259177,294849.5625,295003.15625,326432.59375,319734.84375,285171.25,255778.890625,221661.71875,246235.046875,0.011962890625,0.991455078125,0.06689453125,0.0915527269244194,-1.3732908964157104,-1.4953612089157104,73.33333587646484,200029.0,0.0
14932.6259179,294849.5625,295003.15625,326432.59375,319734.84375,285171.25,255778.890625,221661.71875,246235.046875,0.011962890625,0.991455078125,0.06689453125,0.0915527269244194,-1.3732908964157104,-1.4953612089157104,73.33333587646484,200030.0,0.0
14932.6259181,294849.5625,295003.15625,326432.59375,319734.84375,285171.25,255778.890625,221661.71875,246235.046875,0.011962890625,0.991455078125,0.06689453125,0.0915527269244194,-1.3732908964157104,-1.4953612089157104,73.33333587646484,200031.0,0.0
14932.6259183,294849.5625,295003.15625,326432.59375,319734.84375,285171.25,255778.890625,221661.71875,246235.046875,0.011962890625,0.991455078125,0.06689453125,0.0915527269244194,-1.3732908964157104,-1.4953612089157104,73.33333587646484,200032.0,0.0
14932.6259185,294849.5625,295003.15625,326432.59375,319734.84375,285171.25,255778.890625,221661.71875,246235.046875,0.011962890625,0.991455078125,0.06689453125,0.0915527269244194,-1.3732908964157104,-1.4953612089157104,73.33333587646484,200033.0,0.0
14932.6259188,294849.5625,295003.15625,326432.59375,319734.84375,285171.25,255778.890625,221661.71875,246235.046875,0.011962890625,0.991455078125,0.06689453125,0.0915527269244194,-1.3732908964157104,-1.4953612089157104,73.33333587646484,200034.0,0.0
14932.625919,294849.5625,295003.15625,326432.59375,319734.84375,285171.25,255778.890625,221661.71875,246235.046875,0.011962890625,0.991455078125,0.06689453125,0.0915527269244194,-1.3732908964157104,-1.4953612089157104,73.33333587646484,200035.0,0.0
14932.6259191,294849.5625,295003.15625,326432.59375,319734.84375,285171.25,255778.890625,221661.71875,246235.046875,0.011962890625,0.991455078125,0.06689453125,0.0915527269244194,-1.3732908964157104,-1.4953612089157104,73.33333587646484,200036.0,0.0
14932.6259193,294849.5625,295003.15625,326432.59375,319734.84375,285171.25,255778.890625,221661.71875,246235.046875,0.011962890625,0.991455078125,0.06689453125,0.0915527269244194,-1.3732908964157104,-1.4953612089157104,73.33333587646484,200037.0,0.0
14932.6259195,294849.5625,295003.15625,326432.59375,319734.84375,285171.25,255778.890625,221661.71875,246235.046875,0.011962890625,0.991455078125,0.06689453125,0.0915527269244194,-1.3732908964157104,-1.4953612089157104,73.33333587646484,200038.0,0.0
14932.6259197,294849.5625,295003.15625,326432.59375,319734.84375,285171.25,255778.890625,221661.71875,246235.046875,0.011962890625,0.991455078125,0.06689453125,0.0915527269244194,-1.3732908964157104,-1.4953612089157104,73.33333587646484,200039.0,0.0
14932.6259198,294849.5625,295003.15625,326432.59375,319734.84375,285171.25,255778.890625,221661.71875,246235.046875,0.011962890625,0.991455078125,0.06689453125,0.0915527269244194,-1.3732908964157104,-1.4953612089157104,73.33333587646484,200040.0,0.0
14932.62592,294849.5625,295003.15625,326432.59375,319734.84375,285171.25,255778.890625,221661.71875,246235.046875,0.011962890625,0.991455078125,0.06689453125,0.0915527269244194,-1.3732908964157104,-1.4953612089157104,73.33333587646484,200041.0,0.0
14932.6259202,294849.5625,295003.15625,326432.59375,319734.84375,285171.25,255778.890625,221661.71875,246235.046875,0.011962890625,0.991455078125,0.06689453125,0.0915527269244194,-1.3732908964157104,-1.4953612089157104,73.33333587646484,200042.0,0.0
14932.6259204,294849.5625,295003.15625,326432.59375,319734.84375,285171.25,255778.890625,221661.71875,246235.046875,0.011962890625,0.991455078125,0.06689453125,0.0915527269244194,-1.3732908964157104,-1.4953612089157104,73.33333587646484,200043.0,0.0
14932.6259205,294849.5625,295003.15625,326432.59375,319734.84375,285171.25,255778.890625,221661.71875,246235.046875,0.011962890625,0.991455078125,0.06689453125,0.0915527269244194,-1.3732908964157104,-1.4953612089157104,73.33333587646484,200044.0,0.0
14932.6259207,294849.5625,295003.15625,326432.59375,319734.84375,285171.25,255778.890625,221661.71875,246235.046875,0.011962890625,0.991455078125,0.06689453125,0.0915527269244194,-1.3732908964157104,-1.4953612089157104,73.33333587646484,200045.0,0.0
14932.6259209,294849.5625,295003.15625,326432.59375,319734.84375,285171.25,255778.890625,221661.71875,246235.046875,0.011962890625,0.991455078125,0.06689453125,0.0915527269244194,-1.3732908964157104,-1.4953612089157104,73.33333587646484,200046.0,0.0
14932.625921,294849.5625,295003.15625,326432.59375,319734.84375,285171.25,255778.890625,221661.71875,246235.046875,0.011962890625,0.991455078125,0.06689453125,0.0915527269244194,-1.3732908964157104,-1.4953612089157104,73.33333587646484,200047.0,0.0
14932.6259212,294849.5625,295003.15625,326432.59375,319734.84375,285171.25,255778.890625,221661.71875,246235.046875,0.011962890625,0.991455078125,0.06689453125,0.0915527269244194,-1.3732908964157104,-1.4953612089157104,73.33333587646484,200048.0,0.0
14932.6259214,294849.5625,295003.15625,326432.59375,319734.84375,285171.25,255778.890625,221661.71875,246235.046875,0.011962890625,0.991455078125,0.06689453125,0.0915527269244194,-1.3732908964157104,-1.4953612089157104,73.33333587646484,200049.0,0.0
14932.6259216,294849.5625,295003.15625,326432.59375,319734.84375,285171.25,255778.890625,221661.71875,246235.046875,0.011962890625,0.991455078125,0.06689453125,0.0915527269244194,-1.3732908964157104,-1.4953612089157104,73.33333587646484,200050.0,0.0
14932.6259218,294849.5625,295003.15625,326432.59375,319734.84375,285171.25,255778.890625,221661.71875,246235.046875,0.011962890625,0.991455078125,0.06689453125,0.0915527269244194,-1.3732908964157104,-1.4953612089157104,73.33333587646484,200051.0,0.0
14932.6259219,294849.5625,295003.15625,326432.59375,319734.84375,285171.25,255778.890625,221661.71875,246235.046875,0.011962890625,0.991455078125,0.06689453125,0.0915527269244194,-1.3732908964157104,-1.4953612089157104,73.33333587646484,200052.0,0.0
14932.6259221,294849.5625,295003.15625,326432.59375,319734.84375,285171.25,255778.890625,221661.71875,246235.046875,0.011962890625,0.991455078125,0.06689453125,0.0915527269244194,-1.3732908964157104,-1.4953612089157104,73.33333587646484,200053.0,0.0
14932.6259223,294849.5625,295003.15625,326432.59375,319734.84375,285171.25,255778.890625,221661.71875,246235.046875,0.011962890625,0.991455078125,0.06689453125,0.0915527269244194,-1.3732908964157104,-1.4953612089157104,73.33333587646484,200054.0,0.0
14932.6259224,294849.5625,295003.15625,326432.59375,319734.84375,285171.25,255778.890625,221661.71875,246235.046875,0.011962890625,0.991455078125,0.06689453125,0.0915527269244194,-1.3732908964157104,-1.4953612089157104,73.33333587646484,200055.0,0.0
14932.6259226,294849.5625,295003.15625,326432.59375,319734.84375,285171.25,255778.890625,221661.71875,246235.046875,0.011962890625,0.991455078125,0.06689453125,0.0915527269244194,-1.3732908964157104,-1.4953612089157104,73.33333587646484,200056.0,0.0
14932.6259228,294849.5625,295003.15625,326432.59375,319734.84375,285171.25,255778.890625,221661.71875,246235.046875,0.011962890625,0.991455078125,0.06689453125,0.0915527269244194,-1.3732908964157104,-1.4953612089157104,73.33333587646484,200057.0,0.0
14932.625923,294849.5625,295003.15625,326432.59375,319734.84375,285171.25,255778.890625,221661.71875,246235.046875,0.011962890625,0.991455078125,0.06689453125,0.0915527269244194,-1.3732908964157104,-1.4953612089157104,73.33333587646484,200058.0,0.0
14932.6259231,294849.5625,295003.15625,326432.59375,319734.84375,285171.25,255778.890625,221661.71875,246235.046875,0.011962890625,0.991455078125,0.06689453125,0.0915527269244194,-1.3732908964157104,-1.4953612089157104,73.33333587646484,200059.0,0.0
14932.6259233,294849.5625,295003.15625,326432.59375,319734.84375,285171.25,255778.890625,221661.71875,246235.046875,0.011962890625,0.991455078125,0.06689453125,0.0915527269244194,-1.3732908964157104,-1.4953612089157104,73.33333587646484,200060.0,0.0
14932.6259235,294849.5625,295003.15625,326432.59375,319734.84375,285171.25,255778.890625,221661.71875,246235.046875,0.011962890625,0.991455078125,0.06689453125,0.0915527269244194,-1.3732908964157104,-1.4953612089157104,73.33333587646484,200061.0,0.0
14932.6259237,294849.5625,295003.15625,326432.59375,319734.84375,285171.25,255778.890625,221661.71875,246235.046875,0.011962890625,0.991455078125,0.06689453125,0.0915527269244194,-1.3732908964157104,-1.4953612089157104,73.33333587646484,200062.0,0.0
14932.6259238,294849.5625,295003.15625,326432.59375,319734.84375,285171.25,255778.890625,221661.71875,246235.046875,0.011962890625,0.991455078125,0.06689453125,0.0915527269244194,-1.3732908964157104,-1.4953612089157104,73.33333587646484,200063.0,0.0
14932.6259241,294849.5625,295003.15625,326432.59375,319734.84375,285171.25,255778.890625,221661.71875,246235.046875,0.011962890625,0.991455078125,0.06689453125,0.0915527269244194,-1.3732908964157104,-1.4953612089157104,73.33333587646484,200064.0,0.0
14932.6259243,294849.5625,295003.15625,326432.59375,319734.84375,285171.25,255778.890625,221661.71875,246235.046875,0.011962890625,0.991455078125,0.06689453125,0.0915527269244194,-1.3732908964157104,-1.4953612089157104,73.33333587646484,200065.0,0.0
14932.6259245,294849.5625,295003.15625,326432.59375,319734.84375,285171.25,255778.890625,221661.71875,246235.046875,0.011962890625,0.991455078125,0.06689453125,0.0915527269244194,-1.3732908964157104,-1.4953612089157104,73.33333587646484,200066.0,0.0
14932.6259247,294898.90625,294944.34375,326435.0,319797.40625,285154.1875,255776.296875,221685.953125,246266.890625,0.018310546875,0.991455078125,0.058349609375,0.2136230319738388,-1.5563963651657104,-0.5493163466453552,73.33333587646484,200067.0,1.0
14932.6558885,294910.625,295265.5,326657.4375,319781.875,285305.625,255833.515625,221739.234375,246265.8125,0.01513671875,0.992919921875,0.0595703125,0.3356933295726776,-1.5563963651657104,-0.7324218153953552,73.33333587646484,200068.0,1.0
14932.6634113,294878.0,295286.9375,326632.5,319734.84375,285302.25,255822.515625,221714.109375,246238.8125,0.014892578125,0.991455078125,0.062255859375,0.3051757514476776,-1.6784666776657104,-0.7019042372703552,73.33333587646484,200069.0,1.0
14932.6915312,294847.34375,294990.65625,326412.8125,319723.03125,285160.15625,255765.296875,221649.46875,246224.0625,0.016845703125,0.991455078125,0.06591796875,0.1831054538488388,-1.8005369901657104,-0.7629393935203552,73.33333587646484,200070.0,1.0
14932.6915365,294852.96875,294759.875,326271.03125,319754.0625,285053.34375,255732.40625,221621.140625,246234.25,0.0185546875,0.9892578125,0.06640625,0.1831054538488388,-1.8615721464157104,-0.8544921278953552,73.33333587646484,200071.0,1.0
14932.6915378,294896.25,294948.34375,326434.0,319791.875,285151.78125,255788.375,221683.8125,246261.078125,0.020751953125,0.98974609375,0.06640625,0.1220703050494194,-1.8920897245407104,-1.0070799589157104,73.33333587646484,200072.0,1.0
14932.6915391,294915.0,295274.25,326661.5625,319782.5,285307.96875,255844.875,221740.484375,246268.046875,0.02197265625,0.989013671875,0.062255859375,0.0,-1.7700194120407104,-1.0070799589157104,73.33333587646484,200073.0,1.0
14932.6915403,294884.15625,295300.1875,326644.28125,319737.78125,285312.96875,255829.578125,221720.46875,246246.3125,0.021728515625,0.98974609375,0.063720703125,0.1220703050494194,-1.8005369901657104,-1.0681151151657104,73.33333587646484,200074.0,1.0
14932.6915415,294844.65625,294985.71875,326412.375,319714.28125,285157.125,255751.0,221642.6875,246220.84375,0.022216796875,0.990234375,0.065673828125,0.2441406100988388,-1.8920897245407104,-1.0681151151657104,73.33333587646484,200075.0,1.0
14932.6915427,294858.0625,294761.5,326279.25,319750.3125,285057.09375,255721.3125,221618.8125,246236.3125,0.02294921875,0.988037109375,0.064453125,0.2136230319738388,-1.8920897245407104,-1.0681151151657104,73.33333587646484,200076.0,1.0
14932.7159018,294902.9375,294955.4375,326444.65625,319790.71875,285157.84375,255780.234375,221681.390625,246261.96875,0.021240234375,0.9873046875,0.069580078125,0.1525878757238388,-1.8920897245407104,-1.1901854276657104,73.33333587646484,200077.0,1.0
14932.7359119,294911.4375,295275.40625,326661.90625,319775.96875,285306.0,255835.9375,221731.640625,246262.328125,0.023193359375,0.9892578125,0.06591796875,0.0915527269244194,-1.8310545682907104,-1.2207030057907104,73.33333587646484,200078.0,1.0
14932.7383903,294883.1875,295305.1875,326647.5,319733.75,285310.1875,255818.953125,221712.234375,246241.84375,0.0234375,0.98974609375,0.066162109375,0.1220703050494194,-1.7395018339157104,-1.2207030057907104,73.33333587646484,200079.0,1.0
14932.7420764,294854.3125,295001.28125,326421.6875,319725.0,285165.53125,255758.15625,221653.234375,246233.359375,0.024169921875,0.989013671875,0.064697265625,0.1220703050494194,-1.6174315214157104,-1.3427733182907104,73.33333587646484,200080.0,1.0
14932.7420819,294859.21875,294753.71875,326259.9375,319755.21875,285045.71875,255715.859375,221618.890625,246238.8125,0.024658203125,0.990478515625,0.0673828125,0.1831054538488388,-1.6784666776657104,-1.1901854276657104,73.33333587646484,200081.0,1.0
14932.7420832,294904.46875,294944.15625,326427.46875,319794.125,285149.1875,255771.375,221679.96875,246263.390625,0.0244140625,0.989501953125,0.06640625,0.1831054538488388,-1.6174315214157104,-1.1596678495407104,73.33333587646484,200082.0,1.0
14932.7446221,294926.625,295277.90625,326662.53125,319789.09375,285311.34375,255837.90625,221742.1875,246270.453125,0.02197265625,0.990234375,0.068115234375,0.1831054538488388,-1.5869139432907104,-1.2207030057907104,73.33333587646484,200083.0,1.0
14932.7472094,294900.625,295312.96875,326656.53125,319748.96875,285322.90625,255836.921875,221727.078125,246250.875,0.02099609375,0.990478515625,0.0654296875,0.1831054538488388,-1.5258787870407104,-1.2207030057907104,73.33333587646484,200084.0,1.0
14932.7496867,294862.15625,295001.75,326427.75,319731.34375,285171.0,255767.171875,221657.078125,246233.0,0.01904296875,0.992431640625,0.066650390625,0.2136230319738388,-1.4648436307907104,-1.1596678495407104,73.33333587646484,200085.0,1.0
14932.7536986,294859.21875,294762.21875,326279.78125,319758.09375,285060.75,255725.78125,221625.421875,246242.296875,0.01904296875,0.992431640625,0.064208984375,0.1220703050494194,-1.5258787870407104,-1.1596678495407104,73.33333587646484,200086.0,1.0
14932.7537038,294891.59375,294936.03125,326432.59375,319787.6875,285150.4375,255767.09375,221671.828125,246257.671875,0.01708984375,0.990966796875,0.0634765625,0.03051757626235485,-1.4648436307907104,-1.0986326932907104,73.33333587646484,200087.0,1.0
14932.7537051,294905.25,295258.59375,326648.6875,319773.1875,285300.53125,255833.78125,221732.4375,246260.625,0.01806640625,0.991943359375,0.065185546875,-0.0610351525247097,-1.5258787870407104,-1.0986326932907104,73.33333587646484,200088.0,1.0
14932.7554694,294884.15625,295296.6875,326637.9375,319736.1875,285309.40625,255832.453125,221722.4375,246243.640625,0.01806640625,0.9912109375,0.06689453125,-0.03051757626235485,-1.6479490995407104,-1.1291502714157104,73.33333587646484,200089.0,1.0
14932.7584158,294884.15625,295296.6875,326637.9375,319736.1875,285309.40625,255832.453125,221722.4375,246243.640625,0.01806640625,0.9912109375,0.06689453125,-0.03051757626235485,-1.6479490995407104,-1.1291502714157104,73.33333587646484,200090.0,0.0
14932.7584182,294884.15625,295296.6875,326637.9375,319736.1875,285309.40625,255832.453125,221722.4375,246243.640625,0.01806640625,0.9912109375,0.06689453125,-0.03051757626235485,-1.6479490995407104,-1.1291502714157104,73.33333587646484,200091.0,0.0
14932.7584184,294884.15625,295296.6875,326637.9375,319736.1875,285309.40625,255832.453125,221722.4375,246243.640625,0.01806640625,0.9912109375,0.06689453125,-0.03051757626235485,-1.6479490995407104,-1.1291502714157104,73.33333587646484,200092.0,0.0
14932.7584186,294884.15625,295296.6875,326637.9375,319736.1875,285309.40625,255832.453125,221722.4375,246243.640625,0.01806640625,0.9912109375,0.06689453125,-0.03051757626235485,-1.6479490995407104,-1.1291502714157104,73.33333587646484,200093.0,0.0
14932.7584188,294884.15625,295296.6875,326637.9375,319736.1875,285309.40625,255832.453125,221722.4375,246243.640625,0.01806640625,0.9912109375,0.06689453125,-0.03051757626235485,-1.6479490995407104,-1.1291502714157104,73.33333587646484,200094.0,0.0
14932.7584189,294884.15625,295296.6875,326637.9375,319736.1875,285309.40625,255832.453125,221722.4375,246243.640625,0.01806640625,0.9912109375,0.06689453125,-0.03051757626235485,-1.6479490995407104,-1.1291502714157104,73.33333587646484,200095.0,0.0
14932.7584192,294884.15625,295296.6875,326637.9375,319736.1875,285309.40625,255832.453125,221722.4375,246243.640625,0.01806640625,0.9912109375,0.06689453125,-0.03051757626235485,-1.6479490995407104,-1.1291502714157104,73.33333587646484,200096.0,0.0
14932.7584195,294884.15625,295296.6875,326637.9375,319736.1875,285309.40625,255832.453125,221722.4375,246243.640625,0.01806640625,0.9912109375,0.06689453125,-0.03051757626235485,-1.6479490995407104,-1.1291502714157104,73.33333587646484,200097.0,0.0
14932.7584198,294884.15625,295296.6875,326637.9375,319736.1875,285309.40625,255832.453125,221722.4375,246243.640625,0.01806640625,0.9912109375,0.06689453125,-0.03051757626235485,-1.6479490995407104,-1.1291502714157104,73.33333587646484,200098.0,0.0
14932.75842,294884.15625,295296.6875,326637.9375,319736.1875,285309.40625,255832.453125,221722.4375,246243.640625,0.01806640625,0.9912109375,0.06689453125,-0.03051757626235485,-1.6479490995407104,-1.1291502714157104,73.33333587646484,200099.0,0.0
14932.7584202,294884.15625,295296.6875,326637.9375,319736.1875,285309.40625,255832.453125,221722.4375,246243.640625,0.01806640625,0.9912109375,0.06689453125,-0.03051757626235485,-1.6479490995407104,-1.1291502714157104,73.33333587646484,200100.0,0.0
14932.7584204,294884.15625,295296.6875,326637.9375,319736.1875,285309.40625,255832.453125,221722.4375,246243.640625,0.01806640625,0.9912109375,0.06689453125,-0.03051757626235485,-1.6479490995407104,-1.1291502714157104,73.33333587646484,200101.0,0.0
14932.7584206,294884.15625,295296.6875,326637.9375,319736.1875,285309.40625,255832.453125,221722.4375,246243.640625,0.01806640625,0.9912109375,0.06689453125,-0.03051757626235485,-1.6479490995407104,-1.1291502714157104,73.33333587646484,200102.0,0.0
14932.7584207,294884.15625,295296.6875,326637.9375,319736.1875,285309.40625,255832.453125,221722.4375,246243.640625,0.01806640625,0.9912109375,0.06689453125,-0.03051757626235485,-1.6479490995407104,-1.1291502714157104,73.33333587646484,200103.0,0.0
14932.7584209,294884.15625,295296.6875,326637.9375,319736.1875,285309.40625,255832.453125,221722.4375,246243.640625,0.01806640625,0.9912109375,0.06689453125,-0.03051757626235485,-1.6479490995407104,-1.1291502714157104,73.33333587646484,200104.0,0.0
14932.7584211,294884.15625,295296.6875,326637.9375,319736.1875,285309.40625,255832.453125,221722.4375,246243.640625,0.01806640625,0.9912109375,0.06689453125,-0.03051757626235485,-1.6479490995407104,-1.1291502714157104,73.33333587646484,200105.0,0.0
14932.7584213,294884.15625,295296.6875,326637.9375,319736.1875,285309.40625,255832.453125,221722.4375,246243.640625,0.01806640625,0.9912109375,0.06689453125,-0.03051757626235485,-1.6479490995407104,-1.1291502714157104,73.33333587646484,200106.0,0.0
14932.7584214,294884.15625,295296.6875,326637.9375,319736.1875,285309.40625,255832.453125,221722.4375,246243.640625,0.01806640625,0.9912109375,0.06689453125,-0.03051757626235485,-1.6479490995407104,-1.1291502714157104,73.33333587646484,200107.0,0.0
14932.7584216,294884.15625,295296.6875,326637.9375,319736.1875,285309.40625,255832.453125,221722.4375,246243.640625,0.01806640625,0.9912109375,0.06689453125,-0.03051757626235485,-1.6479490995407104,-1.1291502714157104,73.33333587646484,200108.0,0.0
14932.7584218,294884.15625,295296.6875,326637.9375,319736.1875,285309.40625,255832.453125,221722.4375,246243.640625,0.01806640625,0.9912109375,0.06689453125,-0.03051757626235485,-1.6479490995407104,-1.1291502714157104,73.33333587646484,200109.0,0.0
14932.758422,294884.15625,295296.6875,326637.9375,319736.1875,285309.40625,255832.453125,221722.4375,246243.640625,0.01806640625,0.9912109375,0.06689453125,-0.03051757626235485,-1.6479490995407104,-1.1291502714157104,73.33333587646484,200110.0,0.0
14932.7584221,294884.15625,295296.6875,326637.9375,319736.1875,285309.40625,255832.453125,221722.4375,246243.640625,0.01806640625,0.9912109375,0.06689453125,-0.03051757626235485,-1.6479490995407104,-1.1291502714157104,73.33333587646484,200111.0,0.0
14932.7584223,294884.15625,295296.6875,326637.9375,319736.1875,285309.40625,255832.453125,221722.4375,246243.640625,0.01806640625,0.9912109375,0.06689453125,-0.03051757626235485,-1.6479490995407104,-1.1291502714157104,73.33333587646484,200112.0,0.0
14932.7584225,294884.15625,295296.6875,326637.9375,319736.1875,285309.40625,255832.453125,221722.4375,246243.640625,0.01806640625,0.9912109375,0.06689453125,-0.03051757626235485,-1.6479490995407104,-1.1291502714157104,73.33333587646484,200113.0,0.0
14932.7584226,294884.15625,295296.6875,326637.9375,319736.1875,285309.40625,255832.453125,221722.4375,246243.640625,0.01806640625,0.9912109375,0.06689453125,-0.03051757626235485,-1.6479490995407104,-1.1291502714157104,73.33333587646484,200114.0,0.0
14932.7584228,294884.15625,295296.6875,326637.9375,319736.1875,285309.40625,255832.453125,221722.4375,246243.640625,0.01806640625,0.9912109375,0.06689453125,-0.03051757626235485,-1.6479490995407104,-1.1291502714157104,73.33333587646484,200115.0,0.0
14932.758423,294884.15625,295296.6875,326637.9375,319736.1875,285309.40625,255832.453125,221722.4375,246243.640625,0.01806640625,0.9912109375,0.06689453125,-0.03051757626235485,-1.6479490995407104,-1.1291502714157104,73.33333587646484,200116.0,0.0
14932.7584232,294896.59375,294925.75,326414.0625,319781.875,285134.4375,255776.296875,221677.375,246261.078125,0.020751953125,0.990234375,0.072998046875,0.3051757514476776,-1.5869139432907104,-1.3122557401657104,73.33333587646484,200117.0,1.0
14932.7834327,294910.53125,295249.9375,326626.59375,319769.53125,285285.53125,255844.78125,221740.40625,246265.90625,0.020263671875,0.99072265625,0.07080078125,0.2441406100988388,-1.6174315214157104,-1.2207030057907104,73.33333587646484,200118.0,1.0
14932.8548665,294882.375,295297.9375,326626.6875,319731.09375,285303.21875,255846.390625,221729.859375,246249.53125,0.02099609375,0.98974609375,0.069580078125,0.3662109076976776,-1.5563963651657104,-1.2207030057907104,73.33333587646484,200119.0,1.0
14932.8548726,294852.6875,295007.09375,326423.90625,319718.21875,285170.375,255773.171875,221656.453125,246236.578125,0.0205078125,0.9892578125,0.06396484375,0.3967284858226776,-1.4343260526657104,-1.1596678495407104,73.33333587646484,200120.0,1.0
14932.8548739,294854.3125,294757.125,326269.6875,319742.25,285052.4375,255720.859375,221618.09375,246236.03125,0.021240234375,0.990234375,0.070068359375,0.4577636420726776,-1.4648436307907104,-1.0986326932907104,73.33333587646484,200121.0,1.0
14932.8548752,294896.6875,294929.9375,326419.625,319783.65625,285142.03125,255765.390625,221672.90625,246261.875,0.0185546875,0.991943359375,0.071044921875,0.3662109076976776,-1.3122557401657104,-1.1901854276657104,73.33333587646484,200122.0,1.0
14932.8548764,294912.78125,295251.4375,326633.65625,319772.84375,285291.78125,255825.203125,221727.796875,246262.0625,0.021240234375,0.9921875,0.072265625,0.2746581733226776,-1.3122557401657104,-1.1291502714157104,73.33333587646484,200123.0,1.0
14932.8548776,294882.65625,295288.90625,326621.40625,319729.46875,285299.8125,255819.390625,221716.0,246245.96875,0.021240234375,0.9931640625,0.0732421875,0.2441406100988388,-1.4038084745407104,-1.1291502714157104,73.33333587646484,200124.0,1.0
14932.8548788,294847.34375,294985.1875,326399.9375,319711.15625,285155.34375,255756.8125,221646.703125,246226.296875,0.022216796875,0.9912109375,0.071533203125,0.1831054538488388,-1.3732908964157104,-1.0375975370407104,73.33333587646484,200125.0,1.0
14932.85488,294856.1875,294749.15625,326253.15625,319743.78125,285047.53125,255724.984375,221621.046875,246236.390625,0.022216796875,0.99169921875,0.068359375,0.1831054538488388,-1.4038084745407104,-1.0070799589157104,73.33333587646484,200126.0,1.0
14932.8548814,294898.1875,294927.34375,326410.84375,319783.21875,285143.4375,255770.578125,221677.734375,246263.390625,0.02099609375,0.990478515625,0.067138671875,0.2746581733226776,-1.3122557401657104,-0.9155272841453552,73.33333587646484,200127.0,1.0
14932.8548826,294911.875,295249.125,326632.40625,319768.8125,285294.71875,255824.578125,221725.203125,246259.109375,0.022705078125,0.98974609375,0.066650390625,0.3662109076976776,-1.2817381620407104,-0.8239745497703552,73.33333587646484,200128.0,1.0
14932.8548839,294887.75,295292.5625,326631.34375,319730.71875,285308.5,255819.84375,221708.75,246239.703125,0.02099609375,0.98974609375,0.06787109375,0.4272460639476776,-1.3427733182907104,-0.8850097060203552,73.33333587646484,200129.0,1.0
14932.8622933,294858.25,294997.4375,326417.65625,319719.90625,285170.09375,255764.140625,221652.96875,246229.6875,0.019287109375,0.989013671875,0.066162109375,0.3967284858226776,-1.2817381620407104,-0.8850097060203552,73.33333587646484,200130.0,1.0
14932.8622978,294864.3125,294758.71875,326274.34375,319753.875,285062.0,255727.75,221628.375,246244.078125,0.0205078125,0.990234375,0.06640625,0.4272460639476776,-1.2207030057907104,-0.8850097060203552,73.33333587646484,200131.0,1.0
14932.8622992,294902.5,294929.3125,326420.34375,319790.96875,285147.03125,255772.1875,221679.15625,246267.234375,0.021484375,0.99072265625,0.065673828125,0.5187987685203552,-1.2512205839157104,-0.8544921278953552,73.33333587646484,200132.0,1.0
14932.8623005,294916.1875,295254.5625,326636.6875,319780.4375,285298.21875,255841.125,221741.5625,246272.34375,0.020263671875,0.9912109375,0.0673828125,0.4272460639476776,-1.1901854276657104,-0.7934569716453552,73.33333587646484,200133.0,1.0
14932.8623017,294883.90625,295294.90625,326630.0,319736.53125,285306.875,255831.109375,221723.0625,246248.90625,0.01953125,0.991943359375,0.0693359375,0.3967284858226776,-1.2207030057907104,-0.8850097060203552,73.33333587646484,200134.0,1.0
14932.8623031,294865.03125,295014.78125,326433.125,319732.25,285179.9375,255779.609375,221664.859375,246237.46875,0.018798828125,0.991455078125,0.0693359375,0.3967284858226776,-1.2207030057907104,-0.8239745497703552,73.33333587646484,200135.0,1.0
14932.8646742,294864.3125,294767.5,326282.1875,319751.90625,285062.625,255725.875,221621.40625,246236.9375,0.0205078125,0.98974609375,0.0693359375,0.3967284858226776,-1.0986326932907104,-0.8544921278953552,73.33333587646484,200136.0,1.0
14932.8714338,294900.78125,294926.1875,326421.59375,319781.5,285142.375,255762.171875,221669.328125,246255.265625,0.020751953125,0.989501953125,0.07177734375,0.4272460639476776,-1.0375975370407104,-0.9460448622703552,73.33333587646484,200137.0,1.0
14932.8714374,294916.53125,295251.71875,326634.8125,319768.625,285291.59375,255828.328125,221731.640625,246257.046875,0.02099609375,0.989990234375,0.0712890625,0.4882812201976776,-1.1596678495407104,-1.0070799589157104,73.33333587646484,200138.0,1.0
14932.8733904,294883.1875,295291.6875,326623.65625,319720.96875,285298.65625,255824.84375,221718.9375,246236.578125,0.02197265625,0.98876953125,0.072021484375,0.3967284858226776,-1.0070799589157104,-1.0070799589157104,73.33333587646484,200139.0,1.0
14932.875929,294851.09375,294997.09375,326409.59375,319709.1875,285159.625,255765.296875,221656.53125,246226.5625,0.02001953125,0.98779296875,0.06982421875,0.3356933295726776,-0.9460448622703552,-0.9765624403953552,73.33333587646484,200140.0,1.0
14932.9265153,294852.875,294761.9375,326269.3125,319738.5,285056.09375,255729.1875,221630.609375,246236.3125,0.020263671875,0.990234375,0.0732421875,0.3662109076976776,-1.0375975370407104,-0.8850097060203552,73.33333587646484,200141.0,1.0
14932.9265206,294891.125,294931.375,326419.78125,319776.6875,285148.46875,255780.234375,221686.125,246259.640625,0.0205078125,0.99072265625,0.07373046875,0.3967284858226776,-1.0070799589157104,-0.8850097060203552,73.33333587646484,200142.0,1.0
14932.926522,294909.65625,295251.4375,326640.53125,319770.875,285304.84375,255842.1875,221740.046875,246264.921875,0.019287109375,0.990966796875,0.07177734375,0.2441406100988388,-1.0070799589157104,-0.8544921278953552,73.33333587646484,200143.0,1.0
14932.9265232,294884.25,295296.34375,326640.625,319732.875,285320.3125,255831.90625,221725.375,246252.40625,0.01708984375,0.9921875,0.072998046875,0.3662109076976776,-1.0375975370407104,-0.9460448622703552,73.33333587646484,200144.0,1.0
14932.9265245,294858.59375,295004.6875,326424.90625,319723.3125,285180.46875,255765.921875,221659.40625,246245.0625,0.018310546875,0.99365234375,0.071044921875,0.1525878757238388,-1.0986326932907104,-0.8850097060203552,73.33333587646484,200145.0,1.0
14932.9265257,294869.78125,294768.46875,326282.28125,319755.9375,285074.15625,255737.234375,221631.421875,246248.109375,0.0185546875,0.994140625,0.070556640625,0.2136230319738388,-1.1901854276657104,-1.0375975370407104,73.33333587646484,200146.0,1.0
14932.9265269,294903.84375,294934.9375,326426.3125,319788.125,285158.90625,255781.578125,221682.828125,246267.421875,0.01953125,0.99072265625,0.07080078125,0.2746581733226776,-1.1291502714157104,-0.9765624403953552,73.33333587646484,200147.0,1.0
14932.9509071,294911.0625,295249.3125,326643.5,319771.9375,285305.1875,255840.5,221737.265625,246265.1875,0.01904296875,0.990234375,0.068359375,0.1831054538488388,-1.1901854276657104,-0.9765624403953552,73.33333587646484,200148.0,1.0
14932.9784115,294911.0625,295249.3125,326643.5,319771.9375,285305.1875,255840.5,221737.265625,246265.1875,0.01904296875,0.990234375,0.068359375,0.1831054538488388,-1.1901854276657104,-0.9765624403953552,73.33333587646484,200149.0,0.0
14932.9784126,294911.0625,295249.3125,326643.5,319771.9375,285305.1875,255840.5,221737.265625,246265.1875,0.01904296875,0.990234375,0.068359375,0.1831054538488388,-1.1901854276657104,-0.9765624403953552,73.33333587646484,200150.0,0.0
14932.9784128,294911.0625,295249.3125,326643.5,319771.9375,285305.1875,255840.5,221737.265625,246265.1875,0.01904296875,0.990234375,0.068359375,0.1831054538488388,-1.1901854276657104,-0.9765624403953552,73.33333587646484,200151.0,0.0
14932.978413,294911.0625,295249.3125,326643.5,319771.9375,285305.1875,255840.5,221737.265625,246265.1875,0.01904296875,0.990234375,0.068359375,0.1831054538488388,-1.1901854276657104,-0.9765624403953552,73.33333587646484,200152.0,0.0
14932.9784131,294911.0625,295249.3125,326643.5,319771.9375,285305.1875,255840.5,221737.265625,246265.1875,0.01904296875,0.990234375,0.068359375,0.1831054538488388,-1.1901854276657104,-0.9765624403953552,73.33333587646484,200153.0,0.0
14932.9784134,294911.0625,295249.3125,326643.5,319771.9375,285305.1875,255840.5,221737.265625,246265.1875,0.01904296875,0.990234375,0.068359375,0.1831054538488388,-1.1901854276657104,-0.9765624403953552,73.33333587646484,200154.0,0.0
14932.9784136,294911.0625,295249.3125,326643.5,319771.9375,285305.1875,255840.5,221737.265625,246265.1875,0.01904296875,0.990234375,0.068359375,0.1831054538488388,-1.1901854276657104,-0.9765624403953552,73.33333587646484,200155.0,0.0
14932.9784138,294911.0625,295249.3125,326643.5,319771.9375,285305.1875,255840.5,221737.265625,246265.1875,0.01904296875,0.990234375,0.068359375,0.1831054538488388,-1.1901854276657104,-0.9765624403953552,73.33333587646484,200156.0,0.0
14932.978414,294911.0625,295249.3125,326643.5,319771.9375,285305.1875,255840.5,221737.265625,246265.1875,0.01904296875,0.990234375,0.068359375,0.1831054538488388,-1.1901854276657104,-0.9765624403953552,73.33333587646484,200157.0,0.0
14932.9784141,294911.0625,295249.3125,326643.5,319771.9375,285305.1875,255840.5,221737.265625,246265.1875,0.01904296875,0.990234375,0.068359375,0.1831054538488388,-1.1901854276657104,-0.9765624403953552,73.33333587646484,200158.0,0.0
14932.9784143,294911.0625,295249.3125,326643.5,319771.9375,285305.1875,255840.5,221737.265625,246265.1875,0.01904296875,0.990234375,0.068359375,0.1831054538488388,-1.1901854276657104,-0.9765624403953552,73.33333587646484,200159.0,0.0
14932.9784145,294911.0625,295249.3125,326643.5,319771.9375,285305.1875,255840.5,221737.265625,246265.1875,0.01904296875,0.990234375,0.068359375,0.1831054538488388,-1.1901854276657104,-0.9765624403953552,73.33333587646484,200160.0,0.0
14932.9784148,294911.0625,295249.3125,326643.5,319771.9375,285305.1875,255840.5,221737.265625,246265.1875,0.01904296875,0.990234375,0.068359375,0.1831054538488388,-1.1901854276657104,-0.9765624403953552,73.33333587646484,200161.0,0.0
14932.978415,294911.0625,295249.3125,326643.5,319771.9375,285305.1875,255840.5,221737.265625,246265.1875,0.01904296875,0.990234375,0.068359375,0.1831054538488388,-1.1901854276657104,-0.9765624403953552,73.33333587646484,200162.0,0.0
14932.9784151,294911.0625,295249.3125,326643.5,319771.9375,285305.1875,255840.5,221737.265625,246265.1875,0.01904296875,0.990234375,0.068359375,0.1831054538488388,-1.1901854276657104,-0.9765624403953552,73.33333587646484,200163.0,0.0
14932.9784153,294911.0625,295249.3125,326643.5,319771.9375,285305.1875,255840.5,221737.265625,246265.1875,0.01904296875,0.990234375,0.068359375,0.1831054538488388,-1.1901854276657104,-0.9765624403953552,73.33333587646484,200164.0,0.0
14932.9784155,294911.0625,295249.3125,326643.5,319771.9375,285305.1875,255840.5,221737.265625,246265.1875,0.01904296875,0.990234375,0.068359375,0.1831054538488388,-1.1901854276657104,-0.9765624403953552,73.33333587646484,200165.0,0.0
14932.9784157,294911.0625,295249.3125,326643.5,319771.9375,285305.1875,255840.5,221737.265625,246265.1875,0.01904296875,0.990234375,0.068359375,0.1831054538488388,-1.1901854276657104,-0.9765624403953552,73.33333587646484,200166.0,0.0
14932.9784158,294911.0625,295249.3125,326643.5,319771.9375,285305.1875,255840.5,221737.265625,246265.1875,0.01904296875,0.990234375,0.068359375,0.1831054538488388,-1.1901854276657104,-0.9765624403953552,73.33333587646484,200167.0,0.0
14932.978416,294911.0625,295249.3125,326643.5,319771.9375,285305.1875,255840.5,221737.265625,246265.1875,0.01904296875,0.990234375,0.068359375,0.1831054538488388,-1.1901854276657104,-0.9765624403953552,73.33333587646484,200168.0,0.0
14932.9784162,294911.0625,295249.3125,326643.5,319771.9375,285305.1875,255840.5,221737.265625,246265.1875,0.01904296875,0.990234375,0.068359375,0.1831054538488388,-1.1901854276657104,-0.9765624403953552,73.33333587646484,200169.0,0.0
14932.9784163,294911.0625,295249.3125,326643.5,319771.9375,285305.1875,255840.5,221737.265625,246265.1875,0.01904296875,0.990234375,0.068359375,0.1831054538488388,-1.1901854276657104,-0.9765624403953552,73.33333587646484,200170.0,0.0
14932.9784165,294855.03125,294748.90625,326267.1875,319737.78125,285057.4375,255708.796875,221619.53125,246238.90625,0.025390625,0.9873046875,0.071533203125,0.3356933295726776,-1.5258787870407104,-1.1901854276657104,73.33333587646484,200171.0,1.0
14933.0052141,294889.53125,294910.1875,326409.96875,319774.25,285142.8125,255751.09375,221674.59375,246266.25,0.02294921875,0.988525390625,0.07080078125,0.4272460639476776,-1.3427733182907104,-1.1596678495407104,73.33333587646484,200172.0,1.0
14933.0052194,294904.5625,295234.625,326628.125,319762.1875,285294.90625,255822.078125,221738.078125,246268.84375,0.021240234375,0.98974609375,0.07177734375,0.5493163466453552,-1.4343260526657104,-1.0986326932907104,73.33333587646484,200173.0,1.0
14933.0052207,294879.15625,295288.5625,326633.5625,319721.25,285311.90625,255824.84375,221728.421875,246244.0,0.024169921875,0.98974609375,0.0732421875,0.5798339247703552,-1.4343260526657104,-1.2207030057907104,73.33333587646484,200174.0,1.0
14933.005222,294847.15625,294996.625,326422.3125,319705.40625,285171.625,255765.5625,221663.25,246230.046875,0.022705078125,0.987548828125,0.070068359375,0.5798339247703552,-1.4038084745407104,-1.1596678495407104,73.33333587646484,200175.0,1.0
14933.0284105,294849.65625,294747.8125,326263.5,319728.21875,285052.4375,255725.96875,221628.015625,246232.546875,0.02099609375,0.988037109375,0.07275390625,0.6408690810203552,-1.3732908964157104,-1.1901854276657104,73.33333587646484,200176.0,1.0
14933.0534068,294881.46875,294901.25,326391.8125,319754.9375,285122.25,255757.25,221667.171875,246248.015625,0.020751953125,0.987548828125,0.07177734375,0.7019042372703552,-1.3122557401657104,-1.2207030057907104,73.33333587646484,200177.0,1.0
14933.0872147,294888.46875,295215.0625,326602.09375,319735.0,285262.625,255808.484375,221715.546875,246239.796875,0.021728515625,0.98779296875,0.0693359375,0.7324218153953552,-1.3122557401657104,-1.2817381620407104,73.33333587646484,200178.0,1.0
14933.1137201,294863.875,295274.6875,326606.9375,319696.9375,285283.90625,255817.0625,221708.390625,246221.28125,0.018798828125,0.989013671875,0.06884765625,0.7629393935203552,-1.3122557401657104,-1.2207030057907104,73.33333587646484,200179.0,1.0
14933.1137256,294831.40625,294990.5625,326402.8125,319685.84375,285151.3125,255751.0,221642.5,246211.8125,0.019287109375,0.99267578125,0.07080078125,0.7324218153953552,-1.3122557401657104,-1.2512205839157104,73.33333587646484,200180.0,1.0
14933.1137268,294845.53125,294758.625,326267.90625,319723.9375,285052.875,255713.71875,221615.953125,246230.21875,0.016357421875,0.9921875,0.074462890625,0.7324218153953552,-1.2817381620407104,-1.3122557401657104,73.33333587646484,200181.0,1.0
14933.1373085,294883.8125,294916.875,326408.625,319761.46875,285133.625,255754.578125,221656.359375,246248.375,0.01953125,0.9931640625,0.07421875,0.6713866591453552,-1.3732908964157104,-1.2512205839157104,73.33333587646484,200182.0,1.0
14933.1373136,294901.875,295238.9375,326626.78125,319751.90625,285283.46875,255817.421875,221714.296875,246249.453125,0.01953125,0.992431640625,0.07275390625,0.6408690810203552,-1.4648436307907104,-1.2207030057907104,73.33333587646484,200183.0,1.0
14933.1872249,294901.875,295238.9375,326626.78125,319751.90625,285283.46875,255817.421875,221714.296875,246249.453125,0.01953125,0.992431640625,0.07275390625,0.6408690810203552,-1.4648436307907104,-1.2207030057907104,73.33333587646484,200184.0,0.0
14933.1872267,294901.875,295238.9375,326626.78125,319751.90625,285283.46875,255817.421875,221714.296875,246249.453125,0.01953125,0.992431640625,0.07275390625,0.6408690810203552,-1.4648436307907104,-1.2207030057907104,73.33333587646484,200185.0,0.0
14933.1872269,294901.875,295238.9375,326626.78125,319751.90625,285283.46875,255817.421875,221714.296875,246249.453125,0.01953125,0.992431640625,0.07275390625,0.6408690810203552,-1.4648436307907104,-1.2207030057907104,73.33333587646484,200186.0,0.0
14933.1872271,294901.875,295238.9375,326626.78125,319751.90625,285283.46875,255817.421875,221714.296875,246249.453125,0.01953125,0.992431640625,0.07275390625,0.6408690810203552,-1.4648436307907104,-1.2207030057907104,73.33333587646484,200187.0,0.0
14933.1872273,294901.875,295238.9375,326626.78125,319751.90625,285283.46875,255817.421875,221714.296875,246249.453125,0.01953125,0.992431640625,0.07275390625,0.6408690810203552,-1.4648436307907104,-1.2207030057907104,73.33333587646484,200188.0,0.0
14933.1872274,294901.875,295238.9375,326626.78125,319751.90625,285283.46875,255817.421875,221714.296875,246249.453125,0.01953125,0.992431640625,0.07275390625,0.6408690810203552,-1.4648436307907104,-1.2207030057907104,73.33333587646484,200189.0,0.0
14933.1872276,294901.875,295238.9375,326626.78125,319751.90625,285283.46875,255817.421875,221714.296875,246249.453125,0.01953125,0.992431640625,0.07275390625,0.6408690810203552,-1.4648436307907104,-1.2207030057907104,73.33333587646484,200190.0,0.0
14933.1872278,294901.875,295238.9375,326626.78125,319751.90625,285283.46875,255817.421875,221714.296875,246249.453125,0.01953125,0.992431640625,0.07275390625,0.6408690810203552,-1.4648436307907104,-1.2207030057907104,73.33333587646484,200191.0,0.0
14933.187228,294901.875,295238.9375,326626.78125,319751.90625,285283.46875,255817.421875,221714.296875,246249.453125,0.01953125,0.992431640625,0.07275390625,0.6408690810203552,-1.4648436307907104,-1.2207030057907104,73.33333587646484,200192.0,0.0
14933.1872281,294901.875,295238.9375,326626.78125,319751.90625,285283.46875,255817.421875,221714.296875,246249.453125,0.01953125,0.992431640625,0.07275390625,0.6408690810203552,-1.4648436307907104,-1.2207030057907104,73.33333587646484,200193.0,0.0
14933.1872283,294901.875,295238.9375,326626.78125,319751.90625,285283.46875,255817.421875,221714.296875,246249.453125,0.01953125,0.992431640625,0.07275390625,0.6408690810203552,-1.4648436307907104,-1.2207030057907104,73.33333587646484,200194.0,0.0
14933.1872285,294901.875,295238.9375,326626.78125,319751.90625,285283.46875,255817.421875,221714.296875,246249.453125,0.01953125,0.992431640625,0.07275390625,0.6408690810203552,-1.4648436307907104,-1.2207030057907104,73.33333587646484,200195.0,0.0
14933.1872287,294901.875,295238.9375,326626.78125,319751.90625,285283.46875,255817.421875,221714.296875,246249.453125,0.01953125,0.992431640625,0.07275390625,0.6408690810203552,-1.4648436307907104,-1.2207030057907104,73.33333587646484,200196.0,0.0
14933.1872288,294901.875,295238.9375,326626.78125,319751.90625,285283.46875,255817.421875,221714.296875,246249.453125,0.01953125,0.992431640625,0.07275390625,0.6408690810203552,-1.4648436307907104,-1.2207030057907104,73.33333587646484,200197.0,0.0
14933.187229,294901.875,295238.9375,326626.78125,319751.90625,285283.46875,255817.421875,221714.296875,246249.453125,0.01953125,0.992431640625,0.07275390625,0.6408690810203552,-1.4648436307907104,-1.2207030057907104,73.33333587646484,200198.0,0.0
14933.1872292,294901.875,295238.9375,326626.78125,319751.90625,285283.46875,255817.421875,221714.296875,246249.453125,0.01953125,0.992431640625,0.07275390625,0.6408690810203552,-1.4648436307907104,-1.2207030057907104,73.33333587646484,200199.0,0.0
14933.1872294,294901.875,295238.9375,326626.78125,319751.90625,285283.46875,255817.421875,221714.296875,246249.453125,0.01953125,0.992431640625,0.07275390625,0.6408690810203552,-1.4648436307907104,-1.2207030057907104,73.33333587646484,200200.0,0.0
14933.1872295,294901.875,295238.9375,326626.78125,319751.90625,285283.46875,255817.421875,221714.296875,246249.453125,0.01953125,0.992431640625,0.07275390625,0.6408690810203552,-1.4648436307907104,-1.2207030057907104,73.33333587646484,200201.0,0.0
14933.1872297,294901.875,295238.9375,326626.78125,319751.90625,285283.46875,255817.421875,221714.296875,246249.453125,0.01953125,0.992431640625,0.07275390625,0.6408690810203552,-1.4648436307907104,-1.2207030057907104,73.33333587646484,200202.0,0.0
14933.1872299,294901.875,295238.9375,326626.78125,319751.90625,285283.46875,255817.421875,221714.296875,246249.453125,0.01953125,0.992431640625,0.07275390625,0.6408690810203552,-1.4648436307907104,-1.2207030057907104,73.33333587646484,200203.0,0.0
14933.1872301,294901.875,295238.9375,326626.78125,319751.90625,285283.46875,255817.421875,221714.296875,246249.453125,0.01953125,0.992431640625,0.07275390625,0.6408690810203552,-1.4648436307907104,-1.2207030057907104,73.33333587646484,200204.0,0.0
14933.1872302,294901.875,295238.9375,326626.78125,319751.90625,285283.46875,255817.421875,221714.296875,246249.453125,0.01953125,0.992431640625,0.07275390625,0.6408690810203552,-1.4648436307907104,-1.2207030057907104,73.33333587646484,200205.0,0.0
14933.1872304,294901.875,295238.9375,326626.78125,319751.90625,285283.46875,255817.421875,221714.296875,246249.453125,0.01953125,0.992431640625,0.07275390625,0.6408690810203552,-1.4648436307907104,-1.2207030057907104,73.33333587646484,200206.0,0.0
14933.1872306,294901.875,295238.9375,326626.78125,319751.90625,285283.46875,255817.421875,221714.296875,246249.453125,0.01953125,0.992431640625,0.07275390625,0.6408690810203552,-1.4648436307907104,-1.2207030057907104,73.33333587646484,200207.0,0.0
14933.1872308,294901.875,295238.9375,326626.78125,319751.90625,285283.46875,255817.421875,221714.296875,246249.453125,0.01953125,0.992431640625,0.07275390625,0.6408690810203552,-1.4648436307907104,-1.2207030057907104,73.33333587646484,200208.0,0.0
14933.1872309,294901.875,295238.9375,326626.78125,319751.90625,285283.46875,255817.421875,221714.296875,246249.453125,0.01953125,0.992431640625,0.07275390625,0.6408690810203552,-1.4648436307907104,-1.2207030057907104,73.33333587646484,200209.0,0.0
