Time,FZ,C3,CZ,C4,PZ,PO7,OZ,PO8,AccX,AccY,AccZ,Gyro1,Gyro2,Gyro3,Battery,Counter,Validation
15289.7644236,296634.5,295442.0625,322473.28125,313052.65625,285840.90625,254789.6875,220252.40625,245292.25,0.036376953125,0.993408203125,0.170166015625,0.4882812201976776,-1.9836424589157104,-0.9460448622703552,73.33333587646484,289249.0,1.0
15289.764425,296421.78125,294776.875,321650.03125,312751.53125,285320.84375,254606.140625,219978.90625,245129.359375,0.039794921875,0.993896484375,0.169189453125,0.4272460639476776,-2.258300542831421,-0.8239745497703552,73.33333587646484,289250.0,1.0
15289.7644263,296312.96875,294052.6875,320481.90625,312588.09375,284675.75,254461.75,219785.96875,245055.15625,0.044189453125,0.9931640625,0.173828125,0.4272460639476776,-2.349853277206421,-0.6713866591453552,73.33333587646484,289251.0,1.0
15289.7644275,296446.09375,294245.25,320542.28125,312774.3125,284769.375,254548.296875,219929.375,245169.5,0.04833984375,0.991943359375,0.173095703125,0.3356933295726776,-2.502441167831421,-0.5493163466453552,73.33333587646484,289252.0,1.0
15289.7659714,296644.0625,295106.0625,321773.40625,313063.28125,285486.5,254741.859375,220217.265625,245323.015625,0.0458984375,0.99365234375,0.17138671875,0.4272460639476776,-2.502441167831421,-0.3662109076976776,73.33333587646484,289253.0,1.0
15289.8155485,296631.0,295438.5,322467.375,313052.1875,285835.5625,254778.609375,220255.984375,245299.671875,0.0478515625,0.995849609375,0.1689453125,0.4882812201976776,-2.502441167831421,-0.3051757514476776,73.33333587646484,289254.0,1.0
15289.8155623,296424.75,294797.875,321685.59375,312754.375,285345.875,254613.03125,219991.0625,245131.328125,0.047607421875,0.9970703125,0.16845703125,0.4577636420726776,-2.563476324081421,-0.3967284858226776,73.33333587646484,289255.0,1.0
15289.8155637,296312.625,294063.0625,320514.46875,312586.84375,284699.46875,254483.390625,219798.03125,245055.859375,0.048583984375,0.994384765625,0.16845703125,0.3662109076976776,-2.685546636581421,-0.3967284858226776,73.33333587646484,289256.0,1.0
15289.815565,296441.46875,294227.28125,320534.75,312765.28125,284763.90625,254556.609375,219928.921875,245164.9375,0.051025390625,0.993896484375,0.16650390625,0.3051757514476776,-2.716064214706421,-0.4577636420726776,73.33333587646484,289257.0,1.0
15289.815567,296647.71875,295097.40625,321752.3125,313059.4375,285471.9375,254750.171875,220216.1875,245315.40625,0.0556640625,0.9931640625,0.165771484375,0.2746581733226776,-2.624511480331421,-0.4577636420726776,73.33333587646484,289258.0,1.0
15289.8428108,296632.59375,295441.4375,322447.96875,313049.53125,285822.0625,254782.265625,220255.4375,245290.375,0.05859375,0.9921875,0.168212890625,0.4272460639476776,-2.471923589706421,-0.4577636420726776,73.33333587646484,289259.0,1.0
15289.8428232,296632.59375,295441.4375,322447.96875,313049.53125,285822.0625,254782.265625,220255.4375,245290.375,0.05859375,0.9921875,0.168212890625,0.4272460639476776,-2.471923589706421,-0.4577636420726776,73.33333587646484,289260.0,0.0
15289.8428234,296632.59375,295441.4375,322447.96875,313049.53125,285822.0625,254782.265625,220255.4375,245290.375,0.05859375,0.9921875,0.168212890625,0.4272460639476776,-2.471923589706421,-0.4577636420726776,73.33333587646484,289261.0,0.0
15289.8428236,296632.59375,295441.4375,322447.96875,313049.53125,285822.0625,254782.265625,220255.4375,245290.375,0.05859375,0.9921875,0.168212890625,0.4272460639476776,-2.471923589706421,-0.4577636420726776,73.33333587646484,289262.0,0.0
15289.8428238,296632.59375,295441.4375,322447.96875,313049.53125,285822.0625,254782.265625,220255.4375,245290.375,0.05859375,0.9921875,0.168212890625,0.4272460639476776,-2.471923589706421,-0.4577636420726776,73.33333587646484,289263.0,0.0
15289.842824,296632.59375,295441.4375,322447.96875,313049.53125,285822.0625,254782.265625,220255.4375,245290.375,0.05859375,0.9921875,0.168212890625,0.4272460639476776,-2.471923589706421,-0.4577636420726776,73.33333587646484,289264.0,0.0
15289.8428241,296632.59375,295441.4375,322447.96875,313049.53125,285822.0625,254782.265625,220255.4375,245290.375,0.05859375,0.9921875,0.168212890625,0.4272460639476776,-2.471923589706421,-0.4577636420726776,73.33333587646484,289265.0,0.0
15289.8428243,296632.59375,295441.4375,322447.96875,313049.53125,285822.0625,254782.265625,220255.4375,245290.375,0.05859375,0.9921875,0.168212890625,0.4272460639476776,-2.471923589706421,-0.4577636420726776,73.33333587646484,289266.0,0.0
15289.8428245,296632.59375,295441.4375,322447.96875,313049.53125,285822.0625,254782.265625,220255.4375,245290.375,0.05859375,0.9921875,0.168212890625,0.4272460639476776,-2.471923589706421,-0.4577636420726776,73.33333587646484,289267.0,0.0
15289.8428247,296632.59375,295441.4375,322447.96875,313049.53125,285822.0625,254782.265625,220255.4375,245290.375,0.05859375,0.9921875,0.168212890625,0.4272460639476776,-2.471923589706421,-0.4577636420726776,73.33333587646484,289268.0,0.0
15289.8428249,296632.59375,295441.4375,322447.96875,313049.53125,285822.0625,254782.265625,220255.4375,245290.375,0.05859375,0.9921875,0.168212890625,0.4272460639476776,-2.471923589706421,-0.4577636420726776,73.33333587646484,289269.0,0.0
15289.8428251,296632.59375,295441.4375,322447.96875,313049.53125,285822.0625,254782.265625,220255.4375,245290.375,0.05859375,0.9921875,0.168212890625,0.4272460639476776,-2.471923589706421,-0.4577636420726776,73.33333587646484,289270.0,0.0
15289.8428252,296632.59375,295441.4375,322447.96875,313049.53125,285822.0625,254782.265625,220255.4375,245290.375,0.05859375,0.9921875,0.168212890625,0.4272460639476776,-2.471923589706421,-0.4577636420726776,73.33333587646484,289271.0,0.0
15289.8428254,296632.59375,295441.4375,322447.96875,313049.53125,285822.0625,254782.265625,220255.4375,245290.375,0.05859375,0.9921875,0.168212890625,0.4272460639476776,-2.471923589706421,-0.4577636420726776,73.33333587646484,289272.0,0.0
15289.8428256,296632.59375,295441.4375,322447.96875,313049.53125,285822.0625,254782.265625,220255.4375,245290.375,0.05859375,0.9921875,0.168212890625,0.4272460639476776,-2.471923589706421,-0.4577636420726776,73.33333587646484,289273.0,0.0
15289.8428257,296632.59375,295441.4375,322447.96875,313049.53125,285822.0625,254782.265625,220255.4375,245290.375,0.05859375,0.9921875,0.168212890625,0.4272460639476776,-2.471923589706421,-0.4577636420726776,73.33333587646484,289274.0,0.0
15289.8428259,296632.59375,295441.4375,322447.96875,313049.53125,285822.0625,254782.265625,220255.4375,245290.375,0.05859375,0.9921875,0.168212890625,0.4272460639476776,-2.471923589706421,-0.4577636420726776,73.33333587646484,289275.0,0.0
15289.8428261,296632.59375,295441.4375,322447.96875,313049.53125,285822.0625,254782.265625,220255.4375,245290.375,0.05859375,0.9921875,0.168212890625,0.4272460639476776,-2.471923589706421,-0.4577636420726776,73.33333587646484,289276.0,0.0
15289.8428262,296632.59375,295441.4375,322447.96875,313049.53125,285822.0625,254782.265625,220255.4375,245290.375,0.05859375,0.9921875,0.168212890625,0.4272460639476776,-2.471923589706421,-0.4577636420726776,73.33333587646484,289277.0,0.0
15289.8428264,296632.59375,295441.4375,322447.96875,313049.53125,285822.0625,254782.265625,220255.4375,245290.375,0.05859375,0.9921875,0.168212890625,0.4272460639476776,-2.471923589706421,-0.4577636420726776,73.33333587646484,289278.0,0.0
15289.8428266,296632.59375,295441.4375,322447.96875,313049.53125,285822.0625,254782.265625,220255.4375,245290.375,0.05859375,0.9921875,0.168212890625,0.4272460639476776,-2.471923589706421,-0.4577636420726776,73.33333587646484,289279.0,0.0
15289.8428268,296632.59375,295441.4375,322447.96875,313049.53125,285822.0625,254782.265625,220255.4375,245290.375,0.05859375,0.9921875,0.168212890625,0.4272460639476776,-2.471923589706421,-0.4577636420726776,73.33333587646484,289280.0,0.0
15289.842827,296632.59375,295441.4375,322447.96875,313049.53125,285822.0625,254782.265625,220255.4375,245290.375,0.05859375,0.9921875,0.168212890625,0.4272460639476776,-2.471923589706421,-0.4577636420726776,73.33333587646484,289281.0,0.0
15289.8428272,296632.59375,295441.4375,322447.96875,313049.53125,285822.0625,254782.265625,220255.4375,245290.375,0.05859375,0.9921875,0.168212890625,0.4272460639476776,-2.471923589706421,-0.4577636420726776,73.33333587646484,289282.0,0.0
15289.8428274,296632.59375,295441.4375,322447.96875,313049.53125,285822.0625,254782.265625,220255.4375,245290.375,0.05859375,0.9921875,0.168212890625,0.4272460639476776,-2.471923589706421,-0.4577636420726776,73.33333587646484,289283.0,0.0
15289.8428276,296632.59375,295441.4375,322447.96875,313049.53125,285822.0625,254782.265625,220255.4375,245290.375,0.05859375,0.9921875,0.168212890625,0.4272460639476776,-2.471923589706421,-0.4577636420726776,73.33333587646484,289284.0,0.0
15289.8428277,296632.59375,295441.4375,322447.96875,313049.53125,285822.0625,254782.265625,220255.4375,245290.375,0.05859375,0.9921875,0.168212890625,0.4272460639476776,-2.471923589706421,-0.4577636420726776,73.33333587646484,289285.0,0.0
15289.8428279,296632.59375,295441.4375,322447.96875,313049.53125,285822.0625,254782.265625,220255.4375,245290.375,0.05859375,0.9921875,0.168212890625,0.4272460639476776,-2.471923589706421,-0.4577636420726776,73.33333587646484,289286.0,0.0
15289.8428281,296632.59375,295441.4375,322447.96875,313049.53125,285822.0625,254782.265625,220255.4375,245290.375,0.05859375,0.9921875,0.168212890625,0.4272460639476776,-2.471923589706421,-0.4577636420726776,73.33333587646484,289287.0,0.0
15289.8428282,296632.59375,295441.4375,322447.96875,313049.53125,285822.0625,254782.265625,220255.4375,245290.375,0.05859375,0.9921875,0.168212890625,0.4272460639476776,-2.471923589706421,-0.4577636420726776,73.33333587646484,289288.0,0.0
15289.8428284,296632.59375,295441.4375,322447.96875,313049.53125,285822.0625,254782.265625,220255.4375,245290.375,0.05859375,0.9921875,0.168212890625,0.4272460639476776,-2.471923589706421,-0.4577636420726776,73.33333587646484,289289.0,0.0
15289.8428286,296632.59375,295441.4375,322447.96875,313049.53125,285822.0625,254782.265625,220255.4375,245290.375,0.05859375,0.9921875,0.168212890625,0.4272460639476776,-2.471923589706421,-0.4577636420726776,73.33333587646484,289290.0,0.0
15289.8428287,296632.59375,295441.4375,322447.96875,313049.53125,285822.0625,254782.265625,220255.4375,245290.375,0.05859375,0.9921875,0.168212890625,0.4272460639476776,-2.471923589706421,-0.4577636420726776,73.33333587646484,289291.0,0.0
15289.8428289,296632.59375,295441.4375,322447.96875,313049.53125,285822.0625,254782.265625,220255.4375,245290.375,0.05859375,0.9921875,0.168212890625,0.4272460639476776,-2.471923589706421,-0.4577636420726776,73.33333587646484,289292.0,0.0
15289.8428291,296632.59375,295441.4375,322447.96875,313049.53125,285822.0625,254782.265625,220255.4375,245290.375,0.05859375,0.9921875,0.168212890625,0.4272460639476776,-2.471923589706421,-0.4577636420726776,73.33333587646484,289293.0,0.0
15289.8428292,296632.59375,295441.4375,322447.96875,313049.53125,285822.0625,254782.265625,220255.4375,245290.375,0.05859375,0.9921875,0.168212890625,0.4272460639476776,-2.471923589706421,-0.4577636420726776,73.33333587646484,289294.0,0.0
15289.8428294,296632.59375,295441.4375,322447.96875,313049.53125,285822.0625,254782.265625,220255.4375,245290.375,0.05859375,0.9921875,0.168212890625,0.4272460639476776,-2.471923589706421,-0.4577636420726776,73.33333587646484,289295.0,0.0
15289.8428296,296632.59375,295441.4375,322447.96875,313049.53125,285822.0625,254782.265625,220255.4375,245290.375,0.05859375,0.9921875,0.168212890625,0.4272460639476776,-2.471923589706421,-0.4577636420726776,73.33333587646484,289296.0,0.0
15289.8428298,296632.59375,295441.4375,322447.96875,313049.53125,285822.0625,254782.265625,220255.4375,245290.375,0.05859375,0.9921875,0.168212890625,0.4272460639476776,-2.471923589706421,-0.4577636420726776,73.33333587646484,289297.0,0.0
15289.8428299,296632.59375,295441.4375,322447.96875,313049.53125,285822.0625,254782.265625,220255.4375,245290.375,0.05859375,0.9921875,0.168212890625,0.4272460639476776,-2.471923589706421,-0.4577636420726776,73.33333587646484,289298.0,0.0
15289.8428301,296632.59375,295441.4375,322447.96875,313049.53125,285822.0625,254782.265625,220255.4375,245290.375,0.05859375,0.9921875,0.168212890625,0.4272460639476776,-2.471923589706421,-0.4577636420726776,73.33333587646484,289299.0,0.0
15289.8428303,296632.59375,295441.4375,322447.96875,313049.53125,285822.0625,254782.265625,220255.4375,245290.375,0.05859375,0.9921875,0.168212890625,0.4272460639476776,-2.471923589706421,-0.4577636420726776,73.33333587646484,289300.0,0.0
15289.8428304,296632.59375,295441.4375,322447.96875,313049.53125,285822.0625,254782.265625,220255.4375,245290.375,0.05859375,0.9921875,0.168212890625,0.4272460639476776,-2.471923589706421,-0.4577636420726776,73.33333587646484,289301.0,0.0
15289.8428306,296632.59375,295441.4375,322447.96875,313049.53125,285822.0625,254782.265625,220255.4375,245290.375,0.05859375,0.9921875,0.168212890625,0.4272460639476776,-2.471923589706421,-0.4577636420726776,73.33333587646484,289302.0,0.0
15289.8428308,296632.59375,295441.4375,322447.96875,313049.53125,285822.0625,254782.265625,220255.4375,245290.375,0.05859375,0.9921875,0.168212890625,0.4272460639476776,-2.471923589706421,-0.4577636420726776,73.33333587646484,289303.0,0.0
15289.842831,296626.25,295426.875,322448.6875,313044.96875,285822.78125,254780.578125,220254.90625,245296.546875,0.0439453125,0.99072265625,0.16455078125,0.5798339247703552,-1.0070799589157104,-1.6479490995407104,73.33333587646484,289304.0,1.0
15289.8672362,296424.1875,294794.75,321680.40625,312758.78125,285339.875,254617.140625,220001.703125,245142.59375,0.042724609375,0.994140625,0.1669921875,0.7324218153953552,-1.1291502714157104,-1.6479490995407104,73.33333587646484,289305.0,1.0
15289.9968987,296319.78125,294069.03125,320518.03125,312599.09375,284698.03125,254478.46875,219807.609375,245068.65625,0.04443359375,0.996337890625,0.1689453125,0.7324218153953552,-1.1291502714157104,-1.5258787870407104,73.33333587646484,289306.0,1.0
15289.9969128,296453.25,294238.46875,320549.34375,312775.40625,284772.25,254560.359375,219931.703125,245169.859375,0.0419921875,0.995361328125,0.171142578125,0.5798339247703552,-1.1901854276657104,-1.4648436307907104,73.33333587646484,289307.0,1.0
15289.9969141,296660.5,295101.6875,321771.0,313066.9375,285485.0625,254756.171875,220223.34375,245324.71875,0.040283203125,0.99462890625,0.171875,0.6408690810203552,-1.1901854276657104,-1.4038084745407104,73.33333587646484,289308.0,1.0
15289.9969154,296651.125,295454.59375,322476.5,313060.6875,285838.40625,254802.390625,220269.125,245306.734375,0.0361328125,0.997314453125,0.16845703125,0.5187987685203552,-1.2207030057907104,-1.4343260526657104,73.33333587646484,289309.0,1.0
15289.996917,296450.9375,294832.21875,321722.625,312777.53125,285371.09375,254651.921875,220022.53125,245159.125,0.035888671875,0.995849609375,0.171630859375,0.4272460639476776,-1.3427733182907104,-1.3732908964157104,73.33333587646484,289310.0,1.0
15290.028234,296334.875,294084.25,320546.375,312604.8125,284720.90625,254492.6875,219814.484375,245081.4375,0.034423828125,0.996337890625,0.167236328125,0.3967284858226776,-1.4648436307907104,-1.3122557401657104,73.33333587646484,289311.0,1.0
15290.028246,296452.90625,294221.46875,320536.625,312768.0625,284761.3125,254533.546875,219914.4375,245166.734375,0.0361328125,0.99560546875,0.16845703125,0.3967284858226776,-1.6479490995407104,-1.2817381620407104,73.33333587646484,289312.0,1.0
15290.0282473,296650.40625,295072.71875,321731.125,313053.90625,285453.59375,254717.359375,220194.46875,245313.171875,0.0361328125,0.996337890625,0.170166015625,0.4577636420726776,-1.7700194120407104,-1.1596678495407104,73.33333587646484,289313.0,1.0
15290.0282486,296638.59375,295423.5625,322431.09375,313048.34375,285806.3125,254763.5,220243.640625,245304.5,0.03759765625,0.9951171875,0.17236328125,0.3662109076976776,-1.8920897245407104,-1.0986326932907104,73.33333587646484,289314.0,1.0
15290.0282499,296433.6875,294800.84375,321676.5,312761.90625,285340.25,254614.359375,220005.015625,245160.5625,0.040283203125,0.991455078125,0.1708984375,0.3356933295726776,-2.075195074081421,-0.9765624403953552,73.33333587646484,289315.0,1.0
15290.0303793,296324.59375,294078.96875,320522.59375,312593.90625,284706.34375,254489.109375,219811.09375,245066.421875,0.039794921875,0.992919921875,0.170166015625,0.2441406100988388,-2.136230230331421,-0.9155272841453552,73.33333587646484,289316.0,1.0
15290.0303852,296444.75,294236.21875,320549.59375,312759.5625,284770.1875,254537.125,219915.34375,245148.046875,0.04443359375,0.993896484375,0.171630859375,0.2136230319738388,-2.258300542831421,-0.7324218153953552,73.33333587646484,289317.0,1.0
15290.0355407,296644.15625,295083.09375,321751.3125,313046.375,285469.625,254731.125,220197.140625,245303.171875,0.04443359375,0.9951171875,0.172607421875,0.1220703050494194,-2.227782964706421,-0.6103515028953552,73.33333587646484,289318.0,1.0
15290.0355461,296639.65625,295441.15625,322458.0,313044.40625,285825.90625,254776.8125,220248.46875,245292.796875,0.045654296875,0.994873046875,0.167724609375,0.1220703050494194,-2.288818120956421,-0.5493163466453552,73.33333587646484,289319.0,1.0
15290.0355474,296431.875,294797.0,321670.125,312751.34375,285330.125,254609.0,219993.5625,245139.28125,0.046630859375,0.994873046875,0.168212890625,0.0915527269244194,-2.258300542831421,-0.5798339247703552,73.33333587646484,289320.0,1.0
15290.0355487,296314.125,294052.40625,320477.1875,312582.375,284673.53125,254470.59375,219803.3125,245079.828125,0.04736328125,0.99560546875,0.166748046875,0.0915527269244194,-2.227782964706421,-0.5493163466453552,73.33333587646484,289321.0,1.0
15290.03555,296439.84375,294225.78125,320512.3125,312756.8125,284751.5,254550.4375,219931.25,245164.3125,0.05126953125,0.99658203125,0.170166015625,0.1525878757238388,-2.105712652206421,-0.4882812201976776,73.33333587646484,289322.0,1.0
15290.0391114,296640.21875,295079.0625,321728.25,313044.78125,285456.46875,254734.265625,220205.109375,245299.5,0.052734375,0.996337890625,0.169189453125,0.1220703050494194,-2.075195074081421,-0.5187987685203552,73.33333587646484,289323.0,1.0
15290.039118,296632.0625,295429.46875,322436.53125,313044.5,285816.0625,254781.5625,220260.0,245298.609375,0.054443359375,0.9951171875,0.169189453125,0.03051757626235485,-1.9531248807907104,-0.5493163466453552,73.33333587646484,289324.0,1.0
15290.0391195,296432.0625,294810.21875,321679.71875,312760.375,285345.25,254621.515625,220007.34375,245141.34375,0.052978515625,0.990478515625,0.171630859375,0.03051757626235485,-1.7700194120407104,-0.6408690810203552,73.33333587646484,289325.0,1.0
15290.0391222,296311.09375,294072.15625,320512.21875,312588.8125,284696.875,254476.140625,219797.859375,245057.75,0.052001953125,0.99072265625,0.16845703125,0.0610351525247097,-1.4343260526657104,-0.7324218153953552,73.33333587646484,289326.0,1.0
15290.0409924,296431.25,294223.4375,320523.5,312756.53125,284753.28125,254535.421875,219909.078125,245154.390625,0.05322265625,0.991455078125,0.16943359375,0.1220703050494194,-1.3122557401657104,-0.8850097060203552,73.33333587646484,289327.0,1.0
15290.0445424,296622.25,295067.28125,321724.3125,313033.4375,285448.40625,254709.140625,220185.25,245295.03125,0.05322265625,0.992919921875,0.16845703125,0.1831054538488388,-1.0681151151657104,-0.9460448622703552,73.33333587646484,289328.0,1.0
15290.0445459,296616.96875,295418.0,322435.90625,313037.09375,285813.1875,254762.15625,220240.328125,245288.328125,0.051513671875,0.9912109375,0.168701171875,0.2136230319738388,-0.9155272841453552,-0.9155272841453552,73.33333587646484,289329.0,1.0
15290.0445472,296418.125,294797.96875,321675.6875,312753.59375,285339.6875,254603.90625,219990.171875,245131.421875,0.053955078125,0.991455078125,0.169189453125,0.0915527269244194,-0.8850097060203552,-1.0681151151657104,73.33333587646484,289330.0,1.0
15290.0471536,296307.6875,294069.21875,320510.09375,312585.5,284699.28125,254465.6875,219794.453125,245057.921875,0.05126953125,0.992919921875,0.16943359375,0.2441406100988388,-0.7324218153953552,-1.1291502714157104,73.33333587646484,289331.0,1.0
15290.0496684,296434.03125,294222.03125,320525.46875,312759.21875,284762.9375,254538.28125,219914.890625,245151.265625,0.05078125,0.9921875,0.169921875,0.2746581733226776,-0.6103515028953552,-1.2512205839157104,73.33333587646484,289332.0,1.0
15290.1252947,296642.875,295079.59375,321739.0625,313053.8125,285470.9375,254739.09375,220207.703125,245309.328125,0.050537109375,0.99267578125,0.173095703125,0.2746581733226776,-0.4882812201976776,-1.3122557401657104,73.33333587646484,289333.0,1.0
15290.1253082,296640.46875,295438.75,322450.40625,313051.5,285830.8125,254784.0625,220261.96875,245304.328125,0.048828125,0.9931640625,0.17333984375,0.3051757514476776,-0.4577636420726776,-1.3427733182907104,73.33333587646484,289334.0,1.0
15290.142204,296432.96875,294809.59375,321686.0625,312759.9375,285352.21875,254622.59375,220007.421875,245146.171875,0.045654296875,0.9931640625,0.169189453125,0.2441406100988388,-0.3967284858226776,-1.4648436307907104,73.33333587646484,289335.0,1.0
15290.151817,296327.1875,294079.3125,320523.40625,312598.28125,284713.9375,254496.34375,219814.9375,245063.28125,0.043701171875,0.992919921875,0.16845703125,0.3967284858226776,-0.4272460639476776,-1.4038084745407104,73.33333587646484,289336.0,1.0
15290.1518313,296457.71875,294239.1875,320545.84375,312775.03125,284779.84375,254557.40625,219937.78125,245168.34375,0.0390625,0.994140625,0.1689453125,0.4272460639476776,-0.5187987685203552,-1.4343260526657104,73.33333587646484,289337.0,1.0
15290.1518327,296650.84375,295083.1875,321747.46875,313060.6875,285476.125,254731.3125,220212.4375,245321.21875,0.03857421875,0.9951171875,0.170166015625,0.4577636420726776,-0.5798339247703552,-1.5258787870407104,73.33333587646484,289338.0,1.0
15290.151834,296639.75,295435.0,322454.59375,313057.125,285834.03125,254789.15625,220265.359375,245313.265625,0.037353515625,0.996337890625,0.17138671875,0.3967284858226776,-0.7019042372703552,-1.5258787870407104,73.33333587646484,289339.0,1.0
15290.1518353,296435.375,294811.65625,321695.1875,312767.78125,285359.8125,254639.84375,220016.453125,245153.5,0.03857421875,0.99755859375,0.17578125,0.3967284858226776,-0.8850097060203552,-1.3427733182907104,73.33333587646484,289340.0,1.0
15290.153403,296335.34375,294099.4375,320545.3125,312606.25,284723.875,254490.09375,219806.078125,245063.28125,0.03662109375,0.9951171875,0.17138671875,0.2441406100988388,-0.9765624403953552,-1.3122557401657104,73.33333587646484,289341.0,1.0
15290.1592307,296458.625,294253.5,320565.59375,312774.78125,284785.75,254546.234375,219918.203125,245155.375,0.03662109375,0.9951171875,0.17431640625,0.2441406100988388,-1.1291502714157104,-1.2207030057907104,73.33333587646484,289342.0,1.0
15290.1592361,296658.71875,295101.0625,321767.9375,313064.4375,285485.15625,254729.25,220201.703125,245307.09375,0.035400390625,0.993896484375,0.172607421875,0.2746581733226776,-1.4648436307907104,-1.0986326932907104,73.33333587646484,289343.0,1.0
15290.1592398,296658.71875,295101.0625,321767.9375,313064.4375,285485.15625,254729.25,220201.703125,245307.09375,0.035400390625,0.993896484375,0.172607421875,0.2746581733226776,-1.4648436307907104,-1.0986326932907104,73.33333587646484,289344.0,0.0
15290.15924,296658.71875,295101.0625,321767.9375,313064.4375,285485.15625,254729.25,220201.703125,245307.09375,0.035400390625,0.993896484375,0.172607421875,0.2746581733226776,-1.4648436307907104,-1.0986326932907104,73.33333587646484,289345.0,0.0
15290.1592402,296658.71875,295101.0625,321767.9375,313064.4375,285485.15625,254729.25,220201.703125,245307.09375,0.035400390625,0.993896484375,0.172607421875,0.2746581733226776,-1.4648436307907104,-1.0986326932907104,73.33333587646484,289346.0,0.0
15290.1592404,296658.71875,295101.0625,321767.9375,313064.4375,285485.15625,254729.25,220201.703125,245307.09375,0.035400390625,0.993896484375,0.172607421875,0.2746581733226776,-1.4648436307907104,-1.0986326932907104,73.33333587646484,289347.0,0.0
15290.1592406,296658.71875,295101.0625,321767.9375,313064.4375,285485.15625,254729.25,220201.703125,245307.09375,0.035400390625,0.993896484375,0.172607421875,0.2746581733226776,-1.4648436307907104,-1.0986326932907104,73.33333587646484,289348.0,0.0
15290.1592407,296658.71875,295101.0625,321767.9375,313064.4375,285485.15625,254729.25,220201.703125,245307.09375,0.035400390625,0.993896484375,0.172607421875,0.2746581733226776,-1.4648436307907104,-1.0986326932907104,73.33333587646484,289349.0,0.0
15290.1592409,296658.71875,295101.0625,321767.9375,313064.4375,285485.15625,254729.25,220201.703125,245307.09375,0.035400390625,0.993896484375,0.172607421875,0.2746581733226776,-1.4648436307907104,-1.0986326932907104,73.33333587646484,289350.0,0.0
15290.1592411,296658.71875,295101.0625,321767.9375,313064.4375,285485.15625,254729.25,220201.703125,245307.09375,0.035400390625,0.993896484375,0.172607421875,0.2746581733226776,-1.4648436307907104,-1.0986326932907104,73.33333587646484,289351.0,0.0
15290.1592413,296658.71875,295101.0625,321767.9375,313064.4375,285485.15625,254729.25,220201.703125,245307.09375,0.035400390625,0.993896484375,0.172607421875,0.2746581733226776,-1.4648436307907104,-1.0986326932907104,73.33333587646484,289352.0,0.0
15290.1592414,296658.71875,295101.0625,321767.9375,313064.4375,285485.15625,254729.25,220201.703125,245307.09375,0.035400390625,0.993896484375,0.172607421875,0.2746581733226776,-1.4648436307907104,-1.0986326932907104,73.33333587646484,289353.0,0.0
15290.1592416,296658.71875,295101.0625,321767.9375,313064.4375,285485.15625,254729.25,220201.703125,245307.09375,0.035400390625,0.993896484375,0.172607421875,0.2746581733226776,-1.4648436307907104,-1.0986326932907104,73.33333587646484,289354.0,0.0
15290.1592418,296658.71875,295101.0625,321767.9375,313064.4375,285485.15625,254729.25,220201.703125,245307.09375,0.035400390625,0.993896484375,0.172607421875,0.2746581733226776,-1.4648436307907104,-1.0986326932907104,73.33333587646484,289355.0,0.0
15290.159242,296658.71875,295101.0625,321767.9375,313064.4375,285485.15625,254729.25,220201.703125,245307.09375,0.035400390625,0.993896484375,0.172607421875,0.2746581733226776,-1.4648436307907104,-1.0986326932907104,73.33333587646484,289356.0,0.0
15290.1592421,296658.71875,295101.0625,321767.9375,313064.4375,285485.15625,254729.25,220201.703125,245307.09375,0.035400390625,0.993896484375,0.172607421875,0.2746581733226776,-1.4648436307907104,-1.0986326932907104,73.33333587646484,289357.0,0.0
15290.1592423,296658.71875,295101.0625,321767.9375,313064.4375,285485.15625,254729.25,220201.703125,245307.09375,0.035400390625,0.993896484375,0.172607421875,0.2746581733226776,-1.4648436307907104,-1.0986326932907104,73.33333587646484,289358.0,0.0
15290.1592425,296658.71875,295101.0625,321767.9375,313064.4375,285485.15625,254729.25,220201.703125,245307.09375,0.035400390625,0.993896484375,0.172607421875,0.2746581733226776,-1.4648436307907104,-1.0986326932907104,73.33333587646484,289359.0,0.0
15290.1592427,296658.71875,295101.0625,321767.9375,313064.4375,285485.15625,254729.25,220201.703125,245307.09375,0.035400390625,0.993896484375,0.172607421875,0.2746581733226776,-1.4648436307907104,-1.0986326932907104,73.33333587646484,289360.0,0.0
15290.1592429,296658.71875,295101.0625,321767.9375,313064.4375,285485.15625,254729.25,220201.703125,245307.09375,0.035400390625,0.993896484375,0.172607421875,0.2746581733226776,-1.4648436307907104,-1.0986326932907104,73.33333587646484,289361.0,0.0
15290.1592431,296658.71875,295101.0625,321767.9375,313064.4375,285485.15625,254729.25,220201.703125,245307.09375,0.035400390625,0.993896484375,0.172607421875,0.2746581733226776,-1.4648436307907104,-1.0986326932907104,73.33333587646484,289362.0,0.0
15290.1592432,296658.71875,295101.0625,321767.9375,313064.4375,285485.15625,254729.25,220201.703125,245307.09375,0.035400390625,0.993896484375,0.172607421875,0.2746581733226776,-1.4648436307907104,-1.0986326932907104,73.33333587646484,289363.0,0.0
15290.1592434,296658.71875,295101.0625,321767.9375,313064.4375,285485.15625,254729.25,220201.703125,245307.09375,0.035400390625,0.993896484375,0.172607421875,0.2746581733226776,-1.4648436307907104,-1.0986326932907104,73.33333587646484,289364.0,0.0
15290.1592436,296658.71875,295101.0625,321767.9375,313064.4375,285485.15625,254729.25,220201.703125,245307.09375,0.035400390625,0.993896484375,0.172607421875,0.2746581733226776,-1.4648436307907104,-1.0986326932907104,73.33333587646484,289365.0,0.0
15290.1592438,296658.71875,295101.0625,321767.9375,313064.4375,285485.15625,254729.25,220201.703125,245307.09375,0.035400390625,0.993896484375,0.172607421875,0.2746581733226776,-1.4648436307907104,-1.0986326932907104,73.33333587646484,289366.0,0.0
15290.1592439,296658.71875,295101.0625,321767.9375,313064.4375,285485.15625,254729.25,220201.703125,245307.09375,0.035400390625,0.993896484375,0.172607421875,0.2746581733226776,-1.4648436307907104,-1.0986326932907104,73.33333587646484,289367.0,0.0
15290.1592441,296658.71875,295101.0625,321767.9375,313064.4375,285485.15625,254729.25,220201.703125,245307.09375,0.035400390625,0.993896484375,0.172607421875,0.2746581733226776,-1.4648436307907104,-1.0986326932907104,73.33333587646484,289368.0,0.0
15290.1592443,296658.71875,295101.0625,321767.9375,313064.4375,285485.15625,254729.25,220201.703125,245307.09375,0.035400390625,0.993896484375,0.172607421875,0.2746581733226776,-1.4648436307907104,-1.0986326932907104,73.33333587646484,289369.0,0.0
15290.1592446,296658.71875,295101.0625,321767.9375,313064.4375,285485.15625,254729.25,220201.703125,245307.09375,0.035400390625,0.993896484375,0.172607421875,0.2746581733226776,-1.4648436307907104,-1.0986326932907104,73.33333587646484,289370.0,0.0
15290.1592447,296658.71875,295101.0625,321767.9375,313064.4375,285485.15625,254729.25,220201.703125,245307.09375,0.035400390625,0.993896484375,0.172607421875,0.2746581733226776,-1.4648436307907104,-1.0986326932907104,73.33333587646484,289371.0,0.0
15290.1592449,296658.71875,295101.0625,321767.9375,313064.4375,285485.15625,254729.25,220201.703125,245307.09375,0.035400390625,0.993896484375,0.172607421875,0.2746581733226776,-1.4648436307907104,-1.0986326932907104,73.33333587646484,289372.0,0.0
15290.1592451,296658.71875,295101.0625,321767.9375,313064.4375,285485.15625,254729.25,220201.703125,245307.09375,0.035400390625,0.993896484375,0.172607421875,0.2746581733226776,-1.4648436307907104,-1.0986326932907104,73.33333587646484,289373.0,0.0
15290.1592453,296658.71875,295101.0625,321767.9375,313064.4375,285485.15625,254729.25,220201.703125,245307.09375,0.035400390625,0.993896484375,0.172607421875,0.2746581733226776,-1.4648436307907104,-1.0986326932907104,73.33333587646484,289374.0,0.0
15290.1592454,296658.71875,295101.0625,321767.9375,313064.4375,285485.15625,254729.25,220201.703125,245307.09375,0.035400390625,0.993896484375,0.172607421875,0.2746581733226776,-1.4648436307907104,-1.0986326932907104,73.33333587646484,289375.0,0.0
15290.1592456,296658.71875,295101.0625,321767.9375,313064.4375,285485.15625,254729.25,220201.703125,245307.09375,0.035400390625,0.993896484375,0.172607421875,0.2746581733226776,-1.4648436307907104,-1.0986326932907104,73.33333587646484,289376.0,0.0
15290.1592458,296658.71875,295101.0625,321767.9375,313064.4375,285485.15625,254729.25,220201.703125,245307.09375,0.035400390625,0.993896484375,0.172607421875,0.2746581733226776,-1.4648436307907104,-1.0986326932907104,73.33333587646484,289377.0,0.0
15290.1592464,296658.71875,295101.0625,321767.9375,313064.4375,285485.15625,254729.25,220201.703125,245307.09375,0.035400390625,0.993896484375,0.172607421875,0.2746581733226776,-1.4648436307907104,-1.0986326932907104,73.33333587646484,289378.0,0.0
15290.1592466,296658.71875,295101.0625,321767.9375,313064.4375,285485.15625,254729.25,220201.703125,245307.09375,0.035400390625,0.993896484375,0.172607421875,0.2746581733226776,-1.4648436307907104,-1.0986326932907104,73.33333587646484,289379.0,0.0
15290.1592468,296658.71875,295101.0625,321767.9375,313064.4375,285485.15625,254729.25,220201.703125,245307.09375,0.035400390625,0.993896484375,0.172607421875,0.2746581733226776,-1.4648436307907104,-1.0986326932907104,73.33333587646484,289380.0,0.0
15290.1592469,296658.71875,295101.0625,321767.9375,313064.4375,285485.15625,254729.25,220201.703125,245307.09375,0.035400390625,0.993896484375,0.172607421875,0.2746581733226776,-1.4648436307907104,-1.0986326932907104,73.33333587646484,289381.0,0.0
15290.1592471,296658.71875,295101.0625,321767.9375,313064.4375,285485.15625,254729.25,220201.703125,245307.09375,0.035400390625,0.993896484375,0.172607421875,0.2746581733226776,-1.4648436307907104,-1.0986326932907104,73.33333587646484,289382.0,0.0
15290.1592473,296658.71875,295101.0625,321767.9375,313064.4375,285485.15625,254729.25,220201.703125,245307.09375,0.035400390625,0.993896484375,0.172607421875,0.2746581733226776,-1.4648436307907104,-1.0986326932907104,73.33333587646484,289383.0,0.0
15290.1592474,296658.71875,295101.0625,321767.9375,313064.4375,285485.15625,254729.25,220201.703125,245307.09375,0.035400390625,0.993896484375,0.172607421875,0.2746581733226776,-1.4648436307907104,-1.0986326932907104,73.33333587646484,289384.0,0.0
15290.1592476,296658.71875,295101.0625,321767.9375,313064.4375,285485.15625,254729.25,220201.703125,245307.09375,0.035400390625,0.993896484375,0.172607421875,0.2746581733226776,-1.4648436307907104,-1.0986326932907104,73.33333587646484,289385.0,0.0
15290.1592478,296658.71875,295101.0625,321767.9375,313064.4375,285485.15625,254729.25,220201.703125,245307.09375,0.035400390625,0.993896484375,0.172607421875,0.2746581733226776,-1.4648436307907104,-1.0986326932907104,73.33333587646484,289386.0,0.0
15290.159248,296658.71875,295101.0625,321767.9375,313064.4375,285485.15625,254729.25,220201.703125,245307.09375,0.035400390625,0.993896484375,0.172607421875,0.2746581733226776,-1.4648436307907104,-1.0986326932907104,73.33333587646484,289387.0,0.0
15290.1592482,296658.71875,295101.0625,321767.9375,313064.4375,285485.15625,254729.25,220201.703125,245307.09375,0.035400390625,0.993896484375,0.172607421875,0.2746581733226776,-1.4648436307907104,-1.0986326932907104,73.33333587646484,289388.0,0.0
15290.1592483,296625.8125,295407.03125,322412.5625,313029.75,285799.625,254774.5,220253.75,245286.71875,0.05615234375,0.991943359375,0.1689453125,1.0681151151657104,-2.502441167831421,-0.2441406100988388,73.33333587646484,289389.0,1.0
15290.1592498,296415.71875,294786.53125,321668.71875,312737.65625,285334.96875,254609.890625,220001.890625,245134.453125,0.057373046875,0.9931640625,0.170166015625,1.0986326932907104,-2.410888433456421,-0.3051757514476776,73.33333587646484,289390.0,1.0
15290.159251,296313.15625,294071.8125,320523.75,312578.0625,284709.03125,254478.734375,219815.828125,245060.25,0.058349609375,0.994384765625,0.166748046875,1.0986326932907104,-2.258300542831421,-0.5187987685203552,73.33333587646484,289391.0,1.0
15290.1615053,296429.21875,294210.5625,320523.9375,312743.03125,284758.8125,254537.5625,219920.25,245152.25,0.0576171875,0.995361328125,0.167724609375,1.0375975370407104,-1.9226073026657104,-0.7629393935203552,73.33333587646484,289392.0,1.0
15290.1615092,296631.90625,295055.8125,321713.9375,313030.21875,285451.09375,254723.53125,220197.421875,245285.640625,0.056884765625,0.996337890625,0.166748046875,0.9155272841453552,-1.7700194120407104,-0.9155272841453552,73.33333587646484,289393.0,1.0
15290.1884752,296631.625,295425.0625,322440.28125,313036.03125,285820.8125,254775.296875,220257.40625,245284.921875,0.0595703125,0.99755859375,0.168212890625,0.8239745497703552,-1.5563963651657104,-1.1596678495407104,73.33333587646484,289394.0,1.0
15290.2406014,296426.71875,294813.8125,321705.09375,312749.1875,285357.3125,254615.171875,220007.78125,245131.765625,0.05859375,0.997314453125,0.1689453125,0.7019042372703552,-1.3122557401657104,-1.4343260526657104,73.33333587646484,289395.0,1.0
15290.2406244,296307.96875,294074.3125,320536.375,312576.28125,284711.4375,254481.328125,219806.796875,245049.078125,0.060302734375,0.99853515625,0.165283203125,0.5493163466453552,-1.0681151151657104,-1.6479490995407104,73.33333587646484,289396.0,1.0
15290.2406275,296435.5625,294218.8125,320528.59375,312746.53125,284761.96875,254556.34375,219926.875,245147.328125,0.056884765625,0.9990234375,0.166015625,0.6103515028953552,-0.8544921278953552,-1.8005369901657104,73.33333587646484,289397.0,1.0
15290.2406304,296638.59375,295069.875,321725.03125,313035.84375,285460.125,254747.5,220213.421875,245292.890625,0.054443359375,0.996337890625,0.16845703125,0.6103515028953552,-0.6408690810203552,-1.9836424589157104,73.33333587646484,289398.0,1.0
15290.2406377,296638.59375,295069.875,321725.03125,313035.84375,285460.125,254747.5,220213.421875,245292.890625,0.054443359375,0.996337890625,0.16845703125,0.6103515028953552,-0.6408690810203552,-1.9836424589157104,73.33333587646484,289399.0,0.0
15290.2406381,296638.59375,295069.875,321725.03125,313035.84375,285460.125,254747.5,220213.421875,245292.890625,0.054443359375,0.996337890625,0.16845703125,0.6103515028953552,-0.6408690810203552,-1.9836424589157104,73.33333587646484,289400.0,0.0
15290.2406386,296638.59375,295069.875,321725.03125,313035.84375,285460.125,254747.5,220213.421875,245292.890625,0.054443359375,0.996337890625,0.16845703125,0.6103515028953552,-0.6408690810203552,-1.9836424589157104,73.33333587646484,289401.0,0.0
15290.240639,296638.59375,295069.875,321725.03125,313035.84375,285460.125,254747.5,220213.421875,245292.890625,0.054443359375,0.996337890625,0.16845703125,0.6103515028953552,-0.6408690810203552,-1.9836424589157104,73.33333587646484,289402.0,0.0
15290.2406396,296638.59375,295069.875,321725.03125,313035.84375,285460.125,254747.5,220213.421875,245292.890625,0.054443359375,0.996337890625,0.16845703125,0.6103515028953552,-0.6408690810203552,-1.9836424589157104,73.33333587646484,289403.0,0.0
15290.24064,296638.59375,295069.875,321725.03125,313035.84375,285460.125,254747.5,220213.421875,245292.890625,0.054443359375,0.996337890625,0.16845703125,0.6103515028953552,-0.6408690810203552,-1.9836424589157104,73.33333587646484,289404.0,0.0
15290.2406403,296638.59375,295069.875,321725.03125,313035.84375,285460.125,254747.5,220213.421875,245292.890625,0.054443359375,0.996337890625,0.16845703125,0.6103515028953552,-0.6408690810203552,-1.9836424589157104,73.33333587646484,289405.0,0.0
15290.2406408,296638.59375,295069.875,321725.03125,313035.84375,285460.125,254747.5,220213.421875,245292.890625,0.054443359375,0.996337890625,0.16845703125,0.6103515028953552,-0.6408690810203552,-1.9836424589157104,73.33333587646484,289406.0,0.0
15290.2406412,296638.59375,295069.875,321725.03125,313035.84375,285460.125,254747.5,220213.421875,245292.890625,0.054443359375,0.996337890625,0.16845703125,0.6103515028953552,-0.6408690810203552,-1.9836424589157104,73.33333587646484,289407.0,0.0
15290.2406416,296638.59375,295069.875,321725.03125,313035.84375,285460.125,254747.5,220213.421875,245292.890625,0.054443359375,0.996337890625,0.16845703125,0.6103515028953552,-0.6408690810203552,-1.9836424589157104,73.33333587646484,289408.0,0.0
15290.240642,296638.59375,295069.875,321725.03125,313035.84375,285460.125,254747.5,220213.421875,245292.890625,0.054443359375,0.996337890625,0.16845703125,0.6103515028953552,-0.6408690810203552,-1.9836424589157104,73.33333587646484,289409.0,0.0
15290.2406424,296638.59375,295069.875,321725.03125,313035.84375,285460.125,254747.5,220213.421875,245292.890625,0.054443359375,0.996337890625,0.16845703125,0.6103515028953552,-0.6408690810203552,-1.9836424589157104,73.33333587646484,289410.0,0.0
15290.2406429,296638.59375,295069.875,321725.03125,313035.84375,285460.125,254747.5,220213.421875,245292.890625,0.054443359375,0.996337890625,0.16845703125,0.6103515028953552,-0.6408690810203552,-1.9836424589157104,73.33333587646484,289411.0,0.0
15290.2406432,296638.59375,295069.875,321725.03125,313035.84375,285460.125,254747.5,220213.421875,245292.890625,0.054443359375,0.996337890625,0.16845703125,0.6103515028953552,-0.6408690810203552,-1.9836424589157104,73.33333587646484,289412.0,0.0
15290.2406437,296638.59375,295069.875,321725.03125,313035.84375,285460.125,254747.5,220213.421875,245292.890625,0.054443359375,0.996337890625,0.16845703125,0.6103515028953552,-0.6408690810203552,-1.9836424589157104,73.33333587646484,289413.0,0.0
15290.2406441,296638.59375,295069.875,321725.03125,313035.84375,285460.125,254747.5,220213.421875,245292.890625,0.054443359375,0.996337890625,0.16845703125,0.6103515028953552,-0.6408690810203552,-1.9836424589157104,73.33333587646484,289414.0,0.0
15290.2406445,296638.59375,295069.875,321725.03125,313035.84375,285460.125,254747.5,220213.421875,245292.890625,0.054443359375,0.996337890625,0.16845703125,0.6103515028953552,-0.6408690810203552,-1.9836424589157104,73.33333587646484,289415.0,0.0
15290.2406449,296638.59375,295069.875,321725.03125,313035.84375,285460.125,254747.5,220213.421875,245292.890625,0.054443359375,0.996337890625,0.16845703125,0.6103515028953552,-0.6408690810203552,-1.9836424589157104,73.33333587646484,289416.0,0.0
15290.2406453,296638.59375,295069.875,321725.03125,313035.84375,285460.125,254747.5,220213.421875,245292.890625,0.054443359375,0.996337890625,0.16845703125,0.6103515028953552,-0.6408690810203552,-1.9836424589157104,73.33333587646484,289417.0,0.0
15290.2406457,296638.59375,295069.875,321725.03125,313035.84375,285460.125,254747.5,220213.421875,245292.890625,0.054443359375,0.996337890625,0.16845703125,0.6103515028953552,-0.6408690810203552,-1.9836424589157104,73.33333587646484,289418.0,0.0
15290.2406461,296638.59375,295069.875,321725.03125,313035.84375,285460.125,254747.5,220213.421875,245292.890625,0.054443359375,0.996337890625,0.16845703125,0.6103515028953552,-0.6408690810203552,-1.9836424589157104,73.33333587646484,289419.0,0.0
15290.2406465,296638.59375,295069.875,321725.03125,313035.84375,285460.125,254747.5,220213.421875,245292.890625,0.054443359375,0.996337890625,0.16845703125,0.6103515028953552,-0.6408690810203552,-1.9836424589157104,73.33333587646484,289420.0,0.0
15290.2406469,296638.59375,295069.875,321725.03125,313035.84375,285460.125,254747.5,220213.421875,245292.890625,0.054443359375,0.996337890625,0.16845703125,0.6103515028953552,-0.6408690810203552,-1.9836424589157104,73.33333587646484,289421.0,0.0
15290.2406474,296638.59375,295069.875,321725.03125,313035.84375,285460.125,254747.5,220213.421875,245292.890625,0.054443359375,0.996337890625,0.16845703125,0.6103515028953552,-0.6408690810203552,-1.9836424589157104,73.33333587646484,289422.0,0.0
15290.2406482,296638.59375,295069.875,321725.03125,313035.84375,285460.125,254747.5,220213.421875,245292.890625,0.054443359375,0.996337890625,0.16845703125,0.6103515028953552,-0.6408690810203552,-1.9836424589157104,73.33333587646484,289423.0,0.0
15290.240649,296638.59375,295069.875,321725.03125,313035.84375,285460.125,254747.5,220213.421875,245292.890625,0.054443359375,0.996337890625,0.16845703125,0.6103515028953552,-0.6408690810203552,-1.9836424589157104,73.33333587646484,289424.0,0.0
15290.2406494,296638.59375,295069.875,321725.03125,313035.84375,285460.125,254747.5,220213.421875,245292.890625,0.054443359375,0.996337890625,0.16845703125,0.6103515028953552,-0.6408690810203552,-1.9836424589157104,73.33333587646484,289425.0,0.0
15290.2406499,296638.59375,295069.875,321725.03125,313035.84375,285460.125,254747.5,220213.421875,245292.890625,0.054443359375,0.996337890625,0.16845703125,0.6103515028953552,-0.6408690810203552,-1.9836424589157104,73.33333587646484,289426.0,0.0
15290.2406503,296638.59375,295069.875,321725.03125,313035.84375,285460.125,254747.5,220213.421875,245292.890625,0.054443359375,0.996337890625,0.16845703125,0.6103515028953552,-0.6408690810203552,-1.9836424589157104,73.33333587646484,289427.0,0.0
15290.2406507,296638.59375,295069.875,321725.03125,313035.84375,285460.125,254747.5,220213.421875,245292.890625,0.054443359375,0.996337890625,0.16845703125,0.6103515028953552,-0.6408690810203552,-1.9836424589157104,73.33333587646484,289428.0,0.0
15290.240651,296638.59375,295069.875,321725.03125,313035.84375,285460.125,254747.5,220213.421875,245292.890625,0.054443359375,0.996337890625,0.16845703125,0.6103515028953552,-0.6408690810203552,-1.9836424589157104,73.33333587646484,289429.0,0.0
15290.2406515,296638.59375,295069.875,321725.03125,313035.84375,285460.125,254747.5,220213.421875,245292.890625,0.054443359375,0.996337890625,0.16845703125,0.6103515028953552,-0.6408690810203552,-1.9836424589157104,73.33333587646484,289430.0,0.0
15290.2406519,296638.59375,295069.875,321725.03125,313035.84375,285460.125,254747.5,220213.421875,245292.890625,0.054443359375,0.996337890625,0.16845703125,0.6103515028953552,-0.6408690810203552,-1.9836424589157104,73.33333587646484,289431.0,0.0
15290.2406523,296638.59375,295069.875,321725.03125,313035.84375,285460.125,254747.5,220213.421875,245292.890625,0.054443359375,0.996337890625,0.16845703125,0.6103515028953552,-0.6408690810203552,-1.9836424589157104,73.33333587646484,289432.0,0.0
15290.2406527,296638.59375,295069.875,321725.03125,313035.84375,285460.125,254747.5,220213.421875,245292.890625,0.054443359375,0.996337890625,0.16845703125,0.6103515028953552,-0.6408690810203552,-1.9836424589157104,73.33333587646484,289433.0,0.0
15290.2406531,296638.59375,295069.875,321725.03125,313035.84375,285460.125,254747.5,220213.421875,245292.890625,0.054443359375,0.996337890625,0.16845703125,0.6103515028953552,-0.6408690810203552,-1.9836424589157104,73.33333587646484,289434.0,0.0
15290.2406536,296638.59375,295069.875,321725.03125,313035.84375,285460.125,254747.5,220213.421875,245292.890625,0.054443359375,0.996337890625,0.16845703125,0.6103515028953552,-0.6408690810203552,-1.9836424589157104,73.33333587646484,289435.0,0.0
15290.240654,296322.375,294090.21875,320538.15625,312579.15625,284716.90625,254481.15625,219818.234375,245060.328125,0.043701171875,0.997314453125,0.171630859375,0.6713866591453552,-0.1831054538488388,-1.6479490995407104,73.33333587646484,289436.0,1.0
15290.2606674,296441.1875,294217.53125,320515.53125,312743.65625,284756.3125,254543.90625,219931.15625,245154.484375,0.0380859375,0.99560546875,0.170166015625,0.7019042372703552,-0.1831054538488388,-1.7089842557907104,73.33333587646484,289437.0,1.0
15290.2606808,296643.78125,295065.40625,321702.9375,313036.90625,285451.375,254729.96875,220218.875,245313.171875,0.03662109375,0.996337890625,0.17236328125,0.7324218153953552,-0.4272460639476776,-1.6174315214157104,73.33333587646484,289438.0,1.0
15290.260682,296641.90625,295439.65625,322434.9375,313039.15625,285822.15625,254773.59375,220267.25,245298.609375,0.037353515625,0.99609375,0.16943359375,0.7934569716453552,-0.6408690810203552,-1.6479490995407104,73.33333587646484,289439.0,1.0
15290.2606832,296434.9375,294829.1875,321701.15625,312749.90625,285357.9375,254613.734375,220014.3125,245145.265625,0.038330078125,0.994140625,0.168701171875,0.8239745497703552,-0.7324218153953552,-1.4038084745407104,73.33333587646484,289440.0,1.0
15290.2606845,296317.1875,294092.28125,320534.59375,312578.875,284711.34375,254479.890625,219817.25,245059.796875,0.038818359375,0.994384765625,0.1708984375,0.6408690810203552,-0.9155272841453552,-1.2207030057907104,73.33333587646484,289441.0,1.0
15290.2665927,296442.53125,294226.03125,320527.25,312748.21875,284758.8125,254540.515625,219921.15625,245145.0,0.040771484375,0.99560546875,0.174072265625,0.6713866591453552,-0.9765624403953552,-1.0681151151657104,73.33333587646484,289442.0,1.0
15290.2666048,296642.4375,295062.96875,321708.59375,313033.96875,285448.25,254723.53125,220199.46875,245293.0625,0.03759765625,0.99658203125,0.172607421875,0.7629393935203552,-1.2512205839157104,-0.8239745497703552,73.33333587646484,289443.0,1.0
15290.266606,296640.375,295430.71875,322429.125,313034.21875,285812.5625,254768.140625,220252.578125,245286.890625,0.036376953125,0.9951171875,0.17041015625,0.7324218153953552,-1.3732908964157104,-0.7934569716453552,73.33333587646484,289444.0,1.0
15290.2666072,296434.46875,294817.65625,321692.5,312743.9375,285345.34375,254596.03125,219998.671875,245128.640625,0.035888671875,0.995849609375,0.16845703125,0.7629393935203552,-1.5258787870407104,-0.6713866591453552,73.33333587646484,289445.0,1.0
15290.2666084,296317.09375,294078.78125,320523.6875,312567.4375,284698.75,254463.171875,219801.171875,245040.75,0.037109375,0.993896484375,0.170166015625,0.7629393935203552,-1.7700194120407104,-0.6103515028953552,73.33333587646484,289446.0,1.0
15290.2666096,296438.875,294210.84375,320501.59375,312735.15625,284741.65625,254537.921875,219920.25,245142.328125,0.03857421875,0.9931640625,0.166259765625,0.7629393935203552,-1.9836424589157104,-0.4272460639476776,73.33333587646484,289447.0,1.0
15290.2929977,296634.65625,295051.8125,321682.21875,313023.0625,285431.875,254725.3125,220206.984375,245297.71875,0.042724609375,0.9921875,0.165771484375,0.8544921278953552,-2.227782964706421,-0.3051757514476776,73.33333587646484,289448.0,1.0
15290.3215504,296634.65625,295051.8125,321682.21875,313023.0625,285431.875,254725.3125,220206.984375,245297.71875,0.042724609375,0.9921875,0.165771484375,0.8544921278953552,-2.227782964706421,-0.3051757514476776,73.33333587646484,289449.0,0.0
15290.3215515,296634.65625,295051.8125,321682.21875,313023.0625,285431.875,254725.3125,220206.984375,245297.71875,0.042724609375,0.9921875,0.165771484375,0.8544921278953552,-2.227782964706421,-0.3051757514476776,73.33333587646484,289450.0,0.0
15290.3215517,296634.65625,295051.8125,321682.21875,313023.0625,285431.875,254725.3125,220206.984375,245297.71875,0.042724609375,0.9921875,0.165771484375,0.8544921278953552,-2.227782964706421,-0.3051757514476776,73.33333587646484,289451.0,0.0
15290.3215519,296634.65625,295051.8125,321682.21875,313023.0625,285431.875,254725.3125,220206.984375,245297.71875,0.042724609375,0.9921875,0.165771484375,0.8544921278953552,-2.227782964706421,-0.3051757514476776,73.33333587646484,289452.0,0.0
15290.3215521,296634.65625,295051.8125,321682.21875,313023.0625,285431.875,254725.3125,220206.984375,245297.71875,0.042724609375,0.9921875,0.165771484375,0.8544921278953552,-2.227782964706421,-0.3051757514476776,73.33333587646484,289453.0,0.0
15290.3215523,296634.65625,295051.8125,321682.21875,313023.0625,285431.875,254725.3125,220206.984375,245297.71875,0.042724609375,0.9921875,0.165771484375,0.8544921278953552,-2.227782964706421,-0.3051757514476776,73.33333587646484,289454.0,0.0
15290.3215525,296634.65625,295051.8125,321682.21875,313023.0625,285431.875,254725.3125,220206.984375,245297.71875,0.042724609375,0.9921875,0.165771484375,0.8544921278953552,-2.227782964706421,-0.3051757514476776,73.33333587646484,289455.0,0.0
15290.3215526,296634.65625,295051.8125,321682.21875,313023.0625,285431.875,254725.3125,220206.984375,245297.71875,0.042724609375,0.9921875,0.165771484375,0.8544921278953552,-2.227782964706421,-0.3051757514476776,73.33333587646484,289456.0,0.0
15290.3215528,296634.65625,295051.8125,321682.21875,313023.0625,285431.875,254725.3125,220206.984375,245297.71875,0.042724609375,0.9921875,0.165771484375,0.8544921278953552,-2.227782964706421,-0.3051757514476776,73.33333587646484,289457.0,0.0
15290.321553,296634.65625,295051.8125,321682.21875,313023.0625,285431.875,254725.3125,220206.984375,245297.71875,0.042724609375,0.9921875,0.165771484375,0.8544921278953552,-2.227782964706421,-0.3051757514476776,73.33333587646484,289458.0,0.0
15290.3215532,296634.65625,295051.8125,321682.21875,313023.0625,285431.875,254725.3125,220206.984375,245297.71875,0.042724609375,0.9921875,0.165771484375,0.8544921278953552,-2.227782964706421,-0.3051757514476776,73.33333587646484,289459.0,0.0
15290.3215534,296634.65625,295051.8125,321682.21875,313023.0625,285431.875,254725.3125,220206.984375,245297.71875,0.042724609375,0.9921875,0.165771484375,0.8544921278953552,-2.227782964706421,-0.3051757514476776,73.33333587646484,289460.0,0.0
15290.3215536,296634.65625,295051.8125,321682.21875,313023.0625,285431.875,254725.3125,220206.984375,245297.71875,0.042724609375,0.9921875,0.165771484375,0.8544921278953552,-2.227782964706421,-0.3051757514476776,73.33333587646484,289461.0,0.0
15290.3215537,296439.03125,294207.625,320501.5,312735.34375,284741.375,254537.921875,219918.90625,245145.359375,0.0576171875,0.992431640625,0.169921875,0.6103515028953552,-1.8615721464157104,-1.6479490995407104,73.33333587646484,289462.0,1.0
15290.3215582,296645.21875,295058.59375,321688.46875,313028.6875,285437.25,254728.359375,220208.40625,245305.40625,0.056396484375,0.994384765625,0.165283203125,0.6103515028953552,-1.7395018339157104,-1.6784666776657104,73.33333587646484,289463.0,1.0
15290.3215594,296638.0625,295433.5625,322428.9375,313033.4375,285814.375,254774.40625,220269.5625,245312.46875,0.0576171875,0.99560546875,0.165283203125,0.6408690810203552,-1.4953612089157104,-1.4953612089157104,73.33333587646484,289464.0,1.0
15290.3215606,296434.5625,294823.8125,321704.03125,312748.40625,285356.0625,254616.421875,220026.015625,245160.375,0.055419921875,0.995361328125,0.161865234375,0.6103515028953552,-1.3122557401657104,-1.4953612089157104,73.33333587646484,289465.0,1.0
15290.3447418,296315.9375,294086.9375,320540.40625,312568.0625,284709.90625,254475.609375,219816.8125,245048.265625,0.05517578125,0.995849609375,0.1650390625,0.7019042372703552,-1.0681151151657104,-1.5563963651657104,73.33333587646484,289466.0,1.0
15290.3796343,296426.4375,294198.59375,320501.15625,312722.46875,284736.125,254524.15625,219914.0,245129.453125,0.053466796875,0.995361328125,0.166748046875,0.5798339247703552,-0.8850097060203552,-1.5869139432907104,73.33333587646484,289467.0,1.0
15290.3796461,296628.9375,295035.4375,321680.78125,313012.5,285421.78125,254711.90625,220193.65625,245281.703125,0.05322265625,0.99462890625,0.16650390625,0.4272460639476776,-0.7324218153953552,-1.5563963651657104,73.33333587646484,289468.0,1.0
15290.3796486,296637.71875,295424.09375,322429.28125,313027.875,285802.84375,254773.234375,220261.515625,245281.703125,0.049560546875,0.99365234375,0.16650390625,0.3051757514476776,-0.6713866591453552,-1.5869139432907104,73.33333587646484,289469.0,1.0
15290.4034878,296442.0,294834.625,321717.875,312751.34375,285355.875,254616.953125,220022.796875,245143.125,0.044921875,0.9931640625,0.16455078125,0.3967284858226776,-0.5493163466453552,-1.4648436307907104,73.33333587646484,289470.0,1.0
15290.4159501,296322.53125,294088.1875,320540.46875,312574.3125,284701.78125,254463.171875,219811.171875,245060.421875,0.0439453125,0.9951171875,0.16357421875,0.4272460639476776,-0.4272460639476776,-1.3122557401657104,73.33333587646484,289471.0,1.0
15290.4190708,296442.4375,294214.3125,320512.9375,312736.59375,284739.25,254533.90625,219917.65625,245140.625,0.0439453125,0.993408203125,0.1650390625,0.3662109076976776,-0.4272460639476776,-1.2817381620407104,73.33333587646484,289472.0,1.0
15290.4190793,296647.53125,295060.375,321700.90625,313032.4375,285436.25,254730.0625,220206.0,245298.6875,0.0390625,0.995849609375,0.163818359375,0.3051757514476776,-0.4882812201976776,-1.2817381620407104,73.33333587646484,289473.0,1.0
15290.4209312,296644.9375,295434.5625,322439.125,313040.84375,285811.9375,254767.609375,220262.234375,245297.265625,0.039306640625,0.99462890625,0.166748046875,0.3662109076976776,-0.4882812201976776,-1.1596678495407104,73.33333587646484,289474.0,1.0
15290.4262215,296450.40625,294830.625,321720.125,312764.21875,285364.1875,254616.59375,220021.375,245150.90625,0.039306640625,0.995361328125,0.1669921875,0.4272460639476776,-0.7019042372703552,-1.1901854276657104,73.33333587646484,289475.0,1.0
15290.4262309,296328.8125,294083.34375,320536.625,312580.9375,284705.625,254465.5,219808.5,245060.875,0.0361328125,0.995361328125,0.1630859375,0.5187987685203552,-0.7324218153953552,-1.1596678495407104,73.33333587646484,289476.0,1.0
15290.426233,296450.5625,294214.25,320515.625,312745.4375,284749.53125,254543.109375,219933.125,245161.546875,0.034912109375,0.99560546875,0.164794921875,0.4882812201976776,-0.8239745497703552,-1.0070799589157104,73.33333587646484,289477.0,1.0
15290.4284607,296650.5,295060.5625,321705.8125,313035.75,285447.34375,254733.546875,220222.0,245319.34375,0.03564453125,0.997802734375,0.16357421875,0.4577636420726776,-1.0070799589157104,-1.0070799589157104,73.33333587646484,289478.0,1.0
15290.4284726,296650.5,295060.5625,321705.8125,313035.75,285447.34375,254733.546875,220222.0,245319.34375,0.03564453125,0.997802734375,0.16357421875,0.4577636420726776,-1.0070799589157104,-1.0070799589157104,73.33333587646484,289479.0,0.0
15290.428473,296650.5,295060.5625,321705.8125,313035.75,285447.34375,254733.546875,220222.0,245319.34375,0.03564453125,0.997802734375,0.16357421875,0.4577636420726776,-1.0070799589157104,-1.0070799589157104,73.33333587646484,289480.0,0.0
15290.4284733,296650.5,295060.5625,321705.8125,313035.75,285447.34375,254733.546875,220222.0,245319.34375,0.03564453125,0.997802734375,0.16357421875,0.4577636420726776,-1.0070799589157104,-1.0070799589157104,73.33333587646484,289481.0,0.0
15290.4284737,296650.5,295060.5625,321705.8125,313035.75,285447.34375,254733.546875,220222.0,245319.34375,0.03564453125,0.997802734375,0.16357421875,0.4577636420726776,-1.0070799589157104,-1.0070799589157104,73.33333587646484,289482.0,0.0
15290.4284741,296650.5,295060.5625,321705.8125,313035.75,285447.34375,254733.546875,220222.0,245319.34375,0.03564453125,0.997802734375,0.16357421875,0.4577636420726776,-1.0070799589157104,-1.0070799589157104,73.33333587646484,289483.0,0.0
15290.4284744,296650.5,295060.5625,321705.8125,313035.75,285447.34375,254733.546875,220222.0,245319.34375,0.03564453125,0.997802734375,0.16357421875,0.4577636420726776,-1.0070799589157104,-1.0070799589157104,73.33333587646484,289484.0,0.0
15290.4284752,296650.5,295060.5625,321705.8125,313035.75,285447.34375,254733.546875,220222.0,245319.34375,0.03564453125,0.997802734375,0.16357421875,0.4577636420726776,-1.0070799589157104,-1.0070799589157104,73.33333587646484,289485.0,0.0
15290.4284756,296650.5,295060.5625,321705.8125,313035.75,285447.34375,254733.546875,220222.0,245319.34375,0.03564453125,0.997802734375,0.16357421875,0.4577636420726776,-1.0070799589157104,-1.0070799589157104,73.33333587646484,289486.0,0.0
15290.4284759,296650.5,295060.5625,321705.8125,313035.75,285447.34375,254733.546875,220222.0,245319.34375,0.03564453125,0.997802734375,0.16357421875,0.4577636420726776,-1.0070799589157104,-1.0070799589157104,73.33333587646484,289487.0,0.0
15290.4284763,296650.5,295060.5625,321705.8125,313035.75,285447.34375,254733.546875,220222.0,245319.34375,0.03564453125,0.997802734375,0.16357421875,0.4577636420726776,-1.0070799589157104,-1.0070799589157104,73.33333587646484,289488.0,0.0
15290.4284766,296650.5,295060.5625,321705.8125,313035.75,285447.34375,254733.546875,220222.0,245319.34375,0.03564453125,0.997802734375,0.16357421875,0.4577636420726776,-1.0070799589157104,-1.0070799589157104,73.33333587646484,289489.0,0.0
15290.4284769,296650.5,295060.5625,321705.8125,313035.75,285447.34375,254733.546875,220222.0,245319.34375,0.03564453125,0.997802734375,0.16357421875,0.4577636420726776,-1.0070799589157104,-1.0070799589157104,73.33333587646484,289490.0,0.0
15290.4284772,296650.5,295060.5625,321705.8125,313035.75,285447.34375,254733.546875,220222.0,245319.34375,0.03564453125,0.997802734375,0.16357421875,0.4577636420726776,-1.0070799589157104,-1.0070799589157104,73.33333587646484,289491.0,0.0
15290.4284775,296650.5,295060.5625,321705.8125,313035.75,285447.34375,254733.546875,220222.0,245319.34375,0.03564453125,0.997802734375,0.16357421875,0.4577636420726776,-1.0070799589157104,-1.0070799589157104,73.33333587646484,289492.0,0.0
15290.4284778,296650.5,295060.5625,321705.8125,313035.75,285447.34375,254733.546875,220222.0,245319.34375,0.03564453125,0.997802734375,0.16357421875,0.4577636420726776,-1.0070799589157104,-1.0070799589157104,73.33333587646484,289493.0,0.0
15290.4284781,296650.5,295060.5625,321705.8125,313035.75,285447.34375,254733.546875,220222.0,245319.34375,0.03564453125,0.997802734375,0.16357421875,0.4577636420726776,-1.0070799589157104,-1.0070799589157104,73.33333587646484,289494.0,0.0
15290.4284785,296650.5,295060.5625,321705.8125,313035.75,285447.34375,254733.546875,220222.0,245319.34375,0.03564453125,0.997802734375,0.16357421875,0.4577636420726776,-1.0070799589157104,-1.0070799589157104,73.33333587646484,289495.0,0.0
15290.4284788,296650.5,295060.5625,321705.8125,313035.75,285447.34375,254733.546875,220222.0,245319.34375,0.03564453125,0.997802734375,0.16357421875,0.4577636420726776,-1.0070799589157104,-1.0070799589157104,73.33333587646484,289496.0,0.0
15290.4284791,296650.5,295060.5625,321705.8125,313035.75,285447.34375,254733.546875,220222.0,245319.34375,0.03564453125,0.997802734375,0.16357421875,0.4577636420726776,-1.0070799589157104,-1.0070799589157104,73.33333587646484,289497.0,0.0
15290.4284794,296650.5,295060.5625,321705.8125,313035.75,285447.34375,254733.546875,220222.0,245319.34375,0.03564453125,0.997802734375,0.16357421875,0.4577636420726776,-1.0070799589157104,-1.0070799589157104,73.33333587646484,289498.0,0.0
15290.4284797,296650.5,295060.5625,321705.8125,313035.75,285447.34375,254733.546875,220222.0,245319.34375,0.03564453125,0.997802734375,0.16357421875,0.4577636420726776,-1.0070799589157104,-1.0070799589157104,73.33333587646484,289499.0,0.0
15290.42848,296650.5,295060.5625,321705.8125,313035.75,285447.34375,254733.546875,220222.0,245319.34375,0.03564453125,0.997802734375,0.16357421875,0.4577636420726776,-1.0070799589157104,-1.0070799589157104,73.33333587646484,289500.0,0.0
15290.4284804,296650.5,295060.5625,321705.8125,313035.75,285447.34375,254733.546875,220222.0,245319.34375,0.03564453125,0.997802734375,0.16357421875,0.4577636420726776,-1.0070799589157104,-1.0070799589157104,73.33333587646484,289501.0,0.0
15290.4284807,296650.5,295060.5625,321705.8125,313035.75,285447.34375,254733.546875,220222.0,245319.34375,0.03564453125,0.997802734375,0.16357421875,0.4577636420726776,-1.0070799589157104,-1.0070799589157104,73.33333587646484,289502.0,0.0
15290.428481,296650.5,295060.5625,321705.8125,313035.75,285447.34375,254733.546875,220222.0,245319.34375,0.03564453125,0.997802734375,0.16357421875,0.4577636420726776,-1.0070799589157104,-1.0070799589157104,73.33333587646484,289503.0,0.0
15290.4284813,296650.5,295060.5625,321705.8125,313035.75,285447.34375,254733.546875,220222.0,245319.34375,0.03564453125,0.997802734375,0.16357421875,0.4577636420726776,-1.0070799589157104,-1.0070799589157104,73.33333587646484,289504.0,0.0
15290.4284816,296650.5,295060.5625,321705.8125,313035.75,285447.34375,254733.546875,220222.0,245319.34375,0.03564453125,0.997802734375,0.16357421875,0.4577636420726776,-1.0070799589157104,-1.0070799589157104,73.33333587646484,289505.0,0.0
15290.4284819,296650.5,295060.5625,321705.8125,313035.75,285447.34375,254733.546875,220222.0,245319.34375,0.03564453125,0.997802734375,0.16357421875,0.4577636420726776,-1.0070799589157104,-1.0070799589157104,73.33333587646484,289506.0,0.0
15290.4284823,296650.5,295060.5625,321705.8125,313035.75,285447.34375,254733.546875,220222.0,245319.34375,0.03564453125,0.997802734375,0.16357421875,0.4577636420726776,-1.0070799589157104,-1.0070799589157104,73.33333587646484,289507.0,0.0
15290.4284826,296650.5,295060.5625,321705.8125,313035.75,285447.34375,254733.546875,220222.0,245319.34375,0.03564453125,0.997802734375,0.16357421875,0.4577636420726776,-1.0070799589157104,-1.0070799589157104,73.33333587646484,289508.0,0.0
15290.4284829,296650.5,295060.5625,321705.8125,313035.75,285447.34375,254733.546875,220222.0,245319.34375,0.03564453125,0.997802734375,0.16357421875,0.4577636420726776,-1.0070799589157104,-1.0070799589157104,73.33333587646484,289509.0,0.0
15290.4284833,296650.5,295060.5625,321705.8125,313035.75,285447.34375,254733.546875,220222.0,245319.34375,0.03564453125,0.997802734375,0.16357421875,0.4577636420726776,-1.0070799589157104,-1.0070799589157104,73.33333587646484,289510.0,0.0
15290.4284836,296650.5,295060.5625,321705.8125,313035.75,285447.34375,254733.546875,220222.0,245319.34375,0.03564453125,0.997802734375,0.16357421875,0.4577636420726776,-1.0070799589157104,-1.0070799589157104,73.33333587646484,289511.0,0.0
15290.4284839,296650.5,295060.5625,321705.8125,313035.75,285447.34375,254733.546875,220222.0,245319.34375,0.03564453125,0.997802734375,0.16357421875,0.4577636420726776,-1.0070799589157104,-1.0070799589157104,73.33333587646484,289512.0,0.0
15290.4284842,296650.5,295060.5625,321705.8125,313035.75,285447.34375,254733.546875,220222.0,245319.34375,0.03564453125,0.997802734375,0.16357421875,0.4577636420726776,-1.0070799589157104,-1.0070799589157104,73.33333587646484,289513.0,0.0
15290.4284845,296650.5,295060.5625,321705.8125,313035.75,285447.34375,254733.546875,220222.0,245319.34375,0.03564453125,0.997802734375,0.16357421875,0.4577636420726776,-1.0070799589157104,-1.0070799589157104,73.33333587646484,289514.0,0.0
15290.4284848,296650.5,295060.5625,321705.8125,313035.75,285447.34375,254733.546875,220222.0,245319.34375,0.03564453125,0.997802734375,0.16357421875,0.4577636420726776,-1.0070799589157104,-1.0070799589157104,73.33333587646484,289515.0,0.0
15290.4284851,296650.5,295060.5625,321705.8125,313035.75,285447.34375,254733.546875,220222.0,245319.34375,0.03564453125,0.997802734375,0.16357421875,0.4577636420726776,-1.0070799589157104,-1.0070799589157104,73.33333587646484,289516.0,0.0
15290.4284855,296650.5,295060.5625,321705.8125,313035.75,285447.34375,254733.546875,220222.0,245319.34375,0.03564453125,0.997802734375,0.16357421875,0.4577636420726776,-1.0070799589157104,-1.0070799589157104,73.33333587646484,289517.0,0.0
15290.4284859,296650.5,295060.5625,321705.8125,313035.75,285447.34375,254733.546875,220222.0,245319.34375,0.03564453125,0.997802734375,0.16357421875,0.4577636420726776,-1.0070799589157104,-1.0070799589157104,73.33333587646484,289518.0,0.0
15290.4284862,296650.5,295060.5625,321705.8125,313035.75,285447.34375,254733.546875,220222.0,245319.34375,0.03564453125,0.997802734375,0.16357421875,0.4577636420726776,-1.0070799589157104,-1.0070799589157104,73.33333587646484,289519.0,0.0
15290.4284866,296650.5,295060.5625,321705.8125,313035.75,285447.34375,254733.546875,220222.0,245319.34375,0.03564453125,0.997802734375,0.16357421875,0.4577636420726776,-1.0070799589157104,-1.0070799589157104,73.33333587646484,289520.0,0.0
15290.4284869,296650.5,295060.5625,321705.8125,313035.75,285447.34375,254733.546875,220222.0,245319.34375,0.03564453125,0.997802734375,0.16357421875,0.4577636420726776,-1.0070799589157104,-1.0070799589157104,73.33333587646484,289521.0,0.0
15290.4284872,296650.5,295060.5625,321705.8125,313035.75,285447.34375,254733.546875,220222.0,245319.34375,0.03564453125,0.997802734375,0.16357421875,0.4577636420726776,-1.0070799589157104,-1.0070799589157104,73.33333587646484,289522.0,0.0
15290.4284876,296650.5,295060.5625,321705.8125,313035.75,285447.34375,254733.546875,220222.0,245319.34375,0.03564453125,0.997802734375,0.16357421875,0.4577636420726776,-1.0070799589157104,-1.0070799589157104,73.33333587646484,289523.0,0.0
15290.428488,296650.5,295060.5625,321705.8125,313035.75,285447.34375,254733.546875,220222.0,245319.34375,0.03564453125,0.997802734375,0.16357421875,0.4577636420726776,-1.0070799589157104,-1.0070799589157104,73.33333587646484,289524.0,0.0
15290.4284883,296650.5,295060.5625,321705.8125,313035.75,285447.34375,254733.546875,220222.0,245319.34375,0.03564453125,0.997802734375,0.16357421875,0.4577636420726776,-1.0070799589157104,-1.0070799589157104,73.33333587646484,289525.0,0.0
15290.4284887,296650.5,295060.5625,321705.8125,313035.75,285447.34375,254733.546875,220222.0,245319.34375,0.03564453125,0.997802734375,0.16357421875,0.4577636420726776,-1.0070799589157104,-1.0070799589157104,73.33333587646484,289526.0,0.0
15290.4284889,296650.5,295060.5625,321705.8125,313035.75,285447.34375,254733.546875,220222.0,245319.34375,0.03564453125,0.997802734375,0.16357421875,0.4577636420726776,-1.0070799589157104,-1.0070799589157104,73.33333587646484,289527.0,0.0
15290.4284892,296650.5,295060.5625,321705.8125,313035.75,285447.34375,254733.546875,220222.0,245319.34375,0.03564453125,0.997802734375,0.16357421875,0.4577636420726776,-1.0070799589157104,-1.0070799589157104,73.33333587646484,289528.0,0.0
15290.4284895,296650.5,295060.5625,321705.8125,313035.75,285447.34375,254733.546875,220222.0,245319.34375,0.03564453125,0.997802734375,0.16357421875,0.4577636420726776,-1.0070799589157104,-1.0070799589157104,73.33333587646484,289529.0,0.0
15290.4284899,296650.5,295060.5625,321705.8125,313035.75,285447.34375,254733.546875,220222.0,245319.34375,0.03564453125,0.997802734375,0.16357421875,0.4577636420726776,-1.0070799589157104,-1.0070799589157104,73.33333587646484,289530.0,0.0
15290.4284902,296650.5,295060.5625,321705.8125,313035.75,285447.34375,254733.546875,220222.0,245319.34375,0.03564453125,0.997802734375,0.16357421875,0.4577636420726776,-1.0070799589157104,-1.0070799589157104,73.33333587646484,289531.0,0.0
15290.4284905,296650.5,295060.5625,321705.8125,313035.75,285447.34375,254733.546875,220222.0,245319.34375,0.03564453125,0.997802734375,0.16357421875,0.4577636420726776,-1.0070799589157104,-1.0070799589157104,73.33333587646484,289532.0,0.0
15290.4284908,296650.5,295060.5625,321705.8125,313035.75,285447.34375,254733.546875,220222.0,245319.34375,0.03564453125,0.997802734375,0.16357421875,0.4577636420726776,-1.0070799589157104,-1.0070799589157104,73.33333587646484,289533.0,0.0
15290.4284912,296616.6875,295421.78125,322424.90625,313020.90625,285810.53125,254758.125,220250.609375,245288.40625,0.04638671875,0.99267578125,0.167724609375,-0.4272460639476776,-1.4343260526657104,-0.7019042372703552,73.33333587646484,289534.0,1.0
15290.4321611,296420.0,294823.0,321709.21875,312740.96875,285363.125,254608.375,220011.0,245139.109375,0.047119140625,0.99267578125,0.168701171875,-0.4577636420726776,-1.3732908964157104,-0.7934569716453552,73.33333587646484,289535.0,1.0
15290.4321677,296303.6875,294076.8125,320531.09375,312565.28125,284713.5,254480.34375,219810.46875,245054.078125,0.047119140625,0.994140625,0.1708984375,-0.3967284858226776,-1.4953612089157104,-0.8239745497703552,73.33333587646484,289536.0,1.0
15290.4321701,296425.09375,294200.46875,320494.875,312731.6875,284748.625,254550.703125,219926.25,245153.3125,0.0498046875,0.99365234375,0.17236328125,-0.4577636420726776,-1.4953612089157104,-0.8544921278953552,73.33333587646484,289537.0,1.0
15290.4371845,296634.125,295056.09375,321693.84375,313027.625,285451.28125,254730.78125,220211.0,245311.5625,0.048095703125,0.993896484375,0.171142578125,-0.5187987685203552,-1.3732908964157104,-0.8544921278953552,73.33333587646484,289538.0,1.0
15290.4397142,296634.40625,295439.375,322442.09375,313039.875,285835.09375,254781.46875,220274.3125,245313.09375,0.048095703125,0.993408203125,0.1728515625,-0.4577636420726776,-1.3427733182907104,-0.8850097060203552,73.33333587646484,289539.0,1.0
15290.4421767,296434.125,294844.5625,321730.5,312758.21875,285389.15625,254640.296875,220036.390625,245162.265625,0.046630859375,0.99365234375,0.170654296875,-0.3356933295726776,-1.1901854276657104,-0.8850097060203552,73.33333587646484,289540.0,1.0
15290.4511907,296308.6875,294089.15625,320546.84375,312574.3125,284730.84375,254492.765625,219821.375,245070.96875,0.044921875,0.9951171875,0.170166015625,-0.3356933295726776,-1.2207030057907104,-1.0375975370407104,73.33333587646484,289541.0,1.0
15290.4511985,296419.0,294195.5625,320499.34375,312729.8125,284756.5,254548.65625,219932.765625,245160.203125,0.046875,0.997802734375,0.173583984375,-0.3662109076976776,-1.1901854276657104,-1.0986326932907104,73.33333587646484,289542.0,1.0
15290.4512004,296621.78125,295041.25,321691.59375,313020.625,285451.5625,254739.53125,220225.21875,245317.828125,0.047607421875,0.99609375,0.170166015625,-0.3356933295726776,-1.2817381620407104,-0.9765624403953552,73.33333587646484,289543.0,1.0
15290.4555277,296621.34375,295422.9375,322443.875,313027.15625,285831.875,254786.390625,220278.953125,245308.4375,0.046630859375,0.99560546875,0.171875,-0.3356933295726776,-1.1901854276657104,-0.8850097060203552,73.33333587646484,289544.0,1.0
15290.4555402,296414.625,294810.03125,321715.46875,312740.25,285370.53125,254616.421875,220022.625,245160.03125,0.04638671875,0.9931640625,0.170654296875,-0.3356933295726776,-1.1291502714157104,-0.9460448622703552,73.33333587646484,289545.0,1.0
15290.4555416,296288.21875,294042.65625,320511.875,312552.875,284700.53125,254455.484375,219807.15625,245067.9375,0.0458984375,0.993408203125,0.17138671875,-0.2136230319738388,-1.0070799589157104,-0.9765624403953552,73.33333587646484,289546.0,1.0
15290.4555429,296412.84375,294171.6875,320473.59375,312716.65625,284731.8125,254519.421875,219915.875,245148.3125,0.0458984375,0.9931640625,0.16748046875,-0.0915527269244194,-1.0375975370407104,-0.9460448622703552,73.33333587646484,289547.0,1.0
15290.4555442,296628.75,295038.46875,321679.71875,313017.59375,285441.0,254729.515625,220212.609375,245307.546875,0.046142578125,0.995361328125,0.1708984375,-0.0915527269244194,-1.0681151151657104,-1.0070799589157104,73.33333587646484,289548.0,1.0
15290.4656315,296632.78125,295429.5625,322441.90625,313027.34375,285829.46875,254775.75,220269.84375,245299.765625,0.046875,0.995849609375,0.174072265625,-0.2441406100988388,-1.1596678495407104,-1.0375975370407104,73.33333587646484,289549.0,1.0
15290.4656387,296428.9375,294820.40625,321717.53125,312736.5,285367.6875,254606.671875,220015.03125,245141.78125,0.044189453125,0.997314453125,0.171630859375,-0.1831054538488388,-1.1291502714157104,-0.9460448622703552,73.33333587646484,289550.0,1.0
15290.4656408,296316.375,294070.28125,320527.0625,312561.71875,284708.03125,254466.390625,219807.328125,245062.390625,0.045166015625,0.993408203125,0.172119140625,-0.1220703050494194,-1.0986326932907104,-0.9155272841453552,73.33333587646484,289551.0,1.0
15290.4656426,296444.59375,294200.90625,320498.71875,312730.5,284750.0625,254536.5,219922.765625,245149.828125,0.04638671875,0.992919921875,0.17578125,-0.1220703050494194,-1.1596678495407104,-1.0070799589157104,73.33333587646484,289552.0,1.0
15290.4656442,296649.78125,295058.15625,321692.84375,313026.4375,285450.75,254733.359375,220215.296875,245307.546875,0.0458984375,0.9931640625,0.17529296875,-0.0610351525247097,-1.1901854276657104,-1.0070799589157104,73.33333587646484,289553.0,1.0
15290.4688732,296649.15625,295450.65625,322450.5625,313038.0625,285838.5,254790.3125,220278.953125,245304.859375,0.044189453125,0.99267578125,0.17333984375,0.0,-1.1291502714157104,-0.8850097060203552,73.33333587646484,289554.0,1.0
15290.46888,296450.5625,294856.8125,321743.90625,312756.875,285393.0,254639.84375,220034.78125,245156.265625,0.047119140625,0.994384765625,0.173583984375,0.0610351525247097,-1.1291502714157104,-0.9460448622703552,73.33333587646484,289555.0,1.0
15290.4688821,296329.78125,294097.90625,320555.875,312574.84375,284732.4375,254483.46875,219819.9375,245069.09375,0.044189453125,0.99462890625,0.17236328125,0.1525878757238388,-1.1901854276657104,-0.9460448622703552,73.33333587646484,289556.0,1.0
15290.4688848,296329.78125,294097.90625,320555.875,312574.84375,284732.4375,254483.46875,219819.9375,245069.09375,0.044189453125,0.99462890625,0.17236328125,0.1525878757238388,-1.1901854276657104,-0.9460448622703552,73.33333587646484,289557.0,0.0
15290.4688852,296329.78125,294097.90625,320555.875,312574.84375,284732.4375,254483.46875,219819.9375,245069.09375,0.044189453125,0.99462890625,0.17236328125,0.1525878757238388,-1.1901854276657104,-0.9460448622703552,73.33333587646484,289558.0,0.0
15290.4688855,296329.78125,294097.90625,320555.875,312574.84375,284732.4375,254483.46875,219819.9375,245069.09375,0.044189453125,0.99462890625,0.17236328125,0.1525878757238388,-1.1901854276657104,-0.9460448622703552,73.33333587646484,289559.0,0.0
15290.4688859,296329.78125,294097.90625,320555.875,312574.84375,284732.4375,254483.46875,219819.9375,245069.09375,0.044189453125,0.99462890625,0.17236328125,0.1525878757238388,-1.1901854276657104,-0.9460448622703552,73.33333587646484,289560.0,0.0
15290.4688863,296329.78125,294097.90625,320555.875,312574.84375,284732.4375,254483.46875,219819.9375,245069.09375,0.044189453125,0.99462890625,0.17236328125,0.1525878757238388,-1.1901854276657104,-0.9460448622703552,73.33333587646484,289561.0,0.0
15290.4688866,296329.78125,294097.90625,320555.875,312574.84375,284732.4375,254483.46875,219819.9375,245069.09375,0.044189453125,0.99462890625,0.17236328125,0.1525878757238388,-1.1901854276657104,-0.9460448622703552,73.33333587646484,289562.0,0.0
15290.4688869,296715.3125,295077.71875,321700.96875,313059.25,285466.84375,254749.640625,220227.640625,245336.15625,0.046142578125,0.9951171875,0.172119140625,0.3967284858226776,-1.7089842557907104,-1.0375975370407104,73.33333587646484,289563.0,1.0
15290.4709795,296718.78125,295470.3125,322465.78125,313068.21875,285855.9375,254788.53125,220285.84375,245331.0625,0.046142578125,0.9921875,0.173095703125,0.3967284858226776,-1.8005369901657104,-0.9765624403953552,73.33333587646484,289564.0,1.0
15290.4740506,296519.40625,294874.34375,321760.875,312779.25,285407.5625,254632.421875,220037.375,245169.328125,0.047119140625,0.994873046875,0.174072265625,0.3662109076976776,-1.7700194120407104,-1.0070799589157104,73.33333587646484,289565.0,1.0
15290.4740574,296398.09375,294114.71875,320566.84375,312588.09375,284739.4375,254487.671875,219818.0625,245059.171875,0.048828125,0.99462890625,0.171630859375,0.3662109076976776,-1.8615721464157104,-0.7934569716453552,73.33333587646484,289566.0,1.0
15290.4759379,296524.25,294227.75,320520.46875,312754.90625,284769.09375,254547.484375,219932.765625,245166.90625,0.050048828125,0.99267578125,0.172607421875,0.3051757514476776,-1.8615721464157104,-0.7934569716453552,73.33333587646484,289567.0,1.0
15290.4784801,296734.8125,295079.53125,321707.34375,313052.46875,285466.5625,254751.421875,220230.859375,245330.875,0.047119140625,0.9921875,0.174560546875,0.4882812201976776,-1.8615721464157104,-0.7934569716453552,73.33333587646484,289568.0,1.0
15290.4906331,296742.59375,295486.0625,322478.1875,313063.09375,285858.625,254804.53125,220290.40625,245318.359375,0.049072265625,0.99169921875,0.176513671875,0.4882812201976776,-1.7700194120407104,-0.7934569716453552,73.33333587646484,289569.0,1.0
15290.4906403,296541.875,294889.96875,321775.8125,312779.875,285411.9375,254635.640625,220038.890625,245172.09375,0.048828125,0.991455078125,0.172607421875,0.5493163466453552,-1.6784666776657104,-0.6408690810203552,73.33333587646484,289570.0,1.0
15290.4906423,296407.46875,294120.71875,320578.125,312586.03125,284742.28125,254471.84375,219813.859375,245065.15625,0.050048828125,0.9931640625,0.1708984375,0.6103515028953552,-1.6174315214157104,-0.5187987685203552,73.33333587646484,289571.0,1.0
15290.4906442,296522.90625,294231.6875,320530.46875,312744.8125,284769.375,254539.796875,219923.5625,245151.171875,0.047607421875,0.99267578125,0.167724609375,0.5798339247703552,-1.6174315214157104,-0.5187987685203552,73.33333587646484,289572.0,1.0
15290.4906461,296724.15625,295076.46875,321708.21875,313037.53125,285459.40625,254737.84375,220215.203125,245312.28125,0.047119140625,0.99169921875,0.171630859375,0.6713866591453552,-1.6784666776657104,-0.4272460639476776,73.33333587646484,289573.0,1.0
15290.490648,296723.4375,295470.3125,322470.78125,313051.5,285852.375,254795.328125,220281.28125,245313.796875,0.048095703125,0.991455078125,0.165771484375,0.7019042372703552,-1.5869139432907104,-0.4272460639476776,73.33333587646484,289574.0,1.0
15290.4906497,296518.15625,294884.4375,321777.4375,312768.5,285412.9375,254638.5,220035.5,245156.1875,0.05029296875,0.99169921875,0.169677734375,0.7629393935203552,-1.3427733182907104,-0.4577636420726776,73.33333587646484,289575.0,1.0
15290.4960371,296378.4375,294110.625,320566.40625,312573.78125,284736.46875,254485.4375,219821.015625,245063.015625,0.051025390625,0.991943359375,0.16650390625,0.7324218153953552,-1.2512205839157104,-0.5798339247703552,73.33333587646484,289576.0,1.0
15290.4991194,296489.5625,294209.5,320489.6875,312732.46875,284748.90625,254552.765625,219937.6875,245166.546875,0.049072265625,0.99267578125,0.170166015625,0.7934569716453552,-1.2207030057907104,-0.5798339247703552,73.33333587646484,289577.0,1.0
15290.4991264,296696.90625,295070.3125,321678.625,313032.09375,285448.59375,254757.859375,220225.671875,245312.46875,0.048583984375,0.993408203125,0.169921875,0.6713866591453552,-1.2207030057907104,-0.6103515028953552,73.33333587646484,289578.0,1.0
15290.5009833,296696.4375,295476.65625,322456.65625,313042.8125,285845.84375,254804.4375,220283.875,245306.109375,0.0478515625,0.992919921875,0.1708984375,0.7324218153953552,-1.2207030057907104,-0.4882812201976776,73.33333587646484,289579.0,1.0
15290.5051303,296495.1875,294890.5,321765.53125,312763.875,285409.96875,254648.78125,220043.8125,245161.640625,0.04736328125,0.994140625,0.1708984375,0.7629393935203552,-1.1596678495407104,-0.5798339247703552,73.33333587646484,289580.0,1.0
15290.5051362,296370.8125,294133.9375,320573.21875,312581.125,284749.875,254508.859375,219837.28125,245073.203125,0.044677734375,0.995361328125,0.170166015625,0.8850097060203552,-1.0986326932907104,-0.7934569716453552,73.33333587646484,289581.0,1.0
15290.5051375,296478.375,294232.375,320502.84375,312734.96875,284760.625,254546.5,219935.0,245165.390625,0.044189453125,0.9970703125,0.1689453125,0.7629393935203552,-1.1596678495407104,-0.8544921278953552,73.33333587646484,289582.0,1.0
15290.5051389,296682.75,295087.75,321693.125,313034.0625,285460.40625,254742.671875,220226.46875,245325.96875,0.044189453125,0.996337890625,0.170654296875,0.7324218153953552,-1.1901854276657104,-1.0375975370407104,73.33333587646484,289583.0,1.0
15290.5072583,296684.8125,295486.84375,322460.40625,313050.40625,285853.78125,254805.703125,220294.328125,245331.6875,0.045654296875,0.997314453125,0.171142578125,0.6713866591453552,-1.0986326932907104,-1.0986326932907104,73.33333587646484,289584.0,1.0
15290.5146373,296483.21875,294895.0625,321762.84375,312764.5625,285407.5625,254653.171875,220043.546875,245160.65625,0.046875,0.9990234375,0.168212890625,0.5798339247703552,-1.2207030057907104,-1.2512205839157104,73.33333587646484,289585.0,1.0
15290.5146442,296352.0625,294125.1875,320563.625,312575.125,284740.3125,254502.875,219829.953125,245066.421875,0.046630859375,0.9990234375,0.168701171875,0.5493163466453552,-1.2207030057907104,-1.1596678495407104,73.33333587646484,289586.0,1.0
15290.5146466,296467.21875,294230.59375,320507.5,312735.15625,284764.90625,254565.015625,219943.765625,245157.609375,0.047607421875,1.0,0.170654296875,0.4272460639476776,-1.3122557401657104,-1.1596678495407104,73.33333587646484,289587.0,1.0
15290.5172357,296670.78125,295084.09375,321691.875,313026.71875,285456.8125,254749.734375,220226.65625,245306.65625,0.0478515625,0.999267578125,0.170166015625,0.2441406100988388,-1.3122557401657104,-1.1901854276657104,73.33333587646484,289588.0,1.0
15290.5197522,296679.71875,295488.1875,322475.25,313048.34375,285859.34375,254806.046875,220287.453125,245308.96875,0.043701171875,0.999755859375,0.171142578125,0.2746581733226776,-1.2817381620407104,-1.1901854276657104,73.33333587646484,289589.0,1.0
15290.5272256,296679.71875,295488.1875,322475.25,313048.34375,285859.34375,254806.046875,220287.453125,245308.96875,0.043701171875,0.999755859375,0.171142578125,0.2746581733226776,-1.2817381620407104,-1.1901854276657104,73.33333587646484,289590.0,0.0
15290.5272269,296679.71875,295488.1875,322475.25,313048.34375,285859.34375,254806.046875,220287.453125,245308.96875,0.043701171875,0.999755859375,0.171142578125,0.2746581733226776,-1.2817381620407104,-1.1901854276657104,73.33333587646484,289591.0,0.0
15290.5272272,296679.71875,295488.1875,322475.25,313048.34375,285859.34375,254806.046875,220287.453125,245308.96875,0.043701171875,0.999755859375,0.171142578125,0.2746581733226776,-1.2817381620407104,-1.1901854276657104,73.33333587646484,289592.0,0.0
15290.5272276,296679.71875,295488.1875,322475.25,313048.34375,285859.34375,254806.046875,220287.453125,245308.96875,0.043701171875,0.999755859375,0.171142578125,0.2746581733226776,-1.2817381620407104,-1.1901854276657104,73.33333587646484,289593.0,0.0
15290.5272279,296679.71875,295488.1875,322475.25,313048.34375,285859.34375,254806.046875,220287.453125,245308.96875,0.043701171875,0.999755859375,0.171142578125,0.2746581733226776,-1.2817381620407104,-1.1901854276657104,73.33333587646484,289594.0,0.0
15290.5272281,296679.71875,295488.1875,322475.25,313048.34375,285859.34375,254806.046875,220287.453125,245308.96875,0.043701171875,0.999755859375,0.171142578125,0.2746581733226776,-1.2817381620407104,-1.1901854276657104,73.33333587646484,289595.0,0.0
15290.5272285,296679.71875,295488.1875,322475.25,313048.34375,285859.34375,254806.046875,220287.453125,245308.96875,0.043701171875,0.999755859375,0.171142578125,0.2746581733226776,-1.2817381620407104,-1.1901854276657104,73.33333587646484,289596.0,0.0
15290.5272288,296679.71875,295488.1875,322475.25,313048.34375,285859.34375,254806.046875,220287.453125,245308.96875,0.043701171875,0.999755859375,0.171142578125,0.2746581733226776,-1.2817381620407104,-1.1901854276657104,73.33333587646484,289597.0,0.0
15290.5272291,296679.71875,295488.1875,322475.25,313048.34375,285859.34375,254806.046875,220287.453125,245308.96875,0.043701171875,0.999755859375,0.171142578125,0.2746581733226776,-1.2817381620407104,-1.1901854276657104,73.33333587646484,289598.0,0.0
15290.5272294,296679.71875,295488.1875,322475.25,313048.34375,285859.34375,254806.046875,220287.453125,245308.96875,0.043701171875,0.999755859375,0.171142578125,0.2746581733226776,-1.2817381620407104,-1.1901854276657104,73.33333587646484,289599.0,0.0
15290.5272297,296679.71875,295488.1875,322475.25,313048.34375,285859.34375,254806.046875,220287.453125,245308.96875,0.043701171875,0.999755859375,0.171142578125,0.2746581733226776,-1.2817381620407104,-1.1901854276657104,73.33333587646484,289600.0,0.0
15290.52723,296679.71875,295488.1875,322475.25,313048.34375,285859.34375,254806.046875,220287.453125,245308.96875,0.043701171875,0.999755859375,0.171142578125,0.2746581733226776,-1.2817381620407104,-1.1901854276657104,73.33333587646484,289601.0,0.0
15290.5272303,296679.71875,295488.1875,322475.25,313048.34375,285859.34375,254806.046875,220287.453125,245308.96875,0.043701171875,0.999755859375,0.171142578125,0.2746581733226776,-1.2817381620407104,-1.1901854276657104,73.33333587646484,289602.0,0.0
15290.5272307,296679.71875,295488.1875,322475.25,313048.34375,285859.34375,254806.046875,220287.453125,245308.96875,0.043701171875,0.999755859375,0.171142578125,0.2746581733226776,-1.2817381620407104,-1.1901854276657104,73.33333587646484,289603.0,0.0
15290.527231,296679.71875,295488.1875,322475.25,313048.34375,285859.34375,254806.046875,220287.453125,245308.96875,0.043701171875,0.999755859375,0.171142578125,0.2746581733226776,-1.2817381620407104,-1.1901854276657104,73.33333587646484,289604.0,0.0
15290.5272313,296679.71875,295488.1875,322475.25,313048.34375,285859.34375,254806.046875,220287.453125,245308.96875,0.043701171875,0.999755859375,0.171142578125,0.2746581733226776,-1.2817381620407104,-1.1901854276657104,73.33333587646484,289605.0,0.0
15290.5272317,296679.71875,295488.1875,322475.25,313048.34375,285859.34375,254806.046875,220287.453125,245308.96875,0.043701171875,0.999755859375,0.171142578125,0.2746581733226776,-1.2817381620407104,-1.1901854276657104,73.33333587646484,289606.0,0.0
15290.527232,296679.71875,295488.1875,322475.25,313048.34375,285859.34375,254806.046875,220287.453125,245308.96875,0.043701171875,0.999755859375,0.171142578125,0.2746581733226776,-1.2817381620407104,-1.1901854276657104,73.33333587646484,289607.0,0.0
15290.5272323,296679.71875,295488.1875,322475.25,313048.34375,285859.34375,254806.046875,220287.453125,245308.96875,0.043701171875,0.999755859375,0.171142578125,0.2746581733226776,-1.2817381620407104,-1.1901854276657104,73.33333587646484,289608.0,0.0
15290.5272325,296679.71875,295488.1875,322475.25,313048.34375,285859.34375,254806.046875,220287.453125,245308.96875,0.043701171875,0.999755859375,0.171142578125,0.2746581733226776,-1.2817381620407104,-1.1901854276657104,73.33333587646484,289609.0,0.0
15290.5272328,296679.71875,295488.1875,322475.25,313048.34375,285859.34375,254806.046875,220287.453125,245308.96875,0.043701171875,0.999755859375,0.171142578125,0.2746581733226776,-1.2817381620407104,-1.1901854276657104,73.33333587646484,289610.0,0.0
15290.5272331,296679.71875,295488.1875,322475.25,313048.34375,285859.34375,254806.046875,220287.453125,245308.96875,0.043701171875,0.999755859375,0.171142578125,0.2746581733226776,-1.2817381620407104,-1.1901854276657104,73.33333587646484,289611.0,0.0
15290.5272334,296679.71875,295488.1875,322475.25,313048.34375,285859.34375,254806.046875,220287.453125,245308.96875,0.043701171875,0.999755859375,0.171142578125,0.2746581733226776,-1.2817381620407104,-1.1901854276657104,73.33333587646484,289612.0,0.0
15290.5272337,296648.96875,295067.53125,321671.9375,313015.46875,285438.40625,254745.25,220215.203125,245302.546875,0.051513671875,0.990966796875,0.17236328125,0.7629393935203552,-1.5869139432907104,-0.6713866591453552,73.33333587646484,289613.0,1.0
15290.536768,296655.40625,295478.625,322458.0,313034.3125,285842.0,254804.796875,220287.71875,245305.578125,0.051513671875,0.9892578125,0.17236328125,0.7629393935203552,-1.4648436307907104,-0.6713866591453552,73.33333587646484,289614.0,1.0
15290.536775,296456.03125,294889.625,321769.28125,312755.625,285403.625,254657.640625,220049.171875,245158.0625,0.052001953125,0.9921875,0.1728515625,0.7934569716453552,-1.3427733182907104,-0.7629393935203552,73.33333587646484,289615.0,1.0
15290.5367768,296329.6875,294119.28125,320567.03125,312571.09375,284738.09375,254517.0,219846.40625,245078.9375,0.052490234375,0.9921875,0.171142578125,1.0375975370407104,-1.1901854276657104,-0.8239745497703552,73.33333587646484,289616.0,1.0
15290.5367784,296439.9375,294219.78125,320500.25,312724.96875,284752.65625,254552.578125,219940.375,245161.640625,0.052978515625,0.99169921875,0.171142578125,1.1901854276657104,-1.1291502714157104,-0.8544921278953552,73.33333587646484,289617.0,1.0
15290.5367803,296629.84375,295059.9375,321677.46875,313010.4375,285439.3125,254724.15625,220216.1875,245308.796875,0.051025390625,0.9951171875,0.171142578125,1.1596678495407104,-1.0070799589157104,-0.9460448622703552,73.33333587646484,289618.0,1.0
15290.536782,296628.5,295465.3125,322458.1875,313020.8125,285837.34375,254780.21875,220273.328125,245300.21875,0.0517578125,0.99462890625,0.169677734375,1.1291502714157104,-1.0375975370407104,-0.9460448622703552,73.33333587646484,289619.0,1.0
15290.5367839,296426.0625,294873.53125,321762.40625,312734.8125,285395.03125,254631.171875,220037.203125,245147.78125,0.04931640625,0.99462890625,0.17236328125,1.0375975370407104,-1.0375975370407104,-0.8239745497703552,73.33333587646484,289620.0,1.0
15290.5367857,296296.78125,294097.375,320548.4375,312545.96875,284721.71875,254482.9375,219820.921875,245055.6875,0.050048828125,0.994873046875,0.1708984375,0.9765624403953552,-0.8850097060203552,-0.7934569716453552,73.33333587646484,289621.0,1.0
15290.5367875,296415.25,294200.1875,320476.75,312707.90625,284740.0625,254543.109375,219920.703125,245143.125,0.05078125,0.993408203125,0.17041015625,0.9765624403953552,-0.7934569716453552,-0.7934569716453552,73.33333587646484,289622.0,1.0
15290.5367896,296623.84375,295068.625,321678.8125,313010.625,285449.5,254755.8125,220224.421875,245301.828125,0.0478515625,0.993408203125,0.1708984375,0.9765624403953552,-0.7934569716453552,-0.7629393935203552,73.33333587646484,289623.0,1.0
15290.540989,296626.25,295471.125,322464.0625,313024.65625,285848.53125,254799.4375,220287.1875,245300.296875,0.046875,0.99560546875,0.17041015625,1.0070799589157104,-0.8239745497703552,-0.8239745497703552,73.33333587646484,289624.0,1.0
15290.5467969,296626.25,295471.125,322464.0625,313024.65625,285848.53125,254799.4375,220287.1875,245300.296875,0.046875,0.99560546875,0.17041015625,1.0070799589157104,-0.8239745497703552,-0.8239745497703552,73.33333587646484,289625.0,0.0
15290.5467997,296626.25,295471.125,322464.0625,313024.65625,285848.53125,254799.4375,220287.1875,245300.296875,0.046875,0.99560546875,0.17041015625,1.0070799589157104,-0.8239745497703552,-0.8239745497703552,73.33333587646484,289626.0,0.0
15290.5468,296626.25,295471.125,322464.0625,313024.65625,285848.53125,254799.4375,220287.1875,245300.296875,0.046875,0.99560546875,0.17041015625,1.0070799589157104,-0.8239745497703552,-0.8239745497703552,73.33333587646484,289627.0,0.0
15290.5468003,296626.25,295471.125,322464.0625,313024.65625,285848.53125,254799.4375,220287.1875,245300.296875,0.046875,0.99560546875,0.17041015625,1.0070799589157104,-0.8239745497703552,-0.8239745497703552,73.33333587646484,289628.0,0.0
15290.5468006,296626.25,295471.125,322464.0625,313024.65625,285848.53125,254799.4375,220287.1875,245300.296875,0.046875,0.99560546875,0.17041015625,1.0070799589157104,-0.8239745497703552,-0.8239745497703552,73.33333587646484,289629.0,0.0
15290.546801,296626.25,295471.125,322464.0625,313024.65625,285848.53125,254799.4375,220287.1875,245300.296875,0.046875,0.99560546875,0.17041015625,1.0070799589157104,-0.8239745497703552,-0.8239745497703552,73.33333587646484,289630.0,0.0
15290.5468013,296626.25,295471.125,322464.0625,313024.65625,285848.53125,254799.4375,220287.1875,245300.296875,0.046875,0.99560546875,0.17041015625,1.0070799589157104,-0.8239745497703552,-0.8239745497703552,73.33333587646484,289631.0,0.0
15290.5468185,296626.25,295471.125,322464.0625,313024.65625,285848.53125,254799.4375,220287.1875,245300.296875,0.046875,0.99560546875,0.17041015625,1.0070799589157104,-0.8239745497703552,-0.8239745497703552,73.33333587646484,289632.0,0.0
15290.5468189,296626.25,295471.125,322464.0625,313024.65625,285848.53125,254799.4375,220287.1875,245300.296875,0.046875,0.99560546875,0.17041015625,1.0070799589157104,-0.8239745497703552,-0.8239745497703552,73.33333587646484,289633.0,0.0
15290.5468192,296641.46875,295465.65625,322449.15625,313023.3125,285833.0625,254800.328125,220293.703125,245305.3125,0.0478515625,0.994873046875,0.169189453125,1.0681151151657104,-1.3427733182907104,-0.6103515028953552,73.33333587646484,289634.0,1.0
15290.546826,296440.5625,294875.21875,321757.9375,312738.90625,285389.21875,254627.859375,220035.859375,245143.84375,0.049560546875,0.99658203125,0.169189453125,1.0070799589157104,-1.2512205839157104,-0.4272460639476776,73.33333587646484,289635.0,1.0
15290.546828,296316.46875,294107.03125,320552.09375,312553.40625,284719.5625,254476.953125,219822.171875,245053.1875,0.047607421875,0.995361328125,0.169189453125,0.9460448622703552,-1.1901854276657104,-0.4577636420726776,73.33333587646484,289636.0,1.0
15290.5468299,296430.71875,294202.875,320474.15625,312715.5,284735.3125,254554.546875,219945.46875,245170.84375,0.04638671875,0.997314453125,0.167236328125,0.9460448622703552,-1.2512205839157104,-0.4882812201976776,73.33333587646484,289637.0,1.0
15290.5468319,296642.1875,295060.65625,321662.71875,313015.0,285433.3125,254753.390625,220235.5,245322.125,0.047607421875,0.995849609375,0.16748046875,0.9155272841453552,-1.1901854276657104,-0.6103515028953552,73.33333587646484,289638.0,1.0
15290.5484783,296637.4375,295460.3125,322443.25,313015.8125,285822.15625,254765.28125,220268.9375,245288.40625,0.046630859375,0.99365234375,0.16357421875,0.9155272841453552,-1.2512205839157104,-0.5187987685203552,73.33333587646484,289639.0,1.0
15290.5509148,296431.96875,294867.4375,321754.09375,312734.8125,285383.59375,254606.59375,220020.65625,245140.890625,0.04638671875,0.993408203125,0.167236328125,0.8850097060203552,-1.2817381620407104,-0.6408690810203552,73.33333587646484,289640.0,1.0
15290.5534293,296302.4375,294092.90625,320543.53125,312545.0,284711.34375,254464.078125,219806.4375,245043.171875,0.0498046875,0.992919921875,0.165283203125,0.9460448622703552,-1.2817381620407104,-0.6713866591453552,73.33333587646484,289641.0,1.0
15290.5559289,296420.28125,294194.65625,320466.90625,312702.34375,284725.84375,254533.71875,219918.203125,245134.546875,0.048095703125,0.99267578125,0.167236328125,1.0986326932907104,-1.3427733182907104,-0.6103515028953552,73.33333587646484,289642.0,1.0
15290.5584024,296630.8125,295055.03125,321659.78125,313005.71875,285430.90625,254741.140625,220222.453125,245306.296875,0.046875,0.992431640625,0.16357421875,1.0375975370407104,-1.1901854276657104,-0.6408690810203552,73.33333587646484,289643.0,1.0
15290.5690563,296632.15625,295455.28125,322440.65625,313023.0625,285830.46875,254794.078125,220295.859375,245321.671875,0.045166015625,0.9951171875,0.165283203125,1.1291502714157104,-1.2207030057907104,-0.7629393935203552,73.33333587646484,289644.0,1.0
15290.5690639,296430.1875,294867.28125,321752.21875,312734.34375,285390.125,254635.203125,220041.21875,245151.265625,0.04345703125,0.99609375,0.166259765625,1.0986326932907104,-1.3122557401657104,-0.8239745497703552,73.33333587646484,289645.0,1.0
15290.5709302,296298.9375,294094.0,320540.9375,312542.125,284716.53125,254484.375,219817.890625,245047.1875,0.041259765625,0.9990234375,0.165771484375,1.0070799589157104,-1.4648436307907104,-0.8544921278953552,73.33333587646484,289646.0,1.0
15290.5759378,296415.53125,294192.25,320463.78125,312702.8125,284730.9375,254547.484375,219924.71875,245143.3125,0.0439453125,0.99755859375,0.1650390625,0.8850097060203552,-1.5869139432907104,-0.9155272841453552,73.33333587646484,289647.0,1.0
15290.57841,296618.9375,295044.75,321650.375,312998.5625,285427.6875,254738.1875,220213.953125,245299.59375,0.04541015625,0.9970703125,0.16455078125,0.7934569716453552,-1.6479490995407104,-1.0375975370407104,73.33333587646484,289648.0,1.0
15290.5809149,296624.75,295457.34375,322446.375,313016.78125,285835.5625,254782.546875,220276.71875,245299.765625,0.045166015625,0.993896484375,0.16162109375,0.7629393935203552,-1.6174315214157104,-1.1901854276657104,73.33333587646484,289649.0,1.0
15290.5840539,296426.96875,294867.71875,321756.59375,312736.0625,285394.34375,254624.46875,220032.453125,245151.625,0.046142578125,0.9931640625,0.161865234375,0.7629393935203552,-1.7089842557907104,-1.2207030057907104,73.33333587646484,289650.0,1.0
15290.5840599,296295.53125,294087.375,320540.40625,312548.5625,284722.0625,254484.453125,219826.28125,245075.625,0.046875,0.994384765625,0.164306640625,0.7324218153953552,-1.7089842557907104,-1.1901854276657104,73.33333587646484,289651.0,1.0
15290.5859147,296407.5625,294179.0,320458.21875,312699.03125,284728.96875,254543.28125,219923.203125,245145.71875,0.048583984375,0.9951171875,0.16357421875,0.7324218153953552,-1.8005369901657104,-1.2817381620407104,73.33333587646484,289652.0,1.0
15290.5883969,296613.46875,295037.0625,321647.96875,312994.71875,285426.34375,254736.9375,220215.125,245297.0,0.048828125,0.99755859375,0.163330078125,0.7629393935203552,-1.8615721464157104,-1.2817381620407104,73.33333587646484,289653.0,1.0
15290.5909241,296622.25,295460.46875,322446.09375,313018.125,285837.96875,254804.171875,220293.53125,245301.375,0.04833984375,0.99755859375,0.1650390625,0.7019042372703552,-1.7700194120407104,-1.3122557401657104,73.33333587646484,289654.0,1.0
15290.5934175,296426.875,294873.4375,321758.28125,312738.1875,285399.6875,254644.765625,220051.421875,245157.078125,0.04736328125,0.998291015625,0.162109375,0.6103515028953552,-1.7395018339157104,-1.3427733182907104,73.33333587646484,289655.0,1.0
15290.5984196,296300.46875,294087.5625,320525.90625,312547.6875,284709.75,254484.28125,219823.609375,245065.703125,0.046875,0.998046875,0.166015625,0.6408690810203552,-1.6479490995407104,-1.1596678495407104,73.33333587646484,289656.0,1.0
15290.6064868,296409.1875,294177.75,320434.71875,312692.5,284709.125,254530.6875,219915.96875,245137.9375,0.04736328125,0.999755859375,0.1630859375,0.6408690810203552,-1.6174315214157104,-1.1901854276657104,73.33333587646484,289657.0,1.0
15290.6064922,296622.3125,295046.4375,321639.84375,312994.875,285422.65625,254743.5625,220225.125,245306.921875,0.04736328125,0.99853515625,0.164306640625,0.5187987685203552,-1.7089842557907104,-1.2207030057907104,73.33333587646484,289658.0,1.0
15290.6084351,296635.03125,295472.28125,322447.09375,313019.9375,285841.0,254805.421875,220296.21875,245309.0625,0.046630859375,0.9951171875,0.163818359375,0.4577636420726776,-1.8310545682907104,-1.0986326932907104,73.33333587646484,289659.0,1.0
15290.610952,296434.84375,294879.96875,321760.625,312736.3125,285399.96875,254637.703125,220036.9375,245147.859375,0.046875,0.9951171875,0.16357421875,0.3662109076976776,-1.7700194120407104,-1.0070799589157104,73.33333587646484,289660.0,1.0
15290.613437,296301.90625,294098.1875,320535.84375,312538.46875,284715.8125,254473.453125,219807.609375,245046.484375,0.047119140625,0.993408203125,0.16552734375,0.3356933295726776,-1.7700194120407104,-0.9155272841453552,73.33333587646484,289661.0,1.0
15290.6165089,296413.90625,294191.8125,320444.8125,312693.3125,284719.9375,254530.140625,219911.140625,245148.484375,0.046875,0.9912109375,0.16552734375,0.3967284858226776,-1.8920897245407104,-0.8239745497703552,73.33333587646484,289662.0,1.0
15290.6165117,296632.34375,295056.4375,321645.5625,313004.53125,285429.46875,254740.421875,220220.9375,245317.734375,0.04443359375,0.992919921875,0.165283203125,0.3967284858226776,-1.7700194120407104,-0.7934569716453552,73.33333587646484,289663.0,1.0
15290.6196335,296650.5,295489.09375,322460.40625,313027.78125,285848.96875,254802.03125,220293.078125,245300.9375,0.043701171875,0.994384765625,0.166748046875,0.5187987685203552,-1.8310545682907104,-0.7934569716453552,73.33333587646484,289664.0,1.0
15290.619636,296440.84375,294891.75,321766.34375,312732.5625,285398.1875,254634.921875,220034.875,245136.328125,0.0439453125,0.994384765625,0.165283203125,0.5493163466453552,-1.7395018339157104,-0.8850097060203552,73.33333587646484,289665.0,1.0
15290.6196373,296298.3125,294093.90625,320526.96875,312530.25,284701.875,254476.765625,219808.671875,245041.5625,0.042236328125,0.994384765625,0.16552734375,0.5493163466453552,-1.8005369901657104,-0.8239745497703552,73.33333587646484,289666.0,1.0
15290.6222315,296414.8125,294191.25,320440.71875,312690.09375,284709.28125,254532.46875,219915.78125,245137.765625,0.042724609375,0.995849609375,0.16650390625,0.3967284858226776,-1.7700194120407104,-0.7629393935203552,73.33333587646484,289667.0,1.0
15290.6478642,296626.25,295055.1875,321641.53125,312996.0625,285421.34375,254737.21875,220220.390625,245303.96875,0.045166015625,0.994873046875,0.167236328125,0.4577636420726776,-1.8005369901657104,-0.9155272841453552,73.33333587646484,289668.0,1.0
15290.6478781,296639.5,295478.375,322451.75,313022.6875,285844.84375,254807.9375,220300.6875,245315.0625,0.044921875,0.99560546875,0.167724609375,0.5798339247703552,-1.8310545682907104,-0.8239745497703552,73.33333587646484,289669.0,1.0
15290.6734379,296440.125,294888.71875,321770.625,312741.875,285407.5625,254646.640625,220054.984375,245163.78125,0.045166015625,0.9951171875,0.165771484375,0.5493163466453552,-1.7700194120407104,-0.7934569716453552,73.33333587646484,289670.0,1.0
15290.6734462,296317.34375,294111.78125,320552.46875,312550.90625,284727.1875,254487.9375,219834.6875,245063.90625,0.04443359375,0.996337890625,0.16748046875,0.5493163466453552,-1.8615721464157104,-0.8544921278953552,73.33333587646484,289671.0,1.0
15290.6734476,296424.03125,294196.0,320456.875,312694.3125,284724.03125,254535.234375,219921.15625,245138.65625,0.04541015625,0.995849609375,0.16845703125,0.5798339247703552,-1.8310545682907104,-0.8239745497703552,73.33333587646484,289672.0,1.0
15290.6991519,296635.03125,295045.46875,321639.46875,312995.4375,285420.53125,254741.40625,220217.796875,245301.46875,0.04638671875,0.9951171875,0.165771484375,0.6408690810203552,-1.9226073026657104,-0.9155272841453552,73.33333587646484,289673.0,1.0
15290.699168,296646.5625,295469.59375,322449.3125,313022.0625,285837.78125,254797.109375,220291.46875,245308.796875,0.048828125,0.99462890625,0.168212890625,0.6103515028953552,-1.8615721464157104,-0.8544921278953552,73.33333587646484,289674.0,1.0
15290.747878,296444.125,294874.5,321766.0625,312736.59375,285399.5,254631.625,220046.3125,245160.46875,0.04931640625,0.9951171875,0.16650390625,0.5798339247703552,-1.7089842557907104,-0.9155272841453552,73.33333587646484,289675.0,1.0
15290.7478838,296320.65625,294099.53125,320547.46875,312546.96875,284723.78125,254489.90625,219833.4375,245068.65625,0.047607421875,0.993896484375,0.167236328125,0.6103515028953552,-1.6784666776657104,-0.8850097060203552,73.33333587646484,289676.0,1.0
15290.7722364,296431.625,294186.15625,320452.3125,312698.59375,284723.96875,254544.09375,219929.640625,245160.203125,0.048095703125,0.99755859375,0.1650390625,0.6103515028953552,-1.7089842557907104,-0.7324218153953552,73.33333587646484,289677.0,1.0
15290.797853,296645.03125,295051.4375,321653.40625,312999.8125,285429.46875,254762.609375,220224.6875,245302.890625,0.048095703125,0.99658203125,0.1640625,0.3967284858226776,-1.7395018339157104,-0.7629393935203552,73.33333587646484,289678.0,1.0
15290.7978579,296655.6875,295477.375,322465.15625,313021.8125,285845.84375,254825.453125,220288.34375,245293.78125,0.049072265625,0.99560546875,0.164306640625,0.3051757514476776,-1.6784666776657104,-0.8544921278953552,73.33333587646484,289679.0,1.0
15290.8221901,296453.15625,294890.15625,321782.0625,312740.71875,285407.65625,254653.703125,220041.40625,245154.296875,0.0498046875,0.994384765625,0.1669921875,0.1831054538488388,-1.6174315214157104,-0.9155272841453552,73.33333587646484,289680.0,1.0
15290.8810124,296316.03125,294102.75,320557.90625,312542.5,284725.125,254500.734375,219824.765625,245059.265625,0.0478515625,0.99462890625,0.164306640625,0.1831054538488388,-1.5563963651657104,-1.0375975370407104,73.33333587646484,289681.0,1.0
15290.9059522,296425.4375,294181.875,320452.3125,312691.8125,284718.9375,254557.328125,219917.75,245139.109375,0.044677734375,0.995361328125,0.166259765625,0.2746581733226776,-1.5258787870407104,-1.0375975370407104,73.33333587646484,289682.0,1.0
15290.9310436,296629.125,295037.6875,321631.0625,312990.6875,285409.625,254742.84375,220207.875,245300.65625,0.04443359375,0.9951171875,0.167724609375,0.2746581733226776,-1.5258787870407104,-0.9460448622703552,73.33333587646484,289683.0,1.0
15290.9559962,296646.28125,295476.125,322456.125,313022.4375,285837.96875,254804.71875,220282.078125,245306.296875,0.046875,0.994873046875,0.163818359375,0.2136230319738388,-1.6174315214157104,-0.8850097060203552,73.33333587646484,289684.0,1.0
15290.9872256,296451.1875,294897.40625,321784.9375,312743.21875,285411.9375,254653.265625,220038.453125,245146.96875,0.048583984375,0.990966796875,0.1630859375,0.1525878757238388,-1.4953612089157104,-0.9460448622703552,73.33333587646484,289685.0,1.0
15291.0146997,296316.28125,294109.0,320556.3125,312545.625,284727.625,254485.625,219811.453125,245045.046875,0.048095703125,0.991455078125,0.1650390625,0.2746581733226776,-1.5258787870407104,-0.9460448622703552,73.33333587646484,289686.0,1.0
15291.0396932,296430.28125,294196.34375,320459.3125,312703.5,284730.5625,254544.625,219920.796875,245143.75,0.046142578125,0.9931640625,0.167236328125,0.1525878757238388,-1.4343260526657104,-0.9765624403953552,73.33333587646484,289687.0,1.0
15291.0647402,296640.75,295050.375,321639.21875,313003.65625,285424.8125,254742.9375,220217.265625,245308.171875,0.04638671875,0.994140625,0.165771484375,0.1525878757238388,-1.4038084745407104,-0.8544921278953552,73.33333587646484,289688.0,1.0
15291.0897255,296655.21875,295481.03125,322461.125,313031.53125,285849.9375,254808.375,220290.046875,245310.140625,0.048095703125,0.994384765625,0.165283203125,0.0915527269244194,-1.4343260526657104,-0.8850097060203552,73.33333587646484,289689.0,1.0
15291.1235239,296450.75,294891.75,321774.75,312747.21875,285409.53125,254647.984375,220041.3125,245157.796875,0.046630859375,0.994384765625,0.16455078125,0.1525878757238388,-1.4648436307907104,-0.8239745497703552,73.33333587646484,289690.0,1.0
15291.1985354,296320.75,294106.59375,320543.875,312550.8125,284723.40625,254485.625,219813.5,245058.546875,0.044921875,0.9931640625,0.163818359375,0.1831054538488388,-1.5563963651657104,-0.8239745497703552,73.33333587646484,289691.0,1.0
15291.2272824,296442.78125,294211.5625,320464.40625,312711.125,284740.40625,254558.125,219929.828125,245154.65625,0.044189453125,0.995849609375,0.1630859375,0.1525878757238388,-1.4343260526657104,-0.8544921278953552,73.33333587646484,289692.0,1.0
15291.2522926,296650.5,295073.25,321658.78125,313013.3125,285445.1875,254761.0,220228.703125,245317.375,0.043212890625,0.995849609375,0.165771484375,0.2746581733226776,-1.4648436307907104,-0.8544921278953552,73.33333587646484,289693.0,1.0
15291.2772923,296661.125,295494.46875,322467.8125,313036.71875,285861.9375,254831.796875,220304.25,245315.5,0.044677734375,0.997314453125,0.162353515625,0.1220703050494194,-1.5258787870407104,-0.8239745497703552,73.33333587646484,289694.0,1.0
15291.3022922,296459.0625,294899.09375,321781.625,312747.6875,285421.25,254666.765625,220050.609375,245155.828125,0.045654296875,0.99462890625,0.1650390625,0.0915527269244194,-1.5563963651657104,-0.7934569716453552,73.33333587646484,289695.0,1.0
15291.3147813,296322.625,294108.1875,320549.5,312543.5625,284730.40625,254483.109375,219811.171875,245052.203125,0.04541015625,0.995849609375,0.16552734375,0.1525878757238388,-1.6479490995407104,-0.8850097060203552,73.33333587646484,289696.0,1.0
15291.3172859,296433.40625,294199.5625,320458.9375,312694.3125,284735.3125,254546.5,219917.296875,245138.296875,0.044921875,0.993408203125,0.165771484375,0.1525878757238388,-1.6479490995407104,-0.9460448622703552,73.33333587646484,289697.0,1.0
15291.3222292,296641.375,295051.71875,321640.71875,312993.0,285429.09375,254740.515625,220209.671875,245297.71875,0.043212890625,0.993408203125,0.16748046875,0.1220703050494194,-1.7395018339157104,-0.8850097060203552,73.33333587646484,289698.0,1.0
15291.3247598,296650.75,295470.125,322441.0,313015.28125,285837.6875,254797.734375,220282.171875,245309.421875,0.043701171875,0.99267578125,0.16796875,0.2136230319738388,-1.7089842557907104,-0.9155272841453552,73.33333587646484,289699.0,1.0
15291.3272792,296447.1875,294882.375,321756.3125,312726.9375,285398.34375,254636.984375,220030.40625,245140.4375,0.045166015625,0.99365234375,0.166259765625,0.2136230319738388,-1.7395018339157104,-0.8544921278953552,73.33333587646484,289700.0,1.0
15291.3797851,296320.5,294099.8125,320536.625,312535.34375,284722.4375,254490.0,219811.625,245041.5625,0.047607421875,0.994873046875,0.16650390625,0.2441406100988388,-1.7700194120407104,-0.8850097060203552,73.33333587646484,289701.0,1.0
15291.4047995,296431.875,294180.8125,320436.6875,312689.65625,284722.78125,254555.625,219914.71875,245138.65625,0.0458984375,0.994873046875,0.1689453125,0.0915527269244194,-1.8005369901657104,-0.8239745497703552,73.33333587646484,289702.0,1.0
15291.4147984,296639.03125,295044.03125,321627.9375,312989.4375,285421.875,254747.84375,220206.53125,245293.515625,0.046142578125,0.995361328125,0.16943359375,0.1220703050494194,-1.8920897245407104,-0.8544921278953552,73.33333587646484,289703.0,1.0
15291.4172695,296651.125,295478.71875,322450.5625,313017.96875,285846.90625,254819.015625,220291.734375,245297.796875,0.048095703125,0.994384765625,0.169921875,0.0610351525247097,-1.8310545682907104,-0.8850097060203552,73.33333587646484,289704.0,1.0
15291.4197887,296449.5,294889.96875,321771.15625,312737.9375,285415.59375,254667.390625,220053.46875,245159.3125,0.046630859375,0.9951171875,0.168212890625,0.1525878757238388,-1.8920897245407104,-0.9460448622703552,73.33333587646484,289705.0,1.0
15291.4365474,296312.09375,294089.96875,320526.53125,312534.25,284720.1875,254478.734375,219806.703125,245051.84375,0.047119140625,0.9951171875,0.16845703125,0.1525878757238388,-1.8920897245407104,-0.8850097060203552,73.33333587646484,289706.0,1.0
15291.4365666,296429.5625,294179.46875,320429.53125,312696.71875,284726.375,254542.21875,219916.953125,245151.171875,0.049560546875,0.9951171875,0.171142578125,0.1831054538488388,-1.8615721464157104,-0.9155272841453552,73.33333587646484,289707.0,1.0
15291.4365678,296634.3125,295039.71875,321623.28125,313001.78125,285428.84375,254746.6875,220217.078125,245314.703125,0.0478515625,0.994140625,0.170654296875,0.0,-1.8310545682907104,-0.8850097060203552,73.33333587646484,289708.0,1.0
15291.436569,296641.5625,295465.84375,322443.59375,313020.0,285849.21875,254812.046875,220287.53125,245312.734375,0.048828125,0.99462890625,0.16845703125,-0.0915527269244194,-1.8920897245407104,-1.0070799589157104,73.33333587646484,289709.0,1.0
15291.4365702,296449.21875,294891.0625,321777.4375,312743.3125,285422.65625,254659.609375,220043.90625,245153.140625,0.050048828125,0.99462890625,0.169677734375,-0.0915527269244194,-1.8615721464157104,-0.8850097060203552,73.33333587646484,289710.0,1.0
15291.4365714,296318.53125,294095.6875,320540.125,312549.46875,284730.65625,254493.21875,219814.484375,245058.90625,0.05078125,0.994873046875,0.16943359375,-0.1831054538488388,-1.7395018339157104,-0.8544921278953552,73.33333587646484,289711.0,1.0
15291.436573,296434.3125,294182.15625,320439.625,312704.84375,284729.59375,254556.078125,219921.234375,245153.3125,0.05078125,0.9931640625,0.166259765625,-0.1525878757238388,-1.5869139432907104,-0.7629393935203552,73.33333587646484,289712.0,1.0
15291.4365742,296643.0625,295050.5625,321638.125,313008.375,285435.1875,254755.09375,220219.40625,245313.09375,0.04931640625,0.992919921875,0.166748046875,-0.0610351525247097,-1.6174315214157104,-0.7324218153953552,73.33333587646484,289713.0,1.0
15291.4365754,296653.8125,295481.65625,322455.9375,313032.96875,285857.625,254804.625,220287.0,245311.390625,0.0478515625,0.993408203125,0.165283203125,0.03051757626235485,-1.6174315214157104,-0.7934569716453552,73.33333587646484,289714.0,1.0
15291.4365765,296450.21875,294892.9375,321771.09375,312744.625,285419.625,254644.671875,220039.34375,245152.78125,0.047607421875,0.992919921875,0.166015625,0.0,-1.4953612089157104,-0.8239745497703552,73.33333587646484,289715.0,1.0
15291.4365777,296310.03125,294093.1875,320528.59375,312538.5625,284724.125,254481.15625,219807.875,245052.109375,0.049072265625,0.995361328125,0.168701171875,0.0915527269244194,-1.4953612089157104,-0.8544921278953552,73.33333587646484,289716.0,1.0
15291.4365789,296423.75,294176.59375,320425.5,312692.25,284722.25,254545.96875,219915.25,245157.25,0.050537109375,0.9951171875,0.168212890625,0.03051757626235485,-1.4343260526657104,-0.9460448622703552,73.33333587646484,289717.0,1.0
15291.43658,296644.6875,295046.09375,321630.71875,312996.3125,285432.25,254748.296875,220215.921875,245304.0625,0.051025390625,0.994384765625,0.16943359375,-0.0610351525247097,-1.2817381620407104,-0.8544921278953552,73.33333587646484,289718.0,1.0
15291.4365817,296663.375,295469.59375,322446.0,313023.0625,285852.375,254812.21875,220292.8125,245311.296875,0.049560546875,0.994873046875,0.170166015625,-0.1220703050494194,-1.2207030057907104,-0.9765624403953552,73.33333587646484,289719.0,1.0
15291.4598002,296460.6875,294866.5625,321749.1875,312732.125,285401.03125,254646.375,220031.75,245147.328125,0.04931640625,0.994140625,0.167236328125,-0.1831054538488388,-1.2207030057907104,-0.9460448622703552,73.33333587646484,289720.0,1.0
15291.4885347,296322.625,294079.15625,320510.96875,312529.78125,284708.5625,254488.125,219807.875,245044.328125,0.047607421875,0.9931640625,0.166015625,-0.1525878757238388,-1.2207030057907104,-0.8850097060203552,73.33333587646484,289721.0,1.0
15291.51354,296448.15625,294189.125,320440.34375,312701.625,284732.0,254555.53125,219929.203125,245157.34375,0.048095703125,0.99462890625,0.165283203125,-0.1220703050494194,-1.0986326932907104,-0.9460448622703552,73.33333587646484,289722.0,1.0
15291.5335116,296658.28125,295052.4375,321641.71875,313006.34375,285439.3125,254757.953125,220229.515625,245316.484375,0.04638671875,0.994140625,0.166259765625,-0.1831054538488388,-1.0986326932907104,-0.9765624403953552,73.33333587646484,289723.0,1.0
15291.5335255,296660.3125,295472.28125,322450.75,313023.40625,285851.65625,254815.359375,220289.5,245311.03125,0.046875,0.9931640625,0.1669921875,-0.1525878757238388,-1.0375975370407104,-1.0070799589157104,73.33333587646484,289724.0,1.0
15291.5335268,296450.5,294881.46875,321766.25,312731.84375,285406.21875,254634.484375,220022.171875,245139.453125,0.047119140625,0.9912109375,0.1650390625,-0.03051757626235485,-1.0375975370407104,-1.1596678495407104,73.33333587646484,289725.0,1.0
15291.533528,296321.46875,294097.65625,320542.0,312539.0,284724.40625,254477.65625,219795.625,245045.859375,0.045654296875,0.992919921875,0.16845703125,0.03051757626235485,-1.0681151151657104,-1.0986326932907104,73.33333587646484,289726.0,1.0
15291.5335292,296431.34375,294181.25,320440.78125,312686.0,284721.8125,254533.1875,219899.953125,245138.828125,0.045654296875,0.991455078125,0.172119140625,-0.0915527269244194,-1.0681151151657104,-1.1901854276657104,73.33333587646484,289727.0,1.0
15291.5335304,296642.1875,295043.84375,321630.34375,312988.53125,285424.8125,254750.53125,220213.6875,245307.28125,0.04736328125,0.9912109375,0.168212890625,-0.03051757626235485,-1.0681151151657104,-1.1901854276657104,73.33333587646484,289728.0,1.0
15291.5335316,296648.875,295467.375,322443.25,313009.46875,285840.1875,254806.765625,220280.75,245306.03125,0.046875,0.991455078125,0.167236328125,0.1220703050494194,-1.0375975370407104,-1.1291502714157104,73.33333587646484,289729.0,1.0
15291.5335328,296438.6875,294865.84375,321751.15625,312717.28125,285391.90625,254630.640625,220017.890625,245149.5625,0.04638671875,0.99267578125,0.1669921875,0.0915527269244194,-0.9765624403953552,-1.1596678495407104,73.33333587646484,289730.0,1.0
15291.5335339,296305.46875,294077.71875,320518.3125,312521.46875,284706.78125,254476.671875,219793.46875,245051.484375,0.045654296875,0.995849609375,0.169921875,0.0915527269244194,-1.0681151151657104,-1.2207030057907104,73.33333587646484,289731.0,1.0
15291.5335351,296430.09375,294180.09375,320430.25,312686.53125,284720.375,254555.171875,219906.84375,245140.890625,0.044189453125,0.9970703125,0.173095703125,0.0610351525247097,-1.1291502714157104,-1.1596678495407104,73.33333587646484,289732.0,1.0
15291.5335363,296643.875,295043.84375,321628.46875,312997.40625,285427.84375,254747.765625,220209.390625,245312.015625,0.04296875,0.996337890625,0.171875,0.03051757626235485,-1.1291502714157104,-1.1291502714157104,73.33333587646484,289733.0,1.0
15291.5335375,296655.75,295473.8125,322449.21875,313021.34375,285847.34375,254803.46875,220280.921875,245303.96875,0.044921875,0.99560546875,0.170654296875,0.0,-1.0986326932907104,-1.0070799589157104,73.33333587646484,289734.0,1.0
15291.5335387,296450.40625,294883.71875,321766.4375,312733.28125,285409.53125,254647.625,220037.5625,245148.40625,0.0458984375,0.993896484375,0.167236328125,0.1525878757238388,-1.1291502714157104,-0.9765624403953552,73.33333587646484,289735.0,1.0
15291.5647933,296316.09375,294094.0625,320531.09375,312541.40625,284724.5,254503.59375,219817.796875,245068.375,0.0458984375,0.99560546875,0.17041015625,0.0915527269244194,-1.1596678495407104,-0.9460448622703552,73.33333587646484,289736.0,1.0
15291.5897906,296437.4375,294199.75,320450.1875,312705.375,284742.0,254578.15625,219933.390625,245162.53125,0.045654296875,0.995361328125,0.169189453125,0.1220703050494194,-1.2207030057907104,-0.8850097060203552,73.33333587646484,289737.0,1.0
15291.6148151,296641.1875,295052.34375,321643.75,312999.625,285437.4375,254754.109375,220215.296875,245306.03125,0.0458984375,0.995361328125,0.17041015625,0.0915527269244194,-1.2512205839157104,-0.8850097060203552,73.33333587646484,289738.0,1.0
