Time,FZ,C3,CZ,C4,PZ,PO7,OZ,PO8,AccX,AccY,AccZ,Gyro1,Gyro2,Gyro3,Battery,Counter,Validation
15345.3725126,296825.0,294889.34375,320997.53125,312178.4375,285386.09375,254666.40625,220140.203125,245379.78125,0.0478515625,0.992919921875,0.156982421875,0.2746581733226776,-1.8920897245407104,-0.3967284858226776,73.33333587646484,303177.0,1.0
15345.3725146,296816.6875,295035.71875,321110.90625,312161.96875,285476.125,254686.78125,220161.03125,245378.984375,0.04833984375,0.989990234375,0.158203125,0.3967284858226776,-1.9531248807907104,-0.4272460639476776,73.33333587646484,303178.0,1.0
15345.3725165,296789.96875,294837.6875,320990.65625,312151.78125,285393.0,254648.15625,220119.71875,245369.59375,0.046875,0.9892578125,0.153564453125,0.4577636420726776,-1.9226073026657104,-0.4272460639476776,73.33333587646484,303179.0,1.0
15345.3725185,296777.625,294554.34375,320783.125,312159.03125,285239.21875,254587.1875,220055.53125,245369.0625,0.04931640625,0.988525390625,0.151123046875,0.4272460639476776,-1.9531248807907104,-0.3967284858226776,73.33333587646484,303180.0,1.0
15345.3725204,296790.59375,294585.0,320789.65625,312172.34375,285234.5625,254586.109375,220062.6875,245372.1875,0.05078125,0.988037109375,0.15185546875,0.5187987685203552,-1.8005369901657104,-0.4882812201976776,73.33333587646484,303181.0,1.0
15345.3725224,296823.40625,294881.125,320983.9375,312191.375,285385.65625,254675.703125,220152.171875,245406.4375,0.050537109375,0.987060546875,0.154541015625,0.6103515028953552,-1.7700194120407104,-0.6103515028953552,73.33333587646484,303182.0,1.0
15345.3725243,296823.21875,295046.71875,321102.3125,312178.78125,285483.75,254719.0625,220182.3125,245405.09375,0.048828125,0.98828125,0.15478515625,0.7629393935203552,-1.7395018339157104,-0.7629393935203552,73.33333587646484,303183.0,1.0
15345.3725262,296791.3125,294854.21875,320991.4375,312154.46875,285399.0625,254643.328125,220116.0625,245379.15625,0.0458984375,0.990478515625,0.154296875,0.8239745497703552,-1.6784666776657104,-0.8850097060203552,73.33333587646484,303184.0,1.0
15345.3725281,296773.59375,294554.53125,320778.65625,312153.65625,285234.28125,254557.234375,220040.328125,245368.15625,0.0458984375,0.99267578125,0.1552734375,0.9155272841453552,-1.6479490995407104,-0.9765624403953552,73.33333587646484,303185.0,1.0
15345.37253,296801.84375,294588.21875,320784.46875,312180.65625,285234.90625,254596.578125,220070.90625,245386.140625,0.045166015625,0.9951171875,0.156005859375,0.9765624403953552,-1.6479490995407104,-1.3122557401657104,73.33333587646484,303186.0,1.0
15345.3725319,296828.78125,294888.71875,320986.25,312186.28125,285381.625,254669.984375,220139.03125,245386.40625,0.046142578125,0.99609375,0.156494140625,1.0070799589157104,-1.7089842557907104,-1.4953612089157104,73.33333587646484,303187.0,1.0
15345.3725339,296824.125,295045.71875,321105.25,312171.90625,285478.1875,254689.28125,220157.453125,245384.96875,0.04736328125,0.99951171875,0.154296875,0.9460448622703552,-1.7089842557907104,-1.7395018339157104,73.33333587646484,303188.0,1.0
15345.3725358,296799.4375,294854.03125,320989.21875,312159.5625,285395.5,254642.0,220105.59375,245373.078125,0.0478515625,0.998779296875,0.1572265625,0.9765624403953552,-1.7089842557907104,-1.7395018339157104,73.33333587646484,303189.0,1.0
15345.3725377,296784.34375,294566.15625,320779.90625,312162.34375,285237.25,254574.125,220039.796875,245365.84375,0.048583984375,0.99658203125,0.154541015625,0.9765624403953552,-1.6479490995407104,-1.7700194120407104,73.33333587646484,303190.0,1.0
15345.3725396,296800.59375,294592.53125,320780.53125,312180.3125,285228.9375,254584.59375,220060.359375,245376.84375,0.046875,0.997314453125,0.15234375,1.0070799589157104,-1.6784666776657104,-1.7395018339157104,73.33333587646484,303191.0,1.0
15345.3725419,296815.8125,294876.125,320966.25,312180.46875,285364.75,254652.1875,220127.328125,245388.453125,0.046630859375,0.99853515625,0.154541015625,1.1596678495407104,-1.6174315214157104,-1.6784666776657104,73.33333587646484,303192.0,1.0
15345.3725439,296814.0,295038.9375,321087.21875,312166.625,285463.25,254686.15625,220158.4375,245389.0,0.048095703125,0.9970703125,0.1552734375,1.1596678495407104,-1.6479490995407104,-1.6174315214157104,73.33333587646484,303193.0,1.0
15345.3967577,296795.0625,294854.65625,320983.125,312158.3125,285391.03125,254646.109375,220117.21875,245379.15625,0.0478515625,0.9970703125,0.153076171875,1.1901854276657104,-1.5869139432907104,-1.6784666776657104,73.33333587646484,303194.0,1.0
15345.39679,296781.75,294571.96875,320778.75,312160.0,285237.6875,254595.40625,220061.078125,245374.875,0.048583984375,0.995361328125,0.15576171875,1.1901854276657104,-1.5869139432907104,-1.6784666776657104,73.33333587646484,303195.0,1.0
15345.4213059,296802.03125,294609.96875,320790.375,312183.53125,285242.78125,254621.96875,220090.75,245399.71875,0.047607421875,0.995849609375,0.15771484375,1.0986326932907104,-1.5869139432907104,-1.6174315214157104,73.33333587646484,303196.0,1.0
15345.4425601,296824.75,294899.8125,320991.71875,312189.59375,285392.28125,254690.984375,220159.6875,245409.015625,0.046875,0.996337890625,0.159423828125,1.0070799589157104,-1.4648436307907104,-1.4648436307907104,73.33333587646484,303197.0,1.0
15345.4450462,296818.3125,295058.0625,321110.625,312171.28125,285483.5625,254706.90625,220175.59375,245393.640625,0.0458984375,0.996826171875,0.15576171875,1.0070799589157104,-1.2817381620407104,-1.4343260526657104,73.33333587646484,303198.0,1.0
15345.4475487,296786.5625,294857.25,320984.75,312153.21875,285388.15625,254641.71875,220106.84375,245368.609375,0.044189453125,0.9970703125,0.156494140625,0.9460448622703552,-1.2512205839157104,-1.3122557401657104,73.33333587646484,303199.0,1.0
15345.45005,296775.21875,294570.4375,320776.96875,312160.375,285232.3125,254573.6875,220038.546875,245356.265625,0.043701171875,0.9970703125,0.157470703125,0.8239745497703552,-1.3427733182907104,-1.2512205839157104,73.33333587646484,303200.0,1.0
15345.4525458,296792.1875,294601.5625,320780.8125,312178.25,285230.53125,254594.96875,220067.234375,245377.015625,0.043701171875,0.995849609375,0.15771484375,0.7629393935203552,-1.3732908964157104,-1.1596678495407104,73.33333587646484,303201.0,1.0
15345.4575257,296812.59375,294898.03125,320979.03125,312182.90625,285382.0,254684.734375,220154.6875,245405.453125,0.0439453125,0.99267578125,0.155029296875,0.7019042372703552,-1.4038084745407104,-1.0070799589157104,73.33333587646484,303202.0,1.0
15345.4825487,296806.875,295055.8125,321095.25,312166.625,285477.46875,254711.8125,220179.359375,245399.453125,0.04248046875,0.99267578125,0.154296875,0.7324218153953552,-1.4343260526657104,-1.0986326932907104,73.33333587646484,303203.0,1.0
15345.5351153,296760.625,294831.875,320954.09375,312133.625,285366.4375,254614.1875,220089.859375,245360.46875,0.040283203125,0.99267578125,0.156494140625,0.7934569716453552,-1.3732908964157104,-1.1901854276657104,73.33333587646484,303204.0,1.0
15345.535127,296758.03125,294552.375,320751.46875,312148.90625,285216.6875,254555.171875,220037.828125,245369.953125,0.040771484375,0.9931640625,0.1552734375,0.7324218153953552,-1.3732908964157104,-1.1596678495407104,73.33333587646484,303205.0,1.0
15345.535129,296783.71875,294607.4375,320777.0625,312175.84375,285231.78125,254586.5625,220068.40625,245392.484375,0.041748046875,0.99267578125,0.15576171875,0.6408690810203552,-1.4343260526657104,-1.0986326932907104,73.33333587646484,303206.0,1.0
15345.5351308,296805.78125,294898.125,320978.84375,312173.25,285379.125,254657.28125,220133.9375,245389.171875,0.04345703125,0.990478515625,0.15380859375,0.6103515028953552,-1.4953612089157104,-1.0681151151657104,73.33333587646484,303207.0,1.0
15345.5351325,296810.53125,295056.71875,321098.65625,312165.71875,285476.9375,254694.921875,220168.625,245396.78125,0.042236328125,0.9912109375,0.15576171875,0.7019042372703552,-1.4038084745407104,-1.0681151151657104,73.33333587646484,303208.0,1.0
15345.5413989,296785.6875,294863.15625,320976.53125,312154.03125,285390.75,254653.265625,220119.359375,245381.578125,0.042724609375,0.99169921875,0.151611328125,0.7324218153953552,-1.3732908964157104,-1.0986326932907104,73.33333587646484,303209.0,1.0
15345.5414098,296768.875,294580.90625,320770.96875,312154.375,285236.09375,254598.1875,220065.1875,245378.265625,0.04296875,0.9921875,0.14892578125,0.7934569716453552,-1.3122557401657104,-1.3122557401657104,73.33333587646484,303210.0,1.0
15345.5414118,296783.4375,294611.84375,320778.9375,312172.875,285234.46875,254611.6875,220088.703125,245396.6875,0.04443359375,0.99609375,0.149169921875,0.8544921278953552,-1.3427733182907104,-1.1596678495407104,73.33333587646484,303211.0,1.0
15345.5414137,296800.34375,294895.4375,320970.25,312173.25,285372.96875,254672.03125,220144.21875,245397.21875,0.046875,0.9970703125,0.14892578125,0.7629393935203552,-1.3122557401657104,-1.2512205839157104,73.33333587646484,303212.0,1.0
15345.5414154,296791.9375,295044.90625,321086.9375,312154.71875,285466.46875,254701.625,220166.296875,245386.046875,0.046875,0.99462890625,0.14990234375,0.7324218153953552,-1.2207030057907104,-1.3122557401657104,73.33333587646484,303213.0,1.0
15345.5437422,296767.15625,294856.28125,320971.59375,312140.6875,285385.3125,254647.171875,220115.515625,245374.875,0.048095703125,0.995361328125,0.154052734375,0.5493163466453552,-1.1291502714157104,-1.2512205839157104,73.33333587646484,303214.0,1.0
15345.5462139,296757.34375,294568.90625,320764.625,312147.21875,285232.0625,254590.046875,220058.828125,245369.6875,0.046875,0.99609375,0.1533203125,0.7019042372703552,-1.0375975370407104,-1.1291502714157104,73.33333587646484,303215.0,1.0
15345.5487336,296779.15625,294602.53125,320777.15625,312170.65625,285236.0,254613.296875,220082.265625,245385.234375,0.0478515625,0.997314453125,0.14892578125,0.6103515028953552,-0.9155272841453552,-1.0986326932907104,73.33333587646484,303216.0,1.0
15345.5518346,296799.8125,294887.65625,320968.21875,312173.34375,285376.71875,254672.484375,220147.078125,245398.203125,0.0478515625,0.99755859375,0.1484375,0.5493163466453552,-0.7629393935203552,-1.2207030057907104,73.33333587646484,303217.0,1.0
15345.5518397,296795.96875,295046.53125,321087.21875,312156.96875,285468.8125,254699.21875,220169.703125,245389.53125,0.04833984375,0.999755859375,0.1494140625,0.4577636420726776,-0.6713866591453552,-1.1596678495407104,73.33333587646484,303218.0,1.0
15345.5537176,296770.90625,294856.0,320973.84375,312147.75,285390.75,254667.390625,220126.78125,245383.28125,0.050537109375,0.99951171875,0.150146484375,0.3356933295726776,-0.5798339247703552,-1.2207030057907104,73.33333587646484,303219.0,1.0
15345.5631172,296754.65625,294576.25,320772.21875,312151.15625,285242.15625,254610.4375,220076.09375,245395.609375,0.05126953125,0.998779296875,0.148681640625,0.1220703050494194,-0.4577636420726776,-1.1596678495407104,73.33333587646484,303220.0,1.0
15345.5631244,296776.46875,294604.84375,320786.53125,312164.75,285238.3125,254601.21875,220077.796875,245384.96875,0.051513671875,0.99853515625,0.148681640625,0.03051757626235485,-0.3662109076976776,-1.1596678495407104,73.33333587646484,303221.0,1.0
15345.563129,296776.46875,294604.84375,320786.53125,312164.75,285238.3125,254601.21875,220077.796875,245384.96875,0.051513671875,0.99853515625,0.148681640625,0.03051757626235485,-0.3662109076976776,-1.1596678495407104,73.33333587646484,303222.0,0.0
15345.5631292,296776.46875,294604.84375,320786.53125,312164.75,285238.3125,254601.21875,220077.796875,245384.96875,0.051513671875,0.99853515625,0.148681640625,0.03051757626235485,-0.3662109076976776,-1.1596678495407104,73.33333587646484,303223.0,0.0
15345.5631294,296776.46875,294604.84375,320786.53125,312164.75,285238.3125,254601.21875,220077.796875,245384.96875,0.051513671875,0.99853515625,0.148681640625,0.03051757626235485,-0.3662109076976776,-1.1596678495407104,73.33333587646484,303224.0,0.0
15345.5631296,296776.46875,294604.84375,320786.53125,312164.75,285238.3125,254601.21875,220077.796875,245384.96875,0.051513671875,0.99853515625,0.148681640625,0.03051757626235485,-0.3662109076976776,-1.1596678495407104,73.33333587646484,303225.0,0.0
15345.5631298,296776.46875,294604.84375,320786.53125,312164.75,285238.3125,254601.21875,220077.796875,245384.96875,0.051513671875,0.99853515625,0.148681640625,0.03051757626235485,-0.3662109076976776,-1.1596678495407104,73.33333587646484,303226.0,0.0
15345.56313,296776.46875,294604.84375,320786.53125,312164.75,285238.3125,254601.21875,220077.796875,245384.96875,0.051513671875,0.99853515625,0.148681640625,0.03051757626235485,-0.3662109076976776,-1.1596678495407104,73.33333587646484,303227.0,0.0
15345.5631302,296776.46875,294604.84375,320786.53125,312164.75,285238.3125,254601.21875,220077.796875,245384.96875,0.051513671875,0.99853515625,0.148681640625,0.03051757626235485,-0.3662109076976776,-1.1596678495407104,73.33333587646484,303228.0,0.0
15345.5631304,296776.46875,294604.84375,320786.53125,312164.75,285238.3125,254601.21875,220077.796875,245384.96875,0.051513671875,0.99853515625,0.148681640625,0.03051757626235485,-0.3662109076976776,-1.1596678495407104,73.33333587646484,303229.0,0.0
15345.5631306,296776.46875,294604.84375,320786.53125,312164.75,285238.3125,254601.21875,220077.796875,245384.96875,0.051513671875,0.99853515625,0.148681640625,0.03051757626235485,-0.3662109076976776,-1.1596678495407104,73.33333587646484,303230.0,0.0
15345.5631308,296776.46875,294604.84375,320786.53125,312164.75,285238.3125,254601.21875,220077.796875,245384.96875,0.051513671875,0.99853515625,0.148681640625,0.03051757626235485,-0.3662109076976776,-1.1596678495407104,73.33333587646484,303231.0,0.0
15345.563131,296776.46875,294604.84375,320786.53125,312164.75,285238.3125,254601.21875,220077.796875,245384.96875,0.051513671875,0.99853515625,0.148681640625,0.03051757626235485,-0.3662109076976776,-1.1596678495407104,73.33333587646484,303232.0,0.0
15345.5631312,296776.46875,294604.84375,320786.53125,312164.75,285238.3125,254601.21875,220077.796875,245384.96875,0.051513671875,0.99853515625,0.148681640625,0.03051757626235485,-0.3662109076976776,-1.1596678495407104,73.33333587646484,303233.0,0.0
15345.5631314,296776.46875,294604.84375,320786.53125,312164.75,285238.3125,254601.21875,220077.796875,245384.96875,0.051513671875,0.99853515625,0.148681640625,0.03051757626235485,-0.3662109076976776,-1.1596678495407104,73.33333587646484,303234.0,0.0
15345.5631316,296776.46875,294604.84375,320786.53125,312164.75,285238.3125,254601.21875,220077.796875,245384.96875,0.051513671875,0.99853515625,0.148681640625,0.03051757626235485,-0.3662109076976776,-1.1596678495407104,73.33333587646484,303235.0,0.0
15345.5631318,296776.46875,294604.84375,320786.53125,312164.75,285238.3125,254601.21875,220077.796875,245384.96875,0.051513671875,0.99853515625,0.148681640625,0.03051757626235485,-0.3662109076976776,-1.1596678495407104,73.33333587646484,303236.0,0.0
15345.5631321,296776.46875,294604.84375,320786.53125,312164.75,285238.3125,254601.21875,220077.796875,245384.96875,0.051513671875,0.99853515625,0.148681640625,0.03051757626235485,-0.3662109076976776,-1.1596678495407104,73.33333587646484,303237.0,0.0
15345.5631323,296776.46875,294604.84375,320786.53125,312164.75,285238.3125,254601.21875,220077.796875,245384.96875,0.051513671875,0.99853515625,0.148681640625,0.03051757626235485,-0.3662109076976776,-1.1596678495407104,73.33333587646484,303238.0,0.0
15345.5631325,296776.46875,294604.84375,320786.53125,312164.75,285238.3125,254601.21875,220077.796875,245384.96875,0.051513671875,0.99853515625,0.148681640625,0.03051757626235485,-0.3662109076976776,-1.1596678495407104,73.33333587646484,303239.0,0.0
15345.5631327,296776.46875,294604.84375,320786.53125,312164.75,285238.3125,254601.21875,220077.796875,245384.96875,0.051513671875,0.99853515625,0.148681640625,0.03051757626235485,-0.3662109076976776,-1.1596678495407104,73.33333587646484,303240.0,0.0
15345.5631328,296776.46875,294604.84375,320786.53125,312164.75,285238.3125,254601.21875,220077.796875,245384.96875,0.051513671875,0.99853515625,0.148681640625,0.03051757626235485,-0.3662109076976776,-1.1596678495407104,73.33333587646484,303241.0,0.0
15345.563133,296776.46875,294604.84375,320786.53125,312164.75,285238.3125,254601.21875,220077.796875,245384.96875,0.051513671875,0.99853515625,0.148681640625,0.03051757626235485,-0.3662109076976776,-1.1596678495407104,73.33333587646484,303242.0,0.0
15345.5631332,296776.46875,294604.84375,320786.53125,312164.75,285238.3125,254601.21875,220077.796875,245384.96875,0.051513671875,0.99853515625,0.148681640625,0.03051757626235485,-0.3662109076976776,-1.1596678495407104,73.33333587646484,303243.0,0.0
15345.5631334,296776.46875,294604.84375,320786.53125,312164.75,285238.3125,254601.21875,220077.796875,245384.96875,0.051513671875,0.99853515625,0.148681640625,0.03051757626235485,-0.3662109076976776,-1.1596678495407104,73.33333587646484,303244.0,0.0
15345.5631336,296776.46875,294604.84375,320786.53125,312164.75,285238.3125,254601.21875,220077.796875,245384.96875,0.051513671875,0.99853515625,0.148681640625,0.03051757626235485,-0.3662109076976776,-1.1596678495407104,73.33333587646484,303245.0,0.0
15345.5631338,296776.46875,294604.84375,320786.53125,312164.75,285238.3125,254601.21875,220077.796875,245384.96875,0.051513671875,0.99853515625,0.148681640625,0.03051757626235485,-0.3662109076976776,-1.1596678495407104,73.33333587646484,303246.0,0.0
15345.563134,296776.46875,294604.84375,320786.53125,312164.75,285238.3125,254601.21875,220077.796875,245384.96875,0.051513671875,0.99853515625,0.148681640625,0.03051757626235485,-0.3662109076976776,-1.1596678495407104,73.33333587646484,303247.0,0.0
15345.5631342,296776.46875,294604.84375,320786.53125,312164.75,285238.3125,254601.21875,220077.796875,245384.96875,0.051513671875,0.99853515625,0.148681640625,0.03051757626235485,-0.3662109076976776,-1.1596678495407104,73.33333587646484,303248.0,0.0
15345.5631344,296776.46875,294604.84375,320786.53125,312164.75,285238.3125,254601.21875,220077.796875,245384.96875,0.051513671875,0.99853515625,0.148681640625,0.03051757626235485,-0.3662109076976776,-1.1596678495407104,73.33333587646484,303249.0,0.0
15345.5631345,296776.46875,294604.84375,320786.53125,312164.75,285238.3125,254601.21875,220077.796875,245384.96875,0.051513671875,0.99853515625,0.148681640625,0.03051757626235485,-0.3662109076976776,-1.1596678495407104,73.33333587646484,303250.0,0.0
15345.5631347,296776.46875,294604.84375,320786.53125,312164.75,285238.3125,254601.21875,220077.796875,245384.96875,0.051513671875,0.99853515625,0.148681640625,0.03051757626235485,-0.3662109076976776,-1.1596678495407104,73.33333587646484,303251.0,0.0
15345.5631349,296776.46875,294604.84375,320786.53125,312164.75,285238.3125,254601.21875,220077.796875,245384.96875,0.051513671875,0.99853515625,0.148681640625,0.03051757626235485,-0.3662109076976776,-1.1596678495407104,73.33333587646484,303252.0,0.0
15345.5631351,296776.46875,294604.84375,320786.53125,312164.75,285238.3125,254601.21875,220077.796875,245384.96875,0.051513671875,0.99853515625,0.148681640625,0.03051757626235485,-0.3662109076976776,-1.1596678495407104,73.33333587646484,303253.0,0.0
15345.5631353,296776.46875,294604.84375,320786.53125,312164.75,285238.3125,254601.21875,220077.796875,245384.96875,0.051513671875,0.99853515625,0.148681640625,0.03051757626235485,-0.3662109076976776,-1.1596678495407104,73.33333587646484,303254.0,0.0
15345.5631355,296776.46875,294604.84375,320786.53125,312164.75,285238.3125,254601.21875,220077.796875,245384.96875,0.051513671875,0.99853515625,0.148681640625,0.03051757626235485,-0.3662109076976776,-1.1596678495407104,73.33333587646484,303255.0,0.0
15345.5631356,296776.46875,294604.84375,320786.53125,312164.75,285238.3125,254601.21875,220077.796875,245384.96875,0.051513671875,0.99853515625,0.148681640625,0.03051757626235485,-0.3662109076976776,-1.1596678495407104,73.33333587646484,303256.0,0.0
15345.5631358,296776.46875,294604.84375,320786.53125,312164.75,285238.3125,254601.21875,220077.796875,245384.96875,0.051513671875,0.99853515625,0.148681640625,0.03051757626235485,-0.3662109076976776,-1.1596678495407104,73.33333587646484,303257.0,0.0
15345.563136,296776.46875,294604.84375,320786.53125,312164.75,285238.3125,254601.21875,220077.796875,245384.96875,0.051513671875,0.99853515625,0.148681640625,0.03051757626235485,-0.3662109076976776,-1.1596678495407104,73.33333587646484,303258.0,0.0
15345.5631362,296776.46875,294604.84375,320786.53125,312164.75,285238.3125,254601.21875,220077.796875,245384.96875,0.051513671875,0.99853515625,0.148681640625,0.03051757626235485,-0.3662109076976776,-1.1596678495407104,73.33333587646484,303259.0,0.0
15345.5631364,296776.46875,294604.84375,320786.53125,312164.75,285238.3125,254601.21875,220077.796875,245384.96875,0.051513671875,0.99853515625,0.148681640625,0.03051757626235485,-0.3662109076976776,-1.1596678495407104,73.33333587646484,303260.0,0.0
15345.5631366,296776.46875,294604.84375,320786.53125,312164.75,285238.3125,254601.21875,220077.796875,245384.96875,0.051513671875,0.99853515625,0.148681640625,0.03051757626235485,-0.3662109076976776,-1.1596678495407104,73.33333587646484,303261.0,0.0
15345.5631368,296776.46875,294604.84375,320786.53125,312164.75,285238.3125,254601.21875,220077.796875,245384.96875,0.051513671875,0.99853515625,0.148681640625,0.03051757626235485,-0.3662109076976776,-1.1596678495407104,73.33333587646484,303262.0,0.0
15345.563137,296776.46875,294604.84375,320786.53125,312164.75,285238.3125,254601.21875,220077.796875,245384.96875,0.051513671875,0.99853515625,0.148681640625,0.03051757626235485,-0.3662109076976776,-1.1596678495407104,73.33333587646484,303263.0,0.0
15345.5631371,296776.46875,294604.84375,320786.53125,312164.75,285238.3125,254601.21875,220077.796875,245384.96875,0.051513671875,0.99853515625,0.148681640625,0.03051757626235485,-0.3662109076976776,-1.1596678495407104,73.33333587646484,303264.0,0.0
15345.5631373,296776.46875,294604.84375,320786.53125,312164.75,285238.3125,254601.21875,220077.796875,245384.96875,0.051513671875,0.99853515625,0.148681640625,0.03051757626235485,-0.3662109076976776,-1.1596678495407104,73.33333587646484,303265.0,0.0
15345.5631375,296776.46875,294604.84375,320786.53125,312164.75,285238.3125,254601.21875,220077.796875,245384.96875,0.051513671875,0.99853515625,0.148681640625,0.03051757626235485,-0.3662109076976776,-1.1596678495407104,73.33333587646484,303266.0,0.0
15345.5631377,296776.46875,294604.84375,320786.53125,312164.75,285238.3125,254601.21875,220077.796875,245384.96875,0.051513671875,0.99853515625,0.148681640625,0.03051757626235485,-0.3662109076976776,-1.1596678495407104,73.33333587646484,303267.0,0.0
15345.5631379,296776.46875,294604.84375,320786.53125,312164.75,285238.3125,254601.21875,220077.796875,245384.96875,0.051513671875,0.99853515625,0.148681640625,0.03051757626235485,-0.3662109076976776,-1.1596678495407104,73.33333587646484,303268.0,0.0
15345.5631381,296776.46875,294604.84375,320786.53125,312164.75,285238.3125,254601.21875,220077.796875,245384.96875,0.051513671875,0.99853515625,0.148681640625,0.03051757626235485,-0.3662109076976776,-1.1596678495407104,73.33333587646484,303269.0,0.0
15345.5631383,296776.46875,294604.84375,320786.53125,312164.75,285238.3125,254601.21875,220077.796875,245384.96875,0.051513671875,0.99853515625,0.148681640625,0.03051757626235485,-0.3662109076976776,-1.1596678495407104,73.33333587646484,303270.0,0.0
15345.5631385,296776.46875,294604.84375,320786.53125,312164.75,285238.3125,254601.21875,220077.796875,245384.96875,0.051513671875,0.99853515625,0.148681640625,0.03051757626235485,-0.3662109076976776,-1.1596678495407104,73.33333587646484,303271.0,0.0
15345.5631387,296776.46875,294604.84375,320786.53125,312164.75,285238.3125,254601.21875,220077.796875,245384.96875,0.051513671875,0.99853515625,0.148681640625,0.03051757626235485,-0.3662109076976776,-1.1596678495407104,73.33333587646484,303272.0,0.0
15345.5631389,296776.46875,294604.84375,320786.53125,312164.75,285238.3125,254601.21875,220077.796875,245384.96875,0.051513671875,0.99853515625,0.148681640625,0.03051757626235485,-0.3662109076976776,-1.1596678495407104,73.33333587646484,303273.0,0.0
15345.5631391,296776.46875,294604.84375,320786.53125,312164.75,285238.3125,254601.21875,220077.796875,245384.96875,0.051513671875,0.99853515625,0.148681640625,0.03051757626235485,-0.3662109076976776,-1.1596678495407104,73.33333587646484,303274.0,0.0
15345.5631393,296776.46875,294604.84375,320786.53125,312164.75,285238.3125,254601.21875,220077.796875,245384.96875,0.051513671875,0.99853515625,0.148681640625,0.03051757626235485,-0.3662109076976776,-1.1596678495407104,73.33333587646484,303275.0,0.0
15345.5631395,296776.46875,294604.84375,320786.53125,312164.75,285238.3125,254601.21875,220077.796875,245384.96875,0.051513671875,0.99853515625,0.148681640625,0.03051757626235485,-0.3662109076976776,-1.1596678495407104,73.33333587646484,303276.0,0.0
15345.5631397,296776.46875,294604.84375,320786.53125,312164.75,285238.3125,254601.21875,220077.796875,245384.96875,0.051513671875,0.99853515625,0.148681640625,0.03051757626235485,-0.3662109076976776,-1.1596678495407104,73.33333587646484,303277.0,0.0
15345.5631398,296776.46875,294604.84375,320786.53125,312164.75,285238.3125,254601.21875,220077.796875,245384.96875,0.051513671875,0.99853515625,0.148681640625,0.03051757626235485,-0.3662109076976776,-1.1596678495407104,73.33333587646484,303278.0,0.0
15345.56314,296768.875,294853.59375,320975.34375,312133.28125,285392.625,254633.140625,220113.28125,245373.625,0.046142578125,0.99267578125,0.158447265625,1.2512205839157104,-0.7019042372703552,-1.3122557401657104,73.33333587646484,303279.0,1.0
15345.5631414,296753.21875,294556.5625,320762.125,312135.5,285234.28125,254568.5,220050.609375,245365.484375,0.044677734375,0.992431640625,0.157958984375,1.2207030057907104,-0.6408690810203552,-1.2817381620407104,73.33333587646484,303280.0,1.0
15345.5631427,296773.4375,294584.21875,320760.15625,312152.9375,285222.9375,254581.546875,220066.171875,245374.421875,0.041748046875,0.99267578125,0.158935546875,1.3122557401657104,-0.7629393935203552,-1.3732908964157104,73.33333587646484,303281.0,1.0
15345.5631441,296792.1875,294867.1875,320950.3125,312157.78125,285361.25,254641.71875,220128.84375,245392.390625,0.039794921875,0.99169921875,0.15576171875,1.3427733182907104,-0.7629393935203552,-1.3122557401657104,73.33333587646484,303282.0,1.0
15345.5631454,296787.0,295027.21875,321067.4375,312141.84375,285461.125,254679.453125,220166.125,245395.875,0.03857421875,0.992919921875,0.1513671875,1.3732908964157104,-0.7324218153953552,-1.3732908964157104,73.33333587646484,303283.0,1.0
15345.5631467,296762.78125,294838.65625,320948.28125,312121.375,285378.0625,254641.90625,220114.984375,245366.203125,0.03955078125,0.9951171875,0.154541015625,1.3122557401657104,-0.8239745497703552,-1.2817381620407104,73.33333587646484,303284.0,1.0
15345.563148,296751.875,294562.3125,320754.78125,312133.375,285233.21875,254590.40625,220061.25,245370.75,0.038330078125,0.996337890625,0.15576171875,1.2817381620407104,-1.0070799589157104,-1.1901854276657104,73.33333587646484,303285.0,1.0
15345.5631493,296769.3125,294584.03125,320765.78125,312160.625,285232.15625,254600.0625,220091.640625,245405.796875,0.03662109375,0.99609375,0.158203125,1.2817381620407104,-1.0375975370407104,-1.1596678495407104,73.33333587646484,303286.0,1.0
15345.5871545,296794.25,294863.34375,320950.875,312156.34375,285358.5625,254638.140625,220122.578125,245377.375,0.037353515625,0.9970703125,0.1591796875,1.1596678495407104,-1.0681151151657104,-1.1596678495407104,73.33333587646484,303287.0,1.0
15345.5887809,296794.25,294863.34375,320950.875,312156.34375,285358.5625,254638.140625,220122.578125,245377.375,0.037353515625,0.9970703125,0.1591796875,1.1596678495407104,-1.0681151151657104,-1.1596678495407104,73.33333587646484,303288.0,0.0
15345.5887816,296794.25,294863.34375,320950.875,312156.34375,285358.5625,254638.140625,220122.578125,245377.375,0.037353515625,0.9970703125,0.1591796875,1.1596678495407104,-1.0681151151657104,-1.1596678495407104,73.33333587646484,303289.0,0.0
15345.5887818,296794.25,294863.34375,320950.875,312156.34375,285358.5625,254638.140625,220122.578125,245377.375,0.037353515625,0.9970703125,0.1591796875,1.1596678495407104,-1.0681151151657104,-1.1596678495407104,73.33333587646484,303290.0,0.0
15345.588782,296794.25,294863.34375,320950.875,312156.34375,285358.5625,254638.140625,220122.578125,245377.375,0.037353515625,0.9970703125,0.1591796875,1.1596678495407104,-1.0681151151657104,-1.1596678495407104,73.33333587646484,303291.0,0.0
15345.5887823,296794.25,294863.34375,320950.875,312156.34375,285358.5625,254638.140625,220122.578125,245377.375,0.037353515625,0.9970703125,0.1591796875,1.1596678495407104,-1.0681151151657104,-1.1596678495407104,73.33333587646484,303292.0,0.0
15345.5887824,296794.25,294863.34375,320950.875,312156.34375,285358.5625,254638.140625,220122.578125,245377.375,0.037353515625,0.9970703125,0.1591796875,1.1596678495407104,-1.0681151151657104,-1.1596678495407104,73.33333587646484,303293.0,0.0
15345.5887826,296794.25,294863.34375,320950.875,312156.34375,285358.5625,254638.140625,220122.578125,245377.375,0.037353515625,0.9970703125,0.1591796875,1.1596678495407104,-1.0681151151657104,-1.1596678495407104,73.33333587646484,303294.0,0.0
15345.5887827,296794.25,294863.34375,320950.875,312156.34375,285358.5625,254638.140625,220122.578125,245377.375,0.037353515625,0.9970703125,0.1591796875,1.1596678495407104,-1.0681151151657104,-1.1596678495407104,73.33333587646484,303295.0,0.0
15345.5887829,296794.25,294863.34375,320950.875,312156.34375,285358.5625,254638.140625,220122.578125,245377.375,0.037353515625,0.9970703125,0.1591796875,1.1596678495407104,-1.0681151151657104,-1.1596678495407104,73.33333587646484,303296.0,0.0
15345.5887831,296794.25,294863.34375,320950.875,312156.34375,285358.5625,254638.140625,220122.578125,245377.375,0.037353515625,0.9970703125,0.1591796875,1.1596678495407104,-1.0681151151657104,-1.1596678495407104,73.33333587646484,303297.0,0.0
15345.5887833,296794.25,294863.34375,320950.875,312156.34375,285358.5625,254638.140625,220122.578125,245377.375,0.037353515625,0.9970703125,0.1591796875,1.1596678495407104,-1.0681151151657104,-1.1596678495407104,73.33333587646484,303298.0,0.0
15345.5887834,296794.25,294863.34375,320950.875,312156.34375,285358.5625,254638.140625,220122.578125,245377.375,0.037353515625,0.9970703125,0.1591796875,1.1596678495407104,-1.0681151151657104,-1.1596678495407104,73.33333587646484,303299.0,0.0
15345.5887836,296794.25,294863.34375,320950.875,312156.34375,285358.5625,254638.140625,220122.578125,245377.375,0.037353515625,0.9970703125,0.1591796875,1.1596678495407104,-1.0681151151657104,-1.1596678495407104,73.33333587646484,303300.0,0.0
15345.5887838,296794.25,294863.34375,320950.875,312156.34375,285358.5625,254638.140625,220122.578125,245377.375,0.037353515625,0.9970703125,0.1591796875,1.1596678495407104,-1.0681151151657104,-1.1596678495407104,73.33333587646484,303301.0,0.0
15345.588784,296794.25,294863.34375,320950.875,312156.34375,285358.5625,254638.140625,220122.578125,245377.375,0.037353515625,0.9970703125,0.1591796875,1.1596678495407104,-1.0681151151657104,-1.1596678495407104,73.33333587646484,303302.0,0.0
15345.5887841,296794.25,294863.34375,320950.875,312156.34375,285358.5625,254638.140625,220122.578125,245377.375,0.037353515625,0.9970703125,0.1591796875,1.1596678495407104,-1.0681151151657104,-1.1596678495407104,73.33333587646484,303303.0,0.0
15345.5887843,296794.25,294863.34375,320950.875,312156.34375,285358.5625,254638.140625,220122.578125,245377.375,0.037353515625,0.9970703125,0.1591796875,1.1596678495407104,-1.0681151151657104,-1.1596678495407104,73.33333587646484,303304.0,0.0
15345.5887845,296794.25,294863.34375,320950.875,312156.34375,285358.5625,254638.140625,220122.578125,245377.375,0.037353515625,0.9970703125,0.1591796875,1.1596678495407104,-1.0681151151657104,-1.1596678495407104,73.33333587646484,303305.0,0.0
15345.5887847,296794.25,294863.34375,320950.875,312156.34375,285358.5625,254638.140625,220122.578125,245377.375,0.037353515625,0.9970703125,0.1591796875,1.1596678495407104,-1.0681151151657104,-1.1596678495407104,73.33333587646484,303306.0,0.0
15345.5887848,296794.25,294863.34375,320950.875,312156.34375,285358.5625,254638.140625,220122.578125,245377.375,0.037353515625,0.9970703125,0.1591796875,1.1596678495407104,-1.0681151151657104,-1.1596678495407104,73.33333587646484,303307.0,0.0
15345.588785,296821.25,295051.625,321099.28125,312158.65625,285479.34375,254710.390625,220184.453125,245399.8125,0.050537109375,0.99560546875,0.152099609375,0.5187987685203552,-1.3732908964157104,-0.1831054538488388,73.33333587646484,303308.0,1.0
15345.6137722,296790.84375,294865.21875,320987.6875,312137.75,285396.5625,254651.109375,220129.203125,245381.390625,0.050048828125,0.9951171875,0.1513671875,0.3967284858226776,-1.2207030057907104,-0.3356933295726776,73.33333587646484,303309.0,1.0
15345.6387847,296776.28125,294577.84375,320781.0625,312143.125,285241.8125,254591.203125,220069.921875,245382.921875,0.05078125,0.996337890625,0.156982421875,0.3967284858226776,-1.1291502714157104,-0.4272460639476776,73.33333587646484,303310.0,1.0
15345.6449736,296797.03125,294603.78125,320790.28125,312164.21875,285238.03125,254600.328125,220074.125,245384.34375,0.049072265625,0.9951171875,0.15673828125,0.3356933295726776,-1.0681151151657104,-0.5187987685203552,73.33333587646484,303311.0,1.0
15345.6497582,296822.0625,294885.0625,320976.96875,312172.625,285377.53125,254668.09375,220144.390625,245407.40625,0.049560546875,0.994384765625,0.156494140625,0.3356933295726776,-0.9765624403953552,-0.6103515028953552,73.33333587646484,303312.0,1.0
15345.6497758,296814.0,295048.6875,321094.09375,312150.25,285472.75,254724.0625,220183.109375,245393.734375,0.048583984375,0.993896484375,0.15576171875,0.2136230319738388,-0.8239745497703552,-0.5798339247703552,73.33333587646484,303313.0,1.0
15345.6497772,296783.625,294863.875,320989.46875,312133.0,285398.0,254673.640625,220134.296875,245372.90625,0.048828125,0.994384765625,0.153564453125,0.2441406100988388,-0.7934569716453552,-0.6408690810203552,73.33333587646484,303314.0,1.0
15345.6497784,296762.53125,294568.5625,320779.09375,312131.5,285235.53125,254572.796875,220054.640625,245369.765625,0.05078125,0.992431640625,0.153076171875,0.2746581733226776,-0.7934569716453552,-0.7019042372703552,73.33333587646484,303315.0,1.0
15345.6497796,296781.375,294580.71875,320767.03125,312149.375,285218.46875,254588.703125,220070.640625,245376.03125,0.048828125,0.9921875,0.150634765625,0.3051757514476776,-0.7324218153953552,-0.7629393935203552,73.33333587646484,303316.0,1.0
15345.6497808,296807.84375,294868.4375,320960.6875,312158.5625,285359.1875,254666.484375,220140.109375,245384.890625,0.04833984375,0.9912109375,0.1513671875,0.4272460639476776,-0.8239745497703552,-0.7324218153953552,73.33333587646484,303317.0,1.0
15345.649782,296804.1875,295033.28125,321083.8125,312145.0625,285455.3125,254680.796875,220160.765625,245381.125,0.048095703125,0.993896484375,0.152587890625,0.2746581733226776,-0.8239745497703552,-0.7019042372703552,73.33333587646484,303318.0,1.0
15345.6512692,296781.03125,294852.875,320980.0,312132.1875,285382.71875,254628.484375,220112.390625,245373.96875,0.047119140625,0.99267578125,0.155517578125,0.2136230319738388,-0.8239745497703552,-0.7934569716453552,73.33333587646484,303319.0,1.0
15345.6543858,296766.0,294557.65625,320766.40625,312132.65625,285221.6875,254573.5,220047.296875,245361.1875,0.04833984375,0.9931640625,0.154296875,0.2136230319738388,-0.7324218153953552,-0.9155272841453552,73.33333587646484,303320.0,1.0
15345.6543981,296784.15625,294579.375,320767.40625,312153.21875,285213.09375,254597.46875,220068.21875,245374.25,0.049072265625,0.99365234375,0.156005859375,0.1525878757238388,-0.7019042372703552,-0.8850097060203552,73.33333587646484,303321.0,1.0
15345.6562369,296812.75,294878.09375,320971.78125,312165.28125,285364.5625,254669.984375,220150.828125,245397.40625,0.0478515625,0.994384765625,0.15576171875,0.0915527269244194,-0.8850097060203552,-0.8239745497703552,73.33333587646484,303322.0,1.0
15345.658797,296816.6875,295052.0625,321102.40625,312155.8125,285472.03125,254706.984375,220188.828125,245400.34375,0.04541015625,0.993408203125,0.155029296875,0.1220703050494194,-0.9460448622703552,-0.8239745497703552,73.33333587646484,303323.0,1.0
15345.6638081,296786.5625,294861.09375,320990.28125,312138.625,285390.21875,254648.609375,220131.96875,245386.84375,0.044677734375,0.996337890625,0.15625,0.1525878757238388,-1.1291502714157104,-0.8239745497703552,73.33333587646484,303324.0,1.0
15345.6926001,296768.25,294565.96875,320775.25,312144.28125,285230.90625,254594.34375,220072.609375,245391.59375,0.046630859375,0.99560546875,0.156005859375,0.1525878757238388,-1.2817381620407104,-0.7324218153953552,73.33333587646484,303325.0,1.0
15345.6926066,296784.0625,294578.65625,320770.875,312161.4375,285218.90625,254596.75,220078.953125,245390.875,0.046630859375,0.997802734375,0.158203125,0.1220703050494194,-1.2512205839157104,-0.7629393935203552,73.33333587646484,303326.0,1.0
15345.6926083,296804.0,294862.96875,320965.0625,312161.71875,285359.375,254661.390625,220144.390625,245395.25,0.046142578125,0.996337890625,0.15869140625,0.03051757626235485,-1.4038084745407104,-0.7019042372703552,73.33333587646484,303327.0,1.0
15345.6926101,296794.15625,295029.09375,321081.75,312139.1875,285453.0625,254687.671875,220166.75,245388.109375,0.04833984375,0.9951171875,0.158447265625,-0.0915527269244194,-1.5563963651657104,-0.6408690810203552,73.33333587646484,303328.0,1.0
15345.692612,296769.59375,294849.03125,320975.4375,312121.84375,285378.40625,254636.0,220113.1875,245370.125,0.04833984375,0.99365234375,0.155029296875,-0.0915527269244194,-1.7089842557907104,-0.7324218153953552,73.33333587646484,303329.0,1.0
15345.7370027,296757.5,294563.8125,320768.375,312131.21875,285228.46875,254590.21875,220062.40625,245375.765625,0.045654296875,0.992431640625,0.156982421875,-0.1220703050494194,-1.6174315214157104,-0.6103515028953552,73.33333587646484,303330.0,1.0
15345.7370119,296757.5,294563.8125,320768.375,312131.21875,285228.46875,254590.21875,220062.40625,245375.765625,0.045654296875,0.992431640625,0.156982421875,-0.1220703050494194,-1.6174315214157104,-0.6103515028953552,73.33333587646484,303331.0,0.0
15345.7370121,296757.5,294563.8125,320768.375,312131.21875,285228.46875,254590.21875,220062.40625,245375.765625,0.045654296875,0.992431640625,0.156982421875,-0.1220703050494194,-1.6174315214157104,-0.6103515028953552,73.33333587646484,303332.0,0.0
15345.7370122,296757.5,294563.8125,320768.375,312131.21875,285228.46875,254590.21875,220062.40625,245375.765625,0.045654296875,0.992431640625,0.156982421875,-0.1220703050494194,-1.6174315214157104,-0.6103515028953552,73.33333587646484,303333.0,0.0
15345.7370124,296757.5,294563.8125,320768.375,312131.21875,285228.46875,254590.21875,220062.40625,245375.765625,0.045654296875,0.992431640625,0.156982421875,-0.1220703050494194,-1.6174315214157104,-0.6103515028953552,73.33333587646484,303334.0,0.0
15345.7370126,296757.5,294563.8125,320768.375,312131.21875,285228.46875,254590.21875,220062.40625,245375.765625,0.045654296875,0.992431640625,0.156982421875,-0.1220703050494194,-1.6174315214157104,-0.6103515028953552,73.33333587646484,303335.0,0.0
15345.7370128,296757.5,294563.8125,320768.375,312131.21875,285228.46875,254590.21875,220062.40625,245375.765625,0.045654296875,0.992431640625,0.156982421875,-0.1220703050494194,-1.6174315214157104,-0.6103515028953552,73.33333587646484,303336.0,0.0
15345.737013,296757.5,294563.8125,320768.375,312131.21875,285228.46875,254590.21875,220062.40625,245375.765625,0.045654296875,0.992431640625,0.156982421875,-0.1220703050494194,-1.6174315214157104,-0.6103515028953552,73.33333587646484,303337.0,0.0
15345.7370131,296757.5,294563.8125,320768.375,312131.21875,285228.46875,254590.21875,220062.40625,245375.765625,0.045654296875,0.992431640625,0.156982421875,-0.1220703050494194,-1.6174315214157104,-0.6103515028953552,73.33333587646484,303338.0,0.0
15345.7370133,296757.5,294563.8125,320768.375,312131.21875,285228.46875,254590.21875,220062.40625,245375.765625,0.045654296875,0.992431640625,0.156982421875,-0.1220703050494194,-1.6174315214157104,-0.6103515028953552,73.33333587646484,303339.0,0.0
15345.7370135,296757.5,294563.8125,320768.375,312131.21875,285228.46875,254590.21875,220062.40625,245375.765625,0.045654296875,0.992431640625,0.156982421875,-0.1220703050494194,-1.6174315214157104,-0.6103515028953552,73.33333587646484,303340.0,0.0
15345.7370137,296757.5,294563.8125,320768.375,312131.21875,285228.46875,254590.21875,220062.40625,245375.765625,0.045654296875,0.992431640625,0.156982421875,-0.1220703050494194,-1.6174315214157104,-0.6103515028953552,73.33333587646484,303341.0,0.0
15345.7370138,296757.5,294563.8125,320768.375,312131.21875,285228.46875,254590.21875,220062.40625,245375.765625,0.045654296875,0.992431640625,0.156982421875,-0.1220703050494194,-1.6174315214157104,-0.6103515028953552,73.33333587646484,303342.0,0.0
15345.737014,296757.5,294563.8125,320768.375,312131.21875,285228.46875,254590.21875,220062.40625,245375.765625,0.045654296875,0.992431640625,0.156982421875,-0.1220703050494194,-1.6174315214157104,-0.6103515028953552,73.33333587646484,303343.0,0.0
15345.7370142,296757.5,294563.8125,320768.375,312131.21875,285228.46875,254590.21875,220062.40625,245375.765625,0.045654296875,0.992431640625,0.156982421875,-0.1220703050494194,-1.6174315214157104,-0.6103515028953552,73.33333587646484,303344.0,0.0
15345.7370143,296757.5,294563.8125,320768.375,312131.21875,285228.46875,254590.21875,220062.40625,245375.765625,0.045654296875,0.992431640625,0.156982421875,-0.1220703050494194,-1.6174315214157104,-0.6103515028953552,73.33333587646484,303345.0,0.0
15345.7370145,296757.5,294563.8125,320768.375,312131.21875,285228.46875,254590.21875,220062.40625,245375.765625,0.045654296875,0.992431640625,0.156982421875,-0.1220703050494194,-1.6174315214157104,-0.6103515028953552,73.33333587646484,303346.0,0.0
15345.7370147,296757.5,294563.8125,320768.375,312131.21875,285228.46875,254590.21875,220062.40625,245375.765625,0.045654296875,0.992431640625,0.156982421875,-0.1220703050494194,-1.6174315214157104,-0.6103515028953552,73.33333587646484,303347.0,0.0
15345.7370149,296757.5,294563.8125,320768.375,312131.21875,285228.46875,254590.21875,220062.40625,245375.765625,0.045654296875,0.992431640625,0.156982421875,-0.1220703050494194,-1.6174315214157104,-0.6103515028953552,73.33333587646484,303348.0,0.0
15345.737015,296757.5,294563.8125,320768.375,312131.21875,285228.46875,254590.21875,220062.40625,245375.765625,0.045654296875,0.992431640625,0.156982421875,-0.1220703050494194,-1.6174315214157104,-0.6103515028953552,73.33333587646484,303349.0,0.0
15345.7370153,296757.5,294563.8125,320768.375,312131.21875,285228.46875,254590.21875,220062.40625,245375.765625,0.045654296875,0.992431640625,0.156982421875,-0.1220703050494194,-1.6174315214157104,-0.6103515028953552,73.33333587646484,303350.0,0.0
15345.7370154,296757.5,294563.8125,320768.375,312131.21875,285228.46875,254590.21875,220062.40625,245375.765625,0.045654296875,0.992431640625,0.156982421875,-0.1220703050494194,-1.6174315214157104,-0.6103515028953552,73.33333587646484,303351.0,0.0
15345.7370156,296757.5,294563.8125,320768.375,312131.21875,285228.46875,254590.21875,220062.40625,245375.765625,0.045654296875,0.992431640625,0.156982421875,-0.1220703050494194,-1.6174315214157104,-0.6103515028953552,73.33333587646484,303352.0,0.0
15345.7370158,296757.5,294563.8125,320768.375,312131.21875,285228.46875,254590.21875,220062.40625,245375.765625,0.045654296875,0.992431640625,0.156982421875,-0.1220703050494194,-1.6174315214157104,-0.6103515028953552,73.33333587646484,303353.0,0.0
15345.737016,296757.5,294563.8125,320768.375,312131.21875,285228.46875,254590.21875,220062.40625,245375.765625,0.045654296875,0.992431640625,0.156982421875,-0.1220703050494194,-1.6174315214157104,-0.6103515028953552,73.33333587646484,303354.0,0.0
15345.7370161,296757.5,294563.8125,320768.375,312131.21875,285228.46875,254590.21875,220062.40625,245375.765625,0.045654296875,0.992431640625,0.156982421875,-0.1220703050494194,-1.6174315214157104,-0.6103515028953552,73.33333587646484,303355.0,0.0
15345.7370163,296757.5,294563.8125,320768.375,312131.21875,285228.46875,254590.21875,220062.40625,245375.765625,0.045654296875,0.992431640625,0.156982421875,-0.1220703050494194,-1.6174315214157104,-0.6103515028953552,73.33333587646484,303356.0,0.0
15345.7370165,296757.5,294563.8125,320768.375,312131.21875,285228.46875,254590.21875,220062.40625,245375.765625,0.045654296875,0.992431640625,0.156982421875,-0.1220703050494194,-1.6174315214157104,-0.6103515028953552,73.33333587646484,303357.0,0.0
15345.7370166,296757.5,294563.8125,320768.375,312131.21875,285228.46875,254590.21875,220062.40625,245375.765625,0.045654296875,0.992431640625,0.156982421875,-0.1220703050494194,-1.6174315214157104,-0.6103515028953552,73.33333587646484,303358.0,0.0
15345.7370168,296757.5,294563.8125,320768.375,312131.21875,285228.46875,254590.21875,220062.40625,245375.765625,0.045654296875,0.992431640625,0.156982421875,-0.1220703050494194,-1.6174315214157104,-0.6103515028953552,73.33333587646484,303359.0,0.0
15345.737017,296757.5,294563.8125,320768.375,312131.21875,285228.46875,254590.21875,220062.40625,245375.765625,0.045654296875,0.992431640625,0.156982421875,-0.1220703050494194,-1.6174315214157104,-0.6103515028953552,73.33333587646484,303360.0,0.0
15345.7370171,296757.5,294563.8125,320768.375,312131.21875,285228.46875,254590.21875,220062.40625,245375.765625,0.045654296875,0.992431640625,0.156982421875,-0.1220703050494194,-1.6174315214157104,-0.6103515028953552,73.33333587646484,303361.0,0.0
15345.7370173,296757.5,294563.8125,320768.375,312131.21875,285228.46875,254590.21875,220062.40625,245375.765625,0.045654296875,0.992431640625,0.156982421875,-0.1220703050494194,-1.6174315214157104,-0.6103515028953552,73.33333587646484,303362.0,0.0
15345.7370175,296757.5,294563.8125,320768.375,312131.21875,285228.46875,254590.21875,220062.40625,245375.765625,0.045654296875,0.992431640625,0.156982421875,-0.1220703050494194,-1.6174315214157104,-0.6103515028953552,73.33333587646484,303363.0,0.0
15345.7370176,296757.5,294563.8125,320768.375,312131.21875,285228.46875,254590.21875,220062.40625,245375.765625,0.045654296875,0.992431640625,0.156982421875,-0.1220703050494194,-1.6174315214157104,-0.6103515028953552,73.33333587646484,303364.0,0.0
15345.7370178,296757.5,294563.8125,320768.375,312131.21875,285228.46875,254590.21875,220062.40625,245375.765625,0.045654296875,0.992431640625,0.156982421875,-0.1220703050494194,-1.6174315214157104,-0.6103515028953552,73.33333587646484,303365.0,0.0
15345.737018,296757.5,294563.8125,320768.375,312131.21875,285228.46875,254590.21875,220062.40625,245375.765625,0.045654296875,0.992431640625,0.156982421875,-0.1220703050494194,-1.6174315214157104,-0.6103515028953552,73.33333587646484,303366.0,0.0
15345.7370182,296757.5,294563.8125,320768.375,312131.21875,285228.46875,254590.21875,220062.40625,245375.765625,0.045654296875,0.992431640625,0.156982421875,-0.1220703050494194,-1.6174315214157104,-0.6103515028953552,73.33333587646484,303367.0,0.0
15345.7370183,296757.5,294563.8125,320768.375,312131.21875,285228.46875,254590.21875,220062.40625,245375.765625,0.045654296875,0.992431640625,0.156982421875,-0.1220703050494194,-1.6174315214157104,-0.6103515028953552,73.33333587646484,303368.0,0.0
15345.7370185,296757.5,294563.8125,320768.375,312131.21875,285228.46875,254590.21875,220062.40625,245375.765625,0.045654296875,0.992431640625,0.156982421875,-0.1220703050494194,-1.6174315214157104,-0.6103515028953552,73.33333587646484,303369.0,0.0
15345.7370187,296757.5,294563.8125,320768.375,312131.21875,285228.46875,254590.21875,220062.40625,245375.765625,0.045654296875,0.992431640625,0.156982421875,-0.1220703050494194,-1.6174315214157104,-0.6103515028953552,73.33333587646484,303370.0,0.0
15345.7370188,296757.5,294563.8125,320768.375,312131.21875,285228.46875,254590.21875,220062.40625,245375.765625,0.045654296875,0.992431640625,0.156982421875,-0.1220703050494194,-1.6174315214157104,-0.6103515028953552,73.33333587646484,303371.0,0.0
15345.737019,296757.5,294563.8125,320768.375,312131.21875,285228.46875,254590.21875,220062.40625,245375.765625,0.045654296875,0.992431640625,0.156982421875,-0.1220703050494194,-1.6174315214157104,-0.6103515028953552,73.33333587646484,303372.0,0.0
15345.7370192,296757.5,294563.8125,320768.375,312131.21875,285228.46875,254590.21875,220062.40625,245375.765625,0.045654296875,0.992431640625,0.156982421875,-0.1220703050494194,-1.6174315214157104,-0.6103515028953552,73.33333587646484,303373.0,0.0
15345.7370194,296757.5,294563.8125,320768.375,312131.21875,285228.46875,254590.21875,220062.40625,245375.765625,0.045654296875,0.992431640625,0.156982421875,-0.1220703050494194,-1.6174315214157104,-0.6103515028953552,73.33333587646484,303374.0,0.0
15345.7370195,296757.5,294563.8125,320768.375,312131.21875,285228.46875,254590.21875,220062.40625,245375.765625,0.045654296875,0.992431640625,0.156982421875,-0.1220703050494194,-1.6174315214157104,-0.6103515028953552,73.33333587646484,303375.0,0.0
15345.7370197,296757.5,294563.8125,320768.375,312131.21875,285228.46875,254590.21875,220062.40625,245375.765625,0.045654296875,0.992431640625,0.156982421875,-0.1220703050494194,-1.6174315214157104,-0.6103515028953552,73.33333587646484,303376.0,0.0
15345.7370199,296757.5,294563.8125,320768.375,312131.21875,285228.46875,254590.21875,220062.40625,245375.765625,0.045654296875,0.992431640625,0.156982421875,-0.1220703050494194,-1.6174315214157104,-0.6103515028953552,73.33333587646484,303377.0,0.0
15345.7370201,296806.875,295034.8125,321091.0625,312152.21875,285461.84375,254682.578125,220187.40625,245404.546875,0.048828125,0.991455078125,0.154296875,0.5798339247703552,-0.4882812201976776,-0.03051757626235485,73.33333587646484,303378.0,1.0
15345.7370214,296785.5,294859.84375,320984.65625,312136.9375,285388.96875,254645.21875,220129.015625,245373.703125,0.04931640625,0.99072265625,0.158447265625,0.5187987685203552,-0.5187987685203552,-0.03051757626235485,73.33333587646484,303379.0,1.0
15345.7370226,296779.78125,294572.84375,320774.5625,312146.40625,285232.78125,254590.046875,220060.0,245362.703125,0.04541015625,0.9912109375,0.15625,0.3051757514476776,-0.5798339247703552,-0.2136230319738388,73.33333587646484,303380.0,1.0
15345.7370238,296800.78125,294588.75,320776.53125,312168.59375,285226.25,254601.140625,220079.671875,245372.8125,0.044677734375,0.991455078125,0.158203125,0.3662109076976776,-0.7019042372703552,-0.2136230319738388,73.33333587646484,303381.0,1.0
15345.737025,296821.625,294874.59375,320971.0625,312169.3125,285365.28125,254666.765625,220147.53125,245382.5625,0.043701171875,0.99072265625,0.158203125,0.4272460639476776,-0.6103515028953552,-0.3051757514476776,73.33333587646484,303382.0,1.0
15345.7370262,296817.6875,295041.78125,321092.75,312152.21875,285461.84375,254689.015625,220177.125,245383.359375,0.041748046875,0.991943359375,0.1552734375,0.4882812201976776,-0.6713866591453552,-0.3967284858226776,73.33333587646484,303383.0,1.0
15345.7370274,296788.625,294854.125,320981.875,312138.71875,285384.9375,254642.34375,220130.265625,245374.25,0.041259765625,0.9931640625,0.154052734375,0.6103515028953552,-0.9155272841453552,-0.4882812201976776,73.33333587646484,303384.0,1.0
15345.7370286,296773.875,294562.125,320766.59375,312148.5625,285225.625,254585.3125,220073.765625,245377.734375,0.040283203125,0.997802734375,0.154296875,0.6713866591453552,-1.0070799589157104,-0.6408690810203552,73.33333587646484,303385.0,1.0
15345.7370298,296795.0625,294583.84375,320766.15625,312174.65625,285220.15625,254611.234375,220097.546875,245391.859375,0.04248046875,0.998291015625,0.1552734375,0.6408690810203552,-1.2207030057907104,-0.7324218153953552,73.33333587646484,303386.0,1.0
15345.7370314,296817.21875,294878.71875,320967.125,312176.46875,285368.125,254678.296875,220164.0625,245402.40625,0.0439453125,0.99951171875,0.156982421875,0.6408690810203552,-1.4038084745407104,-0.7629393935203552,73.33333587646484,303387.0,1.0
15345.7443407,296814.09375,295050.0,321096.78125,312159.375,285469.0625,254697.15625,220184.1875,245394.53125,0.04638671875,1.003173828125,0.156982421875,0.4577636420726776,-1.5258787870407104,-0.7934569716453552,73.33333587646484,303388.0,1.0
15345.7443455,296792.90625,294871.8125,320990.65625,312147.65625,285394.25,254649.328125,220137.25,245383.8125,0.048828125,0.99951171875,0.15771484375,0.3356933295726776,-1.5869139432907104,-0.8239745497703552,73.33333587646484,303389.0,1.0
15345.7443468,296775.5625,294572.59375,320774.1875,312146.96875,285232.21875,254585.3125,220075.015625,245376.390625,0.0498046875,1.000244140625,0.156982421875,0.2441406100988388,-1.6784666776657104,-0.9765624403953552,73.33333587646484,303390.0,1.0
15345.7443481,296796.3125,294589.03125,320769.625,312170.1875,285223.5625,254609.71875,220098.171875,245391.140625,0.0478515625,0.996826171875,0.158203125,0.1831054538488388,-1.6784666776657104,-0.9460448622703552,73.33333587646484,303391.0,1.0
15345.7443493,296819.375,294876.65625,320966.40625,312175.28125,285361.59375,254660.140625,220153.609375,245395.796875,0.050048828125,0.99658203125,0.157470703125,0.2746581733226776,-1.6174315214157104,-0.8544921278953552,73.33333587646484,303392.0,1.0
15345.7443506,296814.90625,295049.46875,321094.53125,312163.84375,285463.8125,254692.421875,220186.234375,245405.0,0.05029296875,0.99462890625,0.156005859375,0.2746581733226776,-1.7089842557907104,-0.8239745497703552,73.33333587646484,303393.0,1.0
15345.7443517,296782.46875,294865.03125,320979.46875,312142.5625,285385.75,254648.15625,220136.4375,245383.8125,0.05078125,0.995849609375,0.15576171875,0.3051757514476776,-1.7089842557907104,-0.7629393935203552,73.33333587646484,303394.0,1.0
15345.7443529,296764.40625,294579.03125,320770.34375,312141.15625,285229.46875,254583.15625,220069.296875,245369.0625,0.05078125,0.99560546875,0.157470703125,0.2746581733226776,-1.7089842557907104,-0.7629393935203552,73.33333587646484,303395.0,1.0
15345.7443541,296787.28125,294600.125,320774.1875,312161.71875,285227.59375,254609.265625,220093.34375,245388.8125,0.049072265625,0.99658203125,0.15869140625,0.1831054538488388,-1.7395018339157104,-0.7934569716453552,73.33333587646484,303396.0,1.0
15345.7443553,296805.96875,294878.1875,320957.46875,312162.5,285360.53125,254675.25,220158.609375,245397.3125,0.048583984375,0.9970703125,0.15771484375,0.0610351525247097,-1.6479490995407104,-0.6408690810203552,73.33333587646484,303397.0,1.0
15345.7458075,296800.4375,295055.375,321083.28125,312145.53125,285462.71875,254713.15625,220191.875,245394.09375,0.05029296875,0.9970703125,0.15869140625,-0.03051757626235485,-1.6784666776657104,-0.6713866591453552,73.33333587646484,303398.0,1.0
15345.7475473,296773.15625,294879.78125,320984.84375,312130.5,285393.0,254657.734375,220142.4375,245375.3125,0.050048828125,0.9970703125,0.16015625,-0.0610351525247097,-1.6784666776657104,-0.6408690810203552,73.33333587646484,303399.0,1.0
15345.7506419,296756.875,294582.875,320775.53125,312134.78125,285238.5,254598.8125,220088.078125,245384.96875,0.049560546875,0.995361328125,0.15673828125,-0.0915527269244194,-1.7700194120407104,-0.6408690810203552,73.33333587646484,303400.0,1.0
15345.7506539,296776.375,294595.03125,320769.09375,312154.28125,285225.15625,254611.0625,220103.71875,245392.390625,0.050048828125,0.993408203125,0.157958984375,-0.1831054538488388,-1.7700194120407104,-0.6103515028953552,73.33333587646484,303401.0,1.0
15345.7525309,296808.1875,294889.4375,320973.75,312167.59375,285374.125,254679.359375,220175.0625,245407.6875,0.050537109375,0.9912109375,0.16162109375,-0.1831054538488388,-1.7700194120407104,-0.5798339247703552,73.33333587646484,303402.0,1.0
15345.7573144,296803.8125,295063.5,321102.75,312144.0,285470.9375,254700.109375,220184.28125,245383.90625,0.049560546875,0.991455078125,0.156982421875,-0.0610351525247097,-1.7700194120407104,-0.5493163466453552,73.33333587646484,303403.0,1.0
15345.7573199,296776.90625,294882.8125,320991.53125,312130.25,285393.625,254660.328125,220143.0625,245376.5625,0.049072265625,0.992431640625,0.159423828125,-0.03051757626235485,-1.8310545682907104,-0.6408690810203552,73.33333587646484,303404.0,1.0
15345.7573212,296766.4375,294594.125,320782.3125,312140.4375,285241.1875,254609.1875,220091.296875,245386.671875,0.04931640625,0.990478515625,0.16064453125,-0.03051757626235485,-1.8005369901657104,-0.5798339247703552,73.33333587646484,303405.0,1.0
15345.7573224,296793.09375,294611.65625,320787.15625,312172.0625,285239.84375,254624.921875,220114.09375,245408.484375,0.046142578125,0.98828125,0.16015625,0.0,-1.8615721464157104,-0.7629393935203552,73.33333587646484,303406.0,1.0
15345.7573237,296812.59375,294883.1875,320969.90625,312169.125,285368.40625,254672.75,220161.390625,245394.53125,0.04833984375,0.98974609375,0.1591796875,-0.0915527269244194,-1.9226073026657104,-0.8544921278953552,73.33333587646484,303407.0,1.0
15345.7573249,296804.1875,295049.03125,321087.03125,312149.09375,285462.625,254699.390625,220188.125,245392.921875,0.047607421875,0.9912109375,0.159912109375,0.0610351525247097,-2.014159917831421,-1.0070799589157104,73.33333587646484,303408.0,1.0
15345.7573261,296779.15625,294869.40625,320976.6875,312135.40625,285386.0,254660.046875,220144.671875,245380.953125,0.046875,0.989501953125,0.162353515625,0.0,-2.044677495956421,-1.0375975370407104,73.33333587646484,303409.0,1.0
15345.7588229,296759.65625,294569.4375,320757.03125,312133.625,285220.4375,254576.640625,220066.34375,245370.21875,0.046875,0.990966796875,0.162353515625,0.1525878757238388,-2.105712652206421,-1.1901854276657104,73.33333587646484,303410.0,1.0
15345.784371,296784.5,294588.0625,320762.84375,312162.96875,285217.9375,254592.546875,220091.640625,245390.96875,0.04736328125,0.9921875,0.162109375,0.3051757514476776,-2.044677495956421,-1.2512205839157104,73.33333587646484,303411.0,1.0
15345.7843758,296812.9375,294884.96875,320966.875,312172.96875,285369.03125,254677.390625,220170.59375,245405.71875,0.049560546875,0.992919921875,0.161865234375,0.2746581733226776,-2.044677495956421,-1.3122557401657104,73.33333587646484,303412.0,1.0
15345.8093938,296803.46875,295047.59375,321090.34375,312150.53125,285465.21875,254698.671875,220186.515625,245394.890625,0.047607421875,0.994384765625,0.16015625,0.3662109076976776,-2.014159917831421,-1.3732908964157104,73.33333587646484,303413.0,1.0
15345.8094068,296786.5625,294880.15625,320995.84375,312142.21875,285399.5,254657.734375,220141.984375,245387.5625,0.049072265625,0.993896484375,0.16064453125,0.3356933295726776,-2.105712652206421,-1.4343260526657104,73.33333587646484,303414.0,1.0
15345.8337913,296780.75,294591.1875,320788.21875,312153.03125,285246.90625,254605.6875,220093.4375,245393.375,0.048828125,0.996337890625,0.15966796875,0.3662109076976776,-2.136230230331421,-1.4648436307907104,73.33333587646484,303415.0,1.0
15345.8813353,296800.875,294599.84375,320783.21875,312173.25,285233.40625,254614.8125,220103.359375,245400.078125,0.04833984375,0.99658203125,0.159912109375,0.4272460639476776,-2.166747808456421,-1.4953612089157104,73.33333587646484,303416.0,1.0
15345.8813421,296813.75,294875.40625,320965.0625,312164.84375,285361.4375,254669.171875,220158.171875,245397.578125,0.05078125,0.9951171875,0.15771484375,0.5798339247703552,-2.044677495956421,-1.5869139432907104,73.33333587646484,303417.0,1.0
15345.8813434,296811.78125,295051.34375,321096.0625,312152.0625,285465.6875,254698.3125,220190.53125,245404.109375,0.050048828125,0.99365234375,0.158203125,0.5798339247703552,-2.075195074081421,-1.5563963651657104,73.33333587646484,303418.0,1.0
15345.8813447,296790.78125,294877.375,320993.40625,312141.21875,285394.25,254657.8125,220141.71875,245390.34375,0.04833984375,0.99267578125,0.159423828125,0.5798339247703552,-2.044677495956421,-1.5258787870407104,73.33333587646484,303419.0,1.0
15345.8813459,296781.03125,294587.875,320785.53125,312144.4375,285240.8125,254599.703125,220077.15625,245372.453125,0.048583984375,0.99267578125,0.157470703125,0.4882812201976776,-2.044677495956421,-1.5258787870407104,73.33333587646484,303420.0,1.0
15345.9066421,296805.34375,294601.28125,320782.25,312167.25,285232.0625,254610.34375,220095.3125,245389.0,0.0478515625,0.991943359375,0.15673828125,0.5798339247703552,-2.105712652206421,-1.6479490995407104,73.33333587646484,303421.0,1.0
15345.9066476,296828.84375,294886.3125,320977.40625,312171.09375,285374.46875,254675.875,220166.125,245404.1875,0.047607421875,0.9912109375,0.158203125,0.6408690810203552,-2.044677495956421,-1.5869139432907104,73.33333587646484,303422.0,1.0
15345.9066488,296823.21875,295057.4375,321101.0625,312149.625,285469.875,254697.609375,220183.109375,245387.03125,0.047119140625,0.991455078125,0.15869140625,0.5798339247703552,-2.044677495956421,-1.4648436307907104,73.33333587646484,303423.0,1.0
15345.90665,296798.46875,294885.40625,320999.40625,312136.125,285398.1875,254658.796875,220140.46875,245377.015625,0.0478515625,0.99169921875,0.161376953125,0.6408690810203552,-2.044677495956421,-1.5258787870407104,73.33333587646484,303424.0,1.0
15345.9066512,296780.3125,294582.40625,320776.875,312138.0,285230.625,254587.8125,220073.234375,245369.234375,0.045166015625,0.991943359375,0.160400390625,0.7324218153953552,-1.9836424589157104,-1.5258787870407104,73.33333587646484,303425.0,1.0
15345.9302446,296801.59375,294586.71875,320767.21875,312163.6875,285216.84375,254602.65625,220087.890625,245379.78125,0.04541015625,0.991455078125,0.157958984375,0.6408690810203552,-1.9531248807907104,-1.5258787870407104,73.33333587646484,303426.0,1.0
15345.9302622,296801.59375,294586.71875,320767.21875,312163.6875,285216.84375,254602.65625,220087.890625,245379.78125,0.04541015625,0.991455078125,0.157958984375,0.6408690810203552,-1.9531248807907104,-1.5258787870407104,73.33333587646484,303427.0,0.0
15345.9302624,296801.59375,294586.71875,320767.21875,312163.6875,285216.84375,254602.65625,220087.890625,245379.78125,0.04541015625,0.991455078125,0.157958984375,0.6408690810203552,-1.9531248807907104,-1.5258787870407104,73.33333587646484,303428.0,0.0
15345.9302626,296801.59375,294586.71875,320767.21875,312163.6875,285216.84375,254602.65625,220087.890625,245379.78125,0.04541015625,0.991455078125,0.157958984375,0.6408690810203552,-1.9531248807907104,-1.5258787870407104,73.33333587646484,303429.0,0.0
15345.9302628,296801.59375,294586.71875,320767.21875,312163.6875,285216.84375,254602.65625,220087.890625,245379.78125,0.04541015625,0.991455078125,0.157958984375,0.6408690810203552,-1.9531248807907104,-1.5258787870407104,73.33333587646484,303430.0,0.0
15345.930263,296801.59375,294586.71875,320767.21875,312163.6875,285216.84375,254602.65625,220087.890625,245379.78125,0.04541015625,0.991455078125,0.157958984375,0.6408690810203552,-1.9531248807907104,-1.5258787870407104,73.33333587646484,303431.0,0.0
15345.9302632,296801.59375,294586.71875,320767.21875,312163.6875,285216.84375,254602.65625,220087.890625,245379.78125,0.04541015625,0.991455078125,0.157958984375,0.6408690810203552,-1.9531248807907104,-1.5258787870407104,73.33333587646484,303432.0,0.0
15345.9302633,296801.59375,294586.71875,320767.21875,312163.6875,285216.84375,254602.65625,220087.890625,245379.78125,0.04541015625,0.991455078125,0.157958984375,0.6408690810203552,-1.9531248807907104,-1.5258787870407104,73.33333587646484,303433.0,0.0
15345.9302635,296801.59375,294586.71875,320767.21875,312163.6875,285216.84375,254602.65625,220087.890625,245379.78125,0.04541015625,0.991455078125,0.157958984375,0.6408690810203552,-1.9531248807907104,-1.5258787870407104,73.33333587646484,303434.0,0.0
15345.9302637,296801.59375,294586.71875,320767.21875,312163.6875,285216.84375,254602.65625,220087.890625,245379.78125,0.04541015625,0.991455078125,0.157958984375,0.6408690810203552,-1.9531248807907104,-1.5258787870407104,73.33333587646484,303435.0,0.0
15345.9302639,296801.59375,294586.71875,320767.21875,312163.6875,285216.84375,254602.65625,220087.890625,245379.78125,0.04541015625,0.991455078125,0.157958984375,0.6408690810203552,-1.9531248807907104,-1.5258787870407104,73.33333587646484,303436.0,0.0
15345.930264,296852.71875,294900.78125,320979.90625,312179.59375,285376.1875,254689.734375,220181.59375,245421.625,0.048828125,0.999755859375,0.158447265625,0.8850097060203552,-1.4343260526657104,-1.3427733182907104,73.33333587646484,303437.0,1.0
15345.9551725,296853.71875,295090.0625,321122.6875,312168.0625,285490.1875,254723.890625,220216.546875,245427.984375,0.045166015625,0.9990234375,0.15771484375,0.8239745497703552,-1.3427733182907104,-1.4343260526657104,73.33333587646484,303438.0,1.0
15345.9801766,296815.625,294898.375,321005.75,312134.4375,285400.6875,254646.828125,220136.625,245375.3125,0.04541015625,0.99755859375,0.158203125,0.7019042372703552,-1.2512205839157104,-1.4953612089157104,73.33333587646484,303439.0,1.0
15346.0051125,296795.15625,294599.5,320786.09375,312129.25,285236.625,254594.609375,220071.625,245361.453125,0.046142578125,0.997314453125,0.155517578125,0.5493163466453552,-1.3122557401657104,-1.4343260526657104,73.33333587646484,303440.0,1.0
15346.0301608,296812.9375,294610.125,320779.5625,312152.9375,285224.90625,254605.0625,220088.875,245378.53125,0.046875,0.99169921875,0.1552734375,0.4272460639476776,-1.3122557401657104,-1.4038084745407104,73.33333587646484,303441.0,1.0
15346.075159,296844.0625,294902.3125,320984.125,312167.0625,285374.46875,254661.390625,220160.84375,245402.9375,0.045654296875,0.98779296875,0.155517578125,0.4882812201976776,-1.2207030057907104,-1.3122557401657104,73.33333587646484,303442.0,1.0
15346.1001607,296837.25,295076.84375,321118.0625,312147.21875,285480.53125,254699.125,220192.671875,245394.984375,0.046630859375,0.9853515625,0.15673828125,0.6408690810203552,-1.0986326932907104,-1.3427733182907104,73.33333587646484,303443.0,1.0
15346.1251325,296805.15625,294894.96875,321009.0625,312129.6875,285403.71875,254655.40625,220145.734375,245380.40625,0.043701171875,0.987060546875,0.15380859375,0.8239745497703552,-0.9460448622703552,-1.4038084745407104,73.33333587646484,303444.0,1.0
15346.1501244,296784.59375,294598.15625,320792.59375,312133.28125,285245.03125,254604.984375,220091.375,245386.578125,0.042724609375,0.991943359375,0.150634765625,1.0375975370407104,-0.7629393935203552,-1.4953612089157104,73.33333587646484,303445.0,1.0
15346.16883,296804.96875,294603.53125,320785.90625,312156.25,285232.21875,254613.296875,220103.0,245392.75,0.039306640625,0.995849609375,0.149169921875,1.0070799589157104,-0.7934569716453552,-1.5258787870407104,73.33333587646484,303446.0,1.0
15346.1713308,296828.6875,294895.59375,320982.34375,312161.78125,285372.875,254681.15625,220173.015625,245401.515625,0.039306640625,0.997802734375,0.153076171875,1.0375975370407104,-0.8850097060203552,-1.6784666776657104,73.33333587646484,303447.0,1.0
15346.1738201,296826.96875,295080.3125,321117.59375,312147.21875,285480.78125,254714.6875,220206.890625,245398.109375,0.038818359375,0.998291015625,0.156494140625,1.0070799589157104,-0.8850097060203552,-1.7089842557907104,73.33333587646484,303448.0,1.0
15346.1763127,296795.6875,294896.3125,321003.53125,312129.34375,285395.40625,254654.0625,220151.90625,245389.171875,0.0400390625,0.99658203125,0.157470703125,0.8850097060203552,-1.0070799589157104,-1.6784666776657104,73.33333587646484,303449.0,1.0
15346.1788225,296779.3125,294596.71875,320788.84375,312130.9375,285231.875,254591.390625,220089.765625,245382.015625,0.040283203125,0.99755859375,0.156982421875,0.7934569716453552,-0.9460448622703552,-1.6174315214157104,73.33333587646484,303450.0,1.0
15346.1813359,296806.40625,294611.75,320791.90625,312155.96875,285227.3125,254608.375,220105.78125,245383.546875,0.041748046875,0.99755859375,0.158447265625,0.6713866591453552,-1.0070799589157104,-1.5258787870407104,73.33333587646484,303451.0,1.0
15346.1838247,296826.96875,294888.46875,320979.8125,312160.625,285365.90625,254675.15625,220170.328125,245391.671875,0.04345703125,0.996337890625,0.1533203125,0.5798339247703552,-0.9155272841453552,-1.4648436307907104,73.33333587646484,303452.0,1.0
15346.1863271,296820.28125,295066.375,321101.5,312141.78125,285464.5,254708.515625,220199.921875,245395.25,0.0419921875,0.994140625,0.15087890625,0.6713866591453552,-0.9155272841453552,-1.4343260526657104,73.33333587646484,303453.0,1.0
15346.2165726,296796.59375,294894.96875,320996.46875,312127.1875,285389.59375,254658.625,220151.109375,245383.359375,0.042724609375,0.994140625,0.150146484375,0.7324218153953552,-0.8544921278953552,-1.3732908964157104,73.33333587646484,303454.0,1.0
15346.2165777,296782.46875,294598.6875,320783.125,312129.0625,285232.21875,254589.421875,220088.96875,245371.921875,0.04248046875,0.99462890625,0.1513671875,0.8544921278953552,-0.9155272841453552,-1.3122557401657104,73.33333587646484,303455.0,1.0
15346.216579,296803.375,294601.5625,320773.75,312153.75,285217.65625,254604.359375,220103.359375,245386.9375,0.04296875,0.99658203125,0.15185546875,0.7629393935203552,-0.9460448622703552,-1.1596678495407104,73.33333587646484,303456.0,1.0
15346.2165802,296829.65625,294885.25,320968.84375,312166.1875,285363.46875,254685.890625,220180.15625,245409.734375,0.04150390625,0.99755859375,0.155517578125,0.7019042372703552,-0.9460448622703552,-1.0070799589157104,73.33333587646484,303457.0,1.0
15346.2165814,296826.8125,295068.34375,321105.25,312153.40625,285476.75,254729.96875,220222.1875,245410.453125,0.041015625,0.999267578125,0.15625,0.7019042372703552,-1.0070799589157104,-0.8850097060203552,73.33333587646484,303458.0,1.0
15346.2165826,296798.09375,294899.46875,321007.46875,312143.375,285409.53125,254678.109375,220173.015625,245406.515625,0.043701171875,0.997314453125,0.15576171875,0.5493163466453552,-1.0070799589157104,-0.8239745497703552,73.33333587646484,303459.0,1.0
15346.2165838,296783.625,294609.25,320804.59375,312143.8125,285253.34375,254594.34375,220096.828125,245392.484375,0.043212890625,0.995849609375,0.15576171875,0.3967284858226776,-1.0070799589157104,-0.6713866591453552,73.33333587646484,303460.0,1.0
15346.216585,296799.25,294609.78125,320792.4375,312155.1875,285230.96875,254594.609375,220089.59375,245375.859375,0.042236328125,0.995849609375,0.156494140625,0.3356933295726776,-0.9765624403953552,-0.6408690810203552,73.33333587646484,303461.0,1.0
15346.2165866,296818.3125,294889.625,320980.375,312160.8125,285368.5,254662.90625,220157.359375,245388.546875,0.042236328125,0.993896484375,0.156982421875,0.2136230319738388,-1.0070799589157104,-0.5187987685203552,73.33333587646484,303462.0,1.0
15346.2413221,296822.15625,295076.75,321115.71875,312150.25,285476.6875,254691.96875,220191.609375,245395.171875,0.04150390625,0.9892578125,0.156982421875,0.3051757514476776,-1.0986326932907104,-0.4577636420726776,73.33333587646484,303463.0,1.0
15346.2613277,296800.25,294907.9375,321016.03125,312137.03125,285404.875,254651.65625,220147.609375,245386.765625,0.042724609375,0.98974609375,0.155029296875,0.3051757514476776,-1.2512205839157104,-0.4272460639476776,73.33333587646484,303464.0,1.0
15346.2638215,296777.90625,294603.6875,320794.125,312131.75,285239.46875,254585.9375,220079.21875,245375.3125,0.042236328125,0.990966796875,0.156494140625,0.3662109076976776,-1.1901854276657104,-0.4577636420726776,73.33333587646484,303465.0,1.0
15346.2669009,296800.0625,294608.6875,320784.21875,312155.90625,285227.125,254604.078125,220100.953125,245390.25,0.0419921875,0.99169921875,0.15283203125,0.4882812201976776,-1.3732908964157104,-0.5493163466453552,73.33333587646484,303466.0,1.0
15346.2669071,296826.34375,294900.15625,320983.3125,312164.375,285371.34375,254674.71875,220174.4375,245409.5625,0.04052734375,0.99169921875,0.155517578125,0.5493163466453552,-1.4953612089157104,-0.7324218153953552,73.33333587646484,303467.0,1.0
15346.2669085,296830.65625,295083.09375,321122.96875,312151.875,285481.59375,254713.609375,220207.515625,245405.625,0.041015625,0.990966796875,0.158447265625,0.5187987685203552,-1.6479490995407104,-0.7629393935203552,73.33333587646484,303468.0,1.0
15346.2688204,296803.03125,294908.21875,321020.34375,312135.34375,285410.59375,254664.703125,220156.5625,245395.4375,0.038818359375,0.99169921875,0.16015625,0.5493163466453552,-1.7395018339157104,-0.9765624403953552,73.33333587646484,303469.0,1.0
15346.2712845,296781.90625,294602.09375,320791.71875,312131.21875,285237.25,254577.265625,220079.3125,245384.078125,0.041015625,0.994873046875,0.1591796875,0.5493163466453552,-1.8920897245407104,-1.0375975370407104,73.33333587646484,303470.0,1.0
15346.2743763,296801.84375,294592.34375,320763.09375,312146.15625,285205.59375,254584.859375,220077.25,245378.71875,0.04248046875,0.996826171875,0.158203125,0.5798339247703552,-1.9226073026657104,-1.1596678495407104,73.33333587646484,303471.0,1.0
15346.2743805,296837.09375,294887.28125,320963.5625,312161.09375,285357.03125,254684.109375,220170.59375,245402.578125,0.042236328125,0.996826171875,0.1572265625,0.4882812201976776,-2.136230230331421,-1.3427733182907104,73.33333587646484,303472.0,1.0
15346.283767,296837.53125,295077.5625,321104.5625,312150.4375,285474.0,254731.671875,220219.328125,245412.234375,0.041748046875,0.99560546875,0.15625,0.2441406100988388,-2.288818120956421,-1.4038084745407104,73.33333587646484,303473.0,1.0
15346.2837694,296804.71875,294896.9375,321000.03125,312128.0,285395.59375,254647.625,220150.75,245385.953125,0.043701171875,0.997314453125,0.155029296875,0.3051757514476776,-2.502441167831421,-1.5869139432907104,73.33333587646484,303474.0,1.0
15346.2837707,296789.25,294600.75,320791.8125,312123.4375,285234.90625,254573.6875,220067.59375,245343.75,0.0439453125,0.998291015625,0.155029296875,0.2136230319738388,-2.532958745956421,-1.6174315214157104,73.33333587646484,303475.0,1.0
15346.283772,296808.75,294603.875,320783.9375,312148.84375,285222.3125,254590.046875,220087.625,245369.6875,0.04052734375,0.99853515625,0.156494140625,0.1831054538488388,-2.563476324081421,-1.7395018339157104,73.33333587646484,303476.0,1.0
15346.2837732,296837.53125,294887.65625,320978.84375,312162.96875,285366.0,254666.046875,220164.96875,245389.625,0.040771484375,0.998291015625,0.155517578125,0.2441406100988388,-2.716064214706421,-1.7700194120407104,73.33333587646484,303477.0,1.0
15346.2837744,296832.625,295064.59375,321108.65625,312147.75,285467.90625,254690.8125,220190.53125,245388.90625,0.043212890625,0.994140625,0.151123046875,0.1525878757238388,-2.838134527206421,-1.7089842557907104,73.33333587646484,303478.0,1.0
15346.2837756,296806.40625,294895.59375,321009.59375,312131.65625,285398.625,254642.96875,220140.734375,245374.875,0.042724609375,0.99267578125,0.154052734375,0.1525878757238388,-2.929687261581421,-1.7700194120407104,73.33333587646484,303479.0,1.0
15346.2837768,296789.6875,294599.9375,320796.0,312137.5625,285244.03125,254587.984375,220088.78125,245380.0625,0.04296875,0.993408203125,0.154052734375,0.1220703050494194,-2.990722417831421,-1.8310545682907104,73.33333587646484,303480.0,1.0
15346.2837779,296812.21875,294608.78125,320791.96875,312164.5625,285236.25,254609.1875,220106.671875,245395.609375,0.041015625,0.994384765625,0.155029296875,0.1525878757238388,-2.990722417831421,-1.8615721464157104,73.33333587646484,303481.0,1.0
15346.2837791,296836.375,294894.0,320987.59375,312171.71875,285376.0,254669.4375,220168.1875,245403.484375,0.041015625,0.99658203125,0.158935546875,0.0610351525247097,-2.990722417831421,-1.7395018339157104,73.33333587646484,303482.0,1.0
15346.2837803,296832.78125,295077.09375,321117.5,312153.46875,285477.9375,254706.8125,220199.109375,245397.21875,0.041748046875,0.994140625,0.16015625,-0.0610351525247097,-3.082275152206421,-1.5563963651657104,73.33333587646484,303483.0,1.0
15346.2837815,296802.75,294902.9375,321013.09375,312135.5,285402.5625,254652.90625,220150.203125,245385.59375,0.041259765625,0.99267578125,0.16015625,0.03051757626235485,-2.990722417831421,-1.5563963651657104,73.33333587646484,303484.0,1.0
15346.2837827,296783.15625,294605.75,320792.6875,312134.71875,285238.65625,254582.171875,220078.859375,245372.640625,0.040283203125,0.99365234375,0.159423828125,0.03051757626235485,-3.082275152206421,-1.6174315214157104,73.33333587646484,303485.0,1.0
15346.2837839,296806.6875,294610.59375,320784.375,312159.46875,285229.8125,254604.796875,220093.890625,245383.625,0.041259765625,0.993896484375,0.156982421875,0.0,-3.082275152206421,-1.4648436307907104,73.33333587646484,303486.0,1.0
15346.2837851,296828.84375,294895.875,320980.0,312161.78125,285373.75,254674.359375,220163.4375,245393.46875,0.040771484375,0.9931640625,0.157470703125,0.03051757626235485,-3.051757574081421,-1.4343260526657104,73.33333587646484,303487.0,1.0
15346.2837863,296821.4375,295064.59375,321097.03125,312144.71875,285468.34375,254698.234375,220193.578125,245395.609375,0.040283203125,0.99462890625,0.15625,0.03051757626235485,-3.021239995956421,-1.3427733182907104,73.33333587646484,303488.0,1.0
15346.3088279,296804.34375,294903.9375,321001.03125,312139.53125,285403.8125,254665.78125,220158.34375,245397.046875,0.041748046875,0.994873046875,0.15576171875,0.0610351525247097,-3.082275152206421,-1.2817381620407104,73.33333587646484,303489.0,1.0
15346.3338559,296788.90625,294608.53125,320788.59375,312140.34375,285244.46875,254599.34375,220093.4375,245384.890625,0.043701171875,0.99560546875,0.15576171875,0.2136230319738388,-3.082275152206421,-1.3732908964157104,73.33333587646484,303490.0,1.0
15346.3588257,296805.78125,294602.625,320768.375,312161.25,285224.1875,254611.765625,220106.21875,245402.140625,0.04443359375,0.99560546875,0.157470703125,0.2746581733226776,-3.021239995956421,-1.3122557401657104,73.33333587646484,303491.0,1.0
15346.3901727,296826.8125,294887.75,320968.21875,312163.3125,285365.4375,254664.078125,220167.28125,245401.0625,0.041259765625,0.994384765625,0.157958984375,0.2746581733226776,-2.899169683456421,-1.2817381620407104,73.33333587646484,303492.0,1.0
15346.4151292,296824.75,295072.46875,321111.875,312142.125,285475.78125,254695.546875,220193.125,245383.546875,0.04052734375,0.996337890625,0.160888671875,0.2136230319738388,-2.899169683456421,-1.3122557401657104,73.33333587646484,303493.0,1.0
15346.4401073,296800.4375,294903.46875,321008.34375,312126.46875,285403.8125,254650.578125,220144.578125,245374.25,0.040283203125,0.99462890625,0.15869140625,0.1525878757238388,-2.807616949081421,-1.2512205839157104,73.33333587646484,303494.0,1.0
15346.4651355,296782.53125,294603.25,320788.3125,312126.3125,285240.375,254583.609375,220083.25,245376.84375,0.04052734375,0.994140625,0.155029296875,0.2441406100988388,-2.685546636581421,-1.0681151151657104,73.33333587646484,303495.0,1.0
15346.490217,296807.3125,294612.09375,320783.59375,312153.40625,285230.09375,254599.796875,220102.828125,245390.78125,0.04296875,0.992919921875,0.154541015625,0.3051757514476776,-2.532958745956421,-1.1901854276657104,73.33333587646484,303496.0,1.0
15346.5237839,296825.71875,294888.1875,320970.4375,312153.65625,285364.90625,254663.8125,220167.734375,245394.8125,0.04248046875,0.9931640625,0.15478515625,0.4882812201976776,-2.563476324081421,-1.2207030057907104,73.33333587646484,303497.0,1.0
15346.55057,296823.9375,295070.65625,321100.15625,312137.3125,285471.5625,254711.1875,220205.46875,245389.359375,0.04248046875,0.994384765625,0.15625,0.5187987685203552,-2.563476324081421,-1.2207030057907104,73.33333587646484,303498.0,1.0
15346.5505891,296799.34375,294900.875,321002.90625,312126.3125,285404.0,254674.890625,220164.328125,245376.65625,0.044189453125,0.99365234375,0.1572265625,0.6408690810203552,-2.441406011581421,-1.1291502714157104,73.33333587646484,303499.0,1.0
15346.5505904,296781.03125,294605.3125,320792.78125,312125.75,285243.3125,254601.84375,220089.5,245367.359375,0.042724609375,0.994140625,0.157958984375,0.5798339247703552,-2.380370855331421,-1.0375975370407104,73.33333587646484,303500.0,1.0
15346.5505921,296799.53125,294604.6875,320778.5625,312146.875,285222.65625,254600.953125,220101.484375,245386.21875,0.0439453125,0.9951171875,0.1572265625,0.4882812201976776,-2.197265386581421,-1.0681151151657104,73.33333587646484,303501.0,1.0
15346.5756028,296826.8125,294887.375,320970.09375,312159.65625,285363.5625,254672.5625,220177.03125,245406.703125,0.04443359375,0.99560546875,0.1591796875,0.6103515028953552,-2.105712652206421,-1.0681151151657104,73.33333587646484,303502.0,1.0
15346.5756226,296826.8125,294887.375,320970.09375,312159.65625,285363.5625,254672.5625,220177.03125,245406.703125,0.04443359375,0.99560546875,0.1591796875,0.6103515028953552,-2.105712652206421,-1.0681151151657104,73.33333587646484,303503.0,0.0
15346.5756228,296826.8125,294887.375,320970.09375,312159.65625,285363.5625,254672.5625,220177.03125,245406.703125,0.04443359375,0.99560546875,0.1591796875,0.6103515028953552,-2.105712652206421,-1.0681151151657104,73.33333587646484,303504.0,0.0
15346.575623,296826.8125,294887.375,320970.09375,312159.65625,285363.5625,254672.5625,220177.03125,245406.703125,0.04443359375,0.99560546875,0.1591796875,0.6103515028953552,-2.105712652206421,-1.0681151151657104,73.33333587646484,303505.0,0.0
15346.5756232,296826.8125,294887.375,320970.09375,312159.65625,285363.5625,254672.5625,220177.03125,245406.703125,0.04443359375,0.99560546875,0.1591796875,0.6103515028953552,-2.105712652206421,-1.0681151151657104,73.33333587646484,303506.0,0.0
15346.5756234,296826.8125,294887.375,320970.09375,312159.65625,285363.5625,254672.5625,220177.03125,245406.703125,0.04443359375,0.99560546875,0.1591796875,0.6103515028953552,-2.105712652206421,-1.0681151151657104,73.33333587646484,303507.0,0.0
15346.5756236,296826.8125,294887.375,320970.09375,312159.65625,285363.5625,254672.5625,220177.03125,245406.703125,0.04443359375,0.99560546875,0.1591796875,0.6103515028953552,-2.105712652206421,-1.0681151151657104,73.33333587646484,303508.0,0.0
15346.5756238,296826.8125,294887.375,320970.09375,312159.65625,285363.5625,254672.5625,220177.03125,245406.703125,0.04443359375,0.99560546875,0.1591796875,0.6103515028953552,-2.105712652206421,-1.0681151151657104,73.33333587646484,303509.0,0.0
15346.5756239,296826.8125,294887.375,320970.09375,312159.65625,285363.5625,254672.5625,220177.03125,245406.703125,0.04443359375,0.99560546875,0.1591796875,0.6103515028953552,-2.105712652206421,-1.0681151151657104,73.33333587646484,303510.0,0.0
15346.5756241,296826.8125,294887.375,320970.09375,312159.65625,285363.5625,254672.5625,220177.03125,245406.703125,0.04443359375,0.99560546875,0.1591796875,0.6103515028953552,-2.105712652206421,-1.0681151151657104,73.33333587646484,303511.0,0.0
15346.5756243,296826.8125,294887.375,320970.09375,312159.65625,285363.5625,254672.5625,220177.03125,245406.703125,0.04443359375,0.99560546875,0.1591796875,0.6103515028953552,-2.105712652206421,-1.0681151151657104,73.33333587646484,303512.0,0.0
15346.5756245,296826.8125,294887.375,320970.09375,312159.65625,285363.5625,254672.5625,220177.03125,245406.703125,0.04443359375,0.99560546875,0.1591796875,0.6103515028953552,-2.105712652206421,-1.0681151151657104,73.33333587646484,303513.0,0.0
15346.5756246,296826.8125,294887.375,320970.09375,312159.65625,285363.5625,254672.5625,220177.03125,245406.703125,0.04443359375,0.99560546875,0.1591796875,0.6103515028953552,-2.105712652206421,-1.0681151151657104,73.33333587646484,303514.0,0.0
15346.5756248,296826.8125,294887.375,320970.09375,312159.65625,285363.5625,254672.5625,220177.03125,245406.703125,0.04443359375,0.99560546875,0.1591796875,0.6103515028953552,-2.105712652206421,-1.0681151151657104,73.33333587646484,303515.0,0.0
15346.575625,296826.8125,294887.375,320970.09375,312159.65625,285363.5625,254672.5625,220177.03125,245406.703125,0.04443359375,0.99560546875,0.1591796875,0.6103515028953552,-2.105712652206421,-1.0681151151657104,73.33333587646484,303516.0,0.0
15346.5756252,296826.8125,294887.375,320970.09375,312159.65625,285363.5625,254672.5625,220177.03125,245406.703125,0.04443359375,0.99560546875,0.1591796875,0.6103515028953552,-2.105712652206421,-1.0681151151657104,73.33333587646484,303517.0,0.0
15346.5756254,296826.8125,294887.375,320970.09375,312159.65625,285363.5625,254672.5625,220177.03125,245406.703125,0.04443359375,0.99560546875,0.1591796875,0.6103515028953552,-2.105712652206421,-1.0681151151657104,73.33333587646484,303518.0,0.0
15346.5756256,296826.8125,294887.375,320970.09375,312159.65625,285363.5625,254672.5625,220177.03125,245406.703125,0.04443359375,0.99560546875,0.1591796875,0.6103515028953552,-2.105712652206421,-1.0681151151657104,73.33333587646484,303519.0,0.0
15346.5756257,296826.8125,294887.375,320970.09375,312159.65625,285363.5625,254672.5625,220177.03125,245406.703125,0.04443359375,0.99560546875,0.1591796875,0.6103515028953552,-2.105712652206421,-1.0681151151657104,73.33333587646484,303520.0,0.0
15346.5756259,296826.8125,294887.375,320970.09375,312159.65625,285363.5625,254672.5625,220177.03125,245406.703125,0.04443359375,0.99560546875,0.1591796875,0.6103515028953552,-2.105712652206421,-1.0681151151657104,73.33333587646484,303521.0,0.0
15346.5756261,296826.8125,294887.375,320970.09375,312159.65625,285363.5625,254672.5625,220177.03125,245406.703125,0.04443359375,0.99560546875,0.1591796875,0.6103515028953552,-2.105712652206421,-1.0681151151657104,73.33333587646484,303522.0,0.0
15346.5756263,296826.8125,294887.375,320970.09375,312159.65625,285363.5625,254672.5625,220177.03125,245406.703125,0.04443359375,0.99560546875,0.1591796875,0.6103515028953552,-2.105712652206421,-1.0681151151657104,73.33333587646484,303523.0,0.0
15346.5756264,296826.8125,294887.375,320970.09375,312159.65625,285363.5625,254672.5625,220177.03125,245406.703125,0.04443359375,0.99560546875,0.1591796875,0.6103515028953552,-2.105712652206421,-1.0681151151657104,73.33333587646484,303524.0,0.0
15346.5756269,296826.8125,294887.375,320970.09375,312159.65625,285363.5625,254672.5625,220177.03125,245406.703125,0.04443359375,0.99560546875,0.1591796875,0.6103515028953552,-2.105712652206421,-1.0681151151657104,73.33333587646484,303525.0,0.0
15346.5756275,296826.8125,294887.375,320970.09375,312159.65625,285363.5625,254672.5625,220177.03125,245406.703125,0.04443359375,0.99560546875,0.1591796875,0.6103515028953552,-2.105712652206421,-1.0681151151657104,73.33333587646484,303526.0,0.0
15346.5756277,296826.8125,294887.375,320970.09375,312159.65625,285363.5625,254672.5625,220177.03125,245406.703125,0.04443359375,0.99560546875,0.1591796875,0.6103515028953552,-2.105712652206421,-1.0681151151657104,73.33333587646484,303527.0,0.0
15346.5756279,296826.8125,294887.375,320970.09375,312159.65625,285363.5625,254672.5625,220177.03125,245406.703125,0.04443359375,0.99560546875,0.1591796875,0.6103515028953552,-2.105712652206421,-1.0681151151657104,73.33333587646484,303528.0,0.0
15346.575628,296826.8125,294887.375,320970.09375,312159.65625,285363.5625,254672.5625,220177.03125,245406.703125,0.04443359375,0.99560546875,0.1591796875,0.6103515028953552,-2.105712652206421,-1.0681151151657104,73.33333587646484,303529.0,0.0
15346.5756282,296826.8125,294887.375,320970.09375,312159.65625,285363.5625,254672.5625,220177.03125,245406.703125,0.04443359375,0.99560546875,0.1591796875,0.6103515028953552,-2.105712652206421,-1.0681151151657104,73.33333587646484,303530.0,0.0
15346.5756284,296826.8125,294887.375,320970.09375,312159.65625,285363.5625,254672.5625,220177.03125,245406.703125,0.04443359375,0.99560546875,0.1591796875,0.6103515028953552,-2.105712652206421,-1.0681151151657104,73.33333587646484,303531.0,0.0
15346.5756286,296826.8125,294887.375,320970.09375,312159.65625,285363.5625,254672.5625,220177.03125,245406.703125,0.04443359375,0.99560546875,0.1591796875,0.6103515028953552,-2.105712652206421,-1.0681151151657104,73.33333587646484,303532.0,0.0
15346.5756287,296826.8125,294887.375,320970.09375,312159.65625,285363.5625,254672.5625,220177.03125,245406.703125,0.04443359375,0.99560546875,0.1591796875,0.6103515028953552,-2.105712652206421,-1.0681151151657104,73.33333587646484,303533.0,0.0
15346.5756289,296826.8125,294887.375,320970.09375,312159.65625,285363.5625,254672.5625,220177.03125,245406.703125,0.04443359375,0.99560546875,0.1591796875,0.6103515028953552,-2.105712652206421,-1.0681151151657104,73.33333587646484,303534.0,0.0
15346.5756291,296826.8125,294887.375,320970.09375,312159.65625,285363.5625,254672.5625,220177.03125,245406.703125,0.04443359375,0.99560546875,0.1591796875,0.6103515028953552,-2.105712652206421,-1.0681151151657104,73.33333587646484,303535.0,0.0
15346.5756293,296826.8125,294887.375,320970.09375,312159.65625,285363.5625,254672.5625,220177.03125,245406.703125,0.04443359375,0.99560546875,0.1591796875,0.6103515028953552,-2.105712652206421,-1.0681151151657104,73.33333587646484,303536.0,0.0
15346.5756295,296826.8125,294887.375,320970.09375,312159.65625,285363.5625,254672.5625,220177.03125,245406.703125,0.04443359375,0.99560546875,0.1591796875,0.6103515028953552,-2.105712652206421,-1.0681151151657104,73.33333587646484,303537.0,0.0
15346.5756296,296826.8125,294887.375,320970.09375,312159.65625,285363.5625,254672.5625,220177.03125,245406.703125,0.04443359375,0.99560546875,0.1591796875,0.6103515028953552,-2.105712652206421,-1.0681151151657104,73.33333587646484,303538.0,0.0
15346.5756298,296826.8125,294887.375,320970.09375,312159.65625,285363.5625,254672.5625,220177.03125,245406.703125,0.04443359375,0.99560546875,0.1591796875,0.6103515028953552,-2.105712652206421,-1.0681151151657104,73.33333587646484,303539.0,0.0
15346.57563,296826.8125,294887.375,320970.09375,312159.65625,285363.5625,254672.5625,220177.03125,245406.703125,0.04443359375,0.99560546875,0.1591796875,0.6103515028953552,-2.105712652206421,-1.0681151151657104,73.33333587646484,303540.0,0.0
15346.5756302,296826.8125,294887.375,320970.09375,312159.65625,285363.5625,254672.5625,220177.03125,245406.703125,0.04443359375,0.99560546875,0.1591796875,0.6103515028953552,-2.105712652206421,-1.0681151151657104,73.33333587646484,303541.0,0.0
15346.5756303,296826.8125,294887.375,320970.09375,312159.65625,285363.5625,254672.5625,220177.03125,245406.703125,0.04443359375,0.99560546875,0.1591796875,0.6103515028953552,-2.105712652206421,-1.0681151151657104,73.33333587646484,303542.0,0.0
15346.5756305,296826.8125,294887.375,320970.09375,312159.65625,285363.5625,254672.5625,220177.03125,245406.703125,0.04443359375,0.99560546875,0.1591796875,0.6103515028953552,-2.105712652206421,-1.0681151151657104,73.33333587646484,303543.0,0.0
15346.5756307,296826.8125,294887.375,320970.09375,312159.65625,285363.5625,254672.5625,220177.03125,245406.703125,0.04443359375,0.99560546875,0.1591796875,0.6103515028953552,-2.105712652206421,-1.0681151151657104,73.33333587646484,303544.0,0.0
15346.5756309,296826.8125,294887.375,320970.09375,312159.65625,285363.5625,254672.5625,220177.03125,245406.703125,0.04443359375,0.99560546875,0.1591796875,0.6103515028953552,-2.105712652206421,-1.0681151151657104,73.33333587646484,303545.0,0.0
15346.575631,296826.8125,294887.375,320970.09375,312159.65625,285363.5625,254672.5625,220177.03125,245406.703125,0.04443359375,0.99560546875,0.1591796875,0.6103515028953552,-2.105712652206421,-1.0681151151657104,73.33333587646484,303546.0,0.0
15346.5756312,296826.8125,294887.375,320970.09375,312159.65625,285363.5625,254672.5625,220177.03125,245406.703125,0.04443359375,0.99560546875,0.1591796875,0.6103515028953552,-2.105712652206421,-1.0681151151657104,73.33333587646484,303547.0,0.0
15346.5756314,296826.8125,294887.375,320970.09375,312159.65625,285363.5625,254672.5625,220177.03125,245406.703125,0.04443359375,0.99560546875,0.1591796875,0.6103515028953552,-2.105712652206421,-1.0681151151657104,73.33333587646484,303548.0,0.0
15346.5756316,296826.8125,294887.375,320970.09375,312159.65625,285363.5625,254672.5625,220177.03125,245406.703125,0.04443359375,0.99560546875,0.1591796875,0.6103515028953552,-2.105712652206421,-1.0681151151657104,73.33333587646484,303549.0,0.0
15346.5756318,296826.8125,294887.375,320970.09375,312159.65625,285363.5625,254672.5625,220177.03125,245406.703125,0.04443359375,0.99560546875,0.1591796875,0.6103515028953552,-2.105712652206421,-1.0681151151657104,73.33333587646484,303550.0,0.0
15346.5756319,296826.8125,294887.375,320970.09375,312159.65625,285363.5625,254672.5625,220177.03125,245406.703125,0.04443359375,0.99560546875,0.1591796875,0.6103515028953552,-2.105712652206421,-1.0681151151657104,73.33333587646484,303551.0,0.0
15346.5756321,296826.8125,294887.375,320970.09375,312159.65625,285363.5625,254672.5625,220177.03125,245406.703125,0.04443359375,0.99560546875,0.1591796875,0.6103515028953552,-2.105712652206421,-1.0681151151657104,73.33333587646484,303552.0,0.0
15346.5756323,296826.8125,294887.375,320970.09375,312159.65625,285363.5625,254672.5625,220177.03125,245406.703125,0.04443359375,0.99560546875,0.1591796875,0.6103515028953552,-2.105712652206421,-1.0681151151657104,73.33333587646484,303553.0,0.0
15346.5756325,296826.8125,294887.375,320970.09375,312159.65625,285363.5625,254672.5625,220177.03125,245406.703125,0.04443359375,0.99560546875,0.1591796875,0.6103515028953552,-2.105712652206421,-1.0681151151657104,73.33333587646484,303554.0,0.0
15346.5756326,296826.8125,294887.375,320970.09375,312159.65625,285363.5625,254672.5625,220177.03125,245406.703125,0.04443359375,0.99560546875,0.1591796875,0.6103515028953552,-2.105712652206421,-1.0681151151657104,73.33333587646484,303555.0,0.0
15346.5756328,296826.8125,294887.375,320970.09375,312159.65625,285363.5625,254672.5625,220177.03125,245406.703125,0.04443359375,0.99560546875,0.1591796875,0.6103515028953552,-2.105712652206421,-1.0681151151657104,73.33333587646484,303556.0,0.0
15346.5756331,296826.8125,294887.375,320970.09375,312159.65625,285363.5625,254672.5625,220177.03125,245406.703125,0.04443359375,0.99560546875,0.1591796875,0.6103515028953552,-2.105712652206421,-1.0681151151657104,73.33333587646484,303557.0,0.0
15346.5756333,296826.8125,294887.375,320970.09375,312159.65625,285363.5625,254672.5625,220177.03125,245406.703125,0.04443359375,0.99560546875,0.1591796875,0.6103515028953552,-2.105712652206421,-1.0681151151657104,73.33333587646484,303558.0,0.0
15346.5756334,296826.8125,294887.375,320970.09375,312159.65625,285363.5625,254672.5625,220177.03125,245406.703125,0.04443359375,0.99560546875,0.1591796875,0.6103515028953552,-2.105712652206421,-1.0681151151657104,73.33333587646484,303559.0,0.0
15346.5756336,296826.8125,294887.375,320970.09375,312159.65625,285363.5625,254672.5625,220177.03125,245406.703125,0.04443359375,0.99560546875,0.1591796875,0.6103515028953552,-2.105712652206421,-1.0681151151657104,73.33333587646484,303560.0,0.0
15346.5756338,296826.8125,294887.375,320970.09375,312159.65625,285363.5625,254672.5625,220177.03125,245406.703125,0.04443359375,0.99560546875,0.1591796875,0.6103515028953552,-2.105712652206421,-1.0681151151657104,73.33333587646484,303561.0,0.0
15346.575634,296826.8125,294887.375,320970.09375,312159.65625,285363.5625,254672.5625,220177.03125,245406.703125,0.04443359375,0.99560546875,0.1591796875,0.6103515028953552,-2.105712652206421,-1.0681151151657104,73.33333587646484,303562.0,0.0
15346.5756341,296826.8125,294887.375,320970.09375,312159.65625,285363.5625,254672.5625,220177.03125,245406.703125,0.04443359375,0.99560546875,0.1591796875,0.6103515028953552,-2.105712652206421,-1.0681151151657104,73.33333587646484,303563.0,0.0
15346.5756343,296826.8125,294887.375,320970.09375,312159.65625,285363.5625,254672.5625,220177.03125,245406.703125,0.04443359375,0.99560546875,0.1591796875,0.6103515028953552,-2.105712652206421,-1.0681151151657104,73.33333587646484,303564.0,0.0
15346.5756345,296770.5625,294591.625,320783.125,312115.84375,285237.25,254577.0,220079.046875,245366.28125,0.04931640625,0.99365234375,0.1572265625,0.7324218153953552,-1.5869139432907104,-0.6408690810203552,73.33333587646484,303565.0,1.0
15346.5756359,296790.59375,294586.4375,320767.9375,312136.3125,285217.40625,254585.3125,220087.890625,245375.578125,0.04931640625,0.993896484375,0.158447265625,0.7934569716453552,-1.7395018339157104,-0.6713866591453552,73.33333587646484,303566.0,1.0
15346.5756373,296815.625,294868.0625,320953.90625,312143.75,285353.03125,254652.28125,220156.109375,245395.609375,0.049560546875,0.9951171875,0.15869140625,0.7934569716453552,-1.6479490995407104,-0.7629393935203552,73.33333587646484,303567.0,1.0
15346.5988258,296822.96875,295065.3125,321100.09375,312137.375,285470.59375,254695.546875,220197.0625,245396.0625,0.04736328125,0.995361328125,0.158203125,0.6103515028953552,-1.6479490995407104,-0.7934569716453552,73.33333587646484,303568.0,1.0
15346.6413019,296791.5625,294893.09375,320993.78125,312112.1875,285391.5625,254643.25,220134.109375,245362.078125,0.048583984375,0.99560546875,0.157470703125,0.5798339247703552,-1.7395018339157104,-1.0070799589157104,73.33333587646484,303569.0,1.0
15346.666298,296782.375,294604.0625,320791.8125,312125.40625,285243.21875,254571.546875,220081.453125,245378.453125,0.04833984375,0.99609375,0.15380859375,0.3967284858226776,-1.7395018339157104,-1.0681151151657104,73.33333587646484,303570.0,1.0
15346.6912961,296798.46875,294587.25,320766.15625,312142.9375,285214.1875,254576.640625,220085.03125,245378.0,0.04638671875,0.99755859375,0.155029296875,0.4272460639476776,-1.8920897245407104,-1.1901854276657104,73.33333587646484,303571.0,1.0
15346.7138302,296827.6875,294877.5625,320962.21875,312153.5625,285353.65625,254649.140625,220150.484375,245387.65625,0.04443359375,0.99853515625,0.153076171875,0.3356933295726776,-2.014159917831421,-1.3427733182907104,73.33333587646484,303572.0,1.0
15346.7162959,296821.34375,295058.96875,321093.1875,312135.6875,285456.8125,254681.25,220183.109375,245391.859375,0.04541015625,0.99951171875,0.157470703125,0.1831054538488388,-2.227782964706421,-1.4038084745407104,73.33333587646484,303573.0,1.0
15346.7188191,296797.65625,294898.125,321001.1875,312117.0,285391.65625,254634.84375,220131.171875,245366.375,0.04541015625,1.0009765625,0.1552734375,0.03051757626235485,-2.105712652206421,-1.4038084745407104,73.33333587646484,303574.0,1.0
15346.7212965,296777.4375,294598.59375,320785.0,312113.875,285227.9375,254568.765625,220062.859375,245354.484375,0.04296875,1.0029296875,0.155517578125,-0.0610351525247097,-2.349853277206421,-1.5563963651657104,73.33333587646484,303575.0,1.0
15346.7238209,296794.15625,294586.09375,320761.0625,312133.625,285200.84375,254575.921875,220075.640625,245367.625,0.046142578125,1.002197265625,0.155029296875,0.03051757626235485,-2.349853277206421,-1.5258787870407104,73.33333587646484,303576.0,1.0
15346.7263041,296819.8125,294868.0625,320956.21875,312146.34375,285343.46875,254655.578125,220158.078125,245388.375,0.048583984375,1.001220703125,0.155029296875,-0.0915527269244194,-2.258300542831421,-1.5869139432907104,73.33333587646484,303577.0,1.0
15346.7287602,296821.0,295065.125,321099.71875,312134.625,285459.40625,254709.578125,220201.265625,245395.609375,0.047607421875,1.0,0.15771484375,-0.1831054538488388,-2.319335699081421,-1.5869139432907104,73.33333587646484,303578.0,1.0
15346.7832826,296795.59375,294902.21875,321007.8125,312118.6875,285393.96875,254657.28125,220145.296875,245376.84375,0.04833984375,1.0,0.16064453125,-0.2746581733226776,-2.380370855331421,-1.5563963651657104,73.33333587646484,303579.0,1.0
15346.7832883,296777.09375,294599.40625,320788.0625,312113.25,285228.9375,254577.796875,220068.484375,245358.0625,0.04931640625,0.997314453125,0.16064453125,-0.2441406100988388,-2.349853277206421,-1.5258787870407104,73.33333587646484,303580.0,1.0
15346.7832895,296798.90625,294594.03125,320767.03125,312136.125,285207.28125,254592.640625,220083.953125,245375.046875,0.049072265625,0.99658203125,0.158935546875,-0.3051757514476776,-2.288818120956421,-1.4648436307907104,73.33333587646484,303581.0,1.0
15346.7832908,296825.5625,294876.375,320957.9375,312147.21875,285344.71875,254656.65625,220148.59375,245393.734375,0.04931640625,0.9931640625,0.158203125,-0.3051757514476776,-2.288818120956421,-1.4648436307907104,73.33333587646484,303582.0,1.0
15346.783292,296824.375,295068.78125,321103.3125,312134.875,285461.5625,254697.96875,220190.359375,245394.265625,0.048095703125,0.993896484375,0.15576171875,-0.3662109076976776,-2.166747808456421,-1.3732908964157104,73.33333587646484,303583.0,1.0
15346.7832933,296797.90625,294903.65625,321004.25,312116.09375,285391.90625,254646.828125,220136.53125,245375.140625,0.050048828125,0.991943359375,0.155517578125,-0.3662109076976776,-2.105712652206421,-1.2512205839157104,73.33333587646484,303584.0,1.0
15346.7832945,296774.75,294590.90625,320773.125,312112.4375,285216.78125,254557.140625,220057.046875,245361.90625,0.05078125,0.990966796875,0.159912109375,-0.3051757514476776,-2.014159917831421,-1.1291502714157104,73.33333587646484,303585.0,1.0
15346.7832957,296787.28125,294571.34375,320740.03125,312132.125,285184.03125,254560.984375,220066.875,245371.921875,0.049072265625,0.990966796875,0.156982421875,-0.2136230319738388,-2.075195074081421,-0.9765624403953552,73.33333587646484,303586.0,1.0
15346.7832969,296811.40625,294860.28125,320937.09375,312141.59375,285327.4375,254641.453125,220141.8125,245382.109375,0.0517578125,0.98876953125,0.16015625,-0.1831054538488388,-2.044677495956421,-0.9155272841453552,73.33333587646484,303587.0,1.0
15346.7832981,296815.28125,295053.78125,321084.625,312125.5,285441.71875,254673.828125,220171.75,245381.3125,0.051025390625,0.98779296875,0.162353515625,0.0,-1.9226073026657104,-0.8239745497703552,73.33333587646484,303588.0,1.0
15346.7832993,296787.90625,294881.3125,320975.90625,312105.65625,285365.09375,254627.0625,220119.8125,245368.15625,0.04931640625,0.989013671875,0.159912109375,-0.03051757626235485,-1.8005369901657104,-0.7629393935203552,73.33333587646484,303589.0,1.0
15346.7833008,296773.15625,294586.875,320764.0,312111.46875,285208.28125,254568.328125,220058.65625,245361.015625,0.04833984375,0.991455078125,0.159912109375,0.0,-1.8005369901657104,-0.6103515028953552,73.33333587646484,303590.0,1.0
15346.8063112,296789.34375,294581.96875,320750.3125,312138.8125,285192.625,254578.78125,220080.5625,245391.140625,0.04931640625,0.9931640625,0.160888671875,-0.03051757626235485,-1.8310545682907104,-0.5493163466453552,73.33333587646484,303591.0,1.0
15346.8276039,296815.8125,294860.90625,320942.1875,312150.09375,285334.59375,254648.78125,220159.0625,245418.234375,0.048583984375,0.994140625,0.16259765625,0.0,-1.8615721464157104,-0.5187987685203552,73.33333587646484,303592.0,1.0
15346.8301578,296817.59375,295060.28125,321090.25,312131.75,285451.1875,254694.203125,220189.015625,245387.828125,0.0478515625,0.995361328125,0.159423828125,-0.0610351525247097,-1.7700194120407104,-0.4577636420726776,73.33333587646484,303593.0,1.0
15346.8325782,296792.125,294903.46875,321001.5625,312107.09375,285384.5,254646.90625,220123.03125,245348.046875,0.04736328125,0.993408203125,0.159912109375,-0.3356933295726776,-1.7395018339157104,-0.4882812201976776,73.33333587646484,303594.0,1.0
15346.8351553,296773.34375,294600.75,320782.15625,312103.59375,285220.78125,254577.703125,220054.09375,245345.0,0.047607421875,0.992919921875,0.160400390625,-0.3356933295726776,-1.6784666776657104,-0.3967284858226776,73.33333587646484,303595.0,1.0
15346.8375927,296789.78125,294590.1875,320763.5625,312127.03125,285198.96875,254584.859375,220070.546875,245367.71875,0.045166015625,0.989990234375,0.16162109375,-0.3662109076976776,-1.6784666776657104,-0.4577636420726776,73.33333587646484,303596.0,1.0
15346.8401406,296820.0,294882.03125,320968.90625,312140.78125,285346.75,254658.0,220144.390625,245384.890625,0.0458984375,0.989501953125,0.1611328125,-0.2136230319738388,-1.7089842557907104,-0.4577636420726776,73.33333587646484,303597.0,1.0
15346.8501576,296808.5625,295058.15625,321091.0625,312116.65625,285442.6875,254676.765625,220168.71875,245387.65625,0.044921875,0.991455078125,0.155517578125,-0.0610351525247097,-1.5869139432907104,-0.6408690810203552,73.33333587646484,303598.0,1.0
15346.8501609,296781.8125,294894.4375,320992.34375,312101.09375,285375.5625,254628.671875,220122.046875,245367.1875,0.04541015625,0.99267578125,0.15478515625,0.0610351525247097,-1.6479490995407104,-0.6713866591453552,73.33333587646484,303599.0,1.0
15346.8501621,296763.9375,294592.0625,320779.75,312101.28125,285215.4375,254565.640625,220052.3125,245349.203125,0.04638671875,0.9931640625,0.159423828125,0.03051757626235485,-1.6784666776657104,-0.7324218153953552,73.33333587646484,303600.0,1.0
15346.8501633,296779.0625,294582.875,320761.40625,312122.625,285190.9375,254570.46875,220062.953125,245366.28125,0.04638671875,0.99169921875,0.162109375,0.1525878757238388,-1.7395018339157104,-0.7629393935203552,73.33333587646484,303601.0,1.0
15346.8501645,296804.90625,294868.34375,320954.53125,312135.5,285336.03125,254668.453125,220155.484375,245397.40625,0.050048828125,0.992919921875,0.16259765625,0.3356933295726776,-1.5869139432907104,-0.7934569716453552,73.33333587646484,303602.0,1.0
15346.8501657,296801.9375,295045.53125,321073.09375,312113.875,285431.875,254702.703125,220179.359375,245381.578125,0.048828125,0.992919921875,0.15966796875,0.3051757514476776,-1.5563963651657104,-0.7324218153953552,73.33333587646484,303603.0,1.0
15346.8501669,296772.25,294877.28125,320972.84375,312093.5,285357.40625,254627.15625,220114.265625,245354.9375,0.049072265625,0.992919921875,0.1572265625,0.3356933295726776,-1.4648436307907104,-0.9155272841453552,73.33333587646484,303604.0,1.0
15346.8501681,296753.21875,294578.03125,320762.03125,312091.96875,285195.125,254541.046875,220039.4375,245342.953125,0.048583984375,0.9912109375,0.160888671875,0.2746581733226776,-1.4343260526657104,-0.8544921278953552,73.33333587646484,303605.0,1.0
15346.8501693,296763.78125,294558.625,320738.0625,312101.8125,285166.6875,254535.234375,220040.953125,245352.96875,0.0498046875,0.9912109375,0.1630859375,0.4272460639476776,-1.4038084745407104,-0.7934569716453552,73.33333587646484,303606.0,1.0
15346.8501705,296796.9375,294848.65625,320933.78125,312121.375,285314.75,254618.390625,220123.828125,245384.890625,0.04931640625,0.9912109375,0.16064453125,0.4882812201976776,-1.4038084745407104,-0.6408690810203552,73.33333587646484,303607.0,1.0
15346.8501717,296796.21875,295045.1875,321073.25,312109.125,285429.03125,254671.40625,220167.546875,245384.4375,0.05126953125,0.99267578125,0.16162109375,0.4577636420726776,-1.3732908964157104,-0.6408690810203552,73.33333587646484,303608.0,1.0
15346.8501728,296773.34375,294887.84375,320985.8125,312100.375,285372.4375,254638.6875,220128.578125,245377.8125,0.05078125,0.99462890625,0.1591796875,0.6408690810203552,-1.3732908964157104,-0.4882812201976776,73.33333587646484,303609.0,1.0
15346.850174,296755.71875,294584.46875,320769.8125,312099.9375,285209.625,254561.53125,220053.921875,245361.8125,0.050048828125,0.995361328125,0.15869140625,0.6713866591453552,-1.2817381620407104,-0.3967284858226776,73.33333587646484,303610.0,1.0
15346.8501752,296777.90625,294574.1875,320750.84375,312123.34375,285187.53125,254570.109375,220066.25,245376.203125,0.0498046875,0.996337890625,0.160400390625,0.7019042372703552,-1.1596678495407104,-0.3662109076976776,73.33333587646484,303611.0,1.0
15346.8501764,296798.71875,294850.28125,320934.6875,312127.46875,285321.5625,254636.53125,220138.59375,245400.34375,0.04736328125,0.996337890625,0.1572265625,0.7019042372703552,-1.1901854276657104,-0.2746581733226776,73.33333587646484,303612.0,1.0
15346.8501776,296796.75,295045.53125,321077.8125,312109.3125,285433.84375,254673.828125,220163.171875,245380.859375,0.049072265625,0.994384765625,0.157958984375,0.7934569716453552,-1.0986326932907104,-0.3662109076976776,73.33333587646484,303613.0,1.0
15346.8751408,296772.09375,294886.3125,320985.625,312097.875,285371.96875,254638.328125,220120.078125,245375.578125,0.048583984375,0.994384765625,0.159912109375,0.7629393935203552,-1.0375975370407104,-0.3662109076976776,73.33333587646484,303614.0,1.0
15346.9001596,296760.46875,294592.0625,320779.65625,312100.46875,285213.28125,254571.359375,220053.203125,245359.40625,0.04833984375,0.99462890625,0.159423828125,0.7934569716453552,-1.1291502714157104,-0.3356933295726776,73.33333587646484,303615.0,1.0
15346.9213328,296780.65625,294581.53125,320763.1875,312122.625,285188.96875,254570.015625,220059.734375,245360.390625,0.048583984375,0.994873046875,0.156982421875,0.9155272841453552,-1.1291502714157104,-0.3967284858226776,73.33333587646484,303616.0,1.0
15346.9238591,296798.375,294852.4375,320939.6875,312125.6875,285315.46875,254634.65625,220126.15625,245373.703125,0.04736328125,0.99462890625,0.16015625,0.9460448622703552,-1.0375975370407104,-0.4882812201976776,73.33333587646484,303617.0,1.0
15346.9263003,296795.78125,295041.78125,321067.53125,312108.0625,285421.875,254681.328125,220170.765625,245375.046875,0.048828125,0.994873046875,0.158447265625,0.9765624403953552,-1.0681151151657104,-0.5187987685203552,73.33333587646484,303618.0,1.0
15346.9288526,296767.6875,294884.4375,320977.6875,312088.84375,285357.65625,254625.453125,220114.09375,245354.3125,0.049072265625,0.99365234375,0.15869140625,1.0070799589157104,-1.0986326932907104,-0.4882812201976776,73.33333587646484,303619.0,1.0
15346.9313092,296748.125,294575.4375,320759.09375,312086.6875,285190.125,254542.296875,220036.75,245342.859375,0.050537109375,0.992431640625,0.15673828125,0.9460448622703552,-1.0681151151657104,-0.5187987685203552,73.33333587646484,303620.0,1.0
15346.9338561,296768.5,294560.78125,320729.75,312110.21875,285161.875,254546.859375,220052.125,245368.15625,0.053955078125,0.990478515625,0.156494140625,0.8850097060203552,-1.0070799589157104,-0.5187987685203552,73.33333587646484,303621.0,1.0
15346.9362942,296804.96875,294857.34375,320929.3125,312130.78125,285310.5625,254632.0625,220135.453125,245396.78125,0.05517578125,0.99169921875,0.156494140625,1.0070799589157104,-1.0070799589157104,-0.4577636420726776,73.33333587646484,303622.0,1.0
15346.9457809,296805.4375,295055.03125,321076.375,312114.78125,285427.59375,254685.53125,220173.546875,245375.578125,0.0546875,0.993408203125,0.15869140625,0.9765624403953552,-0.7934569716453552,-0.3662109076976776,73.33333587646484,303623.0,1.0
15346.9457976,296780.03125,294890.0625,320981.25,312099.65625,285361.53125,254634.484375,220125.625,245362.359375,0.05419921875,0.9921875,0.157958984375,1.0681151151657104,-0.7019042372703552,-0.3662109076976776,73.33333587646484,303624.0,1.0
15346.9457989,296758.3125,294576.34375,320754.625,312092.15625,285189.3125,254535.0625,220035.953125,245352.703125,0.0517578125,0.993896484375,0.155517578125,1.0681151151657104,-0.5493163466453552,-0.4882812201976776,73.33333587646484,303625.0,1.0
15346.9458028,296758.3125,294576.34375,320754.625,312092.15625,285189.3125,254535.0625,220035.953125,245352.703125,0.0517578125,0.993896484375,0.155517578125,1.0681151151657104,-0.5493163466453552,-0.4882812201976776,73.33333587646484,303626.0,0.0
15346.945803,296758.3125,294576.34375,320754.625,312092.15625,285189.3125,254535.0625,220035.953125,245352.703125,0.0517578125,0.993896484375,0.155517578125,1.0681151151657104,-0.5493163466453552,-0.4882812201976776,73.33333587646484,303627.0,0.0
15346.9458032,296758.3125,294576.34375,320754.625,312092.15625,285189.3125,254535.0625,220035.953125,245352.703125,0.0517578125,0.993896484375,0.155517578125,1.0681151151657104,-0.5493163466453552,-0.4882812201976776,73.33333587646484,303628.0,0.0
15346.9458034,296758.3125,294576.34375,320754.625,312092.15625,285189.3125,254535.0625,220035.953125,245352.703125,0.0517578125,0.993896484375,0.155517578125,1.0681151151657104,-0.5493163466453552,-0.4882812201976776,73.33333587646484,303629.0,0.0
15346.9458036,296758.3125,294576.34375,320754.625,312092.15625,285189.3125,254535.0625,220035.953125,245352.703125,0.0517578125,0.993896484375,0.155517578125,1.0681151151657104,-0.5493163466453552,-0.4882812201976776,73.33333587646484,303630.0,0.0
15346.9458038,296758.3125,294576.34375,320754.625,312092.15625,285189.3125,254535.0625,220035.953125,245352.703125,0.0517578125,0.993896484375,0.155517578125,1.0681151151657104,-0.5493163466453552,-0.4882812201976776,73.33333587646484,303631.0,0.0
15346.9458039,296758.3125,294576.34375,320754.625,312092.15625,285189.3125,254535.0625,220035.953125,245352.703125,0.0517578125,0.993896484375,0.155517578125,1.0681151151657104,-0.5493163466453552,-0.4882812201976776,73.33333587646484,303632.0,0.0
15346.9458041,296758.3125,294576.34375,320754.625,312092.15625,285189.3125,254535.0625,220035.953125,245352.703125,0.0517578125,0.993896484375,0.155517578125,1.0681151151657104,-0.5493163466453552,-0.4882812201976776,73.33333587646484,303633.0,0.0
15346.9458044,296758.3125,294576.34375,320754.625,312092.15625,285189.3125,254535.0625,220035.953125,245352.703125,0.0517578125,0.993896484375,0.155517578125,1.0681151151657104,-0.5493163466453552,-0.4882812201976776,73.33333587646484,303634.0,0.0
15346.9458045,296758.3125,294576.34375,320754.625,312092.15625,285189.3125,254535.0625,220035.953125,245352.703125,0.0517578125,0.993896484375,0.155517578125,1.0681151151657104,-0.5493163466453552,-0.4882812201976776,73.33333587646484,303635.0,0.0
15346.9458047,296758.3125,294576.34375,320754.625,312092.15625,285189.3125,254535.0625,220035.953125,245352.703125,0.0517578125,0.993896484375,0.155517578125,1.0681151151657104,-0.5493163466453552,-0.4882812201976776,73.33333587646484,303636.0,0.0
15346.9458049,296758.3125,294576.34375,320754.625,312092.15625,285189.3125,254535.0625,220035.953125,245352.703125,0.0517578125,0.993896484375,0.155517578125,1.0681151151657104,-0.5493163466453552,-0.4882812201976776,73.33333587646484,303637.0,0.0
15346.945805,296758.3125,294576.34375,320754.625,312092.15625,285189.3125,254535.0625,220035.953125,245352.703125,0.0517578125,0.993896484375,0.155517578125,1.0681151151657104,-0.5493163466453552,-0.4882812201976776,73.33333587646484,303638.0,0.0
15346.9458052,296758.3125,294576.34375,320754.625,312092.15625,285189.3125,254535.0625,220035.953125,245352.703125,0.0517578125,0.993896484375,0.155517578125,1.0681151151657104,-0.5493163466453552,-0.4882812201976776,73.33333587646484,303639.0,0.0
15346.9458054,296758.3125,294576.34375,320754.625,312092.15625,285189.3125,254535.0625,220035.953125,245352.703125,0.0517578125,0.993896484375,0.155517578125,1.0681151151657104,-0.5493163466453552,-0.4882812201976776,73.33333587646484,303640.0,0.0
15346.9458055,296758.3125,294576.34375,320754.625,312092.15625,285189.3125,254535.0625,220035.953125,245352.703125,0.0517578125,0.993896484375,0.155517578125,1.0681151151657104,-0.5493163466453552,-0.4882812201976776,73.33333587646484,303641.0,0.0
15346.9458057,296758.3125,294576.34375,320754.625,312092.15625,285189.3125,254535.0625,220035.953125,245352.703125,0.0517578125,0.993896484375,0.155517578125,1.0681151151657104,-0.5493163466453552,-0.4882812201976776,73.33333587646484,303642.0,0.0
15346.9458059,296758.3125,294576.34375,320754.625,312092.15625,285189.3125,254535.0625,220035.953125,245352.703125,0.0517578125,0.993896484375,0.155517578125,1.0681151151657104,-0.5493163466453552,-0.4882812201976776,73.33333587646484,303643.0,0.0
15346.9458061,296758.3125,294576.34375,320754.625,312092.15625,285189.3125,254535.0625,220035.953125,245352.703125,0.0517578125,0.993896484375,0.155517578125,1.0681151151657104,-0.5493163466453552,-0.4882812201976776,73.33333587646484,303644.0,0.0
15346.9458063,296758.3125,294576.34375,320754.625,312092.15625,285189.3125,254535.0625,220035.953125,245352.703125,0.0517578125,0.993896484375,0.155517578125,1.0681151151657104,-0.5493163466453552,-0.4882812201976776,73.33333587646484,303645.0,0.0
15346.9458064,296758.3125,294576.34375,320754.625,312092.15625,285189.3125,254535.0625,220035.953125,245352.703125,0.0517578125,0.993896484375,0.155517578125,1.0681151151657104,-0.5493163466453552,-0.4882812201976776,73.33333587646484,303646.0,0.0
15346.9458066,296758.3125,294576.34375,320754.625,312092.15625,285189.3125,254535.0625,220035.953125,245352.703125,0.0517578125,0.993896484375,0.155517578125,1.0681151151657104,-0.5493163466453552,-0.4882812201976776,73.33333587646484,303647.0,0.0
15346.9458068,296758.3125,294576.34375,320754.625,312092.15625,285189.3125,254535.0625,220035.953125,245352.703125,0.0517578125,0.993896484375,0.155517578125,1.0681151151657104,-0.5493163466453552,-0.4882812201976776,73.33333587646484,303648.0,0.0
15346.945807,296758.3125,294576.34375,320754.625,312092.15625,285189.3125,254535.0625,220035.953125,245352.703125,0.0517578125,0.993896484375,0.155517578125,1.0681151151657104,-0.5493163466453552,-0.4882812201976776,73.33333587646484,303649.0,0.0
15346.9458071,296758.3125,294576.34375,320754.625,312092.15625,285189.3125,254535.0625,220035.953125,245352.703125,0.0517578125,0.993896484375,0.155517578125,1.0681151151657104,-0.5493163466453552,-0.4882812201976776,73.33333587646484,303650.0,0.0
15346.9458073,296758.3125,294576.34375,320754.625,312092.15625,285189.3125,254535.0625,220035.953125,245352.703125,0.0517578125,0.993896484375,0.155517578125,1.0681151151657104,-0.5493163466453552,-0.4882812201976776,73.33333587646484,303651.0,0.0
15346.9458079,296758.3125,294576.34375,320754.625,312092.15625,285189.3125,254535.0625,220035.953125,245352.703125,0.0517578125,0.993896484375,0.155517578125,1.0681151151657104,-0.5493163466453552,-0.4882812201976776,73.33333587646484,303652.0,0.0
15346.9458081,296758.3125,294576.34375,320754.625,312092.15625,285189.3125,254535.0625,220035.953125,245352.703125,0.0517578125,0.993896484375,0.155517578125,1.0681151151657104,-0.5493163466453552,-0.4882812201976776,73.33333587646484,303653.0,0.0
15346.9458087,296758.3125,294576.34375,320754.625,312092.15625,285189.3125,254535.0625,220035.953125,245352.703125,0.0517578125,0.993896484375,0.155517578125,1.0681151151657104,-0.5493163466453552,-0.4882812201976776,73.33333587646484,303654.0,0.0
15346.9458089,296758.3125,294576.34375,320754.625,312092.15625,285189.3125,254535.0625,220035.953125,245352.703125,0.0517578125,0.993896484375,0.155517578125,1.0681151151657104,-0.5493163466453552,-0.4882812201976776,73.33333587646484,303655.0,0.0
15346.9458091,296758.3125,294576.34375,320754.625,312092.15625,285189.3125,254535.0625,220035.953125,245352.703125,0.0517578125,0.993896484375,0.155517578125,1.0681151151657104,-0.5493163466453552,-0.4882812201976776,73.33333587646484,303656.0,0.0
15346.9458093,296758.3125,294576.34375,320754.625,312092.15625,285189.3125,254535.0625,220035.953125,245352.703125,0.0517578125,0.993896484375,0.155517578125,1.0681151151657104,-0.5493163466453552,-0.4882812201976776,73.33333587646484,303657.0,0.0
15346.9458095,296758.3125,294576.34375,320754.625,312092.15625,285189.3125,254535.0625,220035.953125,245352.703125,0.0517578125,0.993896484375,0.155517578125,1.0681151151657104,-0.5493163466453552,-0.4882812201976776,73.33333587646484,303658.0,0.0
15346.9458096,296758.3125,294576.34375,320754.625,312092.15625,285189.3125,254535.0625,220035.953125,245352.703125,0.0517578125,0.993896484375,0.155517578125,1.0681151151657104,-0.5493163466453552,-0.4882812201976776,73.33333587646484,303659.0,0.0
15346.9458098,296758.3125,294576.34375,320754.625,312092.15625,285189.3125,254535.0625,220035.953125,245352.703125,0.0517578125,0.993896484375,0.155517578125,1.0681151151657104,-0.5493163466453552,-0.4882812201976776,73.33333587646484,303660.0,0.0
15346.94581,296758.3125,294576.34375,320754.625,312092.15625,285189.3125,254535.0625,220035.953125,245352.703125,0.0517578125,0.993896484375,0.155517578125,1.0681151151657104,-0.5493163466453552,-0.4882812201976776,73.33333587646484,303661.0,0.0
15346.9458101,296758.3125,294576.34375,320754.625,312092.15625,285189.3125,254535.0625,220035.953125,245352.703125,0.0517578125,0.993896484375,0.155517578125,1.0681151151657104,-0.5493163466453552,-0.4882812201976776,73.33333587646484,303662.0,0.0
15346.9458103,296758.3125,294576.34375,320754.625,312092.15625,285189.3125,254535.0625,220035.953125,245352.703125,0.0517578125,0.993896484375,0.155517578125,1.0681151151657104,-0.5493163466453552,-0.4882812201976776,73.33333587646484,303663.0,0.0
