Time,FZ,C3,CZ,C4,PZ,PO7,OZ,PO8,AccX,AccY,AccZ,Gyro1,Gyro2,Gyro3,Battery,Counter,Validation
14672.3310681,293260.8125,295222.46875,333149.1875,328391.40625,285137.28125,255546.25,221341.109375,244604.625,0.017822265625,1.0,0.204345703125,0.2441406100988388,-0.8850097060203552,-0.8544921278953552,80.0,134982.0,1.0
14672.3341216,293304.15625,295212.125,333234.5625,328447.71875,285157.59375,255555.734375,221357.921875,244626.359375,0.02001953125,0.999755859375,0.205810546875,0.1831054538488388,-1.0070799589157104,-0.8544921278953552,80.0,134983.0,1.0
14672.3341244,293324.5625,295442.875,333415.0,328455.5,285271.65625,255606.96875,221409.78125,244643.25,0.01953125,1.000244140625,0.20556640625,0.0915527269244194,-1.0986326932907104,-0.8239745497703552,80.0,134984.0,1.0
14672.3423708,293295.9375,295596.28125,333436.71875,328405.0625,285319.40625,255639.5,221424.34375,244637.0,0.01904296875,0.999755859375,0.205078125,0.03051757626235485,-1.0681151151657104,-0.7629393935203552,80.0,134985.0,1.0
14672.3423777,293261.34375,295463.625,333277.65625,328371.1875,285239.75,255607.046875,221389.84375,244622.59375,0.02001953125,1.00048828125,0.204345703125,-0.0915527269244194,-1.0681151151657104,-0.7019042372703552,80.0,134986.0,1.0
14672.3423792,293262.6875,295225.53125,333146.25,328396.21875,285137.28125,255555.375,221352.28125,244616.875,0.020751953125,1.00048828125,0.20263671875,-0.0915527269244194,-1.1596678495407104,-0.8239745497703552,80.0,134987.0,1.0
14672.3423804,293299.34375,295209.875,333230.625,328456.21875,285157.75,255554.296875,221363.46875,244640.390625,0.020751953125,0.9990234375,0.203125,-0.1525878757238388,-1.0986326932907104,-0.8544921278953552,80.0,134988.0,1.0
14672.3423816,293319.53125,295444.21875,333411.96875,328459.71875,285268.1875,255597.9375,221405.296875,244647.984375,0.02001953125,0.9990234375,0.205078125,-0.2136230319738388,-1.1291502714157104,-0.8239745497703552,80.0,134989.0,1.0
14672.342383,293296.65625,295609.875,333452.5625,328411.4375,285326.125,255633.875,221428.8125,244646.734375,0.01953125,0.99658203125,0.20654296875,-0.2746581733226776,-1.1291502714157104,-0.7019042372703552,80.0,134990.0,1.0
14672.3452966,293266.0,295484.34375,333306.5625,328383.0,285258.59375,255617.6875,221404.234375,244627.96875,0.02001953125,0.99658203125,0.208251953125,-0.4272460639476776,-1.1901854276657104,-0.6713866591453552,80.0,134991.0,1.0
14672.3453059,293266.0,295484.34375,333306.5625,328383.0,285258.59375,255617.6875,221404.234375,244627.96875,0.02001953125,0.99658203125,0.208251953125,-0.4272460639476776,-1.1901854276657104,-0.6713866591453552,80.0,134992.0,0.0
14672.3453063,293266.0,295484.34375,333306.5625,328383.0,285258.59375,255617.6875,221404.234375,244627.96875,0.02001953125,0.99658203125,0.208251953125,-0.4272460639476776,-1.1901854276657104,-0.6713866591453552,80.0,134993.0,0.0
14672.3453066,293266.0,295484.34375,333306.5625,328383.0,285258.59375,255617.6875,221404.234375,244627.96875,0.02001953125,0.99658203125,0.208251953125,-0.4272460639476776,-1.1901854276657104,-0.6713866591453552,80.0,134994.0,0.0
14672.3453069,293266.0,295484.34375,333306.5625,328383.0,285258.59375,255617.6875,221404.234375,244627.96875,0.02001953125,0.99658203125,0.208251953125,-0.4272460639476776,-1.1901854276657104,-0.6713866591453552,80.0,134995.0,0.0
14672.3453072,293266.0,295484.34375,333306.5625,328383.0,285258.59375,255617.6875,221404.234375,244627.96875,0.02001953125,0.99658203125,0.208251953125,-0.4272460639476776,-1.1901854276657104,-0.6713866591453552,80.0,134996.0,0.0
14672.3453075,293266.0,295484.34375,333306.5625,328383.0,285258.59375,255617.6875,221404.234375,244627.96875,0.02001953125,0.99658203125,0.208251953125,-0.4272460639476776,-1.1901854276657104,-0.6713866591453552,80.0,134997.0,0.0
14672.3453078,293266.0,295484.34375,333306.5625,328383.0,285258.59375,255617.6875,221404.234375,244627.96875,0.02001953125,0.99658203125,0.208251953125,-0.4272460639476776,-1.1901854276657104,-0.6713866591453552,80.0,134998.0,0.0
14672.3453081,293266.0,295484.34375,333306.5625,328383.0,285258.59375,255617.6875,221404.234375,244627.96875,0.02001953125,0.99658203125,0.208251953125,-0.4272460639476776,-1.1901854276657104,-0.6713866591453552,80.0,134999.0,0.0
14672.3453084,293266.0,295484.34375,333306.5625,328383.0,285258.59375,255617.6875,221404.234375,244627.96875,0.02001953125,0.99658203125,0.208251953125,-0.4272460639476776,-1.1901854276657104,-0.6713866591453552,80.0,135000.0,0.0
14672.3453087,293266.0,295484.34375,333306.5625,328383.0,285258.59375,255617.6875,221404.234375,244627.96875,0.02001953125,0.99658203125,0.208251953125,-0.4272460639476776,-1.1901854276657104,-0.6713866591453552,80.0,135001.0,0.0
14672.3453096,293266.0,295484.34375,333306.5625,328383.0,285258.59375,255617.6875,221404.234375,244627.96875,0.02001953125,0.99658203125,0.208251953125,-0.4272460639476776,-1.1901854276657104,-0.6713866591453552,80.0,135002.0,0.0
14672.3453099,293266.0,295484.34375,333306.5625,328383.0,285258.59375,255617.6875,221404.234375,244627.96875,0.02001953125,0.99658203125,0.208251953125,-0.4272460639476776,-1.1901854276657104,-0.6713866591453552,80.0,135003.0,0.0
14672.3453102,293266.0,295484.34375,333306.5625,328383.0,285258.59375,255617.6875,221404.234375,244627.96875,0.02001953125,0.99658203125,0.208251953125,-0.4272460639476776,-1.1901854276657104,-0.6713866591453552,80.0,135004.0,0.0
14672.3453209,293266.0,295484.34375,333306.5625,328383.0,285258.59375,255617.6875,221404.234375,244627.96875,0.02001953125,0.99658203125,0.208251953125,-0.4272460639476776,-1.1901854276657104,-0.6713866591453552,80.0,135005.0,0.0
14672.3453212,293266.0,295484.34375,333306.5625,328383.0,285258.59375,255617.6875,221404.234375,244627.96875,0.02001953125,0.99658203125,0.208251953125,-0.4272460639476776,-1.1901854276657104,-0.6713866591453552,80.0,135006.0,0.0
14672.3453215,293266.0,295484.34375,333306.5625,328383.0,285258.59375,255617.6875,221404.234375,244627.96875,0.02001953125,0.99658203125,0.208251953125,-0.4272460639476776,-1.1901854276657104,-0.6713866591453552,80.0,135007.0,0.0
14672.3453218,293266.0,295484.34375,333306.5625,328383.0,285258.59375,255617.6875,221404.234375,244627.96875,0.02001953125,0.99658203125,0.208251953125,-0.4272460639476776,-1.1901854276657104,-0.6713866591453552,80.0,135008.0,0.0
14672.345322,293266.0,295484.34375,333306.5625,328383.0,285258.59375,255617.6875,221404.234375,244627.96875,0.02001953125,0.99658203125,0.208251953125,-0.4272460639476776,-1.1901854276657104,-0.6713866591453552,80.0,135009.0,0.0
14672.3453223,293266.0,295484.34375,333306.5625,328383.0,285258.59375,255617.6875,221404.234375,244627.96875,0.02001953125,0.99658203125,0.208251953125,-0.4272460639476776,-1.1901854276657104,-0.6713866591453552,80.0,135010.0,0.0
14672.3453226,293252.5,295465.5,333282.9375,328357.5,285237.25,255609.375,221379.46875,244602.65625,0.023193359375,0.997314453125,0.202392578125,-0.7324218153953552,-1.0986326932907104,-0.2441406100988388,80.0,135011.0,1.0
14672.3472198,293249.0,295201.1875,333120.65625,328380.03125,285115.1875,255551.171875,221338.96875,244622.0625,0.022705078125,0.994384765625,0.202392578125,-1.0070799589157104,-1.2512205839157104,-0.1525878757238388,80.0,135012.0,1.0
14672.3545233,293293.625,295200.125,333208.75,328436.71875,285141.125,255567.171875,221364.71875,244640.390625,0.025634765625,0.991943359375,0.19970703125,-1.0070799589157104,-1.2817381620407104,-0.3356933295726776,80.0,135013.0,1.0
14672.3545302,293317.5625,295451.625,333415.96875,328445.84375,285271.125,255624.125,221412.8125,244635.46875,0.024658203125,0.992919921875,0.205322265625,-0.7324218153953552,-1.0986326932907104,-0.3356933295726776,80.0,135014.0,1.0
14672.3545316,293289.3125,295599.96875,333439.6875,328392.84375,285315.65625,255637.984375,221418.984375,244623.3125,0.0244140625,0.996337890625,0.204833984375,-0.5798339247703552,-0.8850097060203552,-0.4272460639476776,80.0,135015.0,1.0
14672.354533,293257.125,295460.9375,333277.3125,328357.96875,285230.53125,255595.78125,221368.828125,244608.65625,0.02587890625,0.998046875,0.204345703125,-0.6408690810203552,-0.8239745497703552,-0.4272460639476776,80.0,135016.0,1.0
14672.3545344,293257.9375,295213.53125,333134.78125,328379.15625,285119.84375,255546.515625,221328.59375,244608.203125,0.025146484375,0.998779296875,0.2041015625,-0.7629393935203552,-0.7629393935203552,-0.3356933295726776,80.0,135017.0,1.0
14672.3773297,293285.21875,295191.71875,333208.75,328424.75,285132.8125,255551.890625,221349.515625,244632.703125,0.02294921875,0.995849609375,0.20458984375,-0.7934569716453552,-0.6713866591453552,-0.3051757514476776,80.0,135018.0,1.0
14672.4023476,293309.34375,295438.125,333400.25,328437.53125,285258.0625,255612.6875,221409.328125,244661.40625,0.0244140625,0.99658203125,0.203125,-0.6713866591453552,-0.6103515028953552,-0.3967284858226776,80.0,135019.0,1.0
14672.4272881,293286.90625,295599.96875,333433.6875,328387.09375,285311.4375,255634.671875,221414.875,244621.609375,0.02294921875,0.996826171875,0.20166015625,-0.6103515028953552,-0.6408690810203552,-0.3356933295726776,80.0,135020.0,1.0
14672.5112358,293255.15625,295467.53125,333279.90625,328352.875,285233.125,255601.0625,221370.4375,244604.0,0.0224609375,0.996826171875,0.202392578125,-0.6408690810203552,-0.5493163466453552,-0.4882812201976776,80.0,135021.0,1.0
14672.5112459,293257.0625,295219.71875,333138.90625,328376.90625,285123.25,255555.015625,221332.796875,244613.484375,0.021484375,0.996826171875,0.205322265625,-0.5798339247703552,-0.5187987685203552,-0.3356933295726776,80.0,135022.0,1.0
14672.5112557,293295.65625,295212.375,333226.0,328433.59375,285149.71875,255568.15625,221358.984375,244632.96875,0.022216796875,0.998291015625,0.2060546875,-0.6103515028953552,-0.4577636420726776,-0.2746581733226776,80.0,135023.0,1.0
14672.5112577,293308.71875,295448.5,333411.96875,328437.71875,285266.375,255618.671875,221407.09375,244644.859375,0.02197265625,0.995849609375,0.205322265625,-0.5187987685203552,-0.4272460639476776,-0.3051757514476776,80.0,135024.0,1.0
14672.5112594,293280.03125,295597.53125,333434.75,328383.4375,285310.71875,255639.15625,221409.78125,244628.953125,0.0205078125,0.998046875,0.204345703125,-0.3967284858226776,-0.4882812201976776,-0.3967284858226776,80.0,135025.0,1.0
14672.5112612,293250.34375,295460.65625,333275.25,328348.5625,285227.40625,255597.65625,221366.6875,244611.609375,0.0205078125,0.9970703125,0.208251953125,-0.2441406100988388,-0.4882812201976776,-0.4577636420726776,80.0,135026.0,1.0
14672.5622276,293255.78125,295222.21875,333146.40625,328377.71875,285127.71875,255556.359375,221341.203125,244619.203125,0.019775390625,0.996337890625,0.210205078125,-0.1525878757238388,-0.6103515028953552,-0.4882812201976776,80.0,135027.0,1.0
14672.5622411,293290.84375,295213.0,333233.59375,328432.625,285152.21875,255572.625,221366.234375,244639.046875,0.0185546875,0.994873046875,0.212646484375,-0.0915527269244194,-0.7019042372703552,-0.4272460639476776,80.0,135028.0,1.0
14672.5622432,293305.9375,295439.90625,333407.84375,328437.09375,285261.1875,255621.890625,221413.265625,244650.9375,0.018798828125,0.99267578125,0.2080078125,0.0,-0.7629393935203552,-0.3356933295726776,80.0,135029.0,1.0
14672.5805914,293279.5625,295593.6875,333429.40625,328385.40625,285306.53125,255642.1875,221423.359375,244632.96875,0.02294921875,0.992919921875,0.2080078125,0.03051757626235485,-0.7324218153953552,-0.3356933295726776,80.0,135030.0,1.0
14672.580604,293254.09375,295460.9375,333272.03125,328356.4375,285230.1875,255612.859375,221385.71875,244617.765625,0.023193359375,0.994384765625,0.209228515625,0.0915527269244194,-0.8239745497703552,-0.3356933295726776,80.0,135031.0,1.0
14672.5806063,293265.53125,295229.375,333153.9375,328392.65625,285139.25,255576.296875,221354.515625,244629.484375,0.02099609375,0.99560546875,0.209716796875,0.2441406100988388,-0.7324218153953552,-0.2136230319738388,80.0,135032.0,1.0
14672.5806081,293291.5625,295211.03125,333240.5625,328438.59375,285155.53125,255559.671875,221363.546875,244647.546875,0.02099609375,0.99609375,0.2099609375,0.3662109076976776,-0.6408690810203552,-0.2441406100988388,80.0,135033.0,1.0
14672.5806098,293305.15625,295446.625,333419.375,328436.46875,285263.625,255609.640625,221406.015625,244641.015625,0.01904296875,0.99560546875,0.210693359375,0.4577636420726776,-0.7629393935203552,-0.3051757514476776,80.0,135034.0,1.0
14672.5859022,293277.625,295586.90625,333425.375,328382.09375,285295.71875,255625.203125,221402.796875,244613.65625,0.02001953125,0.995849609375,0.20654296875,0.3662109076976776,-0.8544921278953552,-0.2441406100988388,80.0,135035.0,1.0
14672.5859097,293242.21875,295440.28125,333252.53125,328346.0625,285206.84375,255584.96875,221362.65625,244598.640625,0.02001953125,0.994140625,0.206298828125,0.2746581733226776,-0.8850097060203552,-0.2136230319738388,80.0,135036.0,1.0
14672.5859118,293250.625,295202.625,333123.25,328378.15625,285112.0625,255554.75,221335.03125,244608.390625,0.021728515625,0.99365234375,0.20458984375,0.3051757514476776,-1.0375975370407104,-0.1831054538488388,80.0,135037.0,1.0
14672.588619,293292.28125,295200.65625,333216.5,328433.78125,285141.84375,255569.953125,221363.46875,244633.234375,0.02294921875,0.992431640625,0.205810546875,0.4272460639476776,-0.9460448622703552,-0.3051757514476776,80.0,135038.0,1.0
14672.5886286,293292.28125,295200.65625,333216.5,328433.78125,285141.84375,255569.953125,221363.46875,244633.234375,0.02294921875,0.992431640625,0.205810546875,0.4272460639476776,-0.9460448622703552,-0.3051757514476776,80.0,135039.0,0.0
14672.5886291,293292.28125,295200.65625,333216.5,328433.78125,285141.84375,255569.953125,221363.46875,244633.234375,0.02294921875,0.992431640625,0.205810546875,0.4272460639476776,-0.9460448622703552,-0.3051757514476776,80.0,135040.0,0.0
14672.5886294,293292.28125,295200.65625,333216.5,328433.78125,285141.84375,255569.953125,221363.46875,244633.234375,0.02294921875,0.992431640625,0.205810546875,0.4272460639476776,-0.9460448622703552,-0.3051757514476776,80.0,135041.0,0.0
14672.5886298,293292.28125,295200.65625,333216.5,328433.78125,285141.84375,255569.953125,221363.46875,244633.234375,0.02294921875,0.992431640625,0.205810546875,0.4272460639476776,-0.9460448622703552,-0.3051757514476776,80.0,135042.0,0.0
14672.5886301,293292.28125,295200.65625,333216.5,328433.78125,285141.84375,255569.953125,221363.46875,244633.234375,0.02294921875,0.992431640625,0.205810546875,0.4272460639476776,-0.9460448622703552,-0.3051757514476776,80.0,135043.0,0.0
14672.5886304,293292.28125,295200.65625,333216.5,328433.78125,285141.84375,255569.953125,221363.46875,244633.234375,0.02294921875,0.992431640625,0.205810546875,0.4272460639476776,-0.9460448622703552,-0.3051757514476776,80.0,135044.0,0.0
14672.5886307,293292.28125,295200.65625,333216.5,328433.78125,285141.84375,255569.953125,221363.46875,244633.234375,0.02294921875,0.992431640625,0.205810546875,0.4272460639476776,-0.9460448622703552,-0.3051757514476776,80.0,135045.0,0.0
14672.588631,293292.28125,295200.65625,333216.5,328433.78125,285141.84375,255569.953125,221363.46875,244633.234375,0.02294921875,0.992431640625,0.205810546875,0.4272460639476776,-0.9460448622703552,-0.3051757514476776,80.0,135046.0,0.0
14672.5886315,293292.28125,295200.65625,333216.5,328433.78125,285141.84375,255569.953125,221363.46875,244633.234375,0.02294921875,0.992431640625,0.205810546875,0.4272460639476776,-0.9460448622703552,-0.3051757514476776,80.0,135047.0,0.0
14672.5886318,293292.28125,295200.65625,333216.5,328433.78125,285141.84375,255569.953125,221363.46875,244633.234375,0.02294921875,0.992431640625,0.205810546875,0.4272460639476776,-0.9460448622703552,-0.3051757514476776,80.0,135048.0,0.0
14672.5886321,293292.28125,295200.65625,333216.5,328433.78125,285141.84375,255569.953125,221363.46875,244633.234375,0.02294921875,0.992431640625,0.205810546875,0.4272460639476776,-0.9460448622703552,-0.3051757514476776,80.0,135049.0,0.0
14672.5886324,293292.28125,295200.65625,333216.5,328433.78125,285141.84375,255569.953125,221363.46875,244633.234375,0.02294921875,0.992431640625,0.205810546875,0.4272460639476776,-0.9460448622703552,-0.3051757514476776,80.0,135050.0,0.0
14672.5886327,293292.28125,295200.65625,333216.5,328433.78125,285141.84375,255569.953125,221363.46875,244633.234375,0.02294921875,0.992431640625,0.205810546875,0.4272460639476776,-0.9460448622703552,-0.3051757514476776,80.0,135051.0,0.0
14672.588633,293292.28125,295200.65625,333216.5,328433.78125,285141.84375,255569.953125,221363.46875,244633.234375,0.02294921875,0.992431640625,0.205810546875,0.4272460639476776,-0.9460448622703552,-0.3051757514476776,80.0,135052.0,0.0
14672.5886332,293292.28125,295200.65625,333216.5,328433.78125,285141.84375,255569.953125,221363.46875,244633.234375,0.02294921875,0.992431640625,0.205810546875,0.4272460639476776,-0.9460448622703552,-0.3051757514476776,80.0,135053.0,0.0
14672.5886335,293292.28125,295200.65625,333216.5,328433.78125,285141.84375,255569.953125,221363.46875,244633.234375,0.02294921875,0.992431640625,0.205810546875,0.4272460639476776,-0.9460448622703552,-0.3051757514476776,80.0,135054.0,0.0
14672.5886338,293292.28125,295200.65625,333216.5,328433.78125,285141.84375,255569.953125,221363.46875,244633.234375,0.02294921875,0.992431640625,0.205810546875,0.4272460639476776,-0.9460448622703552,-0.3051757514476776,80.0,135055.0,0.0
14672.5886341,293292.28125,295200.65625,333216.5,328433.78125,285141.84375,255569.953125,221363.46875,244633.234375,0.02294921875,0.992431640625,0.205810546875,0.4272460639476776,-0.9460448622703552,-0.3051757514476776,80.0,135056.0,0.0
14672.5886344,293292.28125,295200.65625,333216.5,328433.78125,285141.84375,255569.953125,221363.46875,244633.234375,0.02294921875,0.992431640625,0.205810546875,0.4272460639476776,-0.9460448622703552,-0.3051757514476776,80.0,135057.0,0.0
14672.5886347,293292.28125,295200.65625,333216.5,328433.78125,285141.84375,255569.953125,221363.46875,244633.234375,0.02294921875,0.992431640625,0.205810546875,0.4272460639476776,-0.9460448622703552,-0.3051757514476776,80.0,135058.0,0.0
14672.588635,293292.28125,295200.65625,333216.5,328433.78125,285141.84375,255569.953125,221363.46875,244633.234375,0.02294921875,0.992431640625,0.205810546875,0.4272460639476776,-0.9460448622703552,-0.3051757514476776,80.0,135059.0,0.0
14672.5886353,293292.28125,295200.65625,333216.5,328433.78125,285141.84375,255569.953125,221363.46875,244633.234375,0.02294921875,0.992431640625,0.205810546875,0.4272460639476776,-0.9460448622703552,-0.3051757514476776,80.0,135060.0,0.0
14672.5886356,293292.28125,295200.65625,333216.5,328433.78125,285141.84375,255569.953125,221363.46875,244633.234375,0.02294921875,0.992431640625,0.205810546875,0.4272460639476776,-0.9460448622703552,-0.3051757514476776,80.0,135061.0,0.0
14672.588636,293292.28125,295200.65625,333216.5,328433.78125,285141.84375,255569.953125,221363.46875,244633.234375,0.02294921875,0.992431640625,0.205810546875,0.4272460639476776,-0.9460448622703552,-0.3051757514476776,80.0,135062.0,0.0
14672.5886363,293292.28125,295200.65625,333216.5,328433.78125,285141.84375,255569.953125,221363.46875,244633.234375,0.02294921875,0.992431640625,0.205810546875,0.4272460639476776,-0.9460448622703552,-0.3051757514476776,80.0,135063.0,0.0
14672.5886366,293292.28125,295200.65625,333216.5,328433.78125,285141.84375,255569.953125,221363.46875,244633.234375,0.02294921875,0.992431640625,0.205810546875,0.4272460639476776,-0.9460448622703552,-0.3051757514476776,80.0,135064.0,0.0
14672.588637,293292.28125,295200.65625,333216.5,328433.78125,285141.84375,255569.953125,221363.46875,244633.234375,0.02294921875,0.992431640625,0.205810546875,0.4272460639476776,-0.9460448622703552,-0.3051757514476776,80.0,135065.0,0.0
14672.5886373,293245.96875,295447.53125,333249.15625,328334.09375,285220.875,255611.96875,221390.015625,244605.4375,0.023681640625,0.998046875,0.197998046875,0.9765624403953552,-1.8005369901657104,-0.7934569716453552,80.0,135066.0,1.0
14672.590978,293253.65625,295205.84375,333124.6875,328366.53125,285125.21875,255573.34375,221360.59375,244618.9375,0.024658203125,0.997314453125,0.199462890625,0.9155272841453552,-1.8920897245407104,-0.7324218153953552,80.0,135067.0,1.0
14672.5934979,293297.90625,295211.125,333220.90625,328422.15625,285154.90625,255587.828125,221381.96875,244637.34375,0.024169921875,0.997314453125,0.198486328125,0.7629393935203552,-1.8920897245407104,-0.8544921278953552,80.0,135068.0,1.0
14672.6010347,293310.5,295451.8125,333402.46875,328419.21875,285267.1875,255634.953125,221427.484375,244636.640625,0.0244140625,0.9970703125,0.198486328125,0.7019042372703552,-1.9836424589157104,-0.8850097060203552,80.0,135069.0,1.0
14672.6010419,293286.5625,295600.21875,333421.875,328370.3125,285313.59375,255659.984375,221439.015625,244620.453125,0.025146484375,0.99609375,0.197998046875,0.7019042372703552,-2.044677495956421,-0.9155272841453552,80.0,135070.0,1.0
14672.6010441,293260.1875,295453.5,333259.34375,328345.53125,285229.71875,255622.078125,221395.5625,244620.28125,0.0263671875,0.9951171875,0.197265625,0.7629393935203552,-1.9226073026657104,-0.9460448622703552,80.0,135071.0,1.0
14672.6035102,293262.6875,295213.0,333133.375,328368.25,285127.4375,255581.75,221360.875,244621.171875,0.027587890625,0.99609375,0.19580078125,0.7324218153953552,-1.8310545682907104,-1.0375975370407104,80.0,135072.0,1.0
14672.6065548,293309.09375,295230.625,333245.75,328429.75,285169.65625,255605.0,221388.40625,244640.03125,0.027587890625,0.993896484375,0.1943359375,0.6713866591453552,-1.8615721464157104,-1.0681151151657104,80.0,135073.0,1.0
14672.6065625,293322.65625,295464.25,333427.78125,328431.0,285282.21875,255639.421875,221428.28125,244647.09375,0.02685546875,0.99462890625,0.197265625,0.6103515028953552,-1.7395018339157104,-1.0986326932907104,80.0,135074.0,1.0
14672.6123715,293290.75,295609.625,333440.75,328372.09375,285321.28125,255654.265625,221431.765625,244622.0625,0.0263671875,0.994384765625,0.1953125,0.7324218153953552,-1.6784666776657104,-1.0986326932907104,80.0,135075.0,1.0
14672.6123787,293259.90625,295457.4375,333273.75,328341.40625,285234.65625,255609.015625,221391.625,244608.65625,0.02783203125,0.9951171875,0.1962890625,0.6408690810203552,-1.6479490995407104,-1.1596678495407104,80.0,135076.0,1.0
14672.6123808,293260.34375,295207.625,333132.375,328367.875,285126.03125,255556.453125,221358.1875,244622.515625,0.026123046875,0.99560546875,0.192138671875,0.7019042372703552,-1.5563963651657104,-1.1901854276657104,80.0,135077.0,1.0
14672.6123827,293296.46875,295202.71875,333214.46875,328421.53125,285146.21875,255574.421875,221377.59375,244639.046875,0.02490234375,0.995361328125,0.193359375,0.6103515028953552,-1.5563963651657104,-1.3122557401657104,80.0,135078.0,1.0
14672.6123846,293312.9375,295446.1875,333400.0625,328425.28125,285265.40625,255633.421875,221432.9375,244652.1875,0.024169921875,0.996826171875,0.195068359375,0.5798339247703552,-1.5258787870407104,-1.3427733182907104,80.0,135079.0,1.0
14672.6123867,293291.03125,295605.0625,333430.8125,328374.5,285320.3125,255665.4375,221450.09375,244636.546875,0.02490234375,0.99658203125,0.19677734375,0.3967284858226776,-1.4953612089157104,-1.3122557401657104,80.0,135080.0,1.0
14672.6153723,293260.0,295466.21875,333274.0,328340.78125,285236.625,255623.59375,221401.015625,244610.265625,0.02587890625,0.995849609375,0.195556640625,0.3662109076976776,-1.4343260526657104,-1.3122557401657104,80.0,135081.0,1.0
14672.6153829,293260.0,295466.21875,333274.0,328340.78125,285236.625,255623.59375,221401.015625,244610.265625,0.02587890625,0.995849609375,0.195556640625,0.3662109076976776,-1.4343260526657104,-1.3122557401657104,80.0,135082.0,0.0
14672.6153834,293260.0,295466.21875,333274.0,328340.78125,285236.625,255623.59375,221401.015625,244610.265625,0.02587890625,0.995849609375,0.195556640625,0.3662109076976776,-1.4343260526657104,-1.3122557401657104,80.0,135083.0,0.0
14672.6153836,293260.0,295466.21875,333274.0,328340.78125,285236.625,255623.59375,221401.015625,244610.265625,0.02587890625,0.995849609375,0.195556640625,0.3662109076976776,-1.4343260526657104,-1.3122557401657104,80.0,135084.0,0.0
14672.6153839,293260.0,295466.21875,333274.0,328340.78125,285236.625,255623.59375,221401.015625,244610.265625,0.02587890625,0.995849609375,0.195556640625,0.3662109076976776,-1.4343260526657104,-1.3122557401657104,80.0,135085.0,0.0
14672.6153842,293260.0,295466.21875,333274.0,328340.78125,285236.625,255623.59375,221401.015625,244610.265625,0.02587890625,0.995849609375,0.195556640625,0.3662109076976776,-1.4343260526657104,-1.3122557401657104,80.0,135086.0,0.0
14672.6153846,293260.0,295466.21875,333274.0,328340.78125,285236.625,255623.59375,221401.015625,244610.265625,0.02587890625,0.995849609375,0.195556640625,0.3662109076976776,-1.4343260526657104,-1.3122557401657104,80.0,135087.0,0.0
14672.6153849,293260.0,295466.21875,333274.0,328340.78125,285236.625,255623.59375,221401.015625,244610.265625,0.02587890625,0.995849609375,0.195556640625,0.3662109076976776,-1.4343260526657104,-1.3122557401657104,80.0,135088.0,0.0
14672.6153852,293260.0,295466.21875,333274.0,328340.78125,285236.625,255623.59375,221401.015625,244610.265625,0.02587890625,0.995849609375,0.195556640625,0.3662109076976776,-1.4343260526657104,-1.3122557401657104,80.0,135089.0,0.0
14672.6153855,293260.0,295466.21875,333274.0,328340.78125,285236.625,255623.59375,221401.015625,244610.265625,0.02587890625,0.995849609375,0.195556640625,0.3662109076976776,-1.4343260526657104,-1.3122557401657104,80.0,135090.0,0.0
14672.6153858,293260.0,295466.21875,333274.0,328340.78125,285236.625,255623.59375,221401.015625,244610.265625,0.02587890625,0.995849609375,0.195556640625,0.3662109076976776,-1.4343260526657104,-1.3122557401657104,80.0,135091.0,0.0
14672.6153861,293260.0,295466.21875,333274.0,328340.78125,285236.625,255623.59375,221401.015625,244610.265625,0.02587890625,0.995849609375,0.195556640625,0.3662109076976776,-1.4343260526657104,-1.3122557401657104,80.0,135092.0,0.0
14672.6153864,293260.0,295466.21875,333274.0,328340.78125,285236.625,255623.59375,221401.015625,244610.265625,0.02587890625,0.995849609375,0.195556640625,0.3662109076976776,-1.4343260526657104,-1.3122557401657104,80.0,135093.0,0.0
14672.6153867,293260.0,295466.21875,333274.0,328340.78125,285236.625,255623.59375,221401.015625,244610.265625,0.02587890625,0.995849609375,0.195556640625,0.3662109076976776,-1.4343260526657104,-1.3122557401657104,80.0,135094.0,0.0
14672.6153869,293260.0,295466.21875,333274.0,328340.78125,285236.625,255623.59375,221401.015625,244610.265625,0.02587890625,0.995849609375,0.195556640625,0.3662109076976776,-1.4343260526657104,-1.3122557401657104,80.0,135095.0,0.0
14672.6153873,293260.0,295466.21875,333274.0,328340.78125,285236.625,255623.59375,221401.015625,244610.265625,0.02587890625,0.995849609375,0.195556640625,0.3662109076976776,-1.4343260526657104,-1.3122557401657104,80.0,135096.0,0.0
14672.6153876,293260.0,295466.21875,333274.0,328340.78125,285236.625,255623.59375,221401.015625,244610.265625,0.02587890625,0.995849609375,0.195556640625,0.3662109076976776,-1.4343260526657104,-1.3122557401657104,80.0,135097.0,0.0
14672.6153879,293260.0,295466.21875,333274.0,328340.78125,285236.625,255623.59375,221401.015625,244610.265625,0.02587890625,0.995849609375,0.195556640625,0.3662109076976776,-1.4343260526657104,-1.3122557401657104,80.0,135098.0,0.0
14672.6153882,293260.0,295466.21875,333274.0,328340.78125,285236.625,255623.59375,221401.015625,244610.265625,0.02587890625,0.995849609375,0.195556640625,0.3662109076976776,-1.4343260526657104,-1.3122557401657104,80.0,135099.0,0.0
14672.6153885,293260.0,295466.21875,333274.0,328340.78125,285236.625,255623.59375,221401.015625,244610.265625,0.02587890625,0.995849609375,0.195556640625,0.3662109076976776,-1.4343260526657104,-1.3122557401657104,80.0,135100.0,0.0
14672.6153888,293260.0,295466.21875,333274.0,328340.78125,285236.625,255623.59375,221401.015625,244610.265625,0.02587890625,0.995849609375,0.195556640625,0.3662109076976776,-1.4343260526657104,-1.3122557401657104,80.0,135101.0,0.0
14672.6153892,293260.0,295466.21875,333274.0,328340.78125,285236.625,255623.59375,221401.015625,244610.265625,0.02587890625,0.995849609375,0.195556640625,0.3662109076976776,-1.4343260526657104,-1.3122557401657104,80.0,135102.0,0.0
14672.6153895,293260.0,295466.21875,333274.0,328340.78125,285236.625,255623.59375,221401.015625,244610.265625,0.02587890625,0.995849609375,0.195556640625,0.3662109076976776,-1.4343260526657104,-1.3122557401657104,80.0,135103.0,0.0
14672.6153898,293260.0,295466.21875,333274.0,328340.78125,285236.625,255623.59375,221401.015625,244610.265625,0.02587890625,0.995849609375,0.195556640625,0.3662109076976776,-1.4343260526657104,-1.3122557401657104,80.0,135104.0,0.0
14672.6153901,293260.0,295466.21875,333274.0,328340.78125,285236.625,255623.59375,221401.015625,244610.265625,0.02587890625,0.995849609375,0.195556640625,0.3662109076976776,-1.4343260526657104,-1.3122557401657104,80.0,135105.0,0.0
14672.6153905,293260.0,295466.21875,333274.0,328340.78125,285236.625,255623.59375,221401.015625,244610.265625,0.02587890625,0.995849609375,0.195556640625,0.3662109076976776,-1.4343260526657104,-1.3122557401657104,80.0,135106.0,0.0
14672.6153907,293260.0,295466.21875,333274.0,328340.78125,285236.625,255623.59375,221401.015625,244610.265625,0.02587890625,0.995849609375,0.195556640625,0.3662109076976776,-1.4343260526657104,-1.3122557401657104,80.0,135107.0,0.0
14672.615391,293260.0,295466.21875,333274.0,328340.78125,285236.625,255623.59375,221401.015625,244610.265625,0.02587890625,0.995849609375,0.195556640625,0.3662109076976776,-1.4343260526657104,-1.3122557401657104,80.0,135108.0,0.0
14672.6153913,293260.0,295466.21875,333274.0,328340.78125,285236.625,255623.59375,221401.015625,244610.265625,0.02587890625,0.995849609375,0.195556640625,0.3662109076976776,-1.4343260526657104,-1.3122557401657104,80.0,135109.0,0.0
14672.6153916,293260.0,295466.21875,333274.0,328340.78125,285236.625,255623.59375,221401.015625,244610.265625,0.02587890625,0.995849609375,0.195556640625,0.3662109076976776,-1.4343260526657104,-1.3122557401657104,80.0,135110.0,0.0
14672.6153919,293260.0,295466.21875,333274.0,328340.78125,285236.625,255623.59375,221401.015625,244610.265625,0.02587890625,0.995849609375,0.195556640625,0.3662109076976776,-1.4343260526657104,-1.3122557401657104,80.0,135111.0,0.0
14672.6153922,293260.0,295466.21875,333274.0,328340.78125,285236.625,255623.59375,221401.015625,244610.265625,0.02587890625,0.995849609375,0.195556640625,0.3662109076976776,-1.4343260526657104,-1.3122557401657104,80.0,135112.0,0.0
14672.6153926,293260.0,295466.21875,333274.0,328340.78125,285236.625,255623.59375,221401.015625,244610.265625,0.02587890625,0.995849609375,0.195556640625,0.3662109076976776,-1.4343260526657104,-1.3122557401657104,80.0,135113.0,0.0
14672.6153929,293260.0,295466.21875,333274.0,328340.78125,285236.625,255623.59375,221401.015625,244610.265625,0.02587890625,0.995849609375,0.195556640625,0.3662109076976776,-1.4343260526657104,-1.3122557401657104,80.0,135114.0,0.0
14672.6153932,293260.0,295466.21875,333274.0,328340.78125,285236.625,255623.59375,221401.015625,244610.265625,0.02587890625,0.995849609375,0.195556640625,0.3662109076976776,-1.4343260526657104,-1.3122557401657104,80.0,135115.0,0.0
14672.6153936,293260.0,295466.21875,333274.0,328340.78125,285236.625,255623.59375,221401.015625,244610.265625,0.02587890625,0.995849609375,0.195556640625,0.3662109076976776,-1.4343260526657104,-1.3122557401657104,80.0,135116.0,0.0
14672.6153939,293260.0,295466.21875,333274.0,328340.78125,285236.625,255623.59375,221401.015625,244610.265625,0.02587890625,0.995849609375,0.195556640625,0.3662109076976776,-1.4343260526657104,-1.3122557401657104,80.0,135117.0,0.0
14672.6153942,293260.0,295466.21875,333274.0,328340.78125,285236.625,255623.59375,221401.015625,244610.265625,0.02587890625,0.995849609375,0.195556640625,0.3662109076976776,-1.4343260526657104,-1.3122557401657104,80.0,135118.0,0.0
14672.6153945,293260.0,295466.21875,333274.0,328340.78125,285236.625,255623.59375,221401.015625,244610.265625,0.02587890625,0.995849609375,0.195556640625,0.3662109076976776,-1.4343260526657104,-1.3122557401657104,80.0,135119.0,0.0
14672.6153947,293260.0,295466.21875,333274.0,328340.78125,285236.625,255623.59375,221401.015625,244610.265625,0.02587890625,0.995849609375,0.195556640625,0.3662109076976776,-1.4343260526657104,-1.3122557401657104,80.0,135120.0,0.0
14672.615395,293247.46875,295412.5625,333229.46875,328323.34375,285204.78125,255600.4375,221378.921875,244602.921875,0.020751953125,0.994873046875,0.2041015625,-0.2136230319738388,-1.3732908964157104,-1.3732908964157104,80.0,135121.0,1.0
14672.6172563,293262.40625,295193.0625,333117.71875,328359.9375,285116.0,255577.453125,221352.734375,244604.359375,0.021484375,0.995849609375,0.208740234375,-0.2441406100988388,-1.3122557401657104,-1.2817381620407104,80.0,135122.0,1.0
14672.6231724,293295.9375,295202.375,333217.125,328405.625,285148.46875,255593.375,221378.921875,244634.484375,0.02099609375,0.996826171875,0.205810546875,-0.2441406100988388,-1.2817381620407104,-1.1596678495407104,80.0,135123.0,1.0
14672.6231798,293313.65625,295444.125,333400.4375,328403.1875,285262.90625,255630.828125,221413.703125,244628.671875,0.021728515625,0.997314453125,0.207763671875,-0.2136230319738388,-1.3122557401657104,-1.1596678495407104,80.0,135124.0,1.0
14672.6231819,293284.21875,295577.53125,333403.03125,328351.625,285298.84375,255649.15625,221426.765625,244623.671875,0.021484375,0.99560546875,0.2099609375,-0.2746581733226776,-1.3122557401657104,-1.3427733182907104,80.0,135125.0,1.0
14672.623184,293256.0625,295433.75,333247.625,328318.625,285218.375,255617.59375,221383.484375,244590.5,0.0234375,0.9951171875,0.212158203125,-0.1831054538488388,-1.3732908964157104,-1.3732908964157104,80.0,135126.0,1.0
14672.6231859,293257.5,295188.875,333119.6875,328342.59375,285115.65625,255572.453125,221342.546875,244584.515625,0.022216796875,0.994873046875,0.21240234375,-0.1220703050494194,-1.2817381620407104,-1.2817381620407104,80.0,135127.0,1.0
14672.6247493,293295.40625,295198.53125,333211.25,328395.96875,285144.4375,255580.5,221364.71875,244615.171875,0.021484375,0.99267578125,0.20849609375,-0.1220703050494194,-1.2207030057907104,-1.3122557401657104,80.0,135128.0,1.0
14672.631215,293313.1875,295449.03125,333388.0,328398.09375,285258.875,255633.25,221408.4375,244617.859375,0.02001953125,0.9951171875,0.208740234375,-0.0610351525247097,-1.2207030057907104,-1.3732908964157104,80.0,135129.0,1.0
14672.6312215,293290.75,295597.375,333413.5625,328357.5,285315.21875,255662.9375,221430.96875,244614.640625,0.020751953125,0.99755859375,0.209716796875,-0.0610351525247097,-1.2207030057907104,-1.2512205839157104,80.0,135130.0,1.0
14672.6312235,293263.65625,295445.46875,333258.34375,328336.3125,285238.03125,255624.3125,221401.546875,244615.171875,0.019775390625,0.99267578125,0.2080078125,-0.1220703050494194,-1.1901854276657104,-1.2207030057907104,80.0,135131.0,1.0
14672.6312253,293265.28125,295204.0625,333132.90625,328358.0625,285134.34375,255580.046875,221356.84375,244600.15625,0.021484375,0.9931640625,0.210693359375,0.0915527269244194,-1.1596678495407104,-1.2512205839157104,80.0,135132.0,1.0
14672.6312269,293303.09375,295217.125,333236.625,328413.65625,285170.53125,255594.4375,221382.234375,244624.296875,0.021240234375,0.99560546875,0.210693359375,0.03051757626235485,-1.2207030057907104,-1.2512205839157104,80.0,135133.0,1.0
14672.6312288,293319.53125,295451.375,333411.78125,328420.28125,285288.84375,255656.765625,221440.0,244645.578125,0.018798828125,0.99658203125,0.209716796875,0.0610351525247097,-1.4038084745407104,-1.1291502714157104,80.0,135134.0,1.0
14672.6335034,293282.96875,295578.40625,333404.34375,328360.90625,285316.90625,255675.8125,221442.234375,244632.609375,0.017822265625,0.99609375,0.2080078125,0.1525878757238388,-1.3427733182907104,-1.1596678495407104,80.0,135135.0,1.0
14672.636004,293282.96875,295578.40625,333404.34375,328360.90625,285316.90625,255675.8125,221442.234375,244632.609375,0.017822265625,0.99609375,0.2080078125,0.1525878757238388,-1.3427733182907104,-1.1596678495407104,80.0,135136.0,0.0
14672.6360052,293282.96875,295578.40625,333404.34375,328360.90625,285316.90625,255675.8125,221442.234375,244632.609375,0.017822265625,0.99609375,0.2080078125,0.1525878757238388,-1.3427733182907104,-1.1596678495407104,80.0,135137.0,0.0
14672.6360055,293282.96875,295578.40625,333404.34375,328360.90625,285316.90625,255675.8125,221442.234375,244632.609375,0.017822265625,0.99609375,0.2080078125,0.1525878757238388,-1.3427733182907104,-1.1596678495407104,80.0,135138.0,0.0
14672.6360057,293282.96875,295578.40625,333404.34375,328360.90625,285316.90625,255675.8125,221442.234375,244632.609375,0.017822265625,0.99609375,0.2080078125,0.1525878757238388,-1.3427733182907104,-1.1596678495407104,80.0,135139.0,0.0
14672.6360061,293282.96875,295578.40625,333404.34375,328360.90625,285316.90625,255675.8125,221442.234375,244632.609375,0.017822265625,0.99609375,0.2080078125,0.1525878757238388,-1.3427733182907104,-1.1596678495407104,80.0,135140.0,0.0
14672.6360065,293282.96875,295578.40625,333404.34375,328360.90625,285316.90625,255675.8125,221442.234375,244632.609375,0.017822265625,0.99609375,0.2080078125,0.1525878757238388,-1.3427733182907104,-1.1596678495407104,80.0,135141.0,0.0
14672.6360068,293282.96875,295578.40625,333404.34375,328360.90625,285316.90625,255675.8125,221442.234375,244632.609375,0.017822265625,0.99609375,0.2080078125,0.1525878757238388,-1.3427733182907104,-1.1596678495407104,80.0,135142.0,0.0
14672.636007,293282.96875,295578.40625,333404.34375,328360.90625,285316.90625,255675.8125,221442.234375,244632.609375,0.017822265625,0.99609375,0.2080078125,0.1525878757238388,-1.3427733182907104,-1.1596678495407104,80.0,135143.0,0.0
14672.6360073,293282.96875,295578.40625,333404.34375,328360.90625,285316.90625,255675.8125,221442.234375,244632.609375,0.017822265625,0.99609375,0.2080078125,0.1525878757238388,-1.3427733182907104,-1.1596678495407104,80.0,135144.0,0.0
14672.6360076,293282.96875,295578.40625,333404.34375,328360.90625,285316.90625,255675.8125,221442.234375,244632.609375,0.017822265625,0.99609375,0.2080078125,0.1525878757238388,-1.3427733182907104,-1.1596678495407104,80.0,135145.0,0.0
14672.6360079,293255.15625,295420.25,333235.125,328322.03125,285220.15625,255613.40625,221386.34375,244602.390625,0.020263671875,0.99609375,0.206298828125,0.3967284858226776,-1.7089842557907104,-1.2512205839157104,80.0,135146.0,1.0
14672.6390538,293265.28125,295185.5625,333103.25,328355.71875,285118.59375,255581.390625,221357.921875,244610.171875,0.018798828125,0.9951171875,0.206298828125,0.4272460639476776,-1.7700194120407104,-1.1901854276657104,80.0,135147.0,1.0
14672.6390615,293310.15625,295214.34375,333224.1875,328413.5625,285164.28125,255602.765625,221385.1875,244621.96875,0.019287109375,0.993896484375,0.20703125,0.4272460639476776,-1.8615721464157104,-1.2817381620407104,80.0,135148.0,1.0
14672.641008,293318.28125,295451.625,333397.90625,328407.40625,285271.9375,255641.46875,221428.28125,244636.28125,0.017822265625,0.995849609375,0.20654296875,0.3662109076976776,-1.7700194120407104,-1.3122557401657104,80.0,135149.0,1.0
14672.6435251,293289.84375,295589.21875,333402.125,328349.28125,285306.4375,255665.796875,221426.40625,244598.375,0.0185546875,0.9931640625,0.211181640625,0.3967284858226776,-1.6479490995407104,-1.2817381620407104,80.0,135150.0,1.0
14672.6460036,293266.4375,295441.4375,333242.96875,328327.84375,285225.78125,255637.890625,221390.1875,244590.234375,0.017578125,0.994384765625,0.213134765625,0.3662109076976776,-1.7089842557907104,-1.4038084745407104,80.0,135151.0,1.0
14672.6711365,293281.0,295224.53125,333138.90625,328363.3125,285138.625,255605.53125,221370.4375,244600.609375,0.01708984375,0.99365234375,0.2109375,0.3662109076976776,-1.7089842557907104,-1.3732908964157104,80.0,135152.0,1.0
14672.6965467,293312.46875,295230.0,333242.34375,328411.34375,285167.40625,255595.421875,221385.546875,244621.890625,0.017822265625,0.993896484375,0.210205078125,0.3356933295726776,-1.7395018339157104,-1.2512205839157104,80.0,135153.0,1.0
14672.6965555,293324.1875,295464.25,333417.40625,328412.5,285279.4375,255637.1875,221423.1875,244635.65625,0.01806640625,0.996337890625,0.20947265625,0.3967284858226776,-1.8005369901657104,-1.3122557401657104,80.0,135154.0,1.0
14672.6965574,293295.3125,295596.8125,333421.15625,328357.25,285318.34375,255665.171875,221430.34375,244607.75,0.020751953125,0.99609375,0.20947265625,0.4272460639476776,-1.7700194120407104,-1.3122557401657104,80.0,135155.0,1.0
14672.6965595,293263.3125,295435.90625,333241.625,328323.09375,285226.59375,255637.0,221396.09375,244594.4375,0.022216796875,0.99658203125,0.21142578125,0.4577636420726776,-1.7700194120407104,-1.2817381620407104,80.0,135156.0,1.0
14672.6985571,293269.03125,295202.1875,333120.5,328354.84375,285131.03125,255593.640625,221362.84375,244611.15625,0.0224609375,0.99755859375,0.214111328125,0.3662109076976776,-1.6479490995407104,-1.1901854276657104,80.0,135157.0,1.0
14672.7009855,293304.15625,295222.40625,333228.3125,328402.21875,285165.90625,255600.53125,221378.75,244616.703125,0.021240234375,0.995849609375,0.20849609375,0.3662109076976776,-1.7089842557907104,-1.0375975370407104,80.0,135158.0,1.0
14672.7035518,293318.46875,295464.40625,333408.125,328402.5,285285.875,255654.609375,221428.734375,244626.359375,0.02099609375,0.995849609375,0.207275390625,0.3967284858226776,-1.6479490995407104,-0.9765624403953552,80.0,135159.0,1.0
14672.7101906,293288.96875,295594.6875,333405.4375,328346.53125,285319.125,255672.9375,221437.3125,244604.0,0.020263671875,0.995849609375,0.206787109375,0.3662109076976776,-1.5563963651657104,-0.9460448622703552,80.0,135160.0,1.0
14672.7101977,293261.53125,295438.84375,333239.40625,328319.96875,285232.5,255641.390625,221400.125,244591.84375,0.019775390625,0.995849609375,0.205810546875,0.3662109076976776,-1.5869139432907104,-0.9765624403953552,80.0,135161.0,1.0
14672.7101996,293265.28125,295205.6875,333124.15625,328349.75,285137.71875,255605.265625,221368.640625,244597.921875,0.02099609375,0.995849609375,0.206298828125,0.2746581733226776,-1.5258787870407104,-0.9460448622703552,80.0,135162.0,1.0
14672.7102013,293310.15625,295230.0,333242.1875,328413.125,285184.9375,255625.375,221408.875,244640.21875,0.0205078125,0.994384765625,0.205078125,0.3051757514476776,-1.4953612089157104,-0.9155272841453552,80.0,135163.0,1.0
14672.7102031,293322.65625,295473.28125,333424.90625,328403.65625,285297.15625,255660.515625,221438.921875,244621.609375,0.0224609375,0.994384765625,0.20654296875,0.3051757514476776,-1.5563963651657104,-0.8850097060203552,80.0,135164.0,1.0
14672.7102049,293289.21875,295596.75,333418.125,328346.0625,285318.5,255658.453125,221418.453125,244582.015625,0.02099609375,0.99755859375,0.20751953125,0.3051757514476776,-1.5563963651657104,-0.9155272841453552,80.0,135165.0,1.0
14672.712815,293258.5625,295426.0625,333231.28125,328324.4375,285219.28125,255620.46875,221380.359375,244582.90625,0.018310546875,0.996826171875,0.205322265625,0.1831054538488388,-1.6174315214157104,-0.8544921278953552,80.0,135166.0,1.0
14672.7128212,293265.0,295191.09375,333106.625,328356.96875,285122.1875,255582.375,221355.59375,244602.84375,0.017822265625,0.99365234375,0.20703125,0.1831054538488388,-1.5869139432907104,-0.9460448622703552,80.0,135167.0,1.0
14672.7186314,293304.625,295216.84375,333216.96875,328407.65625,285163.84375,255601.15625,221384.109375,244625.015625,0.0205078125,0.993408203125,0.209228515625,0.2441406100988388,-1.6479490995407104,-1.0070799589157104,80.0,135168.0,1.0
14672.7186384,293317.84375,295455.9375,333398.46875,328398.375,285279.53125,255647.640625,221424.4375,244614.46875,0.019775390625,0.99267578125,0.207275390625,0.3662109076976776,-1.6479490995407104,-1.1291502714157104,80.0,135169.0,1.0
14672.7186408,293289.9375,295582.875,333394.875,328344.09375,285311.8125,255666.78125,221434.8125,244599.71875,0.019287109375,0.992919921875,0.208984375,0.3662109076976776,-1.6174315214157104,-1.1596678495407104,80.0,135170.0,1.0
14672.7186426,293268.65625,295436.4375,333235.125,328322.71875,285228.46875,255638.609375,221401.375,244588.0,0.017578125,0.9931640625,0.207275390625,0.3967284858226776,-1.6784666776657104,-1.1291502714157104,80.0,135171.0,1.0
14672.7186445,293271.09375,295200.75,333116.125,328353.03125,285128.78125,255595.703125,221368.828125,244592.640625,0.017822265625,0.993896484375,0.20654296875,0.4272460639476776,-1.6784666776657104,-1.1901854276657104,80.0,135172.0,1.0
14672.7186464,293311.9375,295231.59375,333235.125,328416.53125,285175.375,255618.671875,221397.96875,244622.78125,0.016357421875,0.996337890625,0.205810546875,0.4272460639476776,-1.6784666776657104,-1.2207030057907104,80.0,135173.0,1.0
14672.7216226,293317.9375,295469.5,333409.0,328409.46875,285288.65625,255654.890625,221439.90625,244637.984375,0.017578125,0.997314453125,0.20263671875,0.4577636420726776,-1.6784666776657104,-1.4038084745407104,80.0,135174.0,1.0
14672.7216293,293286.90625,295597.28125,333408.75,328348.46875,285320.21875,255656.140625,221429.171875,244593.8125,0.017333984375,0.9990234375,0.206298828125,0.5187987685203552,-1.7395018339157104,-1.4953612089157104,80.0,135175.0,1.0
14672.7253203,293258.75,295436.96875,333239.5,328323.34375,285231.34375,255628.515625,221393.859375,244580.75,0.01708984375,0.9990234375,0.204345703125,0.3967284858226776,-1.8615721464157104,-1.4953612089157104,80.0,135176.0,1.0
14672.7253306,293258.75,295436.96875,333239.5,328323.34375,285231.34375,255628.515625,221393.859375,244580.75,0.01708984375,0.9990234375,0.204345703125,0.3967284858226776,-1.8615721464157104,-1.4953612089157104,80.0,135177.0,0.0
14672.725331,293258.75,295436.96875,333239.5,328323.34375,285231.34375,255628.515625,221393.859375,244580.75,0.01708984375,0.9990234375,0.204345703125,0.3967284858226776,-1.8615721464157104,-1.4953612089157104,80.0,135178.0,0.0
14672.7253313,293258.75,295436.96875,333239.5,328323.34375,285231.34375,255628.515625,221393.859375,244580.75,0.01708984375,0.9990234375,0.204345703125,0.3967284858226776,-1.8615721464157104,-1.4953612089157104,80.0,135179.0,0.0
14672.7253316,293258.75,295436.96875,333239.5,328323.34375,285231.34375,255628.515625,221393.859375,244580.75,0.01708984375,0.9990234375,0.204345703125,0.3967284858226776,-1.8615721464157104,-1.4953612089157104,80.0,135180.0,0.0
14672.7253319,293258.75,295436.96875,333239.5,328323.34375,285231.34375,255628.515625,221393.859375,244580.75,0.01708984375,0.9990234375,0.204345703125,0.3967284858226776,-1.8615721464157104,-1.4953612089157104,80.0,135181.0,0.0
14672.7253322,293258.75,295436.96875,333239.5,328323.34375,285231.34375,255628.515625,221393.859375,244580.75,0.01708984375,0.9990234375,0.204345703125,0.3967284858226776,-1.8615721464157104,-1.4953612089157104,80.0,135182.0,0.0
14672.7253325,293258.75,295436.96875,333239.5,328323.34375,285231.34375,255628.515625,221393.859375,244580.75,0.01708984375,0.9990234375,0.204345703125,0.3967284858226776,-1.8615721464157104,-1.4953612089157104,80.0,135183.0,0.0
14672.7253328,293258.75,295436.96875,333239.5,328323.34375,285231.34375,255628.515625,221393.859375,244580.75,0.01708984375,0.9990234375,0.204345703125,0.3967284858226776,-1.8615721464157104,-1.4953612089157104,80.0,135184.0,0.0
14672.7253331,293258.75,295436.96875,333239.5,328323.34375,285231.34375,255628.515625,221393.859375,244580.75,0.01708984375,0.9990234375,0.204345703125,0.3967284858226776,-1.8615721464157104,-1.4953612089157104,80.0,135185.0,0.0
14672.7253333,293258.75,295436.96875,333239.5,328323.34375,285231.34375,255628.515625,221393.859375,244580.75,0.01708984375,0.9990234375,0.204345703125,0.3967284858226776,-1.8615721464157104,-1.4953612089157104,80.0,135186.0,0.0
14672.7253336,293258.75,295436.96875,333239.5,328323.34375,285231.34375,255628.515625,221393.859375,244580.75,0.01708984375,0.9990234375,0.204345703125,0.3967284858226776,-1.8615721464157104,-1.4953612089157104,80.0,135187.0,0.0
14672.7253339,293258.75,295436.96875,333239.5,328323.34375,285231.34375,255628.515625,221393.859375,244580.75,0.01708984375,0.9990234375,0.204345703125,0.3967284858226776,-1.8615721464157104,-1.4953612089157104,80.0,135188.0,0.0
14672.7253341,293258.75,295436.96875,333239.5,328323.34375,285231.34375,255628.515625,221393.859375,244580.75,0.01708984375,0.9990234375,0.204345703125,0.3967284858226776,-1.8615721464157104,-1.4953612089157104,80.0,135189.0,0.0
14672.7253345,293258.75,295436.96875,333239.5,328323.34375,285231.34375,255628.515625,221393.859375,244580.75,0.01708984375,0.9990234375,0.204345703125,0.3967284858226776,-1.8615721464157104,-1.4953612089157104,80.0,135190.0,0.0
14672.7253347,293258.75,295436.96875,333239.5,328323.34375,285231.34375,255628.515625,221393.859375,244580.75,0.01708984375,0.9990234375,0.204345703125,0.3967284858226776,-1.8615721464157104,-1.4953612089157104,80.0,135191.0,0.0
14672.725335,293258.75,295436.96875,333239.5,328323.34375,285231.34375,255628.515625,221393.859375,244580.75,0.01708984375,0.9990234375,0.204345703125,0.3967284858226776,-1.8615721464157104,-1.4953612089157104,80.0,135192.0,0.0
14672.7253353,293258.75,295436.96875,333239.5,328323.34375,285231.34375,255628.515625,221393.859375,244580.75,0.01708984375,0.9990234375,0.204345703125,0.3967284858226776,-1.8615721464157104,-1.4953612089157104,80.0,135193.0,0.0
14672.7253356,293258.75,295436.96875,333239.5,328323.34375,285231.34375,255628.515625,221393.859375,244580.75,0.01708984375,0.9990234375,0.204345703125,0.3967284858226776,-1.8615721464157104,-1.4953612089157104,80.0,135194.0,0.0
14672.7253359,293258.75,295436.96875,333239.5,328323.34375,285231.34375,255628.515625,221393.859375,244580.75,0.01708984375,0.9990234375,0.204345703125,0.3967284858226776,-1.8615721464157104,-1.4953612089157104,80.0,135195.0,0.0
14672.7253362,293258.75,295436.96875,333239.5,328323.34375,285231.34375,255628.515625,221393.859375,244580.75,0.01708984375,0.9990234375,0.204345703125,0.3967284858226776,-1.8615721464157104,-1.4953612089157104,80.0,135196.0,0.0
14672.7253364,293258.75,295436.96875,333239.5,328323.34375,285231.34375,255628.515625,221393.859375,244580.75,0.01708984375,0.9990234375,0.204345703125,0.3967284858226776,-1.8615721464157104,-1.4953612089157104,80.0,135197.0,0.0
14672.7253367,293258.75,295436.96875,333239.5,328323.34375,285231.34375,255628.515625,221393.859375,244580.75,0.01708984375,0.9990234375,0.204345703125,0.3967284858226776,-1.8615721464157104,-1.4953612089157104,80.0,135198.0,0.0
14672.725337,293258.75,295436.96875,333239.5,328323.34375,285231.34375,255628.515625,221393.859375,244580.75,0.01708984375,0.9990234375,0.204345703125,0.3967284858226776,-1.8615721464157104,-1.4953612089157104,80.0,135199.0,0.0
14672.7253373,293258.75,295436.96875,333239.5,328323.34375,285231.34375,255628.515625,221393.859375,244580.75,0.01708984375,0.9990234375,0.204345703125,0.3967284858226776,-1.8615721464157104,-1.4953612089157104,80.0,135200.0,0.0
14672.7253376,293258.75,295436.96875,333239.5,328323.34375,285231.34375,255628.515625,221393.859375,244580.75,0.01708984375,0.9990234375,0.204345703125,0.3967284858226776,-1.8615721464157104,-1.4953612089157104,80.0,135201.0,0.0
14672.7253379,293258.75,295436.96875,333239.5,328323.34375,285231.34375,255628.515625,221393.859375,244580.75,0.01708984375,0.9990234375,0.204345703125,0.3967284858226776,-1.8615721464157104,-1.4953612089157104,80.0,135202.0,0.0
14672.7253382,293258.75,295436.96875,333239.5,328323.34375,285231.34375,255628.515625,221393.859375,244580.75,0.01708984375,0.9990234375,0.204345703125,0.3967284858226776,-1.8615721464157104,-1.4953612089157104,80.0,135203.0,0.0
14672.7253385,293258.75,295436.96875,333239.5,328323.34375,285231.34375,255628.515625,221393.859375,244580.75,0.01708984375,0.9990234375,0.204345703125,0.3967284858226776,-1.8615721464157104,-1.4953612089157104,80.0,135204.0,0.0
14672.7253388,293258.75,295436.96875,333239.5,328323.34375,285231.34375,255628.515625,221393.859375,244580.75,0.01708984375,0.9990234375,0.204345703125,0.3967284858226776,-1.8615721464157104,-1.4953612089157104,80.0,135205.0,0.0
14672.725339,293258.75,295436.96875,333239.5,328323.34375,285231.34375,255628.515625,221393.859375,244580.75,0.01708984375,0.9990234375,0.204345703125,0.3967284858226776,-1.8615721464157104,-1.4953612089157104,80.0,135206.0,0.0
14672.7253393,293258.75,295436.96875,333239.5,328323.34375,285231.34375,255628.515625,221393.859375,244580.75,0.01708984375,0.9990234375,0.204345703125,0.3967284858226776,-1.8615721464157104,-1.4953612089157104,80.0,135207.0,0.0
14672.7253396,293312.375,295237.3125,333230.5625,328401.78125,285161.15625,255588.71875,221358.1875,244604.890625,0.01953125,0.987548828125,0.20703125,0.7324218153953552,-1.4648436307907104,-0.7324218153953552,80.0,135208.0,1.0
14672.7253572,293324.5625,295471.125,333392.46875,328391.3125,285262.1875,255631.1875,221400.203125,244606.0625,0.020263671875,0.991455078125,0.208984375,0.9155272841453552,-1.4038084745407104,-0.7629393935203552,80.0,135209.0,1.0
14672.7253593,293295.21875,295591.46875,333376.09375,328335.0625,285288.125,255655.15625,221410.21875,244587.375,0.021240234375,0.992919921875,0.20849609375,1.0070799589157104,-1.3427733182907104,-0.7934569716453552,80.0,135210.0,1.0
14672.7272771,293268.03125,295436.0625,333212.5,328308.78125,285204.25,255623.765625,221376.875,244575.390625,0.022705078125,0.991943359375,0.2099609375,1.0986326932907104,-1.3122557401657104,-0.8239745497703552,80.0,135211.0,1.0
14672.7297298,293278.0625,295208.09375,333107.09375,328342.03125,285117.625,255589.609375,221347.90625,244590.5,0.02197265625,0.99365234375,0.20849609375,1.0986326932907104,-1.1901854276657104,-0.7629393935203552,80.0,135212.0,1.0
14672.7322563,293321.6875,295243.75,333225.71875,328399.71875,285165.1875,255617.515625,221386.890625,244624.125,0.02197265625,0.9951171875,0.208984375,1.1596678495407104,-1.1596678495407104,-0.7324218153953552,80.0,135213.0,1.0
14672.7347556,293335.1875,295487.03125,333400.59375,328400.0625,285282.3125,255672.9375,221441.609375,244634.84375,0.019287109375,0.99755859375,0.207275390625,1.2512205839157104,-1.0681151151657104,-0.7019042372703552,80.0,135214.0,1.0
14672.7372426,293302.65625,295607.375,333392.28125,328346.59375,285312.15625,255688.40625,221445.8125,244618.9375,0.01904296875,0.9970703125,0.2041015625,1.2207030057907104,-0.9155272841453552,-0.7934569716453552,80.0,135215.0,1.0
14672.7403012,293275.28125,295451.90625,333232.59375,328318.625,285227.3125,255644.78125,221402.796875,244594.96875,0.017822265625,0.997314453125,0.204345703125,1.2207030057907104,-0.9155272841453552,-0.7324218153953552,80.0,135216.0,1.0
14672.7403124,293283.5,295223.90625,333126.46875,328351.0625,285138.34375,255608.578125,221375.984375,244602.296875,0.019775390625,0.997314453125,0.210205078125,1.2512205839157104,-1.0375975370407104,-0.8544921278953552,80.0,135217.0,1.0
14672.7422588,293317.75,295247.875,333238.0625,328402.40625,285179.03125,255614.296875,221400.203125,244639.5,0.01904296875,0.998291015625,0.20703125,1.1901854276657104,-0.8850097060203552,-0.9460448622703552,80.0,135218.0,1.0
14672.744736,293323.125,295485.96875,333409.28125,328388.34375,285288.1875,255657.390625,221431.671875,244624.390625,0.016357421875,0.999267578125,0.205322265625,1.2207030057907104,-0.9155272841453552,-0.9460448622703552,80.0,135219.0,1.0
14672.7489912,293294.34375,295602.625,333398.28125,328331.125,285313.6875,255674.546875,221424.34375,244590.328125,0.0146484375,0.998779296875,0.207275390625,1.0681151151657104,-0.9460448622703552,-0.9460448622703552,80.0,135220.0,1.0
14672.7489972,293278.25,295451.1875,333235.375,328316.84375,285230.4375,255637.71875,221392.15625,244594.53125,0.01513671875,0.998046875,0.202880859375,0.9460448622703552,-1.0986326932907104,-0.9765624403953552,80.0,135221.0,1.0
14672.7489986,293285.125,295224.96875,333123.96875,328347.5,285142.375,255609.203125,221368.828125,244601.234375,0.014404296875,0.9951171875,0.203125,0.9765624403953552,-1.2512205839157104,-0.9460448622703552,80.0,135222.0,1.0
14672.7490001,293321.78125,295259.9375,333242.09375,328404.8125,285193.53125,255639.234375,221411.828125,244648.890625,0.015869140625,0.99365234375,0.201171875,1.0375975370407104,-1.2817381620407104,-0.9460448622703552,80.0,135223.0,1.0
14672.7509947,293324.28125,295492.84375,333408.75,328390.78125,285296.59375,255664.265625,221438.5625,244640.84375,0.017822265625,0.9921875,0.19921875,1.0375975370407104,-1.3427733182907104,-0.9765624403953552,80.0,135224.0,1.0
14672.7534859,293295.3125,295618.09375,333403.90625,328332.75,285324.40625,255678.390625,221428.28125,244601.046875,0.018310546875,0.991943359375,0.203857421875,0.9460448622703552,-1.3122557401657104,-0.9155272841453552,80.0,135225.0,1.0
14672.756003,293269.125,295452.15625,333235.03125,328307.34375,285233.5625,255643.53125,221389.921875,244587.375,0.021484375,0.9912109375,0.20263671875,0.9765624403953552,-1.4343260526657104,-0.8239745497703552,80.0,135226.0,1.0
14672.7584866,293277.53125,295224.09375,333124.0625,328338.28125,285139.25,255606.515625,221361.671875,244598.453125,0.021484375,0.99267578125,0.205810546875,0.8544921278953552,-1.4343260526657104,-0.6103515028953552,80.0,135227.0,1.0
14672.7634885,293319.90625,295266.1875,333251.375,328396.0625,285191.1875,255637.09375,221402.625,244622.15625,0.01904296875,0.994873046875,0.202392578125,0.8850097060203552,-1.3732908964157104,-0.5798339247703552,80.0,135228.0,1.0
14672.7659961,293328.75,295502.9375,333422.6875,328390.5,285303.84375,255686.625,221454.03125,244633.421875,0.018310546875,0.996826171875,0.20166015625,0.8239745497703552,-1.2817381620407104,-0.6103515028953552,80.0,135229.0,1.0
14672.769064,293293.625,295613.0,333411.5,328328.625,285326.28125,255675.625,221432.9375,244610.4375,0.01904296875,0.99609375,0.20263671875,0.9155272841453552,-1.2817381620407104,-0.6713866591453552,80.0,135230.0,1.0
14672.7690703,293269.375,295443.3125,333239.59375,328303.40625,285232.40625,255639.5,221380.8125,244588.984375,0.01953125,0.9931640625,0.199951171875,0.8544921278953552,-1.3732908964157104,-0.6713866591453552,80.0,135231.0,1.0
14672.7709856,293278.9375,295208.8125,333116.03125,328338.5625,285134.6875,255605.4375,221359.53125,244614.28125,0.02197265625,0.9931640625,0.197509765625,0.7324218153953552,-1.4038084745407104,-0.6408690810203552,80.0,135232.0,1.0
14672.7734866,293317.21875,295252.0,333243.34375,328391.5,285186.625,255621.796875,221388.3125,244625.640625,0.022216796875,0.993408203125,0.200927734375,0.7324218153953552,-1.4343260526657104,-0.4577636420726776,80.0,135233.0,1.0
14672.7760007,293322.9375,295492.75,333419.1875,328383.0,285298.5,255667.3125,221426.3125,244614.28125,0.022705078125,0.994140625,0.203125,0.7324218153953552,-1.4343260526657104,-0.3967284858226776,80.0,135234.0,1.0
14672.7784823,293291.03125,295607.5625,333402.5625,328328.1875,285321.5625,255687.078125,221431.671875,244606.234375,0.02099609375,0.99462890625,0.201416015625,0.7019042372703552,-1.4038084745407104,-0.5187987685203552,80.0,135235.0,1.0
14672.7815675,293264.03125,295434.46875,333223.03125,328309.0625,285229.1875,255652.921875,221402.984375,244615.171875,0.018310546875,0.998046875,0.20263671875,0.7019042372703552,-1.3427733182907104,-0.6103515028953552,80.0,135236.0,1.0
14672.7815716,293273.9375,295211.40625,333114.9375,328342.5,285139.6875,255619.390625,221375.078125,244616.515625,0.0185546875,1.000244140625,0.203369140625,0.6408690810203552,-1.4038084745407104,-0.7934569716453552,80.0,135237.0,1.0
14672.7834928,293309.34375,295252.78125,333234.84375,328385.9375,285180.5625,255629.21875,221385.453125,244612.5,0.019287109375,0.99951171875,0.201171875,0.5798339247703552,-1.4953612089157104,-0.7934569716453552,80.0,135238.0,1.0
14672.7860248,293324.0,295500.0,333416.78125,328385.5,285305.8125,255690.921875,221445.0,244636.8125,0.01904296875,0.9990234375,0.2001953125,0.4272460639476776,-1.5869139432907104,-0.7629393935203552,80.0,135239.0,1.0
14672.7884786,293289.5,295616.6875,333403.65625,328324.875,285328.0,255702.53125,221442.859375,244617.40625,0.01953125,0.998046875,0.202392578125,0.4272460639476776,-1.7395018339157104,-0.9765624403953552,80.0,135240.0,1.0
14672.7910348,293260.34375,295445.46875,333230.46875,328295.09375,285227.40625,255639.59375,221384.46875,244589.703125,0.01953125,0.9951171875,0.201904296875,0.4577636420726776,-1.6174315214157104,-0.8850097060203552,80.0,135241.0,1.0
14672.7940866,293273.78125,295210.3125,333109.5,328330.875,285129.9375,255606.15625,221361.140625,244607.84375,0.021484375,0.99365234375,0.19921875,0.4882812201976776,-1.5869139432907104,-0.9155272841453552,80.0,135242.0,1.0
14672.7941012,293325.0,295262.0,333241.1875,328400.59375,285187.8125,255642.28125,221404.859375,244643.703125,0.02294921875,0.99658203125,0.1982421875,0.4577636420726776,-1.5563963651657104,-1.0681151151657104,80.0,135243.0,1.0
14672.7965649,293336.53125,295508.3125,333425.09375,328397.65625,285307.0625,255691.265625,221445.453125,244646.46875,0.0234375,0.994873046875,0.19921875,0.4882812201976776,-1.4953612089157104,-1.1901854276657104,80.0,135244.0,1.0
14672.796569,293306.40625,295630.71875,333420.90625,328339.71875,285337.03125,255694.578125,221437.484375,244615.359375,0.021484375,0.994384765625,0.20263671875,0.5493163466453552,-1.5258787870407104,-1.2512205839157104,80.0,135245.0,1.0
14672.8024993,293273.59375,295451.4375,333240.46875,328307.90625,285235.0,255648.625,221383.9375,244592.5625,0.022705078125,0.992919921875,0.200927734375,0.5493163466453552,-1.5258787870407104,-1.1291502714157104,80.0,135246.0,1.0
14672.8025017,293280.90625,295204.78125,333106.0,328339.0,285124.59375,255608.03125,221348.984375,244601.046875,0.021728515625,0.993896484375,0.203125,0.5798339247703552,-1.5563963651657104,-1.1596678495407104,80.0,135247.0,1.0
14672.802503,293319.09375,295237.15625,333217.0625,328392.46875,285163.65625,255617.78125,221384.734375,244633.5,0.023193359375,0.99365234375,0.20361328125,0.7324218153953552,-1.4648436307907104,-1.1291502714157104,80.0,135248.0,1.0
14672.8025042,293328.75,295486.3125,333397.125,328392.125,285286.78125,255666.5,221445.359375,244668.546875,0.023193359375,0.9951171875,0.202880859375,0.8239745497703552,-1.3732908964157104,-1.1291502714157104,80.0,135249.0,1.0
14672.8025054,293300.3125,295612.125,333397.125,328336.0625,285321.65625,255688.859375,221442.5,244632.25,0.023193359375,0.99609375,0.203857421875,0.8544921278953552,-1.2817381620407104,-1.0375975370407104,80.0,135250.0,1.0
14672.8025069,293280.90625,295455.03125,333241.28125,328308.34375,285233.5,255649.4375,221380.71875,244584.328125,0.021240234375,0.99658203125,0.20556640625,0.7934569716453552,-1.2512205839157104,-1.0375975370407104,80.0,135251.0,1.0
14672.8059622,293290.3125,295220.78125,333123.625,328341.875,285136.21875,255608.578125,221351.21875,244594.34375,0.020263671875,0.995849609375,0.20361328125,0.7934569716453552,-1.2817381620407104,-0.9155272841453552,80.0,135252.0,1.0
14672.8059694,293329.8125,295262.34375,333238.0625,328394.4375,285183.34375,255632.265625,221390.828125,244630.375,0.017333984375,0.99365234375,0.206298828125,0.6713866591453552,-1.3427733182907104,-0.8850097060203552,80.0,135253.0,1.0
14672.8059708,293333.125,295495.875,333402.9375,328381.375,285291.0625,255673.84375,221431.671875,244629.65625,0.01806640625,0.993408203125,0.20458984375,0.8544921278953552,-1.2817381620407104,-0.9460448622703552,80.0,135254.0,1.0
14672.8303893,293303.90625,295610.59375,333391.84375,328325.59375,285315.65625,255680.984375,221428.28125,244602.84375,0.017578125,0.994384765625,0.2041015625,0.9155272841453552,-1.3122557401657104,-0.9155272841453552,80.0,135255.0,1.0
14672.8303936,293279.84375,295451.375,333226.09375,328307.28125,285230.96875,255656.046875,221400.75,244601.671875,0.01513671875,0.99609375,0.203369140625,0.9155272841453552,-1.3732908964157104,-0.9460448622703552,80.0,135256.0,1.0
14672.8785569,293293.625,295231.96875,333124.96875,328344.5625,285147.125,255628.0625,221385.640625,244620.453125,0.0146484375,0.998046875,0.200927734375,0.9155272841453552,-1.5258787870407104,-0.8239745497703552,80.0,135257.0,1.0
14672.8810811,293327.15625,295267.71875,333243.0625,328391.65625,285190.75,255639.953125,221408.171875,244633.5,0.015869140625,0.998779296875,0.199951171875,0.8850097060203552,-1.6784666776657104,-0.8544921278953552,80.0,135258.0,1.0
14672.8841486,293329.90625,295505.09375,333414.625,328379.15625,285298.75,255664.0,221432.84375,244627.421875,0.01708984375,1.000732421875,0.200927734375,0.7324218153953552,-1.6174315214157104,-0.8544921278953552,80.0,135259.0,1.0
14672.8841641,293303.4375,295615.5,333399.8125,328331.84375,285326.5625,255684.828125,221439.1875,244623.21875,0.0185546875,0.99853515625,0.200439453125,0.6713866591453552,-1.6784666776657104,-0.9155272841453552,80.0,135260.0,1.0
14672.8866356,293278.59375,295439.28125,333216.5,328311.375,285227.9375,255658.015625,221402.890625,244609.28125,0.01806640625,0.999267578125,0.20361328125,0.5493163466453552,-1.6479490995407104,-0.7934569716453552,80.0,135261.0,1.0
14672.8866483,293295.40625,295231.0625,333125.125,328350.53125,285150.53125,255638.515625,221383.84375,244607.40625,0.017822265625,0.999267578125,0.203857421875,0.3662109076976776,-1.7395018339157104,-0.7019042372703552,80.0,135262.0,1.0
14672.8885815,293325.875,295270.40625,333247.71875,328395.6875,285194.6875,255647.46875,221399.5,244628.328125,0.01904296875,0.998046875,0.202392578125,0.3967284858226776,-1.7395018339157104,-0.7324218153953552,80.0,135263.0,1.0
14672.8910388,293330.09375,295508.84375,333420.1875,328382.375,285302.6875,255666.6875,221424.078125,244630.5625,0.017578125,0.995849609375,0.199951171875,0.4882812201976776,-1.7395018339157104,-0.8850097060203552,80.0,135264.0,1.0
14672.8935906,293300.40625,295622.5,333406.3125,328328.46875,285327.28125,255682.59375,221430.25,244618.046875,0.018798828125,0.9951171875,0.202392578125,0.4577636420726776,-1.7700194120407104,-0.9460448622703552,80.0,135265.0,1.0
14672.8960514,293272.4375,295445.1875,333233.84375,328310.125,285234.75,255656.21875,221405.65625,244621.171875,0.018798828125,0.9951171875,0.198974609375,0.3662109076976776,-1.8310545682907104,-0.9155272841453552,80.0,135266.0,1.0
14672.898594,293283.78125,295223.28125,333132.5625,328342.3125,285145.34375,255613.484375,221365.96875,244615.796875,0.02001953125,0.99462890625,0.20166015625,0.2746581733226776,-1.9531248807907104,-0.8850097060203552,80.0,135267.0,1.0
14672.9010405,293312.03125,295250.03125,333237.53125,328382.28125,285173.84375,255620.109375,221373.921875,244617.40625,0.021484375,0.994384765625,0.203369140625,0.2441406100988388,-1.8615721464157104,-0.9155272841453552,80.0,135268.0,1.0
14672.9260509,293318.90625,295487.125,333399.34375,328376.125,285279.71875,255667.140625,221426.3125,244630.46875,0.019287109375,0.995849609375,0.205810546875,0.1831054538488388,-1.8005369901657104,-0.9155272841453552,80.0,135269.0,1.0
14672.9510705,293289.9375,295600.9375,333390.3125,328323.625,285310.03125,255690.015625,221436.78125,244616.34375,0.02197265625,0.99560546875,0.205322265625,0.0915527269244194,-1.7700194120407104,-0.8850097060203552,80.0,135270.0,1.0
14672.9760714,293267.5,295442.78125,333230.46875,328303.6875,285226.25,255660.15625,221401.375,244604.453125,0.021484375,0.994140625,0.2041015625,0.1525878757238388,-1.6479490995407104,-0.8544921278953552,80.0,135271.0,1.0
14672.9948325,293277.625,295220.4375,333126.03125,328335.34375,285135.5,255614.203125,221371.234375,244611.953125,0.020263671875,0.9951171875,0.20068359375,0.2746581733226776,-1.5869139432907104,-0.8239745497703552,80.0,135272.0,1.0
14672.9973168,293310.6875,295247.0625,333227.96875,328381.21875,285169.28125,255625.203125,221397.265625,244639.9375,0.021240234375,0.996337890625,0.197509765625,0.3356933295726776,-1.5869139432907104,-0.7629393935203552,80.0,135273.0,1.0
14672.9997635,293332.25,295500.34375,333404.71875,328377.71875,285289.1875,255687.96875,221441.25,244630.203125,0.0205078125,0.994873046875,0.1982421875,0.2441406100988388,-1.6479490995407104,-0.8544921278953552,80.0,135274.0,1.0
14673.0023332,293303.4375,295613.71875,333390.6875,328320.21875,285314.03125,255692.609375,221428.734375,244598.734375,0.0205078125,0.993896484375,0.19970703125,0.3356933295726776,-1.6784666776657104,-0.8544921278953552,80.0,135275.0,1.0
14673.004796,293268.84375,295426.5,333202.65625,328290.09375,285209.625,255647.28125,221384.296875,244590.859375,0.02001953125,0.996337890625,0.199462890625,0.2746581733226776,-1.5563963651657104,-0.9460448622703552,80.0,135276.0,1.0
14673.0073406,293283.59375,295204.96875,333094.84375,328330.25,285124.40625,255617.78125,221373.828125,244616.609375,0.018798828125,0.99560546875,0.20458984375,0.2746581733226776,-1.5869139432907104,-0.9460448622703552,80.0,135277.0,1.0
14673.0098003,293323.84375,295256.8125,333222.875,328381.90625,285175.46875,255644.421875,221400.203125,244630.640625,0.02001953125,0.995849609375,0.202392578125,0.2441406100988388,-1.6479490995407104,-0.9460448622703552,80.0,135278.0,1.0
14673.0123295,293340.09375,295512.0625,333413.03125,328378.78125,285300.71875,255696.734375,221445.53125,244629.75,0.021484375,0.9951171875,0.20458984375,0.2746581733226776,-1.5869139432907104,-0.9155272841453552,80.0,135279.0,1.0
14673.0147395,293305.5,295624.90625,333403.46875,328323.71875,285330.75,255716.3125,221447.5,244617.0625,0.020263671875,0.99462890625,0.20166015625,0.2441406100988388,-1.5869139432907104,-0.9155272841453552,80.0,135280.0,1.0
14673.0398107,293277.34375,295452.78125,333237.53125,328298.25,285238.125,255670.53125,221393.6875,244591.578125,0.01904296875,0.993896484375,0.19970703125,0.3051757514476776,-1.5563963651657104,-0.9155272841453552,80.0,135281.0,1.0
14673.065433,293292.09375,295230.15625,333136.5,328340.34375,285150.4375,255635.65625,221369.984375,244606.140625,0.01904296875,0.994140625,0.19873046875,0.3051757514476776,-1.4343260526657104,-0.9460448622703552,80.0,135282.0,1.0
14673.065454,293324.0,295262.09375,333244.84375,328390.3125,285190.3125,255642.1875,221400.5625,244642.171875,0.02099609375,0.9921875,0.195068359375,0.4577636420726776,-1.4648436307907104,-1.0375975370407104,80.0,135283.0,1.0
14673.1315983,293316.6875,295482.5625,333384.6875,328367.96875,285281.21875,255665.609375,221429.0,244641.828125,0.021484375,0.993896484375,0.200927734375,0.6103515028953552,-1.5869139432907104,-0.9765624403953552,80.0,135284.0,1.0
14673.1316234,293285.65625,295599.34375,333368.25,328312.09375,285304.03125,255691.71875,221429.71875,244604.1875,0.01953125,0.994873046875,0.2021484375,0.5798339247703552,-1.6174315214157104,-1.0375975370407104,80.0,135285.0,1.0
14673.1316246,293261.25,295436.0,333204.96875,328296.90625,285219.1875,255665.34375,221400.65625,244600.34375,0.020263671875,0.99462890625,0.2021484375,0.4882812201976776,-1.7700194120407104,-0.9765624403953552,80.0,135286.0,1.0
14673.1316262,293275.28125,295221.21875,333112.0,328333.90625,285136.9375,255630.03125,221372.765625,244603.640625,0.01904296875,0.995361328125,0.204833984375,0.5493163466453552,-1.7395018339157104,-0.9460448622703552,80.0,135287.0,1.0
14673.1547683,293315.34375,295266.1875,333237.15625,328388.8125,285186.5625,255647.109375,221401.109375,244637.0,0.019775390625,0.994140625,0.20068359375,0.5798339247703552,-1.7089842557907104,-0.8239745497703552,80.0,135288.0,1.0
14673.1798319,293323.3125,295507.875,333402.9375,328377.90625,285296.875,255696.1875,221447.953125,244633.5,0.01953125,0.994384765625,0.203125,0.5798339247703552,-1.7700194120407104,-0.8239745497703552,80.0,135289.0,1.0
14673.2048256,293290.125,295620.0625,333394.34375,328318.875,285322.8125,255702.625,221439.546875,244599.984375,0.017822265625,0.9951171875,0.200927734375,0.6103515028953552,-1.7700194120407104,-0.8544921278953552,80.0,135290.0,1.0
14673.2635922,293266.0,295447.25,333227.78125,328300.65625,285233.21875,255663.640625,221402.4375,244598.015625,0.017822265625,0.995361328125,0.19873046875,0.5493163466453552,-1.8615721464157104,-0.9765624403953552,80.0,135291.0,1.0
14673.2885869,293277.53125,295213.28125,333108.875,328332.75,285133.34375,255612.6875,221369.09375,244609.640625,0.016845703125,0.99755859375,0.20166015625,0.4882812201976776,-1.9531248807907104,-0.9155272841453552,80.0,135292.0,1.0
14673.3135855,293317.03125,295255.75,333223.03125,328386.65625,285175.625,255640.578125,221403.34375,244639.671875,0.01904296875,0.996337890625,0.201416015625,0.4577636420726776,-2.014159917831421,-1.0375975370407104,80.0,135293.0,1.0
14673.3385913,293330.375,295506.4375,333398.28125,328383.71875,285295.625,255694.484375,221448.75,244639.9375,0.020263671875,0.99755859375,0.205078125,0.4272460639476776,-2.105712652206421,-1.0681151151657104,80.0,135294.0,1.0
14673.3410853,293293.78125,295614.09375,333382.1875,328320.15625,285317.4375,255687.25,221436.6875,244607.75,0.01904296875,0.998291015625,0.201416015625,0.3356933295726776,-2.258300542831421,-1.1291502714157104,80.0,135295.0,1.0
14673.3434932,293273.21875,295441.4375,333218.75,328302.78125,285226.96875,255646.84375,221394.046875,244594.171875,0.020263671875,0.996337890625,0.2021484375,0.2746581733226776,-2.197265386581421,-1.0070799589157104,80.0,135296.0,1.0
14673.3466682,293283.25,295213.375,333109.3125,328334.09375,285128.625,255605.53125,221357.203125,244595.953125,0.02099609375,0.997314453125,0.2001953125,0.2746581733226776,-2.166747808456421,-1.0070799589157104,80.0,135297.0,1.0
14673.3466724,293323.65625,295264.9375,333239.125,328389.25,285181.8125,255632.625,221399.046875,244629.03125,0.02099609375,0.99609375,0.201904296875,0.2746581733226776,-2.136230230331421,-1.0070799589157104,80.0,135298.0,1.0
14673.3716892,293333.9375,295507.40625,333410.875,328387.28125,285299.125,255690.46875,221456.984375,244650.9375,0.020751953125,0.994384765625,0.198486328125,0.3051757514476776,-2.166747808456421,-0.9765624403953552,80.0,135299.0,1.0
14673.3716964,293297.90625,295606.125,333386.5625,328322.65625,285315.84375,255699.140625,221450.1875,244625.734375,0.02294921875,0.994873046875,0.20166015625,0.3356933295726776,-2.105712652206421,-0.9765624403953552,80.0,135300.0,1.0
14673.3966541,293274.46875,295433.125,333215.1875,328294.03125,285217.3125,255642.546875,221392.609375,244587.375,0.021240234375,0.998291015625,0.205078125,0.3356933295726776,-2.105712652206421,-0.9765624403953552,80.0,135301.0,1.0
14673.3966617,293286.09375,295212.5625,333112.1875,328324.15625,285124.9375,255608.125,221355.234375,244579.953125,0.020263671875,0.996337890625,0.2041015625,0.1831054538488388,-2.014159917831421,-0.9460448622703552,80.0,135302.0,1.0
14673.4216542,293327.78125,295265.125,333243.34375,328374.5,285176.8125,255624.578125,221387.15625,244608.390625,0.020263671875,0.9951171875,0.205322265625,0.0610351525247097,-1.9531248807907104,-0.9460448622703552,80.0,135303.0,1.0
14673.4216617,293340.09375,295513.0625,333415.34375,328365.125,285295.28125,255671.609375,221434.359375,244620.984375,0.0205078125,0.99658203125,0.2021484375,0.0,-1.9226073026657104,-0.8850097060203552,80.0,135304.0,1.0
14673.4315914,293314.71875,295627.75,333407.84375,328314.40625,285328.4375,255696.28125,221438.203125,244601.953125,0.020751953125,0.99462890625,0.2021484375,0.0610351525247097,-1.8615721464157104,-0.7934569716453552,80.0,135305.0,1.0
14673.4315969,293285.5625,295443.5,333227.78125,328293.40625,285228.75,255659.171875,221394.578125,244589.25,0.021240234375,0.99560546875,0.199951171875,0.03051757626235485,-1.7395018339157104,-0.8544921278953552,80.0,135306.0,1.0
14673.4335472,293294.40625,295210.40625,333109.21875,328330.0625,285130.75,255616.796875,221370.703125,244612.859375,0.0205078125,0.99560546875,0.20068359375,0.03051757626235485,-1.7700194120407104,-0.9155272841453552,80.0,135307.0,1.0
14673.4360544,293330.71875,295259.6875,333230.1875,328380.75,285177.34375,255634.765625,221403.875,244633.15625,0.021484375,0.995849609375,0.2021484375,0.1220703050494194,-1.7700194120407104,-1.0070799589157104,80.0,135308.0,1.0
14673.4391906,293334.5625,295503.3125,333396.5,328367.53125,285286.875,255684.125,221439.546875,244621.796875,0.0234375,0.995849609375,0.201904296875,-0.03051757626235485,-1.7089842557907104,-1.0375975370407104,80.0,135309.0,1.0
14673.4391982,293307.125,295621.3125,333389.15625,328316.125,285317.875,255708.265625,221445.359375,244603.90625,0.02294921875,0.99609375,0.202392578125,-0.1525878757238388,-1.6174315214157104,-0.9460448622703552,80.0,135310.0,1.0
14673.4428168,293282.71875,295447.15625,333227.25,328300.75,285232.5,255675.171875,221417.28125,244610.265625,0.023681640625,0.9951171875,0.206298828125,-0.2441406100988388,-1.5563963651657104,-1.0070799589157104,80.0,135311.0,1.0
14673.4428234,293292.90625,295218.375,333123.8125,328334.71875,285140.5,255625.203125,221376.875,244611.78125,0.02197265625,0.9951171875,0.204833984375,-0.3356933295726776,-1.5258787870407104,-0.9460448622703552,80.0,135312.0,1.0
14673.4428253,293321.875,295254.21875,333237.875,328376.28125,285172.59375,255619.84375,221376.421875,244611.25,0.022705078125,0.997314453125,0.20361328125,-0.3356933295726776,-1.4038084745407104,-1.0375975370407104,80.0,135313.0,1.0
14673.4428272,293326.78125,295487.21875,333395.15625,328361.0,285273.375,255659.625,221414.0625,244610.171875,0.021484375,0.99609375,0.203857421875,-0.3967284858226776,-1.3427733182907104,-1.0375975370407104,80.0,135314.0,1.0
14673.4448285,293290.5625,295582.875,333357.25,328305.65625,285286.6875,255672.9375,221419.078125,244586.484375,0.021728515625,0.99560546875,0.20556640625,-0.4882812201976776,-1.3732908964157104,-1.0070799589157104,80.0,135315.0,1.0
14673.4472963,293270.09375,295413.71875,333190.3125,328293.84375,285202.5625,255643.171875,221392.78125,244593.28125,0.023681640625,0.992919921875,0.2060546875,-0.3967284858226776,-1.2817381620407104,-1.0681151151657104,80.0,135316.0,1.0
14673.4498217,293286.65625,295208.25,333101.90625,328333.8125,285125.9375,255610.71875,221378.03125,244619.015625,0.022216796875,0.994384765625,0.204833984375,-0.3662109076976776,-1.2207030057907104,-1.0070799589157104,80.0,135317.0,1.0
14673.4525684,293325.96875,295267.09375,333238.40625,328381.84375,285180.8125,255635.9375,221404.859375,244628.671875,0.021484375,0.997314453125,0.207275390625,-0.3356933295726776,-1.0375975370407104,-1.0681151151657104,80.0,135318.0,1.0
14673.4773132,293331.34375,295503.3125,333402.3125,328370.3125,285290.625,255682.15625,221445.53125,244636.8125,0.023681640625,0.997314453125,0.206787109375,-0.3051757514476776,-1.0070799589157104,-0.9765624403953552,80.0,135319.0,1.0
14673.5023753,293296.75,295596.65625,333367.4375,328304.9375,285297.3125,255678.75,221420.0625,244585.859375,0.02294921875,0.99658203125,0.2080078125,-0.3662109076976776,-1.0070799589157104,-0.9460448622703552,80.0,135320.0,1.0
14673.5273751,293276.4375,295421.78125,333195.78125,328286.625,285201.3125,255640.765625,221378.75,244572.984375,0.020263671875,0.99560546875,0.20556640625,-0.4577636420726776,-0.9765624403953552,-1.0070799589157104,80.0,135321.0,1.0
14673.5373327,293291.375,295206.125,333104.125,328326.84375,285120.75,255608.578125,221364.71875,244587.375,0.01953125,0.99365234375,0.2041015625,-0.5493163466453552,-0.8544921278953552,-0.9765624403953552,80.0,135322.0,1.0
14673.5398145,293325.625,295255.28125,333232.15625,328371.5625,285171.96875,255623.765625,221389.21875,244611.875,0.019775390625,0.99365234375,0.20654296875,-0.4577636420726776,-0.8850097060203552,-1.0070799589157104,80.0,135323.0,1.0
14673.5423608,293336.8125,295506.4375,333409.375,328363.3125,285291.59375,255671.875,221434.09375,244620.8125,0.021240234375,0.9931640625,0.205810546875,-0.2746581733226776,-0.7934569716453552,-1.0986326932907104,80.0,135324.0,1.0
14673.5610971,293306.21875,295609.78125,333390.40625,328309.0625,285317.25,255693.78125,221445.359375,244609.546875,0.020751953125,0.99267578125,0.206787109375,-0.1831054538488388,-0.7019042372703552,-1.0375975370407104,80.0,135325.0,1.0
14673.5611236,293281.1875,295424.71875,333210.625,328288.40625,285218.375,255659.359375,221405.578125,244598.90625,0.01953125,0.994140625,0.20654296875,-0.2136230319738388,-0.7629393935203552,-0.9765624403953552,80.0,135326.0,1.0
14673.5611274,293296.125,295209.4375,333107.4375,328325.59375,285131.5625,255626.71875,221380.265625,244613.125,0.018798828125,0.994873046875,0.21044921875,-0.1525878757238388,-0.8850097060203552,-0.9765624403953552,80.0,135327.0,1.0
14673.5611286,293334.84375,295265.5,333237.25,328369.84375,285181.625,255638.515625,221396.09375,244609.09375,0.017578125,0.997314453125,0.213623046875,-0.3356933295726776,-0.8850097060203552,-0.9460448622703552,80.0,135328.0,1.0
14673.5611298,293341.90625,295504.90625,333406.78125,328357.4375,285292.84375,255677.421875,221436.15625,244609.546875,0.020751953125,0.996337890625,0.209228515625,-0.3051757514476776,-0.9155272841453552,-0.9460448622703552,80.0,135329.0,1.0
14673.561131,293315.0625,295615.875,333386.84375,328305.375,285317.625,255710.578125,221448.40625,244598.8125,0.019287109375,0.99462890625,0.208251953125,-0.2746581733226776,-0.9155272841453552,-0.9155272841453552,80.0,135330.0,1.0
14673.5611322,293289.3125,295438.9375,333215.34375,328286.34375,285222.5625,255670.703125,221396.8125,244587.90625,0.01806640625,0.993408203125,0.211181640625,-0.2441406100988388,-0.8544921278953552,-0.9460448622703552,80.0,135331.0,1.0
14673.5611335,293297.28125,295215.875,333115.75,328323.0,285135.3125,255620.28125,221365.703125,244609.09375,0.019287109375,0.99267578125,0.20849609375,-0.2136230319738388,-0.9460448622703552,-0.8544921278953552,80.0,135332.0,1.0
14673.5611347,293330.53125,295267.53125,333242.71875,328370.3125,285186.375,255642.1875,221405.125,244637.4375,0.017822265625,0.99169921875,0.2099609375,-0.0915527269244194,-1.0375975370407104,-0.8850097060203552,80.0,135333.0,1.0
14673.5611359,293335.625,295508.03125,333410.78125,328354.28125,285291.78125,255679.03125,221435.4375,244610.0,0.017822265625,0.994140625,0.211181640625,0.0,-0.9765624403953552,-0.7629393935203552,80.0,135334.0,1.0
14673.561137,293295.21875,295599.78125,333388.1875,328295.1875,285306.8125,255683.9375,221424.34375,244576.640625,0.01904296875,0.991943359375,0.210693359375,-0.0610351525247097,-1.0986326932907104,-0.7934569716453552,80.0,135335.0,1.0
14673.5611382,293275.375,295424.1875,333215.25,328285.53125,285215.59375,255659.171875,221396.546875,244595.859375,0.0185546875,0.994384765625,0.211181640625,-0.03051757626235485,-1.1901854276657104,-0.7324218153953552,80.0,135336.0,1.0
14673.5611394,293282.0,295199.59375,333100.1875,328318.0,285117.78125,255623.6875,221364.53125,244600.875,0.017822265625,0.994140625,0.209716796875,-0.03051757626235485,-1.1901854276657104,-0.8239745497703552,80.0,135337.0,1.0
14673.5611406,293312.75,295239.03125,333212.59375,328359.125,285154.375,255628.328125,221373.03125,244595.515625,0.018798828125,0.995361328125,0.20849609375,-0.03051757626235485,-1.1901854276657104,-0.8544921278953552,80.0,135338.0,1.0
14673.5611418,293314.96875,295465.65625,333364.03125,328346.0625,285252.25,255649.078125,221403.96875,244599.265625,0.01806640625,0.996826171875,0.207275390625,-0.03051757626235485,-1.2817381620407104,-0.7324218153953552,80.0,135339.0,1.0
14673.5611432,293288.15625,295577.59375,333350.0,328299.75,285282.3125,255674.46875,221420.765625,244589.421875,0.018310546875,0.99462890625,0.20947265625,0.0,-1.2817381620407104,-0.7934569716453552,80.0,135340.0,1.0
14673.5611444,293273.6875,295422.125,333201.03125,328292.0625,285208.625,255663.828125,221400.5625,244590.59375,0.01708984375,0.995849609375,0.20751953125,0.0610351525247097,-1.3427733182907104,-0.8239745497703552,80.0,135341.0,1.0
14673.5611455,293283.0625,295203.34375,333099.84375,328323.90625,285118.15625,255614.390625,221362.84375,244601.3125,0.01953125,0.996826171875,0.20751953125,0.0,-1.3732908964157104,-0.8239745497703552,80.0,135342.0,1.0
14673.5642113,293320.96875,295258.15625,333226.53125,328372.1875,285167.9375,255617.0625,221387.328125,244613.03125,0.01708984375,0.997314453125,0.20654296875,0.1220703050494194,-1.4038084745407104,-1.0070799589157104,80.0,135343.0,1.0
14673.5642152,293328.3125,295496.5,333387.28125,328359.9375,285272.46875,255662.3125,221419.25,244601.5,0.017578125,0.995361328125,0.211669921875,0.1525878757238388,-1.4953612089157104,-0.9155272841453552,80.0,135344.0,1.0
14673.5892456,293300.78125,295593.53125,333369.125,328309.6875,285298.21875,255682.421875,221426.40625,244592.828125,0.019775390625,0.99609375,0.210693359375,0.2136230319738388,-1.4953612089157104,-0.9765624403953552,80.0,135345.0,1.0
14673.5892516,293276.625,295408.8125,333188.09375,328287.59375,285196.46875,255640.578125,221388.9375,244591.03125,0.01953125,0.99462890625,0.208740234375,0.1831054538488388,-1.5258787870407104,-0.9155272841453552,80.0,135346.0,1.0
14673.6142465,293294.96875,295196.28125,333088.3125,328319.6875,285107.6875,255607.765625,221350.859375,244579.421875,0.019775390625,0.994140625,0.20751953125,0.2441406100988388,-1.4953612089157104,-0.8850097060203552,80.0,135347.0,1.0
14673.6142614,293340.09375,295257.71875,333219.09375,328372.90625,285162.59375,255633.96875,221385.8125,244595.953125,0.02099609375,0.994873046875,0.208740234375,0.2746581733226776,-1.5563963651657104,-0.8239745497703552,80.0,135348.0,1.0
14673.6392143,293350.21875,295505.46875,333392.65625,328363.15625,285280.5,255688.6875,221440.984375,244606.59375,0.020263671875,0.9951171875,0.207763671875,0.3967284858226776,-1.6174315214157104,-0.8544921278953552,80.0,135349.0,1.0
14673.6392265,293320.09375,295614.71875,333381.125,328308.15625,285310.8125,255713.265625,221448.578125,244593.09375,0.016845703125,0.9951171875,0.2099609375,0.4577636420726776,-1.6784666776657104,-0.9765624403953552,80.0,135350.0,1.0
14673.6473615,293292.09375,295431.5,333210.625,328286.78125,285214.8125,255672.234375,221407.984375,244598.375,0.016357421875,0.994140625,0.20947265625,0.4272460639476776,-1.7089842557907104,-0.9460448622703552,80.0,135351.0,1.0
14673.6498308,293301.75,295208.90625,333111.0,328318.1875,285122.09375,255622.875,221372.21875,244592.828125,0.017578125,0.995849609375,0.210205078125,0.5798339247703552,-1.7700194120407104,-0.9155272841453552,80.0,135352.0,1.0
14673.6563849,293334.84375,295255.28125,333227.59375,328363.15625,285165.625,255628.953125,221389.03125,244610.265625,0.01953125,0.99560546875,0.209716796875,0.5187987685203552,-1.8310545682907104,-0.9460448622703552,80.0,135353.0,1.0
14673.6563916,293335.46875,295491.96875,333377.625,328341.6875,285263.34375,255670.359375,221415.40625,244587.640625,0.019287109375,0.99609375,0.207763671875,0.4882812201976776,-1.8005369901657104,-0.9460448622703552,80.0,135354.0,1.0
14673.6563947,293335.46875,295491.96875,333377.625,328341.6875,285263.34375,255670.359375,221415.40625,244587.640625,0.019287109375,0.99609375,0.207763671875,0.4882812201976776,-1.8005369901657104,-0.9460448622703552,80.0,135355.0,0.0
14673.6563949,293335.46875,295491.96875,333377.625,328341.6875,285263.34375,255670.359375,221415.40625,244587.640625,0.019287109375,0.99609375,0.207763671875,0.4882812201976776,-1.8005369901657104,-0.9460448622703552,80.0,135356.0,0.0
14673.6563951,293335.46875,295491.96875,333377.625,328341.6875,285263.34375,255670.359375,221415.40625,244587.640625,0.019287109375,0.99609375,0.207763671875,0.4882812201976776,-1.8005369901657104,-0.9460448622703552,80.0,135357.0,0.0
14673.6563952,293335.46875,295491.96875,333377.625,328341.6875,285263.34375,255670.359375,221415.40625,244587.640625,0.019287109375,0.99609375,0.207763671875,0.4882812201976776,-1.8005369901657104,-0.9460448622703552,80.0,135358.0,0.0
14673.6563957,293335.46875,295491.96875,333377.625,328341.6875,285263.34375,255670.359375,221415.40625,244587.640625,0.019287109375,0.99609375,0.207763671875,0.4882812201976776,-1.8005369901657104,-0.9460448622703552,80.0,135359.0,0.0
14673.656396,293335.46875,295491.96875,333377.625,328341.6875,285263.34375,255670.359375,221415.40625,244587.640625,0.019287109375,0.99609375,0.207763671875,0.4882812201976776,-1.8005369901657104,-0.9460448622703552,80.0,135360.0,0.0
14673.6563961,293335.46875,295491.96875,333377.625,328341.6875,285263.34375,255670.359375,221415.40625,244587.640625,0.019287109375,0.99609375,0.207763671875,0.4882812201976776,-1.8005369901657104,-0.9460448622703552,80.0,135361.0,0.0
14673.6563963,293335.46875,295491.96875,333377.625,328341.6875,285263.34375,255670.359375,221415.40625,244587.640625,0.019287109375,0.99609375,0.207763671875,0.4882812201976776,-1.8005369901657104,-0.9460448622703552,80.0,135362.0,0.0
14673.6563965,293335.46875,295491.96875,333377.625,328341.6875,285263.34375,255670.359375,221415.40625,244587.640625,0.019287109375,0.99609375,0.207763671875,0.4882812201976776,-1.8005369901657104,-0.9460448622703552,80.0,135363.0,0.0
14673.6563966,293335.46875,295491.96875,333377.625,328341.6875,285263.34375,255670.359375,221415.40625,244587.640625,0.019287109375,0.99609375,0.207763671875,0.4882812201976776,-1.8005369901657104,-0.9460448622703552,80.0,135364.0,0.0
14673.6563968,293335.46875,295491.96875,333377.625,328341.6875,285263.34375,255670.359375,221415.40625,244587.640625,0.019287109375,0.99609375,0.207763671875,0.4882812201976776,-1.8005369901657104,-0.9460448622703552,80.0,135365.0,0.0
14673.656397,293335.46875,295491.96875,333377.625,328341.6875,285263.34375,255670.359375,221415.40625,244587.640625,0.019287109375,0.99609375,0.207763671875,0.4882812201976776,-1.8005369901657104,-0.9460448622703552,80.0,135366.0,0.0
14673.6563972,293335.46875,295491.96875,333377.625,328341.6875,285263.34375,255670.359375,221415.40625,244587.640625,0.019287109375,0.99609375,0.207763671875,0.4882812201976776,-1.8005369901657104,-0.9460448622703552,80.0,135367.0,0.0
14673.6563973,293335.46875,295491.96875,333377.625,328341.6875,285263.34375,255670.359375,221415.40625,244587.640625,0.019287109375,0.99609375,0.207763671875,0.4882812201976776,-1.8005369901657104,-0.9460448622703552,80.0,135368.0,0.0
14673.6563975,293335.46875,295491.96875,333377.625,328341.6875,285263.34375,255670.359375,221415.40625,244587.640625,0.019287109375,0.99609375,0.207763671875,0.4882812201976776,-1.8005369901657104,-0.9460448622703552,80.0,135369.0,0.0
14673.6563977,293335.46875,295491.96875,333377.625,328341.6875,285263.34375,255670.359375,221415.40625,244587.640625,0.019287109375,0.99609375,0.207763671875,0.4882812201976776,-1.8005369901657104,-0.9460448622703552,80.0,135370.0,0.0
14673.6563978,293335.46875,295491.96875,333377.625,328341.6875,285263.34375,255670.359375,221415.40625,244587.640625,0.019287109375,0.99609375,0.207763671875,0.4882812201976776,-1.8005369901657104,-0.9460448622703552,80.0,135371.0,0.0
14673.656398,293335.46875,295491.96875,333377.625,328341.6875,285263.34375,255670.359375,221415.40625,244587.640625,0.019287109375,0.99609375,0.207763671875,0.4882812201976776,-1.8005369901657104,-0.9460448622703552,80.0,135372.0,0.0
14673.6563982,293335.46875,295491.96875,333377.625,328341.6875,285263.34375,255670.359375,221415.40625,244587.640625,0.019287109375,0.99609375,0.207763671875,0.4882812201976776,-1.8005369901657104,-0.9460448622703552,80.0,135373.0,0.0
14673.6563984,293335.46875,295491.96875,333377.625,328341.6875,285263.34375,255670.359375,221415.40625,244587.640625,0.019287109375,0.99609375,0.207763671875,0.4882812201976776,-1.8005369901657104,-0.9460448622703552,80.0,135374.0,0.0
14673.6563985,293335.46875,295491.96875,333377.625,328341.6875,285263.34375,255670.359375,221415.40625,244587.640625,0.019287109375,0.99609375,0.207763671875,0.4882812201976776,-1.8005369901657104,-0.9460448622703552,80.0,135375.0,0.0
14673.6563987,293335.46875,295491.96875,333377.625,328341.6875,285263.34375,255670.359375,221415.40625,244587.640625,0.019287109375,0.99609375,0.207763671875,0.4882812201976776,-1.8005369901657104,-0.9460448622703552,80.0,135376.0,0.0
14673.6563989,293335.46875,295491.96875,333377.625,328341.6875,285263.34375,255670.359375,221415.40625,244587.640625,0.019287109375,0.99609375,0.207763671875,0.4882812201976776,-1.8005369901657104,-0.9460448622703552,80.0,135377.0,0.0
14673.6563991,293335.46875,295491.96875,333377.625,328341.6875,285263.34375,255670.359375,221415.40625,244587.640625,0.019287109375,0.99609375,0.207763671875,0.4882812201976776,-1.8005369901657104,-0.9460448622703552,80.0,135378.0,0.0
14673.6563992,293335.46875,295491.96875,333377.625,328341.6875,285263.34375,255670.359375,221415.40625,244587.640625,0.019287109375,0.99609375,0.207763671875,0.4882812201976776,-1.8005369901657104,-0.9460448622703552,80.0,135379.0,0.0
14673.6563994,293335.46875,295491.96875,333377.625,328341.6875,285263.34375,255670.359375,221415.40625,244587.640625,0.019287109375,0.99609375,0.207763671875,0.4882812201976776,-1.8005369901657104,-0.9460448622703552,80.0,135380.0,0.0
14673.6563995,293335.46875,295491.96875,333377.625,328341.6875,285263.34375,255670.359375,221415.40625,244587.640625,0.019287109375,0.99609375,0.207763671875,0.4882812201976776,-1.8005369901657104,-0.9460448622703552,80.0,135381.0,0.0
14673.6563997,293335.46875,295491.96875,333377.625,328341.6875,285263.34375,255670.359375,221415.40625,244587.640625,0.019287109375,0.99609375,0.207763671875,0.4882812201976776,-1.8005369901657104,-0.9460448622703552,80.0,135382.0,0.0
14673.6563999,293335.46875,295491.96875,333377.625,328341.6875,285263.34375,255670.359375,221415.40625,244587.640625,0.019287109375,0.99609375,0.207763671875,0.4882812201976776,-1.8005369901657104,-0.9460448622703552,80.0,135383.0,0.0
14673.6564001,293335.46875,295491.96875,333377.625,328341.6875,285263.34375,255670.359375,221415.40625,244587.640625,0.019287109375,0.99609375,0.207763671875,0.4882812201976776,-1.8005369901657104,-0.9460448622703552,80.0,135384.0,0.0
14673.6564003,293335.46875,295491.96875,333377.625,328341.6875,285263.34375,255670.359375,221415.40625,244587.640625,0.019287109375,0.99609375,0.207763671875,0.4882812201976776,-1.8005369901657104,-0.9460448622703552,80.0,135385.0,0.0
14673.6564005,293335.46875,295491.96875,333377.625,328341.6875,285263.34375,255670.359375,221415.40625,244587.640625,0.019287109375,0.99609375,0.207763671875,0.4882812201976776,-1.8005369901657104,-0.9460448622703552,80.0,135386.0,0.0
14673.6564007,293335.46875,295491.96875,333377.625,328341.6875,285263.34375,255670.359375,221415.40625,244587.640625,0.019287109375,0.99609375,0.207763671875,0.4882812201976776,-1.8005369901657104,-0.9460448622703552,80.0,135387.0,0.0
14673.6564009,293335.46875,295491.96875,333377.625,328341.6875,285263.34375,255670.359375,221415.40625,244587.640625,0.019287109375,0.99609375,0.207763671875,0.4882812201976776,-1.8005369901657104,-0.9460448622703552,80.0,135388.0,0.0
14673.6564011,293335.46875,295491.96875,333377.625,328341.6875,285263.34375,255670.359375,221415.40625,244587.640625,0.019287109375,0.99609375,0.207763671875,0.4882812201976776,-1.8005369901657104,-0.9460448622703552,80.0,135389.0,0.0
14673.6564026,293335.46875,295491.96875,333377.625,328341.6875,285263.34375,255670.359375,221415.40625,244587.640625,0.019287109375,0.99609375,0.207763671875,0.4882812201976776,-1.8005369901657104,-0.9460448622703552,80.0,135390.0,0.0
14673.6564028,293259.71875,295415.96875,333167.4375,328275.71875,285187.09375,255647.28125,221394.390625,244578.96875,0.0166015625,0.9970703125,0.2060546875,0.0,-1.9226073026657104,-0.8544921278953552,80.0,135391.0,1.0
14673.656404,293278.78125,295216.40625,333089.28125,328317.8125,285114.9375,255622.703125,221379.109375,244592.734375,0.016845703125,0.99462890625,0.203125,0.0915527269244194,-1.9226073026657104,-0.7934569716453552,80.0,135392.0,1.0
14673.6564053,293311.75,295277.46875,333226.71875,328354.65625,285166.0625,255627.4375,221394.3125,244585.140625,0.014892578125,0.994384765625,0.205078125,0.0,-1.9836424589157104,-0.7934569716453552,80.0,135393.0,1.0
14673.6564066,293322.5,295520.5625,333391.65625,328343.9375,285276.5,255675.890625,221432.75,244585.5,0.015625,0.993408203125,0.20361328125,0.03051757626235485,-2.136230230331421,-0.8544921278953552,80.0,135394.0,1.0
14673.6585604,293294.59375,295609.25,333359.65625,328286.875,285290.15625,255691.546875,221435.34375,244571.09375,0.0166015625,0.992919921875,0.20361328125,0.1525878757238388,-2.197265386581421,-0.8544921278953552,80.0,135395.0,1.0
14673.6610517,293284.9375,295426.96875,333187.28125,328276.15625,285196.375,255661.59375,221409.234375,244575.75,0.0185546875,0.9921875,0.20849609375,0.2136230319738388,-2.166747808456421,-0.8544921278953552,80.0,135396.0,1.0
14673.6635461,293298.53125,295208.0,333093.84375,328314.59375,285110.0,255617.0625,221383.84375,244590.0625,0.018798828125,0.991943359375,0.20849609375,0.2441406100988388,-2.227782964706421,-0.8544921278953552,80.0,135397.0,1.0
14673.6660537,293339.125,295269.96875,333228.9375,328361.8125,285166.59375,255638.25,221413.984375,244610.078125,0.018798828125,0.9931640625,0.2080078125,0.3967284858226776,-2.349853277206421,-0.8850097060203552,80.0,135398.0,1.0
14673.6910462,293342.53125,295511.4375,333388.71875,328343.5625,285274.53125,255687.25,221456.0,244602.84375,0.020751953125,0.994140625,0.20751953125,0.5187987685203552,-2.288818120956421,-0.9460448622703552,80.0,135399.0,1.0
14673.717337,293311.21875,295610.40625,333361.875,328291.625,285294.46875,255696.09375,221460.828125,244594.4375,0.022705078125,0.99462890625,0.206298828125,0.5798339247703552,-2.258300542831421,-1.0375975370407104,80.0,135400.0,1.0
14673.717355,293282.0,295422.9375,333191.40625,328271.25,285197.625,255648.796875,221405.125,244574.5,0.025390625,0.9951171875,0.208251953125,0.5798339247703552,-2.227782964706421,-0.9765624403953552,80.0,135401.0,1.0
14673.7173562,293294.25,295204.5,333096.8125,328309.40625,285110.5625,255612.859375,221374.453125,244579.140625,0.024169921875,0.994140625,0.207275390625,0.6408690810203552,-2.136230230331421,-1.0375975370407104,80.0,135402.0,1.0
14673.7411125,293325.8125,295259.9375,333215.1875,328358.21875,285160.0,255627.171875,221406.46875,244611.0625,0.025146484375,0.992919921875,0.209228515625,0.6103515028953552,-1.9531248807907104,-1.0986326932907104,80.0,135403.0,1.0
14673.7822842,293330.375,295508.3125,333380.5625,328342.9375,285274.96875,255678.125,221444.90625,244596.40625,0.025634765625,0.99609375,0.21142578125,0.7019042372703552,-1.9226073026657104,-1.0375975370407104,80.0,135404.0,1.0
14673.8088432,293299.875,295602.09375,333349.71875,328288.75,285291.0625,255690.828125,221442.9375,244578.34375,0.024658203125,0.991943359375,0.208984375,0.7629393935203552,-1.8005369901657104,-0.8544921278953552,80.0,135405.0,1.0
14673.8088546,293275.46875,295422.21875,333183.625,328276.59375,285201.3125,255660.609375,221414.0625,244583.4375,0.0234375,0.99267578125,0.207763671875,0.8239745497703552,-1.6784666776657104,-0.9460448622703552,80.0,135406.0,1.0
14673.8088559,293284.40625,295217.03125,333098.9375,328315.03125,285123.15625,255636.28125,221391.71875,244593.71875,0.0244140625,0.99267578125,0.205078125,0.8239745497703552,-1.4953612089157104,-0.9155272841453552,80.0,135407.0,1.0
14673.8332391,293319.1875,295280.0625,333233.0625,328365.1875,285179.40625,255648.796875,221418.0,244617.765625,0.02490234375,0.9931640625,0.20751953125,0.9460448622703552,-1.4038084745407104,-0.8850097060203552,80.0,135408.0,1.0
14673.8332554,293319.1875,295280.0625,333233.0625,328365.1875,285179.40625,255648.796875,221418.0,244617.765625,0.02490234375,0.9931640625,0.20751953125,0.9460448622703552,-1.4038084745407104,-0.8850097060203552,80.0,135409.0,0.0
14673.8332556,293319.1875,295280.0625,333233.0625,328365.1875,285179.40625,255648.796875,221418.0,244617.765625,0.02490234375,0.9931640625,0.20751953125,0.9460448622703552,-1.4038084745407104,-0.8850097060203552,80.0,135410.0,0.0
14673.833256,293319.1875,295280.0625,333233.0625,328365.1875,285179.40625,255648.796875,221418.0,244617.765625,0.02490234375,0.9931640625,0.20751953125,0.9460448622703552,-1.4038084745407104,-0.8850097060203552,80.0,135411.0,0.0
14673.8332566,293319.1875,295280.0625,333233.0625,328365.1875,285179.40625,255648.796875,221418.0,244617.765625,0.02490234375,0.9931640625,0.20751953125,0.9460448622703552,-1.4038084745407104,-0.8850097060203552,80.0,135412.0,0.0
14673.8332568,293319.1875,295280.0625,333233.0625,328365.1875,285179.40625,255648.796875,221418.0,244617.765625,0.02490234375,0.9931640625,0.20751953125,0.9460448622703552,-1.4038084745407104,-0.8850097060203552,80.0,135413.0,0.0
14673.833257,293319.1875,295280.0625,333233.0625,328365.1875,285179.40625,255648.796875,221418.0,244617.765625,0.02490234375,0.9931640625,0.20751953125,0.9460448622703552,-1.4038084745407104,-0.8850097060203552,80.0,135414.0,0.0
14673.8332572,293319.1875,295280.0625,333233.0625,328365.1875,285179.40625,255648.796875,221418.0,244617.765625,0.02490234375,0.9931640625,0.20751953125,0.9460448622703552,-1.4038084745407104,-0.8850097060203552,80.0,135415.0,0.0
14673.8332574,293319.1875,295280.0625,333233.0625,328365.1875,285179.40625,255648.796875,221418.0,244617.765625,0.02490234375,0.9931640625,0.20751953125,0.9460448622703552,-1.4038084745407104,-0.8850097060203552,80.0,135416.0,0.0
14673.8332577,293319.1875,295280.0625,333233.0625,328365.1875,285179.40625,255648.796875,221418.0,244617.765625,0.02490234375,0.9931640625,0.20751953125,0.9460448622703552,-1.4038084745407104,-0.8850097060203552,80.0,135417.0,0.0
14673.8332579,293319.1875,295280.0625,333233.0625,328365.1875,285179.40625,255648.796875,221418.0,244617.765625,0.02490234375,0.9931640625,0.20751953125,0.9460448622703552,-1.4038084745407104,-0.8850097060203552,80.0,135418.0,0.0
14673.8332581,293319.1875,295280.0625,333233.0625,328365.1875,285179.40625,255648.796875,221418.0,244617.765625,0.02490234375,0.9931640625,0.20751953125,0.9460448622703552,-1.4038084745407104,-0.8850097060203552,80.0,135419.0,0.0
14673.8332582,293319.1875,295280.0625,333233.0625,328365.1875,285179.40625,255648.796875,221418.0,244617.765625,0.02490234375,0.9931640625,0.20751953125,0.9460448622703552,-1.4038084745407104,-0.8850097060203552,80.0,135420.0,0.0
14673.8332584,293319.1875,295280.0625,333233.0625,328365.1875,285179.40625,255648.796875,221418.0,244617.765625,0.02490234375,0.9931640625,0.20751953125,0.9460448622703552,-1.4038084745407104,-0.8850097060203552,80.0,135421.0,0.0
14673.8332586,293319.1875,295280.0625,333233.0625,328365.1875,285179.40625,255648.796875,221418.0,244617.765625,0.02490234375,0.9931640625,0.20751953125,0.9460448622703552,-1.4038084745407104,-0.8850097060203552,80.0,135422.0,0.0
14673.8332587,293319.1875,295280.0625,333233.0625,328365.1875,285179.40625,255648.796875,221418.0,244617.765625,0.02490234375,0.9931640625,0.20751953125,0.9460448622703552,-1.4038084745407104,-0.8850097060203552,80.0,135423.0,0.0
14673.8332589,293319.1875,295280.0625,333233.0625,328365.1875,285179.40625,255648.796875,221418.0,244617.765625,0.02490234375,0.9931640625,0.20751953125,0.9460448622703552,-1.4038084745407104,-0.8850097060203552,80.0,135424.0,0.0
14673.8332591,293319.1875,295280.0625,333233.0625,328365.1875,285179.40625,255648.796875,221418.0,244617.765625,0.02490234375,0.9931640625,0.20751953125,0.9460448622703552,-1.4038084745407104,-0.8850097060203552,80.0,135425.0,0.0
14673.8332592,293268.84375,295404.59375,333174.65625,328263.90625,285189.75,255638.078125,221386.796875,244553.75,0.01904296875,0.9912109375,0.205078125,0.8850097060203552,-1.2817381620407104,-0.8544921278953552,80.0,135426.0,1.0
14673.8332608,293288.34375,295200.9375,333093.65625,328315.5,285117.71875,255611.96875,221380.0,244590.765625,0.0234375,0.994873046875,0.20361328125,1.0375975370407104,-1.2207030057907104,-0.9155272841453552,80.0,135427.0,1.0
14673.857391,293321.875,295264.15625,333225.53125,328362.25,285174.3125,255630.296875,221421.84375,244622.953125,0.02197265625,0.9990234375,0.20361328125,1.0070799589157104,-1.1901854276657104,-0.8239745497703552,80.0,135428.0,1.0
14673.8898878,293323.9375,295501.875,333377.96875,328342.5,285273.71875,255673.21875,221447.421875,244607.125,0.020263671875,1.00048828125,0.20166015625,0.9765624403953552,-1.1901854276657104,-0.7324218153953552,80.0,135429.0,1.0
14673.9148501,293305.5,295609.96875,333364.9375,328299.40625,285304.65625,255702.8125,221451.078125,244584.78125,0.021240234375,0.9990234375,0.201171875,0.9155272841453552,-1.1901854276657104,-0.7629393935203552,80.0,135430.0,1.0
14673.9398751,293281.46875,295420.78125,333194.53125,328281.53125,285209.53125,255658.015625,221409.0625,244573.609375,0.02001953125,0.995361328125,0.20263671875,0.7629393935203552,-1.2512205839157104,-0.6713866591453552,80.0,135431.0,1.0
14673.9648723,293288.78125,295195.46875,333085.1875,328317.1875,285116.53125,255616.890625,221384.109375,244592.109375,0.02099609375,0.991943359375,0.201171875,0.6408690810203552,-1.3122557401657104,-0.6408690810203552,80.0,135432.0,1.0
14673.9898752,293331.15625,295277.90625,333229.46875,328367.34375,285182.53125,255646.484375,221421.578125,244607.21875,0.0205078125,0.991455078125,0.202392578125,0.6408690810203552,-1.2512205839157104,-0.5798339247703552,80.0,135433.0,1.0
14674.0919959,293334.21875,295521.28125,333395.25,328353.3125,285296.53125,255685.375,221459.03125,244610.890625,0.020751953125,0.99072265625,0.199462890625,0.6713866591453552,-1.3732908964157104,-0.5798339247703552,80.0,135434.0,1.0
14674.0920028,293302.375,295607.8125,333363.9375,328300.375,285313.25,255701.203125,221460.5625,244596.578125,0.021484375,0.993408203125,0.201416015625,0.7629393935203552,-1.3122557401657104,-0.7629393935203552,80.0,135435.0,1.0
14674.0920042,293269.46875,295403.875,333179.84375,328271.875,285203.28125,255639.59375,221402.359375,244578.078125,0.0185546875,0.99609375,0.198974609375,0.6713866591453552,-1.3732908964157104,-0.7934569716453552,80.0,135436.0,1.0
14674.0920054,293290.84375,295195.125,333093.84375,328315.9375,285125.125,255615.640625,221381.875,244590.140625,0.020263671875,0.998291015625,0.19970703125,0.7629393935203552,-1.3427733182907104,-0.8544921278953552,80.0,135437.0,1.0
14674.0920066,293329.375,295256.625,333218.84375,328360.65625,285173.5,255631.8125,221410.484375,244608.921875,0.020751953125,0.998291015625,0.20263671875,0.6103515028953552,-1.4343260526657104,-1.0070799589157104,80.0,135438.0,1.0
14674.0920078,293345.75,295521.8125,333397.125,328352.78125,285297.9375,255691.265625,221463.0625,244610.4375,0.02099609375,0.99853515625,0.199951171875,0.6103515028953552,-1.5563963651657104,-1.1596678495407104,80.0,135439.0,1.0
14674.0920091,293316.3125,295606.125,333367.0,328302.34375,285314.5,255706.296875,221467.171875,244603.828125,0.021240234375,0.998291015625,0.200927734375,0.6408690810203552,-1.5563963651657104,-1.2207030057907104,80.0,135440.0,1.0
14674.0920102,293289.6875,295400.75,333180.3125,328277.03125,285201.9375,255640.21875,221402.09375,244579.328125,0.020263671875,0.99755859375,0.203369140625,0.4882812201976776,-1.5869139432907104,-1.1596678495407104,80.0,135441.0,1.0
14674.0920114,293302.8125,295188.6875,333091.15625,328312.1875,285117.875,255599.90625,221365.703125,244579.59375,0.0234375,0.995361328125,0.2021484375,0.4272460639476776,-1.4953612089157104,-1.3122557401657104,80.0,135442.0,1.0
14674.092013,293336.8125,295252.53125,333213.125,328357.5,285166.53125,255620.015625,221404.671875,244612.234375,0.0234375,0.99560546875,0.197509765625,0.4272460639476776,-1.4953612089157104,-1.3427733182907104,80.0,135443.0,1.0
14674.0936085,293336.34375,295489.71875,333369.03125,328342.65625,285274.25,255669.015625,221450.28125,244617.40625,0.024658203125,0.9970703125,0.199462890625,0.3662109076976776,-1.4648436307907104,-1.3732908964157104,80.0,135444.0,1.0
14674.1191809,293304.4375,295587.09375,333350.71875,328289.28125,285297.78125,255691.0,221446.609375,244578.25,0.023193359375,0.99658203125,0.198974609375,0.3967284858226776,-1.4953612089157104,-1.3427733182907104,80.0,135445.0,1.0
14674.1191856,293275.09375,295394.6875,333177.53125,328278.21875,285204.78125,255658.015625,221421.84375,244589.078125,0.02294921875,0.9951171875,0.197509765625,0.4272460639476776,-1.4648436307907104,-1.3427733182907104,80.0,135446.0,1.0
14674.1310777,293282.875,295182.25,333090.0,328311.03125,285122.71875,255618.578125,221389.921875,244594.078125,0.02197265625,0.99658203125,0.19921875,0.3356933295726776,-1.4038084745407104,-1.2817381620407104,80.0,135447.0,1.0
14674.1336138,293321.5,295259.84375,333232.4375,328355.0,285181.375,255636.203125,221405.125,244602.921875,0.01953125,0.99658203125,0.197509765625,0.3356933295726776,-1.4343260526657104,-1.3427733182907104,80.0,135448.0,1.0
14674.1360658,293326.34375,295505.71875,333391.21875,328344.0,285293.84375,255689.9375,221458.6875,244606.6875,0.0205078125,0.994873046875,0.20263671875,0.2441406100988388,-1.4343260526657104,-1.3122557401657104,80.0,135449.0,1.0
14674.138605,293289.21875,295584.03125,333346.15625,328284.8125,285301.53125,255704.5,221458.5,244588.625,0.018798828125,0.99560546875,0.20458984375,0.2441406100988388,-1.5258787870407104,-1.2817381620407104,80.0,135450.0,1.0
14674.1748755,293274.125,295406.84375,333179.59375,328275.4375,285208.90625,255671.6875,221415.765625,244574.046875,0.0205078125,0.9951171875,0.205810546875,0.1831054538488388,-1.4038084745407104,-1.1596678495407104,80.0,135451.0,1.0
14674.2505718,293290.84375,295205.125,333094.28125,328316.65625,285129.78125,255637.546875,221391.171875,244586.03125,0.021484375,0.994140625,0.205078125,0.1831054538488388,-1.4953612089157104,-1.0681151151657104,80.0,135452.0,1.0
14674.2505833,293323.21875,295278.28125,333229.125,328361.28125,285188.25,255656.21875,221428.375,244614.90625,0.019775390625,0.99560546875,0.201904296875,0.1831054538488388,-1.4953612089157104,-1.0375975370407104,80.0,135453.0,1.0
14674.2505846,293327.59375,295524.125,333393.09375,328344.375,285297.9375,255690.921875,221461.0,244605.078125,0.0166015625,0.995849609375,0.20263671875,0.3662109076976776,-1.5563963651657104,-1.0986326932907104,80.0,135454.0,1.0
14674.2505858,293283.875,295590.46875,333339.71875,328279.5625,285292.59375,255679.203125,221438.828125,244578.703125,0.016357421875,0.997314453125,0.200439453125,0.4577636420726776,-1.6479490995407104,-1.0681151151657104,80.0,135455.0,1.0
14674.250587,293269.125,295401.375,333173.34375,328267.84375,285197.8125,255644.515625,221398.875,244573.15625,0.01708984375,0.996826171875,0.20068359375,0.4882812201976776,-1.6479490995407104,-1.1291502714157104,80.0,135456.0,1.0
14674.2505881,293285.125,295192.25,333087.40625,328305.125,285114.5,255612.59375,221374.734375,244586.296875,0.016357421875,0.994140625,0.19873046875,0.3967284858226776,-1.7395018339157104,-1.0681151151657104,80.0,135457.0,1.0
14674.2505893,293322.03125,295269.96875,333227.34375,328350.53125,285174.84375,255640.671875,221409.953125,244606.859375,0.018310546875,0.99560546875,0.201904296875,0.3662109076976776,-1.7700194120407104,-1.0681151151657104,80.0,135458.0,1.0
14674.2505905,293319.90625,295501.78125,333375.03125,328329.34375,285276.03125,255683.3125,221447.859375,244603.90625,0.018798828125,0.996826171875,0.201416015625,0.3967284858226776,-1.8920897245407104,-0.9765624403953552,80.0,135459.0,1.0
14674.2505917,293287.1875,295578.40625,333332.46875,328274.625,285285.96875,255698.78125,221450.28125,244593.453125,0.01806640625,0.998779296875,0.20166015625,0.4272460639476776,-1.9531248807907104,-0.9460448622703552,80.0,135460.0,1.0
14674.2505929,293273.59375,295398.78125,333167.6875,328269.28125,285199.25,255669.1875,221425.875,244603.109375,0.0185546875,0.998779296875,0.20068359375,0.4577636420726776,-2.014159917831421,-0.9460448622703552,80.0,135461.0,1.0
14674.2505941,293291.8125,295197.625,333092.875,328305.84375,285124.21875,255634.59375,221393.5,244584.953125,0.019287109375,0.997802734375,0.201416015625,0.3662109076976776,-1.9531248807907104,-1.0070799589157104,80.0,135462.0,1.0
14674.2505953,293335.46875,295276.3125,333238.78125,328355.71875,285186.1875,255653.90625,221415.046875,244600.15625,0.01806640625,0.99755859375,0.203857421875,0.3967284858226776,-2.044677495956421,-1.0681151151657104,80.0,135463.0,1.0
14674.2767033,293332.6875,295502.5,333381.46875,328335.96875,285284.34375,255685.28125,221451.171875,244607.40625,0.02099609375,0.99560546875,0.203857421875,0.2441406100988388,-1.9836424589157104,-1.0986326932907104,80.0,135464.0,1.0
14674.2767211,293305.0625,295581.0,333336.40625,328284.46875,285294.0,255702.8125,221454.203125,244575.84375,0.020751953125,0.995849609375,0.201416015625,0.2136230319738388,-1.9836424589157104,-0.9765624403953552,80.0,135465.0,1.0
14674.2864044,293285.21875,295395.21875,333172.25,328276.96875,285206.5625,255669.015625,221422.5625,244589.25,0.021484375,0.995361328125,0.203369140625,0.1525878757238388,-1.9836424589157104,-1.0681151151657104,80.0,135466.0,1.0
14674.2864225,293301.03125,295196.46875,333097.4375,328312.71875,285130.03125,255625.5625,221384.03125,244583.171875,0.0224609375,0.993896484375,0.205078125,0.1220703050494194,-1.8920897245407104,-0.9765624403953552,80.0,135467.0,1.0
14674.2864237,293341.4375,295277.09375,333237.0,328365.65625,285194.0625,255653.28125,221426.765625,244612.40625,0.022216796875,0.994384765625,0.202880859375,0.2136230319738388,-1.8005369901657104,-1.0070799589157104,80.0,135468.0,1.0
14674.2893828,293334.5625,295514.3125,333388.25,328339.625,285297.21875,255686.625,221463.328125,244614.015625,0.022216796875,0.99462890625,0.202392578125,0.3356933295726776,-1.8310545682907104,-1.1291502714157104,80.0,135469.0,1.0
14674.289403,293300.84375,295601.03125,333357.15625,328282.15625,285312.53125,255702.53125,221454.75,244580.84375,0.020751953125,0.994873046875,0.203369140625,0.3356933295726776,-1.7700194120407104,-1.0375975370407104,80.0,135470.0,1.0
14674.2894066,293278.0625,295406.84375,333186.125,328270.15625,285213.46875,255660.515625,221416.03125,244575.296875,0.02099609375,0.99462890625,0.203857421875,0.3051757514476776,-1.7395018339157104,-1.0070799589157104,80.0,135471.0,1.0
14674.2923353,293293.875,295189.9375,333094.46875,328311.28125,285128.53125,255628.59375,221397.4375,244591.578125,0.0205078125,0.9951171875,0.205810546875,0.3662109076976776,-1.7700194120407104,-1.1901854276657104,80.0,135472.0,1.0
14674.2923485,293328.84375,295265.75,333224.84375,328352.9375,285181.4375,255645.671875,221419.96875,244598.015625,0.01953125,0.99755859375,0.204345703125,0.3051757514476776,-1.7395018339157104,-1.1291502714157104,80.0,135473.0,1.0
14674.2923559,293331.4375,295509.5625,333383.78125,328337.65625,285288.75,255679.65625,221451.625,244596.3125,0.02099609375,0.99560546875,0.203125,0.3662109076976776,-1.6784666776657104,-1.1901854276657104,80.0,135474.0,1.0
14674.2948494,293297.375,295584.84375,333341.0625,328284.28125,285295.8125,255688.859375,221448.21875,244578.96875,0.021240234375,0.993408203125,0.2021484375,0.3051757514476776,-1.6174315214157104,-1.2512205839157104,80.0,135475.0,1.0
14674.3210737,293270.625,295385.28125,333159.75,328263.46875,285188.78125,255649.078125,221404.40625,244563.6875,0.01953125,0.99267578125,0.203857421875,0.2746581733226776,-1.5869139432907104,-1.2512205839157104,80.0,135476.0,1.0
14674.3460783,293294.15625,295194.5,333087.5,328312.375,285120.9375,255637.09375,221398.15625,244587.375,0.019287109375,0.994140625,0.201416015625,0.3051757514476776,-1.5869139432907104,-1.1596678495407104,80.0,135477.0,1.0
14674.4079937,293333.5,295283.375,333237.96875,328366.1875,285193.875,255670.703125,221440.4375,244625.453125,0.01953125,0.99462890625,0.200927734375,0.3662109076976776,-1.4953612089157104,-1.2207030057907104,80.0,135478.0,1.0
14674.4079988,293331.78125,295518.15625,333386.03125,328341.59375,285291.5,255697.53125,221468.34375,244613.5625,0.018798828125,0.994873046875,0.203857421875,0.3967284858226776,-1.5258787870407104,-1.1901854276657104,80.0,135479.0,1.0
14674.4080001,293308.46875,295603.96875,333351.96875,328286.96875,285301.6875,255701.203125,221450.546875,244579.59375,0.01806640625,0.99462890625,0.2021484375,0.4577636420726776,-1.5258787870407104,-1.1901854276657104,80.0,135480.0,1.0
14674.4080013,293282.0,295401.21875,333172.09375,328269.625,285199.25,255650.5,221405.9375,244580.75,0.018798828125,0.994873046875,0.203125,0.4577636420726776,-1.6174315214157104,-1.1901854276657104,80.0,135481.0,1.0
14674.4080025,293293.625,295184.46875,333075.78125,328304.125,285109.75,255611.515625,221378.65625,244590.859375,0.018310546875,0.995361328125,0.20556640625,0.4577636420726776,-1.5869139432907104,-1.1291502714157104,80.0,135482.0,1.0
14674.4080038,293337.25,295275.59375,333225.90625,328355.71875,285179.125,255649.078125,221422.296875,244619.46875,0.019287109375,0.99609375,0.20556640625,0.4882812201976776,-1.6479490995407104,-1.1596678495407104,80.0,135483.0,1.0
14674.408005,293352.53125,295531.46875,333396.75,328343.65625,285296.25,255708.53125,221460.296875,244588.53125,0.0185546875,0.99609375,0.202880859375,0.5187987685203552,-1.7089842557907104,-1.0986326932907104,80.0,135484.0,1.0
14674.4080062,293317.125,295599.875,333350.625,328291.1875,285298.21875,255701.828125,221453.234375,244571.8125,0.019287109375,0.994873046875,0.202880859375,0.5493163466453552,-1.6479490995407104,-1.0375975370407104,80.0,135485.0,1.0
14674.4080073,293291.46875,295394.9375,333173.15625,328272.5,285194.15625,255658.28125,221410.671875,244568.859375,0.01806640625,0.99462890625,0.203369140625,0.6103515028953552,-1.6784666776657104,-1.1291502714157104,80.0,135486.0,1.0
14674.4080087,293302.375,295186.625,333093.40625,328306.8125,285113.59375,255612.140625,221369.984375,244570.46875,0.017333984375,0.993896484375,0.202880859375,0.6103515028953552,-1.6784666776657104,-1.0375975370407104,80.0,135487.0,1.0
14674.4348943,293335.0,295270.9375,333242.875,328351.4375,285180.1875,255639.859375,221404.5,244588.984375,0.017822265625,0.995849609375,0.206787109375,0.6103515028953552,-1.6784666776657104,-1.0070799589157104,80.0,135488.0,1.0
14674.4604533,293335.0,295270.9375,333242.875,328351.4375,285180.1875,255639.859375,221404.5,244588.984375,0.017822265625,0.995849609375,0.206787109375,0.6103515028953552,-1.6784666776657104,-1.0070799589157104,80.0,135489.0,0.0
14674.4604574,293335.0,295270.9375,333242.875,328351.4375,285180.1875,255639.859375,221404.5,244588.984375,0.017822265625,0.995849609375,0.206787109375,0.6103515028953552,-1.6784666776657104,-1.0070799589157104,80.0,135490.0,0.0
14674.4604586,293335.0,295270.9375,333242.875,328351.4375,285180.1875,255639.859375,221404.5,244588.984375,0.017822265625,0.995849609375,0.206787109375,0.6103515028953552,-1.6784666776657104,-1.0070799589157104,80.0,135491.0,0.0
14674.4604598,293335.0,295270.9375,333242.875,328351.4375,285180.1875,255639.859375,221404.5,244588.984375,0.017822265625,0.995849609375,0.206787109375,0.6103515028953552,-1.6784666776657104,-1.0070799589157104,80.0,135492.0,0.0
14674.4604616,293335.0,295270.9375,333242.875,328351.4375,285180.1875,255639.859375,221404.5,244588.984375,0.017822265625,0.995849609375,0.206787109375,0.6103515028953552,-1.6784666776657104,-1.0070799589157104,80.0,135493.0,0.0
14674.4604618,293335.0,295270.9375,333242.875,328351.4375,285180.1875,255639.859375,221404.5,244588.984375,0.017822265625,0.995849609375,0.206787109375,0.6103515028953552,-1.6784666776657104,-1.0070799589157104,80.0,135494.0,0.0
14674.460462,293335.0,295270.9375,333242.875,328351.4375,285180.1875,255639.859375,221404.5,244588.984375,0.017822265625,0.995849609375,0.206787109375,0.6103515028953552,-1.6784666776657104,-1.0070799589157104,80.0,135495.0,0.0
14674.4604622,293335.0,295270.9375,333242.875,328351.4375,285180.1875,255639.859375,221404.5,244588.984375,0.017822265625,0.995849609375,0.206787109375,0.6103515028953552,-1.6784666776657104,-1.0070799589157104,80.0,135496.0,0.0
14674.4604623,293335.0,295270.9375,333242.875,328351.4375,285180.1875,255639.859375,221404.5,244588.984375,0.017822265625,0.995849609375,0.206787109375,0.6103515028953552,-1.6784666776657104,-1.0070799589157104,80.0,135497.0,0.0
14674.4604625,293335.0,295270.9375,333242.875,328351.4375,285180.1875,255639.859375,221404.5,244588.984375,0.017822265625,0.995849609375,0.206787109375,0.6103515028953552,-1.6784666776657104,-1.0070799589157104,80.0,135498.0,0.0
